%OpenBCI Raw EEG Data
%Number of channels = 8
%Sample Rate = 256 Hz
%Board = OpenBCI_GUI$BoardCytonSerial
%Channels = Fp1, Fp2, F3, F4, Fz, Pz, O1, O2
%Data recorded at AIMS Lab (http://aimsl.uiu.ac.bd) by Rana Depto (mail@ranadepto.com)
%Brainwaves were obtained via the Ultracortex Mark IV Headset using the OpenBCI Cyton Board
%Recording Application = ConcentrateToday (https://concentrate.today)
%Data type = RAW data with noise
%Day No = 10
%Subject ID = 1
%Session ID = 7
%Record starting timestamp (UTC+6) = 2022-03-30T12:10:16.430214
%Record ending timestamp (UTC+6)   = 2022-03-30T12:10:42.281591
%Recorded durations = ~25 seconds
Sample Index, EXG Channel 0, EXG Channel 1, EXG Channel 2, EXG Channel 3, EXG Channel 4, EXG Channel 5, EXG Channel 6, EXG Channel 7, Accel Channel 0, Accel Channel 1, Accel Channel 2, Other, Other, Other, Other, Other, Other, Other, Analog Channel 0, Analog Channel 1, Analog Channel 2, Timestamp, Timestamp (Formatted)
221.000000,14179.142020,16164.759238,23795.823609,29165.986677,-23008.818687,15859.523816,-9516.612830,-28018.135192,0.052000,0.994000,0.138000,192.000000,0.000000,0.000000,0.000000,0.000000,0.000000,0.000000,0.000000,0.000000,0.000000,1648620616.435702,0.000000
222.000000,14174.828133,16154.075104,23789.475714,29155.436654,-23017.737033,15851.991278,-9515.137615,-28031.680349,0.052000,0.994000,0.138000,192.000000,0.000000,0.000000,0.000000,0.000000,0.000000,0.000000,0.000000,0.000000,0.000000,1648620616.435709,0.000000
223.000000,14168.860217,16150.677639,23781.607900,29148.507613,-23029.471699,15838.960211,-9525.106493,-28059.329457,0.046000,0.986000,0.132000,192.000000,1.000000,112.000000,30.000000,208.000000,4.000000,32.000000,0.000000,0.000000,0.000000,1648620616.442293,0.000000
224.000000,14168.390831,16157.047886,23782.367859,29155.190784,-23025.850716,15841.865938,-9523.430112,-28060.849376,0.046000,0.986000,0.132000,192.000000,0.000000,0.000000,0.000000,0.000000,0.000000,0.000000,0.000000,0.000000,0.000000,1648620616.442298,0.000000
225.000000,14174.492857,16159.216006,23789.833342,29158.208270,-23021.648588,15851.477188,-9516.746940,-28034.563724,0.046000,0.986000,0.132000,192.000000,0.000000,0.000000,0.000000,0.000000,0.000000,0.000000,0.000000,0.000000,0.000000,1648620616.450379,0.000000
226.000000,14176.057479,16158.590157,23793.186103,29154.922563,-23020.955684,15849.353772,-9517.261030,-28055.864937,0.046000,0.986000,0.132000,192.000000,0.000000,0.000000,0.000000,0.000000,0.000000,0.000000,0.000000,0.000000,0.000000,1648620616.450384,0.000000
227.000000,14174.090525,16165.653308,23793.744897,29156.710703,-23022.475603,15845.151644,-9523.452464,-28064.045675,0.046000,0.986000,0.132000,192.000000,0.000000,0.000000,0.000000,0.000000,0.000000,0.000000,0.000000,0.000000,0.000000,1648620616.458323,0.000000
228.000000,14166.356822,16159.595985,23786.011194,29152.173299,-23029.762272,15840.301316,-9525.575879,-28048.287695,0.046000,0.986000,0.132000,192.000000,0.000000,0.000000,0.000000,0.000000,0.000000,0.000000,0.000000,0.000000,0.000000,1648620616.458328,0.000000
229.000000,14169.083735,16160.691221,23787.218188,29158.320029,-23027.057711,15843.274098,-9516.344609,-28048.287695,0.046000,0.986000,0.132000,192.000000,0.000000,0.000000,0.000000,0.000000,0.000000,0.000000,0.000000,0.000000,0.000000,1648620616.465391,0.000000
230.000000,14159.964223,16150.320011,23778.702173,29153.000313,-23033.517365,15835.965077,-9519.406798,-28052.758044,0.046000,0.986000,0.132000,192.000000,0.000000,0.000000,0.000000,0.000000,0.000000,0.000000,0.000000,0.000000,0.000000,1648620616.465394,0.000000
231.000000,14160.612423,16145.469683,23777.249310,29148.149985,-23037.808900,15830.667714,-9530.359153,-28047.661847,0.046000,0.986000,0.132000,192.000000,0.000000,0.000000,0.000000,0.000000,0.000000,0.000000,0.000000,0.000000,0.000000,1648620616.472086,0.000000
232.000000,14187.143944,16170.101305,23802.931464,29169.361790,-23014.116050,15852.013630,-9510.309638,-28022.851410,0.046000,0.986000,0.132000,192.000000,0.000000,0.000000,0.000000,0.000000,0.000000,0.000000,0.000000,0.000000,0.000000,1648620616.472092,0.000000
233.000000,14173.688194,16161.562939,23792.336737,29160.912831,-23022.877934,15840.837758,-9519.295039,-28035.927181,0.040000,0.982000,0.132000,192.000000,1.000000,64.000000,30.000000,176.000000,4.000000,32.000000,0.000000,0.000000,0.000000,1648620616.480080,0.000000
234.000000,14172.548255,16157.271404,23792.716717,29159.191747,-23024.241391,15838.803749,-9518.803301,-28045.337265,0.040000,0.982000,0.132000,192.000000,0.000000,0.000000,0.000000,0.000000,0.000000,0.000000,0.000000,0.000000,0.000000,1648620616.488191,0.000000
235.000000,14169.798990,16148.509520,23785.072420,29148.395854,-23034.165565,15827.426711,-9529.599193,-28068.627783,0.040000,0.982000,0.132000,192.000000,0.000000,0.000000,0.000000,0.000000,0.000000,0.000000,0.000000,0.000000,0.000000,1648620616.488214,0.000000
236.000000,14170.648357,16146.274346,23782.658432,29146.898287,-23038.412397,15823.336342,-9545.066600,-28073.098132,0.040000,0.982000,0.132000,192.000000,0.000000,0.000000,0.000000,0.000000,0.000000,0.000000,0.000000,0.000000,0.000000,1648620616.495066,0.000000
237.000000,14171.363613,16145.559090,23783.999537,29149.960476,-23035.998408,15824.163356,-9533.868376,-28074.930975,0.040000,0.982000,0.132000,192.000000,0.000000,0.000000,0.000000,0.000000,0.000000,0.000000,0.000000,0.000000,0.000000,1648620616.495072,0.000000
238.000000,14169.016679,16135.590212,23774.924728,29144.305485,-23043.106263,15819.961228,-9533.778969,-28082.262347,0.040000,0.982000,0.132000,192.000000,0.000000,0.000000,0.000000,0.000000,0.000000,0.000000,0.000000,0.000000,0.000000,1648620616.502658,0.000000
239.000000,14176.124534,16148.040133,23780.914996,29153.782624,-23037.451272,15831.494729,-9525.687638,-28031.367425,0.040000,0.982000,0.132000,192.000000,0.000000,0.000000,0.000000,0.000000,0.000000,0.000000,0.000000,0.000000,0.000000,1648620616.502663,0.000000
240.000000,14192.664825,16174.437544,23795.018947,29173.899194,-23022.989693,15845.509272,-9513.908269,-28004.411221,0.040000,0.982000,0.132000,192.000000,0.000000,0.000000,0.000000,0.000000,0.000000,0.000000,0.000000,0.000000,0.000000,1648620616.510675,0.000000
241.000000,14227.958230,16165.228625,23800.562179,29177.251956,-23019.592228,15847.587985,-9508.297981,-28011.921407,0.040000,0.982000,0.132000,192.000000,0.000000,0.000000,0.000000,0.000000,0.000000,0.000000,0.000000,0.000000,0.000000,1648620616.510681,0.000000
242.000000,14246.800750,16139.032380,23782.121990,29153.872031,-23037.965362,15828.477243,-9525.955859,-28037.156527,0.040000,0.982000,0.132000,192.000000,0.000000,0.000000,0.000000,0.000000,0.000000,0.000000,0.000000,0.000000,0.000000,1648620616.518599,0.000000
243.000000,14266.962024,16149.381238,23790.436839,29161.382218,-23030.544583,15832.701723,-9526.715818,-28050.277001,0.036000,0.982000,0.130000,192.000000,1.000000,32.000000,30.000000,176.000000,4.000000,16.000000,0.000000,0.000000,0.000000,1648620616.518604,0.000000
244.000000,14266.894968,16149.694163,23784.200702,29158.320029,-23037.272458,15826.756159,-9529.263917,-28070.527681,0.036000,0.982000,0.130000,192.000000,0.000000,0.000000,0.000000,0.000000,0.000000,0.000000,0.000000,0.000000,0.000000,1648620616.525330,0.000000
245.000000,14274.405155,16161.160607,23792.448496,29171.775779,-23028.510574,15842.089455,-9518.222155,-28044.711416,0.036000,0.982000,0.130000,192.000000,0.000000,0.000000,0.000000,0.000000,0.000000,0.000000,0.000000,0.000000,0.000000,1648620616.525334,0.000000
246.000000,14268.258425,16150.141197,23785.273586,29161.717494,-23034.702007,15838.222604,-9528.347496,-28024.304274,0.036000,0.982000,0.130000,192.000000,0.000000,0.000000,0.000000,0.000000,0.000000,0.000000,0.000000,0.000000,0.000000,1648620616.533244,0.000000
247.000000,14279.993091,16165.183921,23796.248292,29176.089665,-23022.676769,15851.208967,-9516.232850,-28018.314006,0.036000,0.982000,0.130000,192.000000,0.000000,0.000000,0.000000,0.000000,0.000000,0.000000,0.000000,0.000000,0.000000,1648620616.533248,0.000000
248.000000,14276.774439,16160.333593,23792.515551,29171.239337,-23026.454213,15842.983525,-9529.152158,-28048.466509,0.036000,0.982000,0.130000,192.000000,0.000000,0.000000,0.000000,0.000000,0.000000,0.000000,0.000000,0.000000,0.000000,1648620616.540393,0.000000
249.000000,14270.180675,16154.186863,23786.145304,29166.433712,-23030.209307,15840.480130,-9529.465083,-28052.936858,0.036000,0.982000,0.130000,192.000000,0.000000,0.000000,0.000000,0.000000,0.000000,0.000000,0.000000,0.000000,0.000000,1648620616.547410,0.000000
250.000000,14274.941596,16157.673735,23792.381441,29174.614450,-23024.286094,15848.303240,-9515.607001,-28031.635646,0.036000,0.982000,0.130000,192.000000,0.000000,0.000000,0.000000,0.000000,0.000000,0.000000,0.000000,0.000000,0.000000,1648620616.547413,0.000000
251.000000,14280.507181,16163.507541,23794.348394,29180.336497,-23019.413414,15847.565633,-9519.943240,-28029.601637,0.036000,0.982000,0.130000,192.000000,0.000000,0.000000,0.000000,0.000000,0.000000,0.000000,0.000000,0.000000,0.000000,1648620616.555023,0.000000
252.000000,14269.867750,16153.225738,23788.268720,29172.446331,-23027.281228,15841.083627,-9518.423321,-28051.796919,0.036000,0.982000,0.130000,192.000000,0.000000,0.000000,0.000000,0.000000,0.000000,0.000000,0.000000,0.000000,0.000000,1648620616.555028,0.000000
253.000000,14276.595625,16159.238357,23789.922749,29173.027476,-23027.370635,15840.994220,-9517.842176,-28060.290582,0.036000,0.988000,0.130000,192.000000,1.000000,32.000000,30.000000,224.000000,4.000000,16.000000,0.000000,0.000000,0.000000,1648620616.562932,0.000000
254.000000,14287.480925,16172.627052,23798.215246,29179.531834,-23020.598056,15847.789150,-9518.602135,-28033.468489,0.036000,0.988000,0.130000,192.000000,0.000000,0.000000,0.000000,0.000000,0.000000,0.000000,0.000000,0.000000,0.000000,1648620616.562937,0.000000
255.000000,14295.326387,16178.706727,23806.552447,29187.712573,-23012.707891,15856.238110,-9513.729455,-28019.632759,0.036000,0.988000,0.130000,192.000000,0.000000,0.000000,0.000000,0.000000,0.000000,0.000000,0.000000,0.000000,0.000000,1648620616.570928,0.000000
0.000000,14297.516858,16179.846666,23811.067499,29189.299546,-23008.192838,15862.697764,-9505.235792,-28014.156582,0.036000,0.988000,0.130000,192.000000,0.000000,0.000000,0.000000,0.000000,0.000000,0.000000,0.000000,0.000000,0.000000,1648620616.570951,0.000000
1.000000,14296.913361,16180.383108,23809.771098,29189.768933,-23007.410527,15858.719153,-9512.500109,-28028.394643,0.036000,0.988000,0.130000,192.000000,0.000000,0.000000,0.000000,0.000000,0.000000,0.000000,0.000000,0.000000,0.000000,1648620616.577556,0.000000
2.000000,14293.918227,16177.767954,23802.171505,29185.991488,-23012.417318,15849.130255,-9519.965591,-28055.999047,0.036000,0.988000,0.130000,192.000000,0.000000,0.000000,0.000000,0.000000,0.000000,0.000000,0.000000,0.000000,0.000000,1648620616.577562,0.000000
3.000000,14284.396384,16169.766029,23797.209417,29180.627070,-23017.491164,15851.812464,-9512.477757,-28036.843602,0.036000,0.988000,0.130000,192.000000,0.000000,0.000000,0.000000,0.000000,0.000000,0.000000,0.000000,0.000000,0.000000,1648620616.585593,0.000000
4.000000,14297.896838,16185.144029,23810.665168,29193.971061,-23004.370690,15865.290566,-9509.348513,-28012.368442,0.036000,0.988000,0.130000,192.000000,0.000000,0.000000,0.000000,0.000000,0.000000,0.000000,0.000000,0.000000,0.000000,1648620616.585597,0.000000
5.000000,14295.728719,16179.377279,23803.400851,29183.421038,-23010.807992,15850.471360,-9527.140501,-28033.714358,0.036000,0.988000,0.130000,192.000000,0.000000,0.000000,0.000000,0.000000,0.000000,0.000000,0.000000,0.000000,0.000000,1648620616.593596,0.000000
6.000000,14294.745242,16180.852494,23802.082098,29178.570709,-23013.713719,15845.933955,-9530.985001,-28046.901887,0.036000,0.988000,0.130000,192.000000,0.000000,0.000000,0.000000,0.000000,0.000000,0.000000,0.000000,0.000000,0.000000,1648620616.593601,0.000000
7.000000,14289.649044,16173.029384,23798.818743,29176.223776,-23015.792431,15846.693915,-9518.356266,-28040.621047,0.040000,0.980000,0.128000,192.000000,1.000000,64.000000,30.000000,160.000000,4.000000,0.000000,0.000000,0.000000,0.000000,1648620616.600660,0.000000
8.000000,14278.987262,16164.848645,23792.604958,29172.893366,-23020.463946,15841.932993,-9526.112321,-28047.483033,0.040000,0.980000,0.128000,192.000000,0.000000,0.000000,0.000000,0.000000,0.000000,0.000000,0.000000,0.000000,0.000000,1648620616.607158,0.000000
9.000000,14297.785079,16191.380166,23812.095679,29194.976889,-23000.973225,15861.826046,-9512.544812,-28023.857239,0.040000,0.980000,0.128000,192.000000,0.000000,0.000000,0.000000,0.000000,0.000000,0.000000,0.000000,0.000000,0.000000,1648620616.607162,0.000000
10.000000,14308.066882,16199.896181,23819.561162,29202.531779,-22992.703079,15865.223511,-9507.918001,-28025.444213,0.040000,0.980000,0.128000,192.000000,0.000000,0.000000,0.000000,0.000000,0.000000,0.000000,0.000000,0.000000,0.000000,1648620616.615147,0.000000
11.000000,14304.423547,16190.217875,23814.152040,29194.373392,-22999.542713,15852.594775,-9514.176490,-28055.060274,0.040000,0.980000,0.128000,192.000000,0.000000,0.000000,0.000000,0.000000,0.000000,0.000000,0.000000,0.000000,0.000000,1648620616.615152,0.000000
12.000000,14295.572257,16184.048794,23808.139421,29188.316070,-23004.124821,15849.197310,-9519.742074,-28038.028245,0.040000,0.980000,0.128000,192.000000,0.000000,0.000000,0.000000,0.000000,0.000000,0.000000,0.000000,0.000000,0.000000,1648620616.623164,0.000000
13.000000,14310.011483,16196.163439,23816.208400,29192.227625,-22998.313367,15848.459703,-9529.196862,-28026.986483,0.040000,0.980000,0.128000,192.000000,0.000000,0.000000,0.000000,0.000000,0.000000,0.000000,0.000000,0.000000,0.000000,1648620616.623168,0.000000
14.000000,14307.798661,16184.831105,23818.980017,29189.098381,-22996.815800,15848.079723,-9523.944202,-28042.252724,0.040000,0.980000,0.128000,192.000000,0.000000,0.000000,0.000000,0.000000,0.000000,0.000000,0.000000,0.000000,0.000000,1648620616.630326,0.000000
15.000000,14317.029931,16198.108041,23832.346360,29205.191637,-22981.527207,15862.317784,-9509.393216,-28044.264381,0.040000,0.980000,0.128000,192.000000,0.000000,0.000000,0.000000,0.000000,0.000000,0.000000,0.000000,0.000000,0.000000,1648620616.630331,0.000000
16.000000,14309.653856,16188.519143,23821.349301,29196.139180,-22989.529132,15853.108865,-9517.305734,-28045.896059,0.040000,0.980000,0.128000,192.000000,0.000000,0.000000,0.000000,0.000000,0.000000,0.000000,0.000000,0.000000,0.000000,1648620616.637751,0.000000
17.000000,14303.685940,16176.650366,23819.449403,29194.373392,-22991.719603,15857.869787,-9523.184243,-28013.843657,0.044000,0.978000,0.136000,192.000000,1.000000,96.000000,30.000000,144.000000,4.000000,64.000000,0.000000,0.000000,0.000000,1648620616.637757,0.000000
18.000000,14309.497393,16187.379204,23825.082043,29200.184846,-22986.243425,15859.926147,-9514.824690,-28019.029262,0.044000,0.978000,0.136000,192.000000,0.000000,0.000000,0.000000,0.000000,0.000000,0.000000,0.000000,0.000000,0.000000,1648620616.645871,0.000000
19.000000,14322.528460,16206.065262,23837.420206,29215.451087,-22972.251233,15870.073839,-9496.652722,-28015.609445,0.044000,0.978000,0.136000,192.000000,0.000000,0.000000,0.000000,0.000000,0.000000,0.000000,0.000000,0.000000,0.000000,1648620616.645876,0.000000
20.000000,14319.555678,16205.752338,23830.267648,29213.305320,-22976.945099,15863.368316,-9500.765443,-28045.381969,0.044000,0.978000,0.136000,192.000000,0.000000,0.000000,0.000000,0.000000,0.000000,0.000000,0.000000,0.000000,0.000000,1648620616.652950,0.000000
21.000000,14305.049396,16183.132372,23821.773985,29194.149875,-22990.020870,15856.059296,-9508.007408,-28056.334323,0.044000,0.978000,0.136000,192.000000,0.000000,0.000000,0.000000,0.000000,0.000000,0.000000,0.000000,0.000000,0.000000,1648620616.652954,0.000000
22.000000,14301.003730,16181.254826,23817.974188,29189.880692,-22994.290053,15858.138008,-9514.444711,-28013.620140,0.044000,0.978000,0.136000,192.000000,0.000000,0.000000,0.000000,0.000000,0.000000,0.000000,0.000000,0.000000,0.000000,1648620616.659494,0.000000
23.000000,14298.075652,16185.009919,23812.453307,29190.931224,-22997.285187,15853.153569,-9519.272687,-28014.357747,0.044000,0.978000,0.136000,192.000000,0.000000,0.000000,0.000000,0.000000,0.000000,0.000000,0.000000,0.000000,0.000000,1648620616.667390,0.000000
24.000000,14306.211687,16195.358776,23819.650569,29200.721288,-22990.356146,15855.344040,-9519.540908,-28028.662864,0.044000,0.978000,0.136000,192.000000,0.000000,0.000000,0.000000,0.000000,0.000000,0.000000,0.000000,0.000000,0.000000,1648620616.667394,0.000000
25.000000,14318.862774,16210.446204,23832.502822,29213.528837,-22977.526245,15861.915453,-9510.175527,-28028.707567,0.044000,0.978000,0.136000,192.000000,0.000000,0.000000,0.000000,0.000000,0.000000,0.000000,0.000000,0.000000,0.000000,1648620616.675440,0.000000
26.000000,14319.421568,16208.121623,23837.017874,29213.372375,-22974.285242,15866.676374,-9507.538022,-28023.968997,0.044000,0.978000,0.136000,192.000000,0.000000,0.000000,0.000000,0.000000,0.000000,0.000000,0.000000,0.000000,0.000000,1648620616.675445,0.000000
27.000000,14324.137786,16216.883506,23843.566935,29222.670701,-22965.612765,15873.940691,-9503.313542,-28032.239143,0.042000,0.974000,0.142000,192.000000,1.000000,80.000000,30.000000,112.000000,4.000000,112.000000,0.000000,0.000000,0.000000,1648620616.682623,0.000000
28.000000,14309.698559,16208.993341,23830.580572,29212.478305,-22976.833341,15859.389706,-9522.871318,-28045.113748,0.042000,0.974000,0.142000,192.000000,0.000000,0.000000,0.000000,0.000000,0.000000,0.000000,0.000000,0.000000,0.000000,1648620616.682628,0.000000
29.000000,14313.855983,16209.306265,23834.022741,29212.679471,-22977.056858,15862.697764,-9520.233812,-28032.976750,0.042000,0.974000,0.142000,192.000000,0.000000,0.000000,0.000000,0.000000,0.000000,0.000000,0.000000,0.000000,0.000000,1648620616.690119,0.000000
30.000000,14294.588780,16176.873884,23813.995578,29189.746581,-22996.592283,15845.956307,-9527.855757,-28042.453890,0.042000,0.974000,0.142000,192.000000,0.000000,0.000000,0.000000,0.000000,0.000000,0.000000,0.000000,0.000000,0.000000,1648620616.690125,0.000000
31.000000,14283.681128,16159.752448,23802.663243,29176.313183,-23010.651530,15835.562746,-9534.047190,-28044.554954,0.042000,0.974000,0.142000,192.000000,0.000000,0.000000,0.000000,0.000000,0.000000,0.000000,0.000000,0.000000,0.000000,1648620616.698061,0.000000
32.000000,14307.530440,16186.485134,23831.944028,29201.861227,-22983.248291,15858.138008,-9517.082216,-28031.076852,0.042000,0.974000,0.142000,192.000000,0.000000,0.000000,0.000000,0.000000,0.000000,0.000000,0.000000,0.000000,0.000000,1648620616.698066,0.000000
33.000000,14312.894858,16194.911742,23839.051883,29207.762087,-22975.380477,15862.898929,-9512.455405,-28030.138079,0.042000,0.974000,0.142000,192.000000,0.000000,0.000000,0.000000,0.000000,0.000000,0.000000,0.000000,0.000000,0.000000,1648620616.706114,0.000000
34.000000,14311.509050,16199.583256,23837.777834,29210.064317,-22976.431009,15862.965985,-9513.371827,-28028.886381,0.042000,0.974000,0.142000,192.000000,0.000000,0.000000,0.000000,0.000000,0.000000,0.000000,0.000000,0.000000,0.000000,1648620616.706119,0.000000
35.000000,14312.067844,16199.113870,23836.190860,29210.131372,-22977.682707,15860.306127,-9512.522461,-28055.931992,0.042000,0.974000,0.142000,192.000000,0.000000,0.000000,0.000000,0.000000,0.000000,0.000000,0.000000,0.000000,0.000000,1648620616.712774,0.000000
36.000000,14317.722835,16197.303378,23840.281229,29207.560922,-22976.945099,15860.350831,-9508.141519,-28076.383838,0.042000,0.974000,0.142000,192.000000,0.000000,0.000000,0.000000,0.000000,0.000000,0.000000,0.000000,0.000000,0.000000,1648620616.712779,0.000000
37.000000,14315.018274,16195.135259,23838.649552,29204.923416,-22976.967451,15869.447991,-9504.252315,-28019.632759,0.042000,0.974000,0.142000,192.000000,0.000000,0.000000,0.000000,0.000000,0.000000,0.000000,0.000000,0.000000,0.000000,1648620616.719941,0.000000
38.000000,14312.961914,16194.241189,23837.666075,29204.185808,-22978.241501,15868.196293,-9504.967571,-28023.253742,0.042000,0.978000,0.144000,192.000000,1.000000,80.000000,30.000000,144.000000,4.000000,128.000000,0.000000,0.000000,0.000000,1648620616.719947,0.000000
39.000000,14309.609152,16202.533686,23833.978037,29208.097363,-22980.029640,15862.630709,-9526.849929,-28028.282884,0.042000,0.978000,0.144000,192.000000,0.000000,0.000000,0.000000,0.000000,0.000000,0.000000,0.000000,0.000000,0.000000,1648620616.727727,0.000000
40.000000,14309.564449,16209.216858,23837.107281,29213.886465,-22975.112256,15869.962081,-9515.607001,-28019.856276,0.042000,0.978000,0.144000,192.000000,0.000000,0.000000,0.000000,0.000000,0.000000,0.000000,0.000000,0.000000,0.000000,1648620616.735817,0.000000
41.000000,14297.203934,16188.273274,23829.619447,29200.207198,-22984.768210,15870.342060,-9500.653684,-28004.813552,0.042000,0.978000,0.144000,192.000000,0.000000,0.000000,0.000000,0.000000,0.000000,0.000000,0.000000,0.000000,0.000000,1648620616.735821,0.000000
42.000000,14305.988169,16188.228570,23834.827403,29202.285910,-22981.057820,15879.305110,-9499.401987,-27987.043916,0.042000,0.978000,0.144000,192.000000,0.000000,0.000000,0.000000,0.000000,0.000000,0.000000,0.000000,0.000000,0.000000,1648620616.742374,0.000000
43.000000,14311.732568,16197.884524,23842.583459,29212.187733,-22971.267756,15888.625787,-9480.380652,-27998.935044,0.042000,0.978000,0.144000,192.000000,0.000000,0.000000,0.000000,0.000000,0.000000,0.000000,0.000000,0.000000,0.000000,1648620616.742379,0.000000
44.000000,14299.237943,16183.735869,23830.044130,29200.050735,-22984.902320,15873.158380,-9494.998693,-28032.350902,0.042000,0.978000,0.144000,192.000000,0.000000,0.000000,0.000000,0.000000,0.000000,0.000000,0.000000,0.000000,0.000000,1648620616.750346,0.000000
45.000000,14300.333178,16185.233436,23829.552392,29200.207198,-22988.232730,15867.816313,-9508.119167,-28036.038939,0.042000,0.978000,0.144000,192.000000,0.000000,0.000000,0.000000,0.000000,0.000000,0.000000,0.000000,0.000000,0.000000,1648620616.750351,0.000000
46.000000,14311.777271,16193.257713,23841.890555,29209.438468,-22975.201663,15879.975662,-9503.380597,-28018.068137,0.042000,0.978000,0.144000,192.000000,0.000000,0.000000,0.000000,0.000000,0.000000,0.000000,0.000000,0.000000,0.000000,1648620616.758299,0.000000
47.000000,14306.748129,16186.775707,23834.492127,29201.011860,-22980.856655,15876.309976,-9501.078367,-28019.118669,0.042000,0.978000,0.144000,192.000000,0.000000,0.000000,0.000000,0.000000,0.000000,0.000000,0.000000,0.000000,0.000000,1648620616.758304,0.000000
48.000000,14288.933788,16169.162532,23815.403737,29182.392857,-23000.302672,15859.657927,-9518.490376,-28039.257591,0.042000,0.972000,0.140000,192.000000,1.000000,80.000000,30.000000,96.000000,4.000000,96.000000,0.000000,0.000000,0.000000,1648620616.765489,0.000000
49.000000,14285.759841,16170.771858,23818.465926,29184.985660,-22997.866332,15862.228377,-9518.490376,-28040.710454,0.042000,0.972000,0.140000,192.000000,0.000000,0.000000,0.000000,0.000000,0.000000,0.000000,0.000000,0.000000,0.000000,1648620616.765493,0.000000
50.000000,14295.572257,16185.121678,23828.837136,29196.653270,-22985.438762,15873.068973,-9507.403911,-28031.501535,0.042000,0.972000,0.140000,192.000000,0.000000,0.000000,0.000000,0.000000,0.000000,0.000000,0.000000,0.000000,0.000000,1648620616.773036,0.000000
51.000000,14300.959027,16188.005053,23831.742863,29199.827218,-22982.868312,15873.940691,-9507.180394,-28036.709492,0.042000,0.972000,0.140000,192.000000,0.000000,0.000000,0.000000,0.000000,0.000000,0.000000,0.000000,0.000000,0.000000,1648620616.773040,0.000000
52.000000,14297.740376,16184.585236,23828.077177,29199.179017,-22984.276472,15869.895025,-9513.952972,-28036.977713,0.042000,0.972000,0.140000,192.000000,0.000000,0.000000,0.000000,0.000000,0.000000,0.000000,0.000000,0.000000,0.000000,1648620616.781094,0.000000
53.000000,14284.284626,16164.535721,23821.505764,29183.801017,-22996.145248,15859.836740,-9522.536042,-28046.499556,0.042000,0.972000,0.140000,192.000000,0.000000,0.000000,0.000000,0.000000,0.000000,0.000000,0.000000,0.000000,0.000000,1648620616.781100,0.000000
54.000000,14303.149498,16181.746564,23838.649552,29194.753372,-22981.616614,15872.621938,-9506.956876,-28045.046692,0.042000,0.972000,0.140000,192.000000,0.000000,0.000000,0.000000,0.000000,0.000000,0.000000,0.000000,0.000000,0.000000,1648620616.788131,0.000000
55.000000,14299.975550,16183.266483,23837.040226,29194.574558,-22982.264815,15870.364412,-9508.119167,-28044.778472,0.042000,0.972000,0.140000,192.000000,0.000000,0.000000,0.000000,0.000000,0.000000,0.000000,0.000000,0.000000,0.000000,1648620616.795290,0.000000
56.000000,14310.637332,16198.331559,23845.355075,29208.454991,-22971.871253,15877.561674,-9501.815975,-28042.386835,0.042000,0.972000,0.140000,192.000000,0.000000,0.000000,0.000000,0.000000,0.000000,0.000000,0.000000,0.000000,0.000000,1648620616.795297,0.000000
57.000000,14306.636370,16198.957407,23842.963438,29210.623111,-22972.228881,15872.219607,-9501.972437,-28065.319725,0.042000,0.972000,0.140000,192.000000,0.000000,0.000000,0.000000,0.000000,0.000000,0.000000,0.000000,0.000000,0.000000,1648620616.802740,0.000000
58.000000,14298.634446,16189.368509,23839.901249,29207.337404,-22972.944137,15876.622901,-9503.894687,-28028.148774,0.038000,0.976000,0.144000,192.000000,1.000000,48.000000,30.000000,128.000000,4.000000,128.000000,0.000000,0.000000,0.000000,1648620616.802747,0.000000
59.000000,14298.477983,16190.061413,23838.671903,29204.990471,-22972.787675,15880.512104,-9509.817899,-27989.904939,0.038000,0.976000,0.144000,192.000000,0.000000,0.000000,0.000000,0.000000,0.000000,0.000000,0.000000,0.000000,0.000000,1648620616.810631,0.000000
60.000000,14298.276818,16190.575503,23838.873069,29204.521084,-22972.385344,15876.555845,-9508.633257,-28010.848523,0.038000,0.976000,0.144000,192.000000,0.000000,0.000000,0.000000,0.000000,0.000000,0.000000,0.000000,0.000000,0.000000,1648620616.810638,0.000000
61.000000,14297.025120,16184.406422,23842.650514,29204.230512,-22970.351335,15880.087421,-9500.027835,-28019.029262,0.038000,0.976000,0.144000,192.000000,0.000000,0.000000,0.000000,0.000000,0.000000,0.000000,0.000000,0.000000,0.000000,1648620616.817892,0.000000
62.000000,14293.180620,16178.930244,23837.867241,29197.100305,-22975.648698,15873.516008,-9515.271725,-28042.543297,0.038000,0.976000,0.144000,192.000000,0.000000,0.000000,0.000000,0.000000,0.000000,0.000000,0.000000,0.000000,0.000000,1648620616.817896,0.000000
63.000000,14307.418681,16198.108041,23849.870127,29212.120677,-22962.528224,15882.255540,-9512.209536,-28043.772643,0.038000,0.976000,0.144000,192.000000,0.000000,0.000000,0.000000,0.000000,0.000000,0.000000,0.000000,0.000000,0.000000,1648620616.825524,0.000000
64.000000,14322.416702,16210.289742,23860.531910,29232.036082,-22947.977239,15896.180677,-9488.807260,-28023.298445,0.038000,0.976000,0.144000,192.000000,0.000000,0.000000,0.000000,0.000000,0.000000,0.000000,0.000000,0.000000,0.000000,1648620616.825561,0.000000
65.000000,14313.140728,16199.717367,23856.776816,29223.676529,-22956.672067,15887.396441,-9489.969550,-28033.915524,0.038000,0.976000,0.144000,192.000000,0.000000,0.000000,0.000000,0.000000,0.000000,0.000000,0.000000,0.000000,0.000000,1648620616.833412,0.000000
66.000000,14297.919190,16185.591064,23842.672866,29208.745564,-22969.971355,15879.103944,-9510.086120,-28008.613349,0.038000,0.976000,0.144000,192.000000,0.000000,0.000000,0.000000,0.000000,0.000000,0.000000,0.000000,0.000000,0.000000,1648620616.833418,0.000000
67.000000,14285.290454,16171.464762,23828.390101,29193.971061,-22982.667146,15863.860054,-9526.089969,-28029.936913,0.038000,0.976000,0.144000,192.000000,0.000000,0.000000,0.000000,0.000000,0.000000,0.000000,0.000000,0.000000,0.000000,1648620616.841510,0.000000
68.000000,14295.035815,16177.946768,23840.370636,29203.738773,-22971.692440,15872.063145,-9507.582725,-28046.007818,0.034000,0.974000,0.144000,192.000000,1.000000,16.000000,30.000000,112.000000,4.000000,128.000000,0.000000,0.000000,0.000000,1648620616.841517,0.000000
69.000000,14295.572257,16182.461820,23839.409511,29208.477343,-22969.457265,15871.772572,-9512.835385,-28035.658960,0.034000,0.974000,0.144000,192.000000,0.000000,0.000000,0.000000,0.000000,0.000000,0.000000,0.000000,0.000000,0.000000,1648620616.847371,0.000000
70.000000,14306.748129,16192.631864,23845.645648,29219.362643,-22962.818797,15881.920264,-9508.119167,-28004.880608,0.034000,0.974000,0.144000,192.000000,0.000000,0.000000,0.000000,0.000000,0.000000,0.000000,0.000000,0.000000,0.000000,1648620616.855042,0.000000
71.000000,14308.022178,16192.967140,23846.383255,29221.396651,-22962.751742,15881.249712,-9505.772234,-28014.290692,0.034000,0.974000,0.144000,192.000000,0.000000,0.000000,0.000000,0.000000,0.000000,0.000000,0.000000,0.000000,0.000000,1648620616.855047,0.000000
72.000000,14297.762727,16182.908855,23838.895421,29213.059451,-22971.200701,15874.611244,-9506.420434,-28027.098242,0.034000,0.974000,0.144000,192.000000,0.000000,0.000000,0.000000,0.000000,0.000000,0.000000,0.000000,0.000000,0.000000,1648620616.862960,0.000000
73.000000,14295.594608,16189.435564,23840.214174,29218.289759,-22968.250271,15872.465476,-9513.774158,-28037.268285,0.034000,0.974000,0.144000,192.000000,0.000000,0.000000,0.000000,0.000000,0.000000,0.000000,0.000000,0.000000,0.000000,1648620616.862965,0.000000
74.000000,14297.315693,16186.999224,23838.738959,29214.735832,-22970.843073,15867.324575,-9518.400969,-28047.974771,0.034000,0.974000,0.144000,192.000000,0.000000,0.000000,0.000000,0.000000,0.000000,0.000000,0.000000,0.000000,0.000000,1648620616.871188,0.000000
75.000000,14297.718024,16187.043928,23841.823499,29216.591026,-22968.294974,15870.610281,-9515.517594,-28039.391701,0.034000,0.974000,0.144000,192.000000,0.000000,0.000000,0.000000,0.000000,0.000000,0.000000,0.000000,0.000000,0.000000,1648620616.871195,0.000000
76.000000,14299.953198,16190.664910,23844.662171,29220.301416,-22964.271660,15875.639424,-9511.002542,-28029.512230,0.034000,0.974000,0.144000,192.000000,0.000000,0.000000,0.000000,0.000000,0.000000,0.000000,0.000000,0.000000,0.000000,1648620616.877779,0.000000
77.000000,14304.736472,16192.631864,23847.791415,29224.861172,-22960.829492,15880.445049,-9506.778062,-28026.897076,0.034000,0.974000,0.144000,192.000000,0.000000,0.000000,0.000000,0.000000,0.000000,0.000000,0.000000,0.000000,0.000000,1648620616.877786,0.000000
78.000000,14315.510013,16198.666835,23858.766122,29230.694977,-22952.626401,15886.457668,-9500.676036,-28022.963169,0.042000,0.968000,0.150000,192.000000,1.000000,80.000000,30.000000,64.000000,4.000000,176.000000,0.000000,0.000000,0.000000,1648620616.885645,0.000000
79.000000,14321.209707,16206.534649,23864.644631,29238.585143,-22945.898526,15890.078651,-9498.798489,-28021.800878,0.042000,0.968000,0.150000,192.000000,0.000000,0.000000,0.000000,0.000000,0.000000,0.000000,0.000000,0.000000,0.000000,1648620616.885652,0.000000
80.000000,14323.288420,16211.563791,23863.728209,29242.675512,-22943.126910,15889.966892,-9502.888859,-28031.345073,0.042000,0.968000,0.150000,192.000000,0.000000,0.000000,0.000000,0.000000,0.000000,0.000000,0.000000,0.000000,0.000000,1648620616.893644,0.000000
81.000000,14312.224306,16201.974893,23857.134444,29233.556000,-22951.195890,15883.574293,-9505.504013,-28032.462660,0.042000,0.968000,0.150000,192.000000,0.000000,0.000000,0.000000,0.000000,0.000000,0.000000,0.000000,0.000000,0.000000,1648620616.893650,0.000000
82.000000,14318.102815,16209.038044,23862.364753,29239.143937,-22947.396093,15885.854171,-9506.062806,-28040.241067,0.042000,0.968000,0.150000,192.000000,0.000000,0.000000,0.000000,0.000000,0.000000,0.000000,0.000000,0.000000,0.000000,1648620616.900714,0.000000
83.000000,14310.726739,16202.936018,23858.252032,29232.080785,-22951.620573,15878.768668,-9512.209536,-28062.503405,0.042000,0.968000,0.150000,192.000000,0.000000,0.000000,0.000000,0.000000,0.000000,0.000000,0.000000,0.000000,0.000000,1648620616.900719,0.000000
84.000000,14315.755882,16211.116756,23861.291869,29240.417986,-22945.719712,15888.826953,-9504.274667,-28034.094338,0.042000,0.968000,0.150000,192.000000,0.000000,0.000000,0.000000,0.000000,0.000000,0.000000,0.000000,0.000000,0.000000,1648620616.907206,0.000000
85.000000,14303.127146,16192.676567,23848.216098,29222.693053,-22963.355239,15866.899892,-9528.883937,-28080.943594,0.042000,0.968000,0.150000,192.000000,0.000000,0.000000,0.000000,0.000000,0.000000,0.000000,0.000000,0.000000,0.000000,1648620616.915294,0.000000
86.000000,14298.701501,16182.394765,23845.600944,29214.512314,-22968.630251,15863.547130,-9531.946126,-28078.060219,0.042000,0.968000,0.150000,192.000000,0.000000,0.000000,0.000000,0.000000,0.000000,0.000000,0.000000,0.000000,0.000000,1648620616.915301,0.000000
87.000000,14308.804489,16196.789288,23854.563994,29228.459803,-22957.968468,15882.791982,-9513.885917,-27998.800933,0.042000,0.968000,0.150000,192.000000,0.000000,0.000000,0.000000,0.000000,0.000000,0.000000,0.000000,0.000000,0.000000,1648620616.923328,0.000000
88.000000,14313.632466,16199.158573,23863.236471,29234.762995,-22952.984029,15893.766689,-9497.278571,-27971.084770,0.042000,0.976000,0.150000,192.000000,1.000000,80.000000,30.000000,128.000000,4.000000,176.000000,0.000000,0.000000,0.000000,1648620616.923333,0.000000
89.000000,14316.940524,16201.416099,23868.042096,29236.662893,-22949.832433,15888.670491,-9504.989923,-27999.449134,0.042000,0.976000,0.150000,192.000000,0.000000,0.000000,0.000000,0.000000,0.000000,0.000000,0.000000,0.000000,0.000000,1648620616.930437,0.000000
90.000000,14315.375902,16201.505506,23864.041133,29234.584181,-22952.045256,15880.690918,-9519.138577,-28022.739652,0.042000,0.976000,0.150000,192.000000,0.000000,0.000000,0.000000,0.000000,0.000000,0.000000,0.000000,0.000000,0.000000,1648620616.930441,0.000000
91.000000,14318.393388,16215.050663,23865.516349,29239.926248,-22949.698323,15881.093249,-9510.533155,-28022.046747,0.042000,0.976000,0.150000,192.000000,0.000000,0.000000,0.000000,0.000000,0.000000,0.000000,0.000000,0.000000,0.000000,1648620616.937818,0.000000
92.000000,14319.846251,16214.737739,23864.354058,29236.506431,-22953.565175,15875.438258,-9511.673094,-28021.599713,0.042000,0.976000,0.150000,192.000000,0.000000,0.000000,0.000000,0.000000,0.000000,0.000000,0.000000,0.000000,0.000000,1648620616.937824,0.000000
93.000000,14308.871544,16193.235361,23859.079046,29227.565733,-22958.370800,15875.415906,-9508.365036,-28025.310102,0.042000,0.976000,0.150000,192.000000,0.000000,0.000000,0.000000,0.000000,0.000000,0.000000,0.000000,0.000000,0.000000,1648620616.945833,0.000000
94.000000,14290.654873,16171.487113,23850.943011,29214.646425,-22966.685649,15873.136028,-9506.263972,-28034.854297,0.042000,0.976000,0.150000,192.000000,0.000000,0.000000,0.000000,0.000000,0.000000,0.000000,0.000000,0.000000,0.000000,1648620616.945840,0.000000
95.000000,14307.038701,16188.273274,23862.185939,29227.342215,-22957.297916,15882.143781,-9499.871373,-28036.061291,0.042000,0.976000,0.150000,192.000000,0.000000,0.000000,0.000000,0.000000,0.000000,0.000000,0.000000,0.000000,0.000000,1648620616.953058,0.000000
96.000000,14311.017312,16191.491925,23863.370581,29229.152707,-22956.403846,15878.098116,-9511.583687,-28037.558858,0.042000,0.976000,0.150000,192.000000,0.000000,0.000000,0.000000,0.000000,0.000000,0.000000,0.000000,0.000000,0.000000,1648620616.953062,0.000000
97.000000,14309.497393,16186.619244,23863.437636,29227.431622,-22956.739122,15877.807543,-9513.304772,-28031.456832,0.042000,0.976000,0.150000,192.000000,0.000000,0.000000,0.000000,0.000000,0.000000,0.000000,0.000000,0.000000,0.000000,1648620616.960549,0.000000
98.000000,14301.137841,16173.677584,23856.106264,29218.759146,-22965.568062,15873.672470,-9513.729455,-28038.050596,0.046000,0.978000,0.142000,192.000000,1.000000,112.000000,30.000000,144.000000,4.000000,112.000000,0.000000,0.000000,0.000000,1648620616.960554,0.000000
99.000000,14307.463385,16179.757259,23861.224814,29225.665835,-22959.644849,15879.863904,-9506.196917,-28035.033111,0.046000,0.978000,0.142000,192.000000,0.000000,0.000000,0.000000,0.000000,0.000000,0.000000,0.000000,0.000000,0.000000,1648620616.967823,0.000000
100.000000,14313.967742,16186.418079,23864.577575,29228.370396,-22957.834358,15879.662738,-9505.504013,-28035.502498,0.046000,0.978000,0.142000,192.000000,0.000000,0.000000,0.000000,0.000000,0.000000,0.000000,0.000000,0.000000,0.000000,1648620616.967835,0.000000
101.000000,14299.282646,16176.046869,23850.384218,29215.965178,-22972.050067,15862.407191,-9524.234775,-28056.289620,0.046000,0.978000,0.142000,192.000000,0.000000,0.000000,0.000000,0.000000,0.000000,0.000000,0.000000,0.000000,0.000000,1648620616.975557,0.000000
102.000000,14309.765614,16189.793192,23865.136369,29231.521992,-22959.220166,15876.779363,-9516.791644,-28043.303256,0.046000,0.978000,0.142000,192.000000,0.000000,0.000000,0.000000,0.000000,0.000000,0.000000,0.000000,0.000000,0.000000,1648620616.982582,0.000000
103.000000,14303.082443,16177.790305,23859.526081,29222.581294,-22965.210434,15873.694822,-9516.858699,-28043.526774,0.046000,0.978000,0.142000,192.000000,0.000000,0.000000,0.000000,0.000000,0.000000,0.000000,0.000000,0.000000,0.000000,1648620616.982590,0.000000
104.000000,14294.231152,16170.883616,23847.947877,29215.451087,-22974.620518,15866.877540,-9521.105530,-28043.705588,0.046000,0.978000,0.142000,192.000000,0.000000,0.000000,0.000000,0.000000,0.000000,0.000000,0.000000,0.000000,0.000000,1648620616.990237,0.000000
105.000000,14302.389539,16179.980776,23851.300639,29221.687224,-22971.580681,15870.096191,-9515.718760,-28045.337265,0.046000,0.978000,0.142000,192.000000,0.000000,0.000000,0.000000,0.000000,0.000000,0.000000,0.000000,0.000000,0.000000,1648620616.990243,0.000000
106.000000,14311.956085,16188.765012,23864.555224,29231.700806,-22962.796445,15877.092287,-9510.287286,-28041.962152,0.046000,0.978000,0.142000,192.000000,0.000000,0.000000,0.000000,0.000000,0.000000,0.000000,0.000000,0.000000,0.000000,1648620616.998209,0.000000
107.000000,14310.816146,16186.306320,23863.012953,29227.990416,-22963.422294,15874.298319,-9514.020027,-28039.838736,0.046000,0.978000,0.142000,192.000000,0.000000,0.000000,0.000000,0.000000,0.000000,0.000000,0.000000,0.000000,0.000000,1648620616.998218,0.000000
108.000000,14311.911382,16188.653253,23866.186901,29228.392747,-22961.924727,15871.593758,-9516.389312,-28053.540355,0.046000,0.986000,0.152000,192.000000,1.000000,112.000000,30.000000,208.000000,4.000000,192.000000,0.000000,0.000000,0.000000,1648620617.006163,0.000000
109.000000,14329.524556,16205.439413,23883.464799,29242.742567,-22948.334867,15884.960101,-9503.045321,-28044.778472,0.046000,0.986000,0.152000,192.000000,0.000000,0.000000,0.000000,0.000000,0.000000,0.000000,0.000000,0.000000,0.000000,1648620617.006168,0.000000
110.000000,14326.618830,16203.964198,23881.855474,29239.702730,-22949.206585,15882.613168,-9509.460272,-28029.042843,0.046000,0.986000,0.152000,192.000000,0.000000,0.000000,0.000000,0.000000,0.000000,0.000000,0.000000,0.000000,0.000000,1648620617.012725,0.000000
111.000000,14305.719948,16181.746564,23864.577575,29221.731928,-22968.205567,15860.909624,-9529.867414,-28083.782266,0.046000,0.986000,0.152000,192.000000,0.000000,0.000000,0.000000,0.000000,0.000000,0.000000,0.000000,0.000000,0.000000,1648620617.012735,0.000000
112.000000,14312.067844,16190.240227,23871.841892,29230.337349,-22960.650678,15873.068973,-9519.943240,-28062.190480,0.046000,0.986000,0.152000,192.000000,0.000000,0.000000,0.000000,0.000000,0.000000,0.000000,0.000000,0.000000,0.000000,1648620617.021117,0.000000
113.000000,14315.755882,16194.397651,23874.211177,29234.986512,-22955.152149,15884.781287,-9505.682827,-28005.908788,0.046000,0.986000,0.152000,192.000000,0.000000,0.000000,0.000000,0.000000,0.000000,0.000000,0.000000,0.000000,0.000000,1648620617.021135,0.000000
114.000000,14321.433225,16197.348082,23876.133427,29239.009826,-22953.140492,15886.815296,-9497.725606,-28006.646396,0.046000,0.986000,0.152000,192.000000,0.000000,0.000000,0.000000,0.000000,0.000000,0.000000,0.000000,0.000000,0.000000,1648620617.028947,0.000000
115.000000,14315.130033,16195.671701,23872.288927,29233.980684,-22959.354277,15874.901816,-9503.000617,-28065.096207,0.046000,0.986000,0.152000,192.000000,0.000000,0.000000,0.000000,0.000000,0.000000,0.000000,0.000000,0.000000,0.000000,1648620617.028958,0.000000
116.000000,14309.609152,16184.205256,23872.735962,29231.074957,-22959.466035,15887.977587,-9492.472946,-28018.559875,0.046000,0.986000,0.152000,192.000000,0.000000,0.000000,0.000000,0.000000,0.000000,0.000000,0.000000,0.000000,0.000000,1648620617.035937,0.000000
117.000000,14313.967742,16189.144992,23876.893386,29236.193506,-22953.766340,15893.386709,-9501.793623,-27994.218826,0.046000,0.986000,0.152000,192.000000,0.000000,0.000000,0.000000,0.000000,0.000000,0.000000,0.000000,0.000000,0.000000,1648620617.042512,0.000000
118.000000,14325.411835,16202.354873,23888.181017,29245.357721,-22944.333904,15894.727814,-9504.989923,-28020.280960,0.044000,0.982000,0.150000,192.000000,1.000000,96.000000,30.000000,176.000000,4.000000,176.000000,0.000000,0.000000,0.000000,1648620617.042524,0.000000
119.000000,14319.868603,16198.890352,23879.799113,29239.523916,-22949.899489,15886.345909,-9517.283382,-28034.273152,0.044000,0.982000,0.150000,192.000000,0.000000,0.000000,0.000000,0.000000,0.000000,0.000000,0.000000,0.000000,0.000000,1648620617.050568,0.000000
120.000000,14306.234039,16186.663948,23870.009049,29227.789250,-22961.991782,15876.309976,-9520.524385,-28042.520945,0.044000,0.982000,0.150000,192.000000,0.000000,0.000000,0.000000,0.000000,0.000000,0.000000,0.000000,0.000000,0.000000,1648620617.050579,0.000000
121.000000,14316.649952,16194.777631,23882.995413,29237.333445,-22950.860614,15887.016462,-9501.726568,-28039.726977,0.044000,0.982000,0.150000,192.000000,0.000000,0.000000,0.000000,0.000000,0.000000,0.000000,0.000000,0.000000,0.000000,1648620617.058525,0.000000
122.000000,14310.860850,16187.870942,23877.049849,29231.991378,-22955.621535,15878.209874,-9515.383484,-28049.628800,0.044000,0.982000,0.150000,192.000000,0.000000,0.000000,0.000000,0.000000,0.000000,0.000000,0.000000,0.000000,0.000000,1648620617.058536,0.000000
123.000000,14289.894913,16165.921529,23856.955630,29211.047794,-22975.782809,15860.976679,-9532.639031,-28057.295448,0.044000,0.982000,0.150000,192.000000,0.000000,0.000000,0.000000,0.000000,0.000000,0.000000,0.000000,0.000000,0.000000,1648620617.065458,0.000000
124.000000,14288.710271,16162.635823,23854.295773,29205.526913,-22979.917881,15855.902833,-9538.741057,-28071.242937,0.044000,0.982000,0.150000,192.000000,0.000000,0.000000,0.000000,0.000000,0.000000,0.000000,0.000000,0.000000,0.000000,1648620617.065467,0.000000
125.000000,14302.456594,16181.008957,23866.745694,29220.524933,-22967.110332,15867.659851,-9531.029705,-28059.754140,0.044000,0.982000,0.150000,192.000000,0.000000,0.000000,0.000000,0.000000,0.000000,0.000000,0.000000,0.000000,0.000000,1648620617.073195,0.000000
126.000000,14309.542097,16193.235361,23875.082895,29229.555038,-22958.750779,15878.813372,-9517.037513,-28035.167221,0.044000,0.982000,0.150000,192.000000,0.000000,0.000000,0.000000,0.000000,0.000000,0.000000,0.000000,0.000000,0.000000,1648620617.073206,0.000000
127.000000,14305.094100,16177.924416,23872.959479,29221.039024,-22963.221128,15875.684127,-9516.210498,-28040.419881,0.044000,0.982000,0.150000,192.000000,0.000000,0.000000,0.000000,0.000000,0.000000,0.000000,0.000000,0.000000,0.000000,1648620617.081225,0.000000
128.000000,14311.419643,16181.590102,23878.949747,29226.604608,-22959.063704,15881.830857,-9507.493318,-28043.772643,0.040000,0.982000,0.160000,192.000000,1.000000,64.000000,30.000000,176.000000,5.000000,0.000000,0.000000,0.000000,0.000000,1648620617.081236,0.000000
129.000000,14308.178640,16179.824314,23876.669869,29224.414137,-22963.243480,15880.221531,-9510.376693,-28043.482070,0.040000,0.982000,0.160000,192.000000,0.000000,0.000000,0.000000,0.000000,0.000000,0.000000,0.000000,0.000000,0.000000,1648620617.088412,0.000000
130.000000,14309.117414,16177.030346,23876.669869,29224.257675,-22963.489349,15886.949406,-9503.939391,-28021.934989,0.040000,0.982000,0.160000,192.000000,0.000000,0.000000,0.000000,0.000000,0.000000,0.000000,0.000000,0.000000,0.000000,1648620617.088429,0.000000
131.000000,14302.993036,16168.268462,23871.953651,29216.546323,-22968.138512,15879.416869,-9510.980190,-28039.168184,0.040000,0.982000,0.160000,192.000000,0.000000,0.000000,0.000000,0.000000,0.000000,0.000000,0.000000,0.000000,0.000000,1648620617.094701,0.000000
132.000000,14307.999826,16177.790305,23878.569767,29223.341253,-22961.298878,15884.334252,-9506.778062,-28041.179841,0.040000,0.982000,0.160000,192.000000,0.000000,0.000000,0.000000,0.000000,0.000000,0.000000,0.000000,0.000000,0.000000,1648620617.103080,0.000000
133.000000,14297.449803,16168.491980,23867.617413,29212.523009,-22972.385344,15870.029136,-9519.876184,-28076.003859,0.040000,0.982000,0.160000,192.000000,0.000000,0.000000,0.000000,0.000000,0.000000,0.000000,0.000000,0.000000,0.000000,1648620617.103097,0.000000
134.000000,14309.497393,16182.081840,23879.575596,29224.816468,-22964.428123,15874.343023,-9516.813995,-28088.453780,0.040000,0.982000,0.160000,192.000000,0.000000,0.000000,0.000000,0.000000,0.000000,0.000000,0.000000,0.000000,0.000000,1648620617.111422,0.000000
135.000000,14315.577068,16190.776669,23886.906968,29233.533649,-22957.677896,15888.424622,-9513.327123,-28017.665806,0.040000,0.982000,0.160000,192.000000,0.000000,0.000000,0.000000,0.000000,0.000000,0.000000,0.000000,0.000000,0.000000,1648620617.111434,0.000000
136.000000,14320.829728,16207.138146,23894.663023,29246.564716,-22947.284335,15900.673378,-9499.066710,-27992.810666,0.040000,0.982000,0.160000,192.000000,0.000000,0.000000,0.000000,0.000000,0.000000,0.000000,0.000000,0.000000,0.000000,1648620617.117973,0.000000
137.000000,14322.081425,16201.013768,23895.132410,29247.078806,-22946.256154,15903.847325,-9481.431184,-27991.514265,0.040000,0.982000,0.160000,192.000000,0.000000,0.000000,0.000000,0.000000,0.000000,0.000000,0.000000,0.000000,0.000000,1648620617.117982,0.000000
138.000000,14324.875393,16191.447221,23892.584311,29246.743530,-22949.027771,15895.398366,-9492.249428,-28019.275131,0.040000,0.982000,0.160000,192.000000,0.000000,0.000000,0.000000,0.000000,0.000000,0.000000,0.000000,0.000000,0.000000,1648620617.125398,0.000000
139.000000,14316.292324,16179.042003,23885.387049,29237.512259,-22959.443684,15884.244845,-9504.609943,-28036.508326,0.042000,0.974000,0.154000,192.000000,1.000000,80.000000,30.000000,112.000000,4.000000,208.000000,0.000000,0.000000,0.000000,1648620617.125407,0.000000
140.000000,14316.672303,16181.076012,23887.599872,29236.707596,-22958.460207,15886.368261,-9511.136652,-28028.573457,0.042000,0.974000,0.154000,192.000000,0.000000,0.000000,0.000000,0.000000,0.000000,0.000000,0.000000,0.000000,0.000000,1648620617.133570,0.000000
141.000000,14313.766577,16184.965215,23886.147009,29236.819355,-22959.086056,15886.860000,-9503.157080,-28036.441271,0.042000,0.974000,0.154000,192.000000,0.000000,0.000000,0.000000,0.000000,0.000000,0.000000,0.000000,0.000000,0.000000,1648620617.133586,0.000000
142.000000,14303.238905,16172.291776,23871.283099,29227.833954,-22973.681745,15867.212816,-9522.424283,-28083.916376,0.042000,0.974000,0.154000,192.000000,0.000000,0.000000,0.000000,0.000000,0.000000,0.000000,0.000000,0.000000,0.000000,1648620617.141427,0.000000
143.000000,14292.957102,16161.607642,23866.455122,29223.251846,-22980.655489,15867.324575,-9526.537004,-28061.430521,0.042000,0.974000,0.154000,192.000000,0.000000,0.000000,0.000000,0.000000,0.000000,0.000000,0.000000,0.000000,0.000000,1648620617.141439,0.000000
144.000000,14297.583914,16169.855436,23877.161607,29230.896143,-22972.608861,15877.271101,-9513.371827,-28025.555971,0.042000,0.974000,0.154000,192.000000,0.000000,0.000000,0.000000,0.000000,0.000000,0.000000,0.000000,0.000000,0.000000,1648620617.148124,0.000000
145.000000,14309.028007,16181.076012,23885.588215,29234.025387,-22966.439780,15876.712308,-9515.092911,-28042.677408,0.042000,0.974000,0.154000,192.000000,0.000000,0.000000,0.000000,0.000000,0.000000,0.000000,0.000000,0.000000,0.000000,1648620617.148135,0.000000
146.000000,14306.636370,16178.930244,23884.358869,29236.059396,-22967.780884,15871.616110,-9523.720684,-28061.162300,0.042000,0.974000,0.154000,192.000000,0.000000,0.000000,0.000000,0.000000,0.000000,0.000000,0.000000,0.000000,0.000000,1648620617.155251,0.000000
147.000000,14310.614981,16185.591064,23887.756334,29241.312056,-22962.818797,15878.567502,-9518.937411,-28048.242992,0.042000,0.974000,0.154000,192.000000,0.000000,0.000000,0.000000,0.000000,0.000000,0.000000,0.000000,0.000000,0.000000,1648620617.163150,0.000000
148.000000,14312.850155,16190.977835,23886.102305,29237.780480,-22965.724524,15872.420773,-9522.491339,-28059.128292,0.042000,0.974000,0.154000,192.000000,0.000000,0.000000,0.000000,0.000000,0.000000,0.000000,0.000000,0.000000,0.000000,1648620617.163162,0.000000
149.000000,14314.638295,16190.463744,23887.018727,29239.568620,-22965.478655,15871.102020,-9522.647801,-28061.296411,0.050000,0.974000,0.154000,192.000000,1.000000,144.000000,30.000000,112.000000,4.000000,208.000000,0.000000,0.000000,0.000000,1648620617.171338,0.000000
150.000000,14309.586800,16183.065317,23884.247110,29240.373282,-22965.568062,15873.672470,-9526.894632,-28058.167166,0.050000,0.974000,0.154000,192.000000,0.000000,0.000000,0.000000,0.000000,0.000000,0.000000,0.000000,0.000000,0.000000,1648620617.171358,0.000000
151.000000,14317.432263,16193.414175,23893.545436,29254.298419,-22953.386361,15890.346872,-9508.186222,-28031.635646,0.050000,0.974000,0.154000,192.000000,0.000000,0.000000,0.000000,0.000000,0.000000,0.000000,0.000000,0.000000,0.000000,1648620617.177831,0.000000
152.000000,14329.435149,16205.819393,23902.262616,29264.289649,-22947.105521,15893.520819,-9503.760577,-28032.820288,0.050000,0.974000,0.154000,192.000000,0.000000,0.000000,0.000000,0.000000,0.000000,0.000000,0.000000,0.000000,0.000000,1648620617.177843,0.000000
153.000000,14315.577068,16191.290759,23890.416192,29245.871812,-22961.969431,15871.191427,-9522.290173,-28059.687085,0.050000,0.974000,0.154000,192.000000,0.000000,0.000000,0.000000,0.000000,0.000000,0.000000,0.000000,0.000000,0.000000,1648620617.186068,0.000000
154.000000,14314.325370,16188.541494,23888.046907,29240.730910,-22965.433951,15869.202121,-9524.167719,-28060.201175,0.050000,0.974000,0.154000,192.000000,0.000000,0.000000,0.000000,0.000000,0.000000,0.000000,0.000000,0.000000,0.000000,1648620617.186084,0.000000
155.000000,14318.259277,16186.932169,23890.729116,29240.641503,-22965.031620,15875.393555,-9518.445673,-28066.437312,0.050000,0.974000,0.154000,192.000000,0.000000,0.000000,0.000000,0.000000,0.000000,0.000000,0.000000,0.000000,0.000000,1648620617.193790,0.000000
156.000000,14326.708237,16193.302416,23892.807829,29241.736739,-22966.618594,15870.789095,-9516.568126,-28090.197216,0.050000,0.974000,0.154000,192.000000,0.000000,0.000000,0.000000,0.000000,0.000000,0.000000,0.000000,0.000000,0.000000,1648620617.193802,0.000000
157.000000,14316.918172,16193.369471,23890.863227,29245.469480,-22968.451437,15874.410078,-9515.942277,-28061.989315,0.050000,0.974000,0.154000,192.000000,0.000000,0.000000,0.000000,0.000000,0.000000,0.000000,0.000000,0.000000,0.000000,1648620617.200929,0.000000
158.000000,14308.536268,16185.166381,23889.656233,29248.352855,-22969.770189,15878.478095,-9521.887841,-28030.741576,0.050000,0.974000,0.154000,192.000000,0.000000,0.000000,0.000000,0.000000,0.000000,0.000000,0.000000,0.000000,0.000000,1648620617.200936,0.000000
159.000000,14316.202917,16191.111945,23895.199465,29258.858175,-22964.942213,15877.986357,-9529.263917,-28029.020492,0.050000,0.974000,0.162000,192.000000,1.000000,144.000000,30.000000,112.000000,5.000000,16.000000,0.000000,0.000000,0.000000,1648620617.208884,0.000000
160.000000,14332.385580,16214.804794,23911.963274,29272.828015,-22951.665276,15890.816258,-9513.595344,-28027.947608,0.050000,0.974000,0.162000,192.000000,0.000000,0.000000,0.000000,0.000000,0.000000,0.000000,0.000000,0.000000,0.000000,1648620617.208901,0.000000
161.000000,14334.464292,16218.939867,23913.214971,29271.710428,-22953.095788,15884.446011,-9504.006446,-28036.754195,0.050000,0.974000,0.162000,192.000000,0.000000,0.000000,0.000000,0.000000,0.000000,0.000000,0.000000,0.000000,0.000000,1648620617.215384,0.000000
162.000000,14332.407931,16208.993341,23908.498753,29263.082655,-22960.628326,15878.433392,-9513.885917,-28047.684198,0.050000,0.974000,0.162000,192.000000,0.000000,0.000000,0.000000,0.000000,0.000000,0.000000,0.000000,0.000000,0.000000,1648620617.215394,0.000000
163.000000,14322.349646,16192.944788,23905.101288,29256.533594,-22966.640945,15880.042717,-9512.321295,-28059.105940,0.050000,0.974000,0.162000,192.000000,0.000000,0.000000,0.000000,0.000000,0.000000,0.000000,0.000000,0.000000,0.000000,1648620617.223608,0.000000
164.000000,14318.147518,16190.955483,23900.787401,29253.270239,-22972.988841,15876.309976,-9516.612830,-28033.692006,0.050000,0.974000,0.162000,192.000000,0.000000,0.000000,0.000000,0.000000,0.000000,0.000000,0.000000,0.000000,0.000000,1648620617.229971,0.000000
165.000000,14324.182489,16203.025425,23902.463782,29255.259544,-22973.681745,15874.611244,-9516.009333,-28038.967018,0.050000,0.974000,0.162000,192.000000,0.000000,0.000000,0.000000,0.000000,0.000000,0.000000,0.000000,0.000000,0.000000,1648620617.229982,0.000000
166.000000,14323.176661,16193.637692,23905.391861,29252.823204,-22975.939271,15870.856150,-9518.870356,-28054.277963,0.050000,0.974000,0.162000,192.000000,0.000000,0.000000,0.000000,0.000000,0.000000,0.000000,0.000000,0.000000,0.000000,1648620617.238220,0.000000
167.000000,14325.098911,16188.206218,23907.627035,29246.810585,-22977.906224,15871.593758,-9513.327123,-28040.241067,0.050000,0.974000,0.162000,192.000000,0.000000,0.000000,0.000000,0.000000,0.000000,0.000000,0.000000,0.000000,0.000000,1648620617.238237,0.000000
168.000000,14334.240774,16202.533686,23917.081823,29254.678399,-22972.385344,15879.215703,-9513.818862,-28014.201285,0.050000,0.974000,0.162000,192.000000,0.000000,0.000000,0.000000,0.000000,0.000000,0.000000,0.000000,0.000000,0.000000,1648620617.246025,0.000000
169.000000,14329.569260,16198.510372,23916.679492,29259.238155,-22972.273585,15875.684127,-9516.612830,-28023.253742,0.050000,0.974000,0.168000,192.000000,1.000000,144.000000,30.000000,112.000000,5.000000,64.000000,0.000000,0.000000,0.000000,1648620617.246035,0.000000
170.000000,14329.971591,16203.740681,23917.931189,29261.428626,-22972.407695,15875.661776,-9519.853833,-28029.467527,0.050000,0.974000,0.168000,192.000000,0.000000,0.000000,0.000000,0.000000,0.000000,0.000000,0.000000,0.000000,0.000000,1648620617.253417,0.000000
171.000000,14333.302001,16202.064300,23921.529820,29261.361571,-22969.658431,15880.869732,-9515.852870,-28030.249838,0.050000,0.974000,0.168000,192.000000,0.000000,0.000000,0.000000,0.000000,0.000000,0.000000,0.000000,0.000000,0.000000,1648620617.253435,0.000000
172.000000,14329.658667,16202.399576,23920.948675,29258.992286,-22973.122951,15878.411040,-9509.102644,-28030.227486,0.050000,0.974000,0.168000,192.000000,0.000000,0.000000,0.000000,0.000000,0.000000,0.000000,0.000000,0.000000,0.000000,1648620617.260693,0.000000
173.000000,14326.261202,16199.247980,23916.075995,29252.018541,-22983.538864,15865.402325,-9524.279478,-28048.086530,0.050000,0.974000,0.168000,192.000000,0.000000,0.000000,0.000000,0.000000,0.000000,0.000000,0.000000,0.000000,0.000000,1648620617.260705,0.000000
174.000000,14324.026027,16195.135259,23916.277160,29245.044797,-22988.366841,15867.034002,-9522.379580,-28050.209945,0.050000,0.974000,0.168000,192.000000,0.000000,0.000000,0.000000,0.000000,0.000000,0.000000,0.000000,0.000000,0.000000,1648620617.268757,0.000000
175.000000,14317.834594,16193.190657,23910.286893,29240.239172,-22994.290053,15863.524778,-9520.993772,-28048.175937,0.050000,0.974000,0.168000,192.000000,0.000000,0.000000,0.000000,0.000000,0.000000,0.000000,0.000000,0.000000,0.000000,1648620617.268770,0.000000
176.000000,14323.534289,16195.314073,23914.399614,29250.498623,-22990.579664,15863.815351,-9521.194937,-28054.479129,0.050000,0.974000,0.168000,192.000000,0.000000,0.000000,0.000000,0.000000,0.000000,0.000000,0.000000,0.000000,0.000000,1648620617.276856,0.000000
177.000000,14330.016295,16201.058471,23917.640617,29252.465576,-22988.903283,15866.944595,-9517.395141,-28054.657943,0.050000,0.974000,0.168000,192.000000,0.000000,0.000000,0.000000,0.000000,0.000000,0.000000,0.000000,0.000000,0.000000,1648620617.276874,0.000000
178.000000,14342.287402,16218.090501,23935.834937,29272.962126,-22970.641908,15887.374090,-9504.095853,-28026.271227,0.050000,0.974000,0.168000,192.000000,0.000000,0.000000,0.000000,0.000000,0.000000,0.000000,0.000000,0.000000,0.000000,1648620617.282913,0.000000
179.000000,14340.722780,16220.303323,23937.041931,29274.258527,-22968.876120,15882.233188,-9514.958801,-28034.429614,0.046000,0.976000,0.168000,192.000000,1.000000,112.000000,30.000000,128.000000,5.000000,64.000000,0.000000,0.000000,0.000000,1648620617.290402,0.000000
180.000000,14327.423492,16205.104137,23920.903971,29255.170137,-22985.349355,15863.703592,-9523.273650,-28056.870765,0.046000,0.976000,0.168000,192.000000,0.000000,0.000000,0.000000,0.000000,0.000000,0.000000,0.000000,0.000000,0.000000,1648620617.290414,0.000000
181.000000,14305.541135,16180.673680,23899.803925,29236.417024,-23004.773021,15847.342115,-9536.572938,-28072.204062,0.046000,0.976000,0.168000,192.000000,0.000000,0.000000,0.000000,0.000000,0.000000,0.000000,0.000000,0.000000,0.000000,1648620617.298423,0.000000
182.000000,14296.287512,16168.648442,23893.925416,29227.275160,-23013.937237,15841.754179,-9540.663307,-28099.763763,0.046000,0.976000,0.168000,192.000000,0.000000,0.000000,0.000000,0.000000,0.000000,0.000000,0.000000,0.000000,0.000000,1648620617.298434,0.000000
183.000000,14306.748129,16178.304395,23901.636768,29231.790213,-23008.438707,15849.487883,-9532.549624,-28069.745370,0.046000,0.976000,0.168000,192.000000,0.000000,0.000000,0.000000,0.000000,0.000000,0.000000,0.000000,0.000000,0.000000,1648620617.306349,0.000000
184.000000,14321.567335,16195.805811,23916.210105,29252.085597,-22991.876065,15867.078706,-9540.819769,-28025.779489,0.046000,0.976000,0.168000,192.000000,0.000000,0.000000,0.000000,0.000000,0.000000,0.000000,0.000000,0.000000,0.000000,1648620617.306360,0.000000
185.000000,14324.517766,16201.460803,23917.439451,29256.757111,-22986.936329,15874.164209,-9530.247394,-28023.030224,0.046000,0.976000,0.168000,192.000000,0.000000,0.000000,0.000000,0.000000,0.000000,0.000000,0.000000,0.000000,0.000000,1648620617.312965,0.000000
186.000000,14318.192222,16193.436526,23914.489021,29249.157518,-22993.038355,15870.610281,-9508.141519,-28020.616236,0.046000,0.976000,0.168000,192.000000,0.000000,0.000000,0.000000,0.000000,0.000000,0.000000,0.000000,0.000000,0.000000,1648620617.312977,0.000000
187.000000,14321.142652,16198.152745,23921.418061,29253.426701,-22988.858579,15869.000956,-9512.388350,-28022.203210,0.046000,0.976000,0.168000,192.000000,0.000000,0.000000,0.000000,0.000000,0.000000,0.000000,0.000000,0.000000,0.000000,1648620617.321149,0.000000
188.000000,14318.795719,16195.537590,23916.880657,29253.985495,-22991.585492,15863.167150,-9526.313487,-28039.615219,0.046000,0.976000,0.168000,192.000000,0.000000,0.000000,0.000000,0.000000,0.000000,0.000000,0.000000,0.000000,0.000000,1648620617.321166,0.000000
189.000000,14319.086292,16198.532724,23916.433622,29253.024370,-22993.284225,15862.183674,-9527.341667,-28061.810501,0.052000,0.978000,0.166000,192.000000,1.000000,160.000000,30.000000,144.000000,5.000000,48.000000,0.000000,0.000000,0.000000,1648620617.328949,0.000000
190.000000,14321.343818,16201.214934,23918.512335,29259.796948,-22989.864408,15866.050525,-9516.545775,-28046.343094,0.052000,0.978000,0.166000,192.000000,0.000000,0.000000,0.000000,0.000000,0.000000,0.000000,0.000000,0.000000,0.000000,1648620617.328959,0.000000
191.000000,14329.904536,16207.942809,23931.409291,29268.335315,-22977.347431,15876.958177,-9509.303809,-28028.081718,0.052000,0.978000,0.166000,192.000000,0.000000,0.000000,0.000000,0.000000,0.000000,0.000000,0.000000,0.000000,0.000000,1648620617.336424,0.000000
192.000000,14336.788873,16213.888373,23937.578373,29273.409161,-22971.200701,15873.314842,-9516.881051,-28048.779434,0.052000,0.978000,0.166000,192.000000,0.000000,0.000000,0.000000,0.000000,0.000000,0.000000,0.000000,0.000000,0.000000,1648620617.336441,0.000000
193.000000,14330.239812,16214.827146,23933.756224,29270.190510,-22975.983974,15875.304148,-9506.442786,-28035.502498,0.052000,0.978000,0.166000,192.000000,0.000000,0.000000,0.000000,0.000000,0.000000,0.000000,0.000000,0.000000,0.000000,1648620617.342831,0.000000
194.000000,14323.377827,16202.064300,23927.453032,29260.735722,-22983.024774,15873.583063,-9511.091949,-28026.025358,0.052000,0.978000,0.166000,192.000000,0.000000,0.000000,0.000000,0.000000,0.000000,0.000000,0.000000,0.000000,0.000000,1648620617.350685,0.000000
195.000000,14323.154309,16195.157611,23926.290742,29262.412103,-22981.840132,15877.360508,-9514.176490,-28033.915524,0.052000,0.978000,0.166000,192.000000,0.000000,0.000000,0.000000,0.000000,0.000000,0.000000,0.000000,0.000000,0.000000,1648620617.350699,0.000000
196.000000,14313.230135,16187.982701,23917.350044,29254.030198,-22991.943120,15869.917377,-9523.787740,-28043.102091,0.052000,0.978000,0.166000,192.000000,0.000000,0.000000,0.000000,0.000000,0.000000,0.000000,0.000000,0.000000,0.000000,1648620617.358873,0.000000
197.000000,14321.790853,16196.454012,23929.934076,29262.926193,-22981.907187,15876.868770,-9513.327123,-28046.700722,0.052000,0.978000,0.166000,192.000000,0.000000,0.000000,0.000000,0.000000,0.000000,0.000000,0.000000,0.000000,0.000000,1648620617.358884,0.000000
198.000000,14322.327295,16201.125527,23929.308227,29262.099178,-22981.616614,15869.850322,-9515.718760,-28073.276946,0.052000,0.978000,0.166000,192.000000,0.000000,0.000000,0.000000,0.000000,0.000000,0.000000,0.000000,0.000000,0.000000,1648620617.365755,0.000000
199.000000,14314.347722,16195.559942,23920.881620,29259.484024,-22990.199684,15867.749258,-9523.564222,-28050.232297,0.048000,0.980000,0.172000,192.000000,1.000000,128.000000,30.000000,160.000000,5.000000,96.000000,0.000000,0.000000,0.000000,1648620617.365768,0.000000
200.000000,14321.947315,16203.628922,23927.788309,29266.547175,-22983.874140,15876.980528,-9517.730417,-28026.003006,0.048000,0.980000,0.172000,192.000000,0.000000,0.000000,0.000000,0.000000,0.000000,0.000000,0.000000,0.000000,0.000000,1648620617.373282,0.000000
201.000000,14308.849193,16192.587160,23919.428756,29257.606477,-22989.663242,15867.592796,-9525.553528,-28037.491803,0.048000,0.980000,0.172000,192.000000,0.000000,0.000000,0.000000,0.000000,0.000000,0.000000,0.000000,0.000000,0.000000,1648620617.373293,0.000000
202.000000,14297.650969,16177.611491,23909.638692,29243.435471,-23000.235617,15864.485903,-9517.573955,-28026.114765,0.048000,0.980000,0.172000,192.000000,0.000000,0.000000,0.000000,0.000000,0.000000,0.000000,0.000000,0.000000,0.000000,1648620617.381323,0.000000
203.000000,14303.685940,16178.594968,23913.930227,29243.882506,-22996.748745,15863.882406,-9518.400969,-28047.415977,0.048000,0.980000,0.172000,192.000000,0.000000,0.000000,0.000000,0.000000,0.000000,0.000000,0.000000,0.000000,0.000000,1648620617.381334,0.000000
204.000000,14302.814222,16183.199428,23915.003111,29247.771710,-22993.999480,15860.283775,-9530.046228,-28066.280850,0.048000,0.980000,0.172000,192.000000,0.000000,0.000000,0.000000,0.000000,0.000000,0.000000,0.000000,0.000000,0.000000,1648620617.388427,0.000000
205.000000,14311.263181,16194.867038,23923.764995,29257.494719,-22986.623405,15872.845456,-9519.585612,-28017.509343,0.048000,0.980000,0.172000,192.000000,0.000000,0.000000,0.000000,0.000000,0.000000,0.000000,0.000000,0.000000,0.000000,1648620617.388444,0.000000
206.000000,14308.558620,16193.749451,23920.814564,29258.500547,-22987.070440,15874.633595,-9512.500109,-27996.677517,0.048000,0.980000,0.172000,192.000000,0.000000,0.000000,0.000000,0.000000,0.000000,0.000000,0.000000,0.000000,0.000000,1648620617.395801,0.000000
207.000000,14305.518783,16188.899122,23915.226628,29254.499585,-22992.904245,15864.463552,-9515.338780,-28033.379082,0.048000,0.980000,0.172000,192.000000,0.000000,0.000000,0.000000,0.000000,0.000000,0.000000,0.000000,0.000000,0.000000,1648620617.395811,0.000000
208.000000,14322.684923,16202.690149,23931.319884,29266.770693,-22978.666184,15876.891121,-9505.615771,-28023.700777,0.048000,0.980000,0.172000,192.000000,0.000000,0.000000,0.000000,0.000000,0.000000,0.000000,0.000000,0.000000,0.000000,1648620617.402924,0.000000
209.000000,14319.958010,16198.622131,23929.732910,29264.826091,-22978.912053,15878.232226,-9502.307713,-28014.804782,0.050000,0.976000,0.170000,192.000000,1.000000,144.000000,30.000000,128.000000,5.000000,80.000000,0.000000,0.000000,0.000000,1648620617.410757,0.000000
210.000000,14310.905553,16191.134297,23918.266465,29255.170137,-22990.557312,15859.009726,-9526.335839,-28040.956323,0.050000,0.976000,0.170000,192.000000,0.000000,0.000000,0.000000,0.000000,0.000000,0.000000,0.000000,0.000000,0.000000,1648620617.410769,0.000000
211.000000,14301.070786,16181.947730,23908.297587,29246.743530,-22999.766231,15848.124426,-9534.516577,-28056.401379,0.050000,0.976000,0.170000,192.000000,0.000000,0.000000,0.000000,0.000000,0.000000,0.000000,0.000000,0.000000,0.000000,1648620617.418020,0.000000
212.000000,14310.167946,16191.626035,23919.048777,29256.332428,-22987.897454,15857.981546,-9522.938373,-28046.790129,0.050000,0.976000,0.170000,192.000000,0.000000,0.000000,0.000000,0.000000,0.000000,0.000000,0.000000,0.000000,0.000000,1648620617.418031,0.000000
213.000000,14325.635353,16213.463690,23932.795099,29270.190510,-22974.508759,15872.510180,-9509.482623,-28034.496669,0.050000,0.976000,0.170000,192.000000,0.000000,0.000000,0.000000,0.000000,0.000000,0.000000,0.000000,0.000000,0.000000,1648620617.425620,0.000000
214.000000,14316.202917,16202.064300,23928.458861,29263.037951,-22980.074344,15871.929034,-9511.248411,-28027.545277,0.050000,0.976000,0.170000,192.000000,0.000000,0.000000,0.000000,0.000000,0.000000,0.000000,0.000000,0.000000,0.000000,1648620617.425634,0.000000
215.000000,14300.735509,16176.337442,23910.979797,29243.100195,-22996.011137,15851.253671,-9542.987888,-28047.684198,0.050000,0.976000,0.170000,192.000000,0.000000,0.000000,0.000000,0.000000,0.000000,0.000000,0.000000,0.000000,0.000000,1648620617.433483,0.000000
216.000000,14307.977475,16185.300491,23920.255771,29251.929134,-22985.617576,15859.054429,-9530.694429,-28053.562707,0.050000,0.976000,0.170000,192.000000,0.000000,0.000000,0.000000,0.000000,0.000000,0.000000,0.000000,0.000000,0.000000,1648620617.433495,0.000000
217.000000,14300.914323,16178.013823,23915.584256,29244.776576,-22990.490257,15857.467456,-9512.097777,-28061.251707,0.050000,0.976000,0.170000,192.000000,0.000000,0.000000,0.000000,0.000000,0.000000,0.000000,0.000000,0.000000,0.000000,1648620617.441520,0.000000
218.000000,14296.198105,16175.801000,23912.767936,29241.289704,-22993.194818,15855.612261,-9521.127882,-28051.439291,0.050000,0.976000,0.170000,192.000000,0.000000,0.000000,0.000000,0.000000,0.000000,0.000000,0.000000,0.000000,0.000000,1648620617.441531,0.000000
219.000000,14291.325425,16172.045907,23908.409346,29237.288742,-22997.285187,15850.650174,-9529.152158,-28036.418919,0.042000,0.974000,0.164000,192.000000,1.000000,80.000000,30.000000,112.000000,5.000000,32.000000,0.000000,0.000000,0.000000,1648620617.448192,0.000000
220.000000,14293.694710,16173.722288,23912.320901,29240.440338,-22992.613672,15851.052505,-9528.191033,-28055.283791,0.042000,0.974000,0.164000,192.000000,0.000000,0.000000,0.000000,0.000000,0.000000,0.000000,0.000000,0.000000,0.000000,1648620617.448209,0.000000
221.000000,14296.220457,16178.103230,23913.684358,29245.536535,-22987.919806,15855.165226,-9526.827577,-28045.113748,0.042000,0.974000,0.164000,192.000000,0.000000,0.000000,0.000000,0.000000,0.000000,0.000000,0.000000,0.000000,0.000000,1648620617.456089,0.000000
222.000000,14294.789945,16176.270387,23912.075032,29246.207088,-22987.718640,15855.724019,-9529.800359,-28029.735748,0.042000,0.974000,0.164000,192.000000,0.000000,0.000000,0.000000,0.000000,0.000000,0.000000,0.000000,0.000000,0.000000,1648620617.456097,0.000000
223.000000,14300.422585,16182.730041,23917.595913,29251.079768,-22984.879969,15859.970851,-9521.261993,-28032.797937,0.042000,0.974000,0.164000,192.000000,0.000000,0.000000,0.000000,0.000000,0.000000,0.000000,0.000000,0.000000,0.000000,1648620617.463172,0.000000
224.000000,14301.897800,16181.813619,23917.282989,29250.476271,-22985.796390,15860.551996,-9517.372789,-28041.582172,0.042000,0.974000,0.164000,192.000000,0.000000,0.000000,0.000000,0.000000,0.000000,0.000000,0.000000,0.000000,0.000000,1648620617.463185,0.000000
225.000000,14309.564449,16192.698919,23923.764995,29255.125434,-22980.364916,15863.502427,-9515.607001,-28030.562762,0.042000,0.974000,0.164000,192.000000,0.000000,0.000000,0.000000,0.000000,0.000000,0.000000,0.000000,0.000000,0.000000,1648620617.471331,0.000000
226.000000,14300.914323,16178.036175,23917.953541,29243.658989,-22988.724469,15856.215758,-9521.329048,-28055.730826,0.042000,0.974000,0.164000,192.000000,0.000000,0.000000,0.000000,0.000000,0.000000,0.000000,0.000000,0.000000,0.000000,1648620617.477763,0.000000
227.000000,14289.671396,16162.971099,23916.679492,29240.842669,-22991.205512,15860.686107,-9515.517594,-28056.110806,0.042000,0.974000,0.164000,192.000000,0.000000,0.000000,0.000000,0.000000,0.000000,0.000000,0.000000,0.000000,0.000000,1648620617.477773,0.000000
228.000000,14301.450765,16178.214988,23920.546343,29246.452957,-22987.740992,15858.540339,-9516.970458,-28063.375123,0.042000,0.974000,0.164000,192.000000,0.000000,0.000000,0.000000,0.000000,0.000000,0.000000,0.000000,0.000000,0.000000,1648620617.486105,0.000000
229.000000,14286.430393,16160.266538,23905.481268,29229.331521,-23004.236579,15841.664772,-9530.940298,-28073.321649,0.042000,0.974000,0.164000,192.000000,0.000000,0.000000,0.000000,0.000000,0.000000,0.000000,0.000000,0.000000,0.000000,1648620617.486121,0.000000
230.000000,14286.743317,16159.439523,23910.957445,29229.510335,-23003.029585,15849.577290,-9526.537004,-28027.992311,0.040000,0.980000,0.158000,192.000000,1.000000,64.000000,30.000000,160.000000,4.000000,240.000000,0.000000,0.000000,0.000000,1648620617.493778,0.000000
231.000000,14297.874486,16173.766991,23920.836916,29239.903896,-22991.697251,15853.891176,-9523.497167,-28028.841678,0.040000,0.980000,0.158000,192.000000,0.000000,0.000000,0.000000,0.000000,0.000000,0.000000,0.000000,0.000000,0.000000,1648620617.493789,0.000000
232.000000,14299.550867,16173.677584,23923.317960,29247.682303,-22986.846922,15861.803694,-9519.026818,-28020.191553,0.040000,0.980000,0.158000,192.000000,0.000000,0.000000,0.000000,0.000000,0.000000,0.000000,0.000000,0.000000,0.000000,1648620617.500498,0.000000
233.000000,14293.851172,16162.412305,23918.780556,29238.518088,-22993.820667,15849.443179,-9527.878109,-28037.245934,0.040000,0.980000,0.158000,192.000000,0.000000,0.000000,0.000000,0.000000,0.000000,0.000000,0.000000,0.000000,0.000000,1648620617.500510,0.000000
234.000000,14305.921114,16173.521122,23927.676550,29243.726044,-22987.450419,15855.701668,-9520.479682,-28035.614256,0.040000,0.980000,0.158000,192.000000,0.000000,0.000000,0.000000,0.000000,0.000000,0.000000,0.000000,0.000000,0.000000,1648620617.508507,0.000000
235.000000,14301.383710,16171.084782,23922.982684,29240.060358,-22989.305614,15851.834816,-9528.347496,-28048.935896,0.040000,0.980000,0.158000,192.000000,0.000000,0.000000,0.000000,0.000000,0.000000,0.000000,0.000000,0.000000,0.000000,1648620617.508518,0.000000
236.000000,14304.512954,16177.186808,23928.347102,29241.021483,-22986.422239,15849.242014,-9529.196862,-28070.192405,0.040000,0.980000,0.158000,192.000000,0.000000,0.000000,0.000000,0.000000,0.000000,0.000000,0.000000,0.000000,0.000000,1648620617.516437,0.000000
237.000000,14306.658722,16179.623148,23930.850498,29244.061320,-22985.550521,15852.684182,-9519.071522,-28062.190480,0.040000,0.980000,0.158000,192.000000,0.000000,0.000000,0.000000,0.000000,0.000000,0.000000,0.000000,0.000000,0.000000,1648620617.516448,0.000000
238.000000,14305.563486,16182.819448,23933.175079,29254.209012,-22980.387268,15865.178807,-9512.701274,-28030.361596,0.040000,0.980000,0.158000,192.000000,0.000000,0.000000,0.000000,0.000000,0.000000,0.000000,0.000000,0.000000,0.000000,1648620617.523636,0.000000
239.000000,14311.754919,16187.759183,23938.405387,29258.835823,-22974.531111,15870.163246,-9513.975324,-28023.857239,0.040000,0.980000,0.158000,192.000000,0.000000,0.000000,0.000000,0.000000,0.000000,0.000000,0.000000,0.000000,0.000000,1648620617.523648,0.000000
240.000000,14300.511992,16176.493904,23925.106099,29243.033140,-22987.338661,15853.310031,-9524.368885,-28043.593829,0.048000,0.978000,0.154000,192.000000,1.000000,128.000000,30.000000,144.000000,4.000000,208.000000,0.000000,0.000000,0.000000,1648620617.530135,0.000000
241.000000,14300.511992,16175.063393,23921.462765,29237.288742,-22992.390155,15843.385857,-9532.504920,-28060.178823,0.048000,0.978000,0.154000,192.000000,0.000000,0.000000,0.000000,0.000000,0.000000,0.000000,0.000000,0.000000,0.000000,1648620617.538052,0.000000
242.000000,14299.573219,16182.662986,23921.865096,29245.000094,-22987.472771,15842.491787,-9533.376638,-28078.395495,0.048000,0.978000,0.154000,192.000000,0.000000,0.000000,0.000000,0.000000,0.000000,0.000000,0.000000,0.000000,0.000000,1648620617.538063,0.000000
243.000000,14295.616960,16177.410326,23917.551210,29238.652198,-22993.395983,15838.066141,-9533.533100,-28073.254594,0.048000,0.978000,0.154000,192.000000,0.000000,0.000000,0.000000,0.000000,0.000000,0.000000,0.000000,0.000000,0.000000,1648620617.546136,0.000000
244.000000,14302.680111,16174.817523,23924.055567,29243.882506,-22990.423201,15844.794016,-9537.846987,-28041.179841,0.048000,0.978000,0.154000,192.000000,0.000000,0.000000,0.000000,0.000000,0.000000,0.000000,0.000000,0.000000,0.000000,1648620617.546150,0.000000
245.000000,14296.309864,16172.358831,23919.898143,29239.412157,-22993.887722,15844.682258,-9526.335839,-28048.690027,0.048000,0.978000,0.154000,192.000000,0.000000,0.000000,0.000000,0.000000,0.000000,0.000000,0.000000,0.000000,0.000000,1648620617.553508,0.000000
246.000000,14294.968759,16170.369526,23917.998245,29238.719253,-22994.513571,15834.512214,-9523.675981,-28091.918301,0.048000,0.978000,0.154000,192.000000,0.000000,0.000000,0.000000,0.000000,0.000000,0.000000,0.000000,0.000000,0.000000,1648620617.553524,0.000000
247.000000,14302.836573,16176.382145,23927.162460,29244.642466,-22989.015041,15846.783322,-9515.227022,-28035.748367,0.048000,0.978000,0.154000,192.000000,0.000000,0.000000,0.000000,0.000000,0.000000,0.000000,0.000000,0.000000,0.000000,1648620617.560763,0.000000
248.000000,14302.948332,16181.388936,23930.582277,29248.688131,-22985.729335,15851.991278,-9515.785815,-28011.787297,0.048000,0.978000,0.154000,192.000000,0.000000,0.000000,0.000000,0.000000,0.000000,0.000000,0.000000,0.000000,0.000000,1648620617.560775,0.000000
249.000000,14301.718986,16177.991471,23929.308227,29245.067149,-22987.428068,15849.286717,-9517.126920,-28028.059367,0.048000,0.978000,0.154000,192.000000,0.000000,0.000000,0.000000,0.000000,0.000000,0.000000,0.000000,0.000000,0.000000,1648620617.569014,0.000000
250.000000,14313.140728,16184.205256,23941.132300,29255.371303,-22977.526245,15854.092342,-9516.389312,-28035.144870,0.040000,0.978000,0.160000,192.000000,1.000000,64.000000,30.000000,144.000000,5.000000,0.000000,0.000000,0.000000,0.000000,1648620617.569031,0.000000
251.000000,14320.248582,16192.408346,23948.262507,29262.792082,-22969.971355,15858.585043,-9509.236754,-28031.032149,0.040000,0.978000,0.160000,192.000000,0.000000,0.000000,0.000000,0.000000,0.000000,0.000000,0.000000,0.000000,0.000000,1648620617.576707,0.000000
252.000000,14308.782137,16181.232474,23935.186736,29253.203184,-22980.431972,15852.326554,-9517.506900,-28040.151660,0.040000,0.978000,0.160000,192.000000,0.000000,0.000000,0.000000,0.000000,0.000000,0.000000,0.000000,0.000000,0.000000,1648620617.576718,0.000000
253.000000,14317.052283,16191.268407,23939.098291,29252.867908,-22978.196797,15850.694877,-9518.512728,-28059.307105,0.040000,0.978000,0.160000,192.000000,0.000000,0.000000,0.000000,0.000000,0.000000,0.000000,0.000000,0.000000,0.000000,1648620617.583354,0.000000
254.000000,14312.336065,16186.932169,23935.834937,29252.979666,-22980.476675,15847.409171,-9519.205632,-28065.878518,0.040000,0.978000,0.160000,192.000000,0.000000,0.000000,0.000000,0.000000,0.000000,0.000000,0.000000,0.000000,0.000000,1648620617.583366,0.000000
255.000000,14298.723852,16171.576520,23923.005035,29239.658027,-22991.920768,15839.921336,-9529.018048,-28048.354751,0.040000,0.978000,0.160000,192.000000,0.000000,0.000000,0.000000,0.000000,0.000000,0.000000,0.000000,0.000000,0.000000,1648620617.590311,0.000000
0.000000,14303.283608,16176.918587,23922.736814,29241.379111,-22992.524265,15833.752255,-9538.964574,-28060.737617,0.040000,0.978000,0.160000,192.000000,0.000000,0.000000,0.000000,0.000000,0.000000,0.000000,0.000000,0.000000,0.000000,1648620617.598570,0.000000
1.000000,14303.574181,16176.024518,23924.100271,29243.524878,-22993.574797,15829.840699,-9539.880996,-28089.996051,0.040000,0.978000,0.160000,192.000000,0.000000,0.000000,0.000000,0.000000,0.000000,0.000000,0.000000,0.000000,0.000000,1648620617.598586,0.000000
2.000000,14298.366225,16171.174189,23921.686282,29244.128376,-22995.184123,15830.913583,-9536.125903,-28074.506292,0.040000,0.978000,0.160000,192.000000,0.000000,0.000000,0.000000,0.000000,0.000000,0.000000,0.000000,0.000000,0.000000,1648620617.606429,0.000000
3.000000,14295.907533,16169.095477,23926.067224,29244.731873,-22992.166637,15838.423769,-9537.757580,-28043.258553,0.040000,0.978000,0.160000,192.000000,0.000000,0.000000,0.000000,0.000000,0.000000,0.000000,0.000000,0.000000,0.000000,1648620617.606441,0.000000
4.000000,14295.125222,16172.090611,23927.229515,29244.664817,-22989.372669,15843.676429,-9527.967516,-28034.764890,0.038000,0.974000,0.168000,192.000000,1.000000,48.000000,30.000000,112.000000,5.000000,64.000000,0.000000,0.000000,0.000000,1648620617.612969,0.000000
5.000000,14303.082443,16173.744640,23926.983646,29243.860155,-22991.786658,15840.278964,-9526.894632,-28060.178823,0.038000,0.974000,0.168000,192.000000,0.000000,0.000000,0.000000,0.000000,0.000000,0.000000,0.000000,0.000000,0.000000,1648620617.612980,0.000000
6.000000,14315.331199,16183.154724,23939.098291,29255.326600,-22982.175408,15850.828987,-9518.624487,-28042.990332,0.038000,0.974000,0.168000,192.000000,0.000000,0.000000,0.000000,0.000000,0.000000,0.000000,0.000000,0.000000,0.000000,1648620617.621140,0.000000
7.000000,14312.693693,16184.406422,23938.852422,29257.070036,-22980.476675,15852.259499,-9527.386371,-28034.519021,0.038000,0.974000,0.168000,192.000000,0.000000,0.000000,0.000000,0.000000,0.000000,0.000000,0.000000,0.000000,0.000000,1648620617.621158,0.000000
8.000000,14318.147518,16191.402518,23942.361646,29262.412103,-22975.738105,15852.952403,-9529.800359,-28048.891193,0.038000,0.974000,0.168000,192.000000,0.000000,0.000000,0.000000,0.000000,0.000000,0.000000,0.000000,0.000000,0.000000,1648620617.628993,0.000000
9.000000,14319.443920,16193.749451,23939.433567,29261.316867,-22976.006326,15847.565633,-9530.113283,-28062.749274,0.038000,0.974000,0.168000,192.000000,0.000000,0.000000,0.000000,0.000000,0.000000,0.000000,0.000000,0.000000,0.000000,1648620617.629004,0.000000
10.000000,14312.000789,16183.668814,23933.957390,29251.035065,-22980.811951,15845.799845,-9516.322257,-28053.093321,0.038000,0.974000,0.168000,192.000000,0.000000,0.000000,0.000000,0.000000,0.000000,0.000000,0.000000,0.000000,0.000000,1648620617.635719,0.000000
11.000000,14296.376919,16167.821427,23922.155669,29234.338311,-22993.708908,15832.053522,-9518.400969,-28074.036905,0.038000,0.974000,0.168000,192.000000,0.000000,0.000000,0.000000,0.000000,0.000000,0.000000,0.000000,0.000000,0.000000,1648620617.635730,0.000000
12.000000,14304.580010,16174.683413,23932.325713,29250.297457,-22983.672975,15838.848452,-9517.015161,-28073.612222,0.038000,0.974000,0.168000,192.000000,0.000000,0.000000,0.000000,0.000000,0.000000,0.000000,0.000000,0.000000,0.000000,1648620617.643547,0.000000
13.000000,14305.027044,16182.595930,23934.583239,29255.952448,-22979.716716,15846.671563,-9514.981152,-28039.324646,0.038000,0.974000,0.168000,192.000000,0.000000,0.000000,0.000000,0.000000,0.000000,0.000000,0.000000,0.000000,0.000000,1648620617.643556,0.000000
14.000000,14308.759786,16186.373375,23937.757187,29262.993248,-22977.928576,15854.941708,-9514.735283,-28029.847506,0.036000,0.974000,0.164000,192.000000,1.000000,32.000000,30.000000,112.000000,5.000000,32.000000,0.000000,0.000000,0.000000,1648620617.650668,0.000000
15.000000,14316.359379,16192.408346,23941.758149,29263.753207,-22976.229844,15849.063200,-9519.093873,-28063.308068,0.036000,0.974000,0.164000,192.000000,0.000000,0.000000,0.000000,0.000000,0.000000,0.000000,0.000000,0.000000,0.000000,1648620617.658978,0.000000
16.000000,14307.888068,16179.757259,23931.476346,29254.007847,-22984.589396,15843.765836,-9522.759559,-28058.480091,0.036000,0.974000,0.164000,192.000000,0.000000,0.000000,0.000000,0.000000,0.000000,0.000000,0.000000,0.000000,0.000000,1648620617.658989,0.000000
17.000000,14292.197143,16159.618337,23916.768899,29237.221687,-23000.012100,15834.132234,-9531.789664,-28059.955306,0.036000,0.974000,0.164000,192.000000,0.000000,0.000000,0.000000,0.000000,0.000000,0.000000,0.000000,0.000000,0.000000,1648620617.665320,0.000000
18.000000,14302.903629,16170.950672,23929.732910,29249.649256,-22990.356146,15844.682258,-9518.848004,-28053.942687,0.036000,0.974000,0.164000,192.000000,0.000000,0.000000,0.000000,0.000000,0.000000,0.000000,0.000000,0.000000,0.000000,1648620617.665335,0.000000
19.000000,14311.062015,16185.188733,23935.901992,29256.310076,-22982.823608,15853.310031,-9514.288248,-28034.697835,0.036000,0.974000,0.164000,192.000000,0.000000,0.000000,0.000000,0.000000,0.000000,0.000000,0.000000,0.000000,0.000000,1648620617.673262,0.000000
20.000000,14305.272914,16183.311186,23927.855364,29247.794062,-22990.691422,15839.116673,-9528.258089,-28064.805635,0.036000,0.974000,0.164000,192.000000,0.000000,0.000000,0.000000,0.000000,0.000000,0.000000,0.000000,0.000000,0.000000,1648620617.673274,0.000000
21.000000,14297.919190,16173.230549,23921.172192,29244.396596,-22996.614635,15833.372275,-9536.237661,-28083.938728,0.036000,0.974000,0.164000,192.000000,0.000000,0.000000,0.000000,0.000000,0.000000,0.000000,0.000000,0.000000,0.000000,1648620617.681388,0.000000
22.000000,14292.934751,16163.775762,23918.758204,29241.446166,-22999.833286,15836.233298,-9539.031629,-28067.912527,0.036000,0.974000,0.164000,192.000000,0.000000,0.000000,0.000000,0.000000,0.000000,0.000000,0.000000,0.000000,0.000000,1648620617.681405,0.000000
23.000000,14302.009559,16177.656195,23930.023483,29254.007847,-22987.986861,15848.258537,-9525.128844,-28049.964076,0.036000,0.974000,0.164000,192.000000,0.000000,0.000000,0.000000,0.000000,0.000000,0.000000,0.000000,0.000000,0.000000,1648620617.688552,0.000000
24.000000,14307.843364,16190.754317,23934.069149,29258.254678,-22983.717678,15851.723057,-9514.936449,-28042.565649,0.042000,0.970000,0.168000,192.000000,1.000000,80.000000,30.000000,80.000000,5.000000,64.000000,0.000000,0.000000,0.000000,1648620617.688564,0.000000
25.000000,14313.900687,16195.381128,23939.366512,29258.209975,-22979.716716,15852.281851,-9522.558394,-28045.091396,0.042000,0.970000,0.168000,192.000000,0.000000,0.000000,0.000000,0.000000,0.000000,0.000000,0.000000,0.000000,0.000000,1648620617.695939,0.000000
26.000000,14308.044530,16183.266483,23937.444262,29261.361571,-22977.727411,15858.249767,-9522.513690,-28039.168184,0.042000,0.970000,0.168000,192.000000,0.000000,0.000000,0.000000,0.000000,0.000000,0.000000,0.000000,0.000000,0.000000,1648620617.695949,0.000000
27.000000,14300.221419,16176.203331,23934.940867,29251.906783,-22981.147227,15853.913528,-9527.766350,-28045.918411,0.042000,0.970000,0.168000,192.000000,0.000000,0.000000,0.000000,0.000000,0.000000,0.000000,0.000000,0.000000,0.000000,1648620617.704091,0.000000
28.000000,14298.992073,16178.371451,23934.247963,29246.318847,-22982.264815,15843.743484,-9529.822711,-28076.607356,0.042000,0.970000,0.168000,192.000000,0.000000,0.000000,0.000000,0.000000,0.000000,0.000000,0.000000,0.000000,0.000000,1648620617.704109,0.000000
29.000000,14297.539210,16179.600797,23934.046797,29246.050626,-22982.041297,15850.583118,-9522.491339,-28062.659867,0.042000,0.970000,0.168000,192.000000,0.000000,0.000000,0.000000,0.000000,0.000000,0.000000,0.000000,0.000000,0.000000,1648620617.711050,0.000000
30.000000,14291.817163,16174.258730,23928.637675,29253.069073,-22985.461114,15850.538415,-9525.352362,-28049.070006,0.042000,0.970000,0.168000,192.000000,0.000000,0.000000,0.000000,0.000000,0.000000,0.000000,0.000000,0.000000,0.000000,1648620617.711062,0.000000
31.000000,14301.786041,16186.306320,23936.505489,29257.874698,-22977.280376,15859.210892,-9511.360170,-28054.724998,0.042000,0.970000,0.168000,192.000000,0.000000,0.000000,0.000000,0.000000,0.000000,0.000000,0.000000,0.000000,0.000000,1648620617.718168,0.000000
32.000000,14302.501297,16185.300491,23935.007922,29255.416006,-22978.822646,15858.607395,-9513.930620,-28046.410149,0.042000,0.970000,0.168000,192.000000,0.000000,0.000000,0.000000,0.000000,0.000000,0.000000,0.000000,0.000000,0.000000,1648620617.725854,0.000000
33.000000,14314.146556,16192.073070,23942.786329,29256.734759,-22974.285242,15864.441200,-9514.802338,-28031.434480,0.042000,0.970000,0.168000,192.000000,0.000000,0.000000,0.000000,0.000000,0.000000,0.000000,0.000000,0.000000,0.000000,1648620617.725866,0.000000
34.000000,14308.580972,16193.414175,23939.411216,29259.662838,-22975.291070,15859.501464,-9523.899498,-28050.701684,0.050000,0.974000,0.176000,192.000000,1.000000,144.000000,30.000000,112.000000,5.000000,128.000000,0.000000,0.000000,0.000000,1648620617.733687,0.000000
35.000000,14297.270989,16179.153762,23930.291704,29247.615248,-22985.639928,15847.587985,-9533.801321,-28071.198234,0.050000,0.974000,0.176000,192.000000,0.000000,0.000000,0.000000,0.000000,0.000000,0.000000,0.000000,0.000000,0.000000,1648620617.733702,0.000000
36.000000,14303.305960,16181.232474,23936.281971,29249.403387,-22980.119047,15846.738618,-9522.513690,-28074.171016,0.050000,0.974000,0.176000,192.000000,0.000000,0.000000,0.000000,0.000000,0.000000,0.000000,0.000000,0.000000,0.000000,1648620617.741567,0.000000
37.000000,14296.533382,16176.471552,23929.643503,29236.171155,-22989.842056,15840.033095,-9533.533100,-28068.471321,0.050000,0.974000,0.176000,192.000000,0.000000,0.000000,0.000000,0.000000,0.000000,0.000000,0.000000,0.000000,0.000000,1648620617.741578,0.000000
38.000000,14305.518783,16186.775707,23942.115777,29259.528727,-22974.642870,15861.826046,-9518.803301,-28045.806652,0.050000,0.974000,0.176000,192.000000,0.000000,0.000000,0.000000,0.000000,0.000000,0.000000,0.000000,0.000000,0.000000,1648620617.748200,0.000000
39.000000,14306.993998,16187.625073,23942.540460,29255.930097,-22973.502931,15857.802732,-9519.563260,-28069.007763,0.050000,0.974000,0.176000,192.000000,0.000000,0.000000,0.000000,0.000000,0.000000,0.000000,0.000000,0.000000,0.000000,1648620617.748216,0.000000
40.000000,14296.980416,16174.973986,23932.683341,29246.229440,-22981.974242,15851.924223,-9526.514653,-28090.510141,0.050000,0.974000,0.176000,192.000000,0.000000,0.000000,0.000000,0.000000,0.000000,0.000000,0.000000,0.000000,0.000000,1648620617.756139,0.000000
41.000000,14295.482850,16173.252901,23932.660989,29237.758128,-22983.047126,15857.847435,-9512.567164,-28059.396512,0.050000,0.974000,0.176000,192.000000,0.000000,0.000000,0.000000,0.000000,0.000000,0.000000,0.000000,0.000000,0.000000,1648620617.756150,0.000000
42.000000,14307.262219,16187.535666,23944.015675,29249.537498,-22974.911091,15862.317784,-9517.059865,-28027.768794,0.050000,0.974000,0.176000,192.000000,0.000000,0.000000,0.000000,0.000000,0.000000,0.000000,0.000000,0.000000,0.000000,1648620617.764135,0.000000
43.000000,14304.781175,16181.947730,23941.042893,29258.791120,-22975.380477,15860.462589,-9527.073446,-28037.357692,0.050000,0.974000,0.176000,192.000000,0.000000,0.000000,0.000000,0.000000,0.000000,0.000000,0.000000,0.000000,0.000000,1648620617.764143,0.000000
44.000000,14297.874486,16174.415192,23932.750396,29246.229440,-22979.806123,15857.758028,-9522.066655,-28055.708475,0.052000,0.968000,0.176000,192.000000,1.000000,160.000000,30.000000,64.000000,5.000000,128.000000,0.000000,0.000000,0.000000,1648620617.770875,0.000000
45.000000,14305.205858,16178.974948,23941.914611,29256.086559,-22970.820721,15864.843531,-9522.044304,-28051.483995,0.052000,0.968000,0.176000,192.000000,0.000000,0.000000,0.000000,0.000000,0.000000,0.000000,0.000000,0.000000,0.000000,1648620617.770892,0.000000
46.000000,14321.567335,16197.459840,23956.286783,29277.387771,-22956.873233,15880.176828,-9510.667266,-28027.657035,0.052000,0.968000,0.176000,192.000000,0.000000,0.000000,0.000000,0.000000,0.000000,0.000000,0.000000,0.000000,0.000000,1648620617.777754,0.000000
47.000000,14318.773367,16194.241189,23954.520995,29273.118588,-22958.639021,15876.578197,-9500.810146,-28035.368387,0.052000,0.968000,0.176000,192.000000,0.000000,0.000000,0.000000,0.000000,0.000000,0.000000,0.000000,0.000000,0.000000,1648620617.786111,0.000000
48.000000,14311.576106,16187.714480,23947.524899,29255.550117,-22968.473788,15865.514084,-9509.504975,-28053.473300,0.052000,0.968000,0.176000,192.000000,0.000000,0.000000,0.000000,0.000000,0.000000,0.000000,0.000000,0.000000,0.000000,1648620617.786128,0.000000
49.000000,14315.822937,16194.352948,23950.385922,29263.686152,-22963.556405,15865.581139,-9516.858699,-28057.429559,0.052000,0.968000,0.176000,192.000000,0.000000,0.000000,0.000000,0.000000,0.000000,0.000000,0.000000,0.000000,0.000000,1648620617.793932,0.000000
50.000000,14320.516803,16199.426794,23957.806701,29277.857158,-22955.733294,15869.023307,-9521.038475,-28067.733713,0.052000,0.968000,0.176000,192.000000,0.000000,0.000000,0.000000,0.000000,0.000000,0.000000,0.000000,0.000000,0.000000,1648620617.793942,0.000000
51.000000,14318.236925,16195.090556,23957.761998,29270.346972,-22958.013172,15868.263348,-9510.488452,-28055.037922,0.052000,0.968000,0.176000,192.000000,0.000000,0.000000,0.000000,0.000000,0.000000,0.000000,0.000000,0.000000,0.000000,1648620617.800529,0.000000
52.000000,14316.828765,16193.592989,23950.095350,29238.898067,-22970.865425,15861.446066,-9516.501071,-28047.035998,0.052000,0.968000,0.176000,192.000000,0.000000,0.000000,0.000000,0.000000,0.000000,0.000000,0.000000,0.000000,0.000000,1648620617.800545,0.000000
53.000000,14310.793794,16188.899122,23946.519070,29238.227515,-22973.145303,15864.396496,-9523.988905,-28058.837719,0.052000,0.968000,0.176000,192.000000,0.000000,0.000000,0.000000,0.000000,0.000000,0.000000,0.000000,0.000000,0.000000,1648620617.808349,0.000000
54.000000,14317.387559,16193.972968,23956.778521,29280.896995,-22952.201718,15881.115601,-9504.118205,-28054.523832,0.052000,0.968000,0.180000,192.000000,1.000000,160.000000,30.000000,64.000000,5.000000,160.000000,0.000000,0.000000,0.000000,1648620617.808359,0.000000
55.000000,14310.011483,16186.216913,23947.524899,29274.705562,-22963.310535,15869.559749,-9509.907306,-28050.813443,0.052000,0.968000,0.180000,192.000000,0.000000,0.000000,0.000000,0.000000,0.000000,0.000000,0.000000,0.000000,0.000000,1648620617.816722,0.000000
56.000000,14307.061053,16183.132372,23943.322771,29256.958277,-22972.228881,15866.341098,-9519.920888,-28048.377102,0.052000,0.968000,0.180000,192.000000,0.000000,0.000000,0.000000,0.000000,0.000000,0.000000,0.000000,0.000000,0.000000,1648620617.816738,0.000000
57.000000,14318.818071,16196.699881,23956.063265,29277.611289,-22959.600146,15880.556808,-9514.891745,-28050.634629,0.052000,0.968000,0.180000,192.000000,0.000000,0.000000,0.000000,0.000000,0.000000,0.000000,0.000000,0.000000,0.000000,1648620617.823617,0.000000
58.000000,14327.311734,16204.366530,23963.394638,29268.625887,-22954.638059,15887.932883,-9500.027835,-28023.589018,0.052000,0.968000,0.180000,192.000000,0.000000,0.000000,0.000000,0.000000,0.000000,0.000000,0.000000,0.000000,0.000000,1648620617.823628,0.000000
59.000000,14318.683960,16191.469573,23960.913594,29282.439266,-22957.610841,15880.109773,-9505.146385,-28049.584097,0.052000,0.968000,0.180000,192.000000,0.000000,0.000000,0.000000,0.000000,0.000000,0.000000,0.000000,0.000000,0.000000,1648620617.831133,0.000000
60.000000,14302.769518,16178.617320,23941.691094,29214.154686,-22988.232730,15852.885348,-9519.317391,-28080.317745,0.052000,0.968000,0.180000,192.000000,0.000000,0.000000,0.000000,0.000000,0.000000,0.000000,0.000000,0.000000,0.000000,1648620617.831150,0.000000
61.000000,14282.474134,16146.073180,23923.250904,29157.157738,-23015.255989,15838.937859,-9534.047190,-28080.809484,0.052000,0.968000,0.180000,192.000000,0.000000,0.000000,0.000000,0.000000,0.000000,0.000000,0.000000,0.000000,0.000000,1648620617.838209,0.000000
62.000000,14317.208745,16177.678547,23959.505434,29264.490815,-22966.797407,15866.139932,-9522.938373,-28049.919373,0.052000,0.968000,0.180000,192.000000,0.000000,0.000000,0.000000,0.000000,0.000000,0.000000,0.000000,0.000000,0.000000,1648620617.846130,0.000000
63.000000,14336.833577,16213.821317,23976.470408,29290.552949,-22949.050122,15878.880427,-9511.248411,-28029.981617,0.052000,0.968000,0.180000,192.000000,0.000000,0.000000,0.000000,0.000000,0.000000,0.000000,0.000000,0.000000,0.000000,1648620617.846142,0.000000
64.000000,14330.239812,16209.105099,23975.665745,29286.127303,-22948.468977,15890.972721,-9499.558449,-28011.653186,0.052000,0.964000,0.178000,192.000000,1.000000,160.000000,30.000000,32.000000,5.000000,144.000000,0.000000,0.000000,0.000000,1648620617.853629,0.000000
65.000000,14318.214574,16190.553151,23962.455864,29268.134149,-22965.657469,15878.522799,-9513.930620,-28036.776547,0.052000,0.964000,0.178000,192.000000,0.000000,0.000000,0.000000,0.000000,0.000000,0.000000,0.000000,0.000000,0.000000,1648620617.853646,0.000000
66.000000,14308.156289,16181.500695,23950.475329,29258.031161,-22978.241501,15863.770647,-9531.029705,-28050.411111,0.052000,0.964000,0.178000,192.000000,0.000000,0.000000,0.000000,0.000000,0.000000,0.000000,0.000000,0.000000,0.000000,1648620617.860674,0.000000
67.000000,14314.347722,16186.105154,23953.202242,29252.599687,-22979.850826,15863.100095,-9524.391237,-28055.507309,0.052000,0.964000,0.178000,192.000000,0.000000,0.000000,0.000000,0.000000,0.000000,0.000000,0.000000,0.000000,0.000000,1648620617.860683,0.000000
68.000000,14310.480870,16176.069221,23951.145882,29256.623001,-22980.767248,15863.010688,-9518.713894,-28061.207004,0.052000,0.964000,0.178000,192.000000,0.000000,0.000000,0.000000,0.000000,0.000000,0.000000,0.000000,0.000000,0.000000,1648620617.868770,0.000000
69.000000,14307.910419,16174.594006,23952.688152,29242.139070,-22983.091829,15863.122447,-9517.663362,-28066.191443,0.052000,0.964000,0.178000,192.000000,0.000000,0.000000,0.000000,0.000000,0.000000,0.000000,0.000000,0.000000,0.000000,1648620617.868782,0.000000
70.000000,14311.553754,16179.466686,23956.309135,29258.947582,-22978.576777,15861.200197,-9517.931583,-28059.105940,0.052000,0.964000,0.178000,192.000000,0.000000,0.000000,0.000000,0.000000,0.000000,0.000000,0.000000,0.000000,0.000000,1648620617.876703,0.000000
71.000000,14307.999826,16176.516256,23954.051608,29271.129283,-22979.180274,15852.728886,-9532.616679,-28072.986373,0.052000,0.964000,0.178000,192.000000,0.000000,0.000000,0.000000,0.000000,0.000000,0.000000,0.000000,0.000000,0.000000,1648620617.876714,0.000000
72.000000,14330.843309,16198.577428,23979.666707,29299.359536,-22951.866442,15883.261369,-9515.718760,-28051.707512,0.052000,0.964000,0.178000,192.000000,0.000000,0.000000,0.000000,0.000000,0.000000,0.000000,0.000000,0.000000,0.000000,1648620617.883597,0.000000
73.000000,14332.050303,16197.102213,23981.924234,29296.230292,-22951.419407,15885.183619,-9506.956876,-28049.874669,0.052000,0.964000,0.178000,192.000000,0.000000,0.000000,0.000000,0.000000,0.000000,0.000000,0.000000,0.000000,0.000000,1648620617.883613,0.000000
74.000000,14327.535251,16196.766936,23980.672536,29291.692888,-22954.772169,15876.645252,-9512.455405,-28053.652114,0.052000,0.964000,0.178000,192.000000,0.000000,0.000000,0.000000,0.000000,0.000000,0.000000,0.000000,0.000000,0.000000,1648620617.891503,0.000000
75.000000,14324.115434,16195.962274,23978.862045,29280.338202,-22960.583623,15876.399383,-9513.796510,-28064.023324,0.052000,0.962000,0.186000,192.000000,1.000000,160.000000,30.000000,16.000000,5.000000,208.000000,0.000000,0.000000,0.000000,1648620617.891514,0.000000
76.000000,14313.520707,16181.500695,23967.909690,29258.835823,-22975.335774,15859.479113,-9524.771216,-28092.387687,0.052000,0.962000,0.186000,192.000000,0.000000,0.000000,0.000000,0.000000,0.000000,0.000000,0.000000,0.000000,0.000000,1648620617.898303,0.000000
77.000000,14307.709254,16171.777686,23959.304268,29218.021538,-22990.132629,15858.495636,-9520.926716,-28060.201175,0.052000,0.962000,0.186000,192.000000,0.000000,0.000000,0.000000,0.000000,0.000000,0.000000,0.000000,0.000000,0.000000,1648620617.905485,0.000000
78.000000,14318.996885,16196.096384,23967.015620,29274.102065,-22972.810027,15860.484941,-9523.318353,-28060.402341,0.052000,0.962000,0.186000,192.000000,0.000000,0.000000,0.000000,0.000000,0.000000,0.000000,0.000000,0.000000,0.000000,1648620617.905497,0.000000
79.000000,14321.343818,16191.871904,23968.490835,29263.753207,-22972.340640,15863.435371,-9522.312525,-28064.693876,0.052000,0.962000,0.186000,192.000000,0.000000,0.000000,0.000000,0.000000,0.000000,0.000000,0.000000,0.000000,0.000000,1648620617.912857,0.000000
80.000000,14316.873469,16183.892332,23962.634678,29203.403497,-22993.284225,15855.187578,-9522.446635,-28059.307105,0.052000,0.962000,0.186000,192.000000,0.000000,0.000000,0.000000,0.000000,0.000000,0.000000,0.000000,0.000000,0.000000,1648620617.912866,0.000000
81.000000,14316.694655,16203.383053,23968.468484,29281.634603,-22970.776018,15855.388743,-9525.888804,-28054.277963,0.052000,0.962000,0.186000,192.000000,0.000000,0.000000,0.000000,0.000000,0.000000,0.000000,0.000000,0.000000,0.000000,1648620617.921116,0.000000
82.000000,14333.749036,16216.257658,23986.193417,29320.101955,-22947.127872,15877.136991,-9514.444711,-28047.773605,0.052000,0.962000,0.186000,192.000000,0.000000,0.000000,0.000000,0.000000,0.000000,0.000000,0.000000,0.000000,0.000000,1648620617.921134,0.000000
83.000000,14325.724760,16200.276160,23972.111818,29258.768768,-22972.519454,15857.556863,-9519.004466,-28089.370202,0.052000,0.962000,0.186000,192.000000,0.000000,0.000000,0.000000,0.000000,0.000000,0.000000,0.000000,0.000000,0.000000,1648620617.928948,0.000000
84.000000,14325.523594,16210.468556,23968.848463,29267.485949,-22971.603033,15860.194368,-9523.564222,-28055.440254,0.052000,0.962000,0.186000,192.000000,0.000000,0.000000,0.000000,0.000000,0.000000,0.000000,0.000000,0.000000,0.000000,1648620617.928960,0.000000
85.000000,14325.702408,16204.657102,23976.492760,29302.153504,-22956.403846,15878.947482,-9517.283382,-28019.096317,0.048000,0.970000,0.184000,192.000000,1.000000,128.000000,30.000000,80.000000,5.000000,192.000000,0.000000,0.000000,0.000000,1648620617.935797,0.000000
86.000000,14329.166928,16211.072053,23978.258548,29259.282858,-22966.797407,15868.263348,-9517.238679,-28039.458756,0.048000,0.970000,0.184000,192.000000,0.000000,0.000000,0.000000,0.000000,0.000000,0.000000,0.000000,0.000000,0.000000,1648620617.935813,0.000000
87.000000,14329.770426,16208.322788,23981.097219,29302.533484,-22954.548652,15871.481999,-9517.641010,-28055.350847,0.048000,0.970000,0.184000,192.000000,0.000000,0.000000,0.000000,0.000000,0.000000,0.000000,0.000000,0.000000,0.000000,1648620617.943602,0.000000
88.000000,14326.551774,16200.499678,23982.125399,29311.921216,-22952.157015,15870.766744,-9509.281458,-28073.321649,0.048000,0.970000,0.184000,192.000000,0.000000,0.000000,0.000000,0.000000,0.000000,0.000000,0.000000,0.000000,0.000000,1648620617.943611,0.000000
89.000000,14325.702408,16202.399576,23981.298385,29278.505359,-22963.511701,15859.814389,-9514.332952,-28068.448969,0.048000,0.970000,0.184000,192.000000,0.000000,0.000000,0.000000,0.000000,0.000000,0.000000,0.000000,0.000000,0.000000,1648620617.951926,0.000000
90.000000,14350.177568,16233.334390,24007.807554,29320.884266,-22933.292143,15892.269122,-9498.843193,-28019.968035,0.048000,0.970000,0.184000,192.000000,0.000000,0.000000,0.000000,0.000000,0.000000,0.000000,0.000000,0.000000,0.000000,1648620617.951937,0.000000
91.000000,14346.757751,16231.300382,24001.370251,29300.790048,-22942.255192,15879.573331,-9508.297981,-28041.984504,0.048000,0.970000,0.184000,192.000000,0.000000,0.000000,0.000000,0.000000,0.000000,0.000000,0.000000,0.000000,0.000000,1648620617.958763,0.000000
92.000000,14337.168853,16225.734797,23991.379022,29300.968862,-22950.123006,15869.202121,-9518.199804,-28045.337265,0.048000,0.970000,0.184000,192.000000,0.000000,0.000000,0.000000,0.000000,0.000000,0.000000,0.000000,0.000000,0.000000,1648620617.958772,0.000000
93.000000,14349.439961,16237.715332,24004.723013,29323.365310,-22933.739177,15894.794869,-9492.450594,-28021.934989,0.048000,0.970000,0.184000,192.000000,0.000000,0.000000,0.000000,0.000000,0.000000,0.000000,0.000000,0.000000,0.000000,1648620617.965167,0.000000
94.000000,14332.989077,16214.603628,23984.919367,29289.703582,-22957.074399,15872.510180,-9514.422359,-28053.048617,0.048000,0.970000,0.184000,192.000000,0.000000,0.000000,0.000000,0.000000,0.000000,0.000000,0.000000,0.000000,0.000000,1648620617.973276,0.000000
95.000000,14337.325315,16216.905858,23986.662803,29279.175911,-22959.063704,15872.152552,-9512.321295,-28062.078722,0.054000,0.976000,0.174000,192.000000,1.000000,176.000000,30.000000,128.000000,5.000000,112.000000,0.000000,0.000000,0.000000,1648620617.973284,0.000000
96.000000,14320.494452,16204.590047,23970.100161,29257.897050,-22977.682707,15858.719153,-9514.020027,-28067.778417,0.054000,0.976000,0.174000,192.000000,0.000000,0.000000,0.000000,0.000000,0.000000,0.000000,0.000000,0.000000,0.000000,1648620617.981257,0.000000
97.000000,14320.606210,16201.505506,23973.832902,29293.883359,-22964.875157,15868.866845,-9516.501071,-28058.323629,0.054000,0.976000,0.174000,192.000000,0.000000,0.000000,0.000000,0.000000,0.000000,0.000000,0.000000,0.000000,0.000000,1648620617.981266,0.000000
98.000000,14334.508995,16215.050663,23993.457734,29294.106876,-22951.464111,15880.892084,-9516.411664,-28049.785262,0.054000,0.976000,0.174000,192.000000,0.000000,0.000000,0.000000,0.000000,0.000000,0.000000,0.000000,0.000000,0.000000,1648620617.988192,0.000000
99.000000,14328.697542,16207.875753,23986.394583,29235.433547,-22970.105466,15871.549055,-9507.113338,-28043.415015,0.054000,0.976000,0.174000,192.000000,0.000000,0.000000,0.000000,0.000000,0.000000,0.000000,0.000000,0.000000,0.000000,1648620617.988205,0.000000
100.000000,14340.052228,16226.450053,23994.485914,29260.445149,-22957.834358,15880.556808,-9496.406853,-28034.586076,0.054000,0.976000,0.174000,192.000000,0.000000,0.000000,0.000000,0.000000,0.000000,0.000000,0.000000,0.000000,0.000000,1648620617.995875,0.000000
101.000000,14334.486644,16217.241134,23994.485914,29329.266170,-22940.914087,15878.880427,-9512.477757,-28060.670562,0.054000,0.976000,0.174000,192.000000,0.000000,0.000000,0.000000,0.000000,0.000000,0.000000,0.000000,0.000000,0.000000,1648620617.995885,0.000000
102.000000,14328.541080,16205.975855,23988.406240,29279.578242,-22955.330963,15884.781287,-9502.933562,-28040.241067,0.054000,0.976000,0.174000,192.000000,0.000000,0.000000,0.000000,0.000000,0.000000,0.000000,0.000000,0.000000,0.000000,1648620618.003847,0.000000
103.000000,14325.702408,16198.778593,23986.238120,29253.784329,-22967.110332,15869.582101,-9509.124995,-28049.047655,0.054000,0.976000,0.174000,192.000000,0.000000,0.000000,0.000000,0.000000,0.000000,0.000000,0.000000,0.000000,0.000000,1648620618.003857,0.000000
104.000000,14333.436112,16219.521012,23993.211865,29300.924158,-22949.988896,15873.359546,-9510.711969,-28065.900870,0.054000,0.976000,0.174000,192.000000,0.000000,0.000000,0.000000,0.000000,0.000000,0.000000,0.000000,0.000000,0.000000,1648620618.011903,0.000000
105.000000,14339.404027,16215.318884,23998.531580,29294.330394,-22948.446625,15884.356604,-9502.017141,-28068.337210,0.052000,0.974000,0.170000,192.000000,1.000000,160.000000,30.000000,112.000000,5.000000,80.000000,0.000000,0.000000,0.000000,1648620618.011912,0.000000
106.000000,14346.489530,16221.867945,24008.142830,29324.505249,-22935.929648,15899.309921,-9483.845172,-28019.990387,0.052000,0.974000,0.170000,192.000000,0.000000,0.000000,0.000000,0.000000,0.000000,0.000000,0.000000,0.000000,0.000000,1648620618.018429,0.000000
107.000000,14329.099873,16206.534649,23992.720126,29296.610272,-22957.789654,15875.818238,-9498.686731,-28036.396567,0.052000,0.974000,0.170000,192.000000,0.000000,0.000000,0.000000,0.000000,0.000000,0.000000,0.000000,0.000000,0.000000,1648620618.018444,0.000000
108.000000,14323.266068,16197.906875,23987.959205,29279.421780,-22968.183216,15861.267252,-9507.582725,-28075.579175,0.052000,0.974000,0.170000,192.000000,0.000000,0.000000,0.000000,0.000000,0.000000,0.000000,0.000000,0.000000,0.000000,1648620618.025483,0.000000
109.000000,14340.298097,16216.727044,24001.034975,29279.332373,-22960.337753,15867.749258,-9499.245524,-28075.042734,0.052000,0.974000,0.170000,192.000000,0.000000,0.000000,0.000000,0.000000,0.000000,0.000000,0.000000,0.000000,0.000000,1648620618.033543,0.000000
110.000000,14342.510920,16223.320809,24006.511153,29316.324510,-22949.608916,15878.299281,-9504.386426,-28029.914561,0.052000,0.974000,0.170000,192.000000,0.000000,0.000000,0.000000,0.000000,0.000000,0.000000,0.000000,0.000000,0.000000,1648620618.033557,0.000000
111.000000,14328.764597,16208.032216,23994.329452,29289.413010,-22967.155035,15869.626805,-9513.148309,-28024.103108,0.052000,0.974000,0.170000,192.000000,0.000000,0.000000,0.000000,0.000000,0.000000,0.000000,0.000000,0.000000,0.000000,1648620618.040464,0.000000
112.000000,14332.810263,16204.679454,23994.575321,29267.351838,-22976.073381,15862.004860,-9506.889821,-28036.553030,0.052000,0.974000,0.170000,192.000000,0.000000,0.000000,0.000000,0.000000,0.000000,0.000000,0.000000,0.000000,0.000000,1648620618.040473,0.000000
113.000000,14339.158158,16219.006922,24001.213789,29290.262376,-22967.356201,15868.062182,-9500.854850,-28013.597788,0.052000,0.974000,0.170000,192.000000,0.000000,0.000000,0.000000,0.000000,0.000000,0.000000,0.000000,0.000000,0.000000,1648620618.048186,0.000000
114.000000,14344.366115,16227.992323,24010.445060,29323.834696,-22952.402884,15871.370241,-9506.085158,-28015.989425,0.052000,0.974000,0.170000,192.000000,0.000000,0.000000,0.000000,0.000000,0.000000,0.000000,0.000000,0.000000,0.000000,1648620618.048195,0.000000
115.000000,14347.093027,16227.612344,24012.836696,29307.026184,-22956.023867,15873.493656,-9499.245524,-28026.517096,0.052000,0.964000,0.170000,192.000000,1.000000,160.000000,30.000000,32.000000,5.000000,80.000000,0.000000,0.000000,0.000000,1648620618.056153,0.000000
116.000000,14343.315583,16223.052588,24009.752156,29299.605405,-22963.534053,15868.956252,-9496.786832,-28035.144870,0.052000,0.964000,0.170000,192.000000,0.000000,0.000000,0.000000,0.000000,0.000000,0.000000,0.000000,0.000000,0.000000,1648620618.056166,0.000000
117.000000,14333.033780,16219.386902,23996.586978,29283.668611,-22978.755591,15854.472322,-9507.314504,-28048.466509,0.052000,0.964000,0.170000,192.000000,0.000000,0.000000,0.000000,0.000000,0.000000,0.000000,0.000000,0.000000,0.000000,1648620618.064092,0.000000
118.000000,14332.273821,16223.566678,23998.263359,29294.039821,-22975.022849,15856.349868,-9511.762501,-28060.312934,0.052000,0.964000,0.170000,192.000000,0.000000,0.000000,0.000000,0.000000,0.000000,0.000000,0.000000,0.000000,0.000000,1648620618.064100,0.000000
119.000000,14339.202862,16222.583201,24005.304158,29292.341088,-22971.804198,15859.814389,-9513.997676,-28087.179731,0.052000,0.964000,0.170000,192.000000,0.000000,0.000000,0.000000,0.000000,0.000000,0.000000,0.000000,0.000000,0.000000,1648620618.070631,0.000000
120.000000,14343.427341,16222.158518,24009.886266,29307.316757,-22966.730352,15865.245863,-9501.078367,-28067.107864,0.052000,0.964000,0.170000,192.000000,0.000000,0.000000,0.000000,0.000000,0.000000,0.000000,0.000000,0.000000,0.000000,1648620618.070638,0.000000
121.000000,14357.285423,16235.413103,24017.843487,29314.446964,-22957.521434,15879.103944,-9489.187239,-27990.910767,0.052000,0.964000,0.170000,192.000000,0.000000,0.000000,0.000000,0.000000,0.000000,0.000000,0.000000,0.000000,0.000000,1648620618.078829,0.000000
122.000000,14359.073563,16240.196376,24019.363406,29328.260342,-22953.878099,15873.471305,-9498.574972,-28006.512285,0.052000,0.964000,0.170000,192.000000,0.000000,0.000000,0.000000,0.000000,0.000000,0.000000,0.000000,0.000000,0.000000,1648620618.078841,0.000000
123.000000,14352.546853,16236.620097,24010.266246,29310.289539,-22967.132684,15859.412057,-9511.762501,-28027.433518,0.052000,0.964000,0.170000,192.000000,0.000000,0.000000,0.000000,0.000000,0.000000,0.000000,0.000000,0.000000,0.000000,1648620618.086081,0.000000
124.000000,14339.426379,16227.992323,24002.107859,29308.233179,-22971.088942,15860.909624,-9518.356266,-28027.500573,0.052000,0.964000,0.170000,192.000000,0.000000,0.000000,0.000000,0.000000,0.000000,0.000000,0.000000,0.000000,0.000000,1648620618.093897,0.000000
125.000000,14344.924908,16223.521975,24007.271112,29296.856141,-22971.200701,15864.664717,-9506.956876,-28032.082681,0.044000,0.960000,0.164000,192.000000,1.000000,96.000000,30.000000,0.000000,5.000000,32.000000,0.000000,0.000000,0.000000,1648620618.093910,0.000000
126.000000,14347.562414,16225.533632,24017.128231,29325.332263,-22957.230861,15870.587930,-9509.773196,-28051.662809,0.044000,0.960000,0.164000,192.000000,0.000000,0.000000,0.000000,0.000000,0.000000,0.000000,0.000000,0.000000,0.000000,1648620618.100535,0.000000
127.000000,14345.304888,16226.852384,24016.122403,29322.068908,-22961.030657,15870.140895,-9508.454443,-28064.313896,0.044000,0.960000,0.164000,192.000000,0.000000,0.000000,0.000000,0.000000,0.000000,0.000000,0.000000,0.000000,0.000000,1648620618.100545,0.000000
128.000000,14345.036667,16224.371341,24012.836696,29313.172914,-22965.679820,15867.659851,-9511.203708,-28038.810556,0.044000,0.960000,0.164000,192.000000,0.000000,0.000000,0.000000,0.000000,0.000000,0.000000,0.000000,0.000000,0.000000,1648620618.108606,0.000000
129.000000,14338.219385,16216.704692,24008.209885,29304.366327,-22972.497102,15863.435371,-9520.054998,-28023.745480,0.044000,0.960000,0.164000,192.000000,0.000000,0.000000,0.000000,0.000000,0.000000,0.000000,0.000000,0.000000,0.000000,1648620618.108617,0.000000
130.000000,14339.940469,16220.973876,24010.288597,29304.634548,-22970.463094,15863.904758,-9508.789719,-28040.643399,0.044000,0.960000,0.164000,192.000000,0.000000,0.000000,0.000000,0.000000,0.000000,0.000000,0.000000,0.000000,0.000000,1648620618.116611,0.000000
131.000000,14343.874376,16224.751320,24012.926103,29309.797801,-22966.909166,15869.738563,-9497.457385,-28036.642437,0.044000,0.960000,0.164000,192.000000,0.000000,0.000000,0.000000,0.000000,0.000000,0.000000,0.000000,0.000000,0.000000,1648620618.116627,0.000000
132.000000,14360.638185,16238.743512,24024.996045,29320.057251,-22957.186157,15878.478095,-9491.757690,-28033.021454,0.044000,0.960000,0.164000,192.000000,0.000000,0.000000,0.000000,0.000000,0.000000,0.000000,0.000000,0.000000,0.000000,1648620618.123603,0.000000
133.000000,14340.968650,16222.851422,24008.321644,29302.779353,-22971.580681,15868.531569,-9500.765443,-28022.672596,0.044000,0.960000,0.164000,192.000000,0.000000,0.000000,0.000000,0.000000,0.000000,0.000000,0.000000,0.000000,0.000000,1648620618.123614,0.000000
134.000000,14335.626583,16216.592934,24001.146734,29293.771600,-22980.610786,15860.753162,-9510.980190,-28014.827134,0.044000,0.960000,0.164000,192.000000,0.000000,0.000000,0.000000,0.000000,0.000000,0.000000,0.000000,0.000000,0.000000,1648620618.131049,0.000000
135.000000,14338.442902,16218.805756,24003.404260,29295.224463,-22981.437800,15854.047639,-9513.662399,-28028.841678,0.044000,0.968000,0.164000,192.000000,1.000000,96.000000,30.000000,64.000000,5.000000,32.000000,0.000000,0.000000,0.000000,1648620618.131060,0.000000
136.000000,14341.885071,16217.889335,24007.494629,29299.426591,-22974.955794,15866.475209,-9505.794585,-28025.555971,0.044000,0.968000,0.164000,192.000000,0.000000,0.000000,0.000000,0.000000,0.000000,0.000000,0.000000,0.000000,0.000000,1648620618.139000,0.000000
137.000000,14341.706257,16216.704692,24008.701624,29298.532522,-22972.988841,15865.290566,-9500.497222,-28029.691044,0.044000,0.968000,0.164000,192.000000,0.000000,0.000000,0.000000,0.000000,0.000000,0.000000,0.000000,0.000000,0.000000,1648620618.139011,0.000000
138.000000,14342.890900,16218.671646,24009.282769,29295.693850,-22973.279413,15863.748296,-9496.853888,-28036.441271,0.044000,0.968000,0.164000,192.000000,0.000000,0.000000,0.000000,0.000000,0.000000,0.000000,0.000000,0.000000,0.000000,1648620618.146114,0.000000
139.000000,14340.342801,16217.017617,24003.828943,29289.234196,-22978.643832,15853.064162,-9509.303809,-28047.617143,0.044000,0.968000,0.164000,192.000000,0.000000,0.000000,0.000000,0.000000,0.000000,0.000000,0.000000,0.000000,0.000000,1648620618.153477,0.000000
140.000000,14342.957955,16219.766881,24008.880437,29293.838655,-22976.565120,15852.594775,-9512.991847,-28051.595754,0.044000,0.968000,0.164000,192.000000,0.000000,0.000000,0.000000,0.000000,0.000000,0.000000,0.000000,0.000000,0.000000,1648620618.153493,0.000000
141.000000,14348.769408,16225.578335,24009.998025,29296.744382,-22974.441704,15851.253671,-9514.511766,-28055.328495,0.044000,0.968000,0.164000,192.000000,0.000000,0.000000,0.000000,0.000000,0.000000,0.000000,0.000000,0.000000,0.000000,1648620618.160610,0.000000
142.000000,14341.236870,16218.001094,24003.761888,29293.928062,-22980.208454,15856.014592,-9508.096815,-28038.899963,0.044000,0.968000,0.164000,192.000000,0.000000,0.000000,0.000000,0.000000,0.000000,0.000000,0.000000,0.000000,0.000000,1648620618.160619,0.000000
143.000000,14332.922021,16206.020559,23999.112725,29288.049553,-22985.304652,15853.734714,-9516.076388,-28041.872745,0.044000,0.968000,0.164000,192.000000,0.000000,0.000000,0.000000,0.000000,0.000000,0.000000,0.000000,0.000000,0.000000,1648620618.169068,0.000000
144.000000,14352.077466,16226.450053,24014.535429,29303.494609,-22968.786713,15867.391630,-9500.206649,-28040.397530,0.044000,0.968000,0.164000,192.000000,0.000000,0.000000,0.000000,0.000000,0.000000,0.000000,0.000000,0.000000,0.000000,1648620618.169084,0.000000
145.000000,14344.857853,16222.873774,24006.198228,29296.677327,-22977.034506,15857.333345,-9516.679885,-28056.647248,0.048000,0.974000,0.164000,192.000000,1.000000,128.000000,30.000000,112.000000,5.000000,32.000000,0.000000,0.000000,0.000000,1648620618.176624,0.000000
146.000000,14343.941432,16227.455882,24007.449926,29297.504341,-22976.788637,15855.165226,-9526.559356,-28059.865899,0.048000,0.974000,0.164000,192.000000,0.000000,0.000000,0.000000,0.000000,0.000000,0.000000,0.000000,0.000000,0.000000,1648620618.176634,0.000000
147.000000,14333.637277,16219.543364,24004.275978,29297.392583,-22976.654527,15858.540339,-9515.785815,-28045.851355,0.048000,0.974000,0.164000,192.000000,0.000000,0.000000,0.000000,0.000000,0.000000,0.000000,0.000000,0.000000,0.000000,1648620618.184289,0.000000
148.000000,14339.404027,16223.834899,24011.987330,29307.629682,-22966.462131,15869.716212,-9498.932600,-28030.115727,0.048000,0.974000,0.164000,192.000000,0.000000,0.000000,0.000000,0.000000,0.000000,0.000000,0.000000,0.000000,0.000000,1648620618.184306,0.000000
149.000000,14340.007524,16225.824204,24014.133097,29306.936777,-22966.104503,15869.604453,-9501.480699,-28027.299407,0.048000,0.974000,0.164000,192.000000,0.000000,0.000000,0.000000,0.000000,0.000000,0.000000,0.000000,0.000000,0.000000,1648620618.191099,0.000000
150.000000,14337.615888,16224.527803,24010.445060,29302.801705,-22969.032582,15862.921281,-9511.024894,-28039.771681,0.048000,0.974000,0.164000,192.000000,0.000000,0.000000,0.000000,0.000000,0.000000,0.000000,0.000000,0.000000,0.000000,1648620618.191131,0.000000
151.000000,14329.658667,16216.615285,24001.414955,29293.145751,-22978.308556,15855.567557,-9509.952010,-28043.593829,0.048000,0.974000,0.164000,192.000000,0.000000,0.000000,0.000000,0.000000,0.000000,0.000000,0.000000,0.000000,0.000000,1648620618.198724,0.000000
152.000000,14334.576051,16222.113815,24005.192400,29295.671498,-22975.067553,15855.120522,-9517.350437,-28059.105940,0.048000,0.974000,0.164000,192.000000,0.000000,0.000000,0.000000,0.000000,0.000000,0.000000,0.000000,0.000000,0.000000,1648620618.198735,0.000000
153.000000,14345.640164,16235.435454,24012.814345,29302.913463,-22966.685649,15854.226453,-9524.570051,-28083.022306,0.048000,0.974000,0.164000,192.000000,0.000000,0.000000,0.000000,0.000000,0.000000,0.000000,0.000000,0.000000,0.000000,1648620618.205760,0.000000
154.000000,14340.521615,16229.400483,24009.081603,29298.800742,-22970.373687,15851.477188,-9536.014144,-28064.023324,0.048000,0.974000,0.164000,192.000000,0.000000,0.000000,0.000000,0.000000,0.000000,0.000000,0.000000,0.000000,0.000000,1648620618.205772,0.000000
155.000000,14337.392370,16226.830033,24006.555856,29298.845446,-22972.072419,15859.322650,-9520.993772,-28027.455870,0.052000,0.982000,0.164000,192.000000,1.000000,160.000000,30.000000,176.000000,5.000000,32.000000,0.000000,0.000000,0.000000,1648620618.213686,0.000000
156.000000,14339.113455,16226.718274,24004.410089,29296.051478,-22974.575815,15859.769685,-9500.072539,-28025.600675,0.052000,0.982000,0.164000,192.000000,0.000000,0.000000,0.000000,0.000000,0.000000,0.000000,0.000000,0.000000,0.000000,1648620618.221077,0.000000
157.000000,14335.939507,16221.510318,23999.179780,29289.725934,-22978.509722,15847.565633,-9520.367923,-28062.503405,0.052000,0.982000,0.164000,192.000000,0.000000,0.000000,0.000000,0.000000,0.000000,0.000000,0.000000,0.000000,0.000000,1648620618.221094,0.000000
158.000000,14337.168853,16225.511280,24002.264321,29295.179760,-22974.329945,15848.593813,-9517.506900,-28065.252669,0.052000,0.982000,0.164000,192.000000,0.000000,0.000000,0.000000,0.000000,0.000000,0.000000,0.000000,0.000000,0.000000,1648620618.228372,0.000000
159.000000,14332.676152,16221.599724,24002.286673,29294.777428,-22972.944137,15851.454836,-9517.484548,-28047.684198,0.052000,0.982000,0.164000,192.000000,0.000000,0.000000,0.000000,0.000000,0.000000,0.000000,0.000000,0.000000,0.000000,1648620618.228380,0.000000
160.000000,14344.366115,16235.323696,24012.389661,29303.651071,-22960.807140,15860.216720,-9521.887841,-28035.055463,0.052000,0.982000,0.164000,192.000000,0.000000,0.000000,0.000000,0.000000,0.000000,0.000000,0.000000,0.000000,0.000000,1648620618.236167,0.000000
