%OpenBCI Raw EEG Data
%Number of channels = 8
%Sample Rate = 256 Hz
%Board = OpenBCI_GUI$BoardCytonSerial
%Channels = Fp1, Fp2, F3, F4, Fz, Pz, O1, O2
%Data recorded at AIMS Lab (http://aimsl.uiu.ac.bd) by Rana Depto (mail@ranadepto.com)
%Brainwaves were obtained via the Ultracortex Mark IV Headset using the OpenBCI Cyton Board
%Recording Application = ConcentrateToday (https://concentrate.today)
%Data type = RAW data with noise
%Day No = 1
%Subject ID = 9
%Session ID = 7
%Record starting timestamp (UTC+6) = 2022-03-15T16:58:07.411294
%Record ending timestamp (UTC+6)   = 2022-03-15T16:58:48.250795
%Recorded durations = ~40 seconds
Sample Index, EXG Channel 0, EXG Channel 1, EXG Channel 2, EXG Channel 3, EXG Channel 4, EXG Channel 5, EXG Channel 6, EXG Channel 7, Accel Channel 0, Accel Channel 1, Accel Channel 2, Other, Other, Other, Other, Other, Other, Other, Analog Channel 0, Analog Channel 1, Analog Channel 2, Timestamp, Timestamp (Formatted)
219.000000,36967.281934,24817.521848,22209.117974,18876.472876,-48918.111493,45993.922173,-37966.717835,9674.326739,0.072000,1.014000,-0.042000,192.000000,0.000000,0.000000,0.000000,0.000000,0.000000,0.000000,0.000000,0.000000,0.000000,1647341887.410880,0.000000
220.000000,37005.481065,24844.366293,22225.412396,18897.058832,-48901.571202,46013.167025,-38125.571683,9915.859689,0.072000,1.014000,-0.042000,192.000000,0.000000,0.000000,0.000000,0.000000,0.000000,0.000000,0.000000,0.000000,0.000000,1647341887.410897,0.000000
221.000000,37038.092260,24875.636384,22256.034286,18936.934344,-48875.419661,46041.218465,-38277.943525,10074.624130,0.072000,1.014000,-0.042000,192.000000,0.000000,0.000000,0.000000,0.000000,0.000000,0.000000,0.000000,0.000000,0.000000,1647341887.418490,0.000000
222.000000,37053.023225,24875.546977,22248.278230,18931.279353,-48875.464365,46043.632453,-38377.699361,10265.239807,0.072000,1.014000,-0.042000,192.000000,0.000000,0.000000,0.000000,0.000000,0.000000,0.000000,0.000000,0.000000,0.000000,1647341887.418497,0.000000
223.000000,37040.506249,24849.574250,22214.705910,18905.440736,-48901.727665,46021.303060,-38444.039338,10508.851470,0.094000,0.966000,-0.046000,192.000000,2.000000,240.000000,30.000000,48.000000,254.000000,144.000000,0.000000,0.000000,0.000000,1647341887.425647,0.000000
224.000000,37035.857086,24837.571363,22215.041186,18894.130754,-48913.037647,46020.632508,-38474.393007,10760.599167,0.094000,0.966000,-0.046000,192.000000,0.000000,0.000000,0.000000,0.000000,0.000000,0.000000,0.000000,0.000000,0.000000,1647341887.425652,0.000000
225.000000,37037.466411,24827.557782,22212.627198,18882.932530,-48924.571148,46017.436208,-38486.328839,10978.863952,0.094000,0.966000,-0.046000,192.000000,0.000000,0.000000,0.000000,0.000000,0.000000,0.000000,0.000000,0.000000,0.000000,1647341887.433024,0.000000
226.000000,37031.051461,24818.482973,22203.731204,18868.515655,-48939.144485,46009.031953,-38507.987679,11194.066548,0.094000,0.966000,-0.046000,192.000000,0.000000,0.000000,0.000000,0.000000,0.000000,0.000000,0.000000,0.000000,0.000000,1647341887.433028,0.000000
227.000000,37046.652978,24832.721035,22210.615541,18870.147332,-48934.920005,46016.944470,-38548.109060,11373.752221,0.094000,0.966000,-0.046000,192.000000,0.000000,0.000000,0.000000,0.000000,0.000000,0.000000,0.000000,0.000000,0.000000,1647341887.441033,0.000000
228.000000,37045.624798,24820.114651,22185.961567,18851.461274,-48947.615796,46005.232156,-38533.334557,11586.943160,0.094000,0.966000,-0.046000,192.000000,0.000000,0.000000,0.000000,0.000000,0.000000,0.000000,0.000000,0.000000,0.000000,1647341887.441037,0.000000
229.000000,37046.652978,24813.878514,22177.132628,18835.390369,-48958.612854,45997.431397,-38522.382202,11854.851169,0.094000,0.966000,-0.046000,192.000000,0.000000,0.000000,0.000000,0.000000,0.000000,0.000000,0.000000,0.000000,0.000000,1647341887.448232,0.000000
230.000000,37059.438176,24810.235180,22178.965471,18843.749922,-48959.551628,45989.474176,-38449.336702,12210.981513,0.094000,0.966000,-0.046000,192.000000,0.000000,0.000000,0.000000,0.000000,0.000000,0.000000,0.000000,0.000000,0.000000,1647341887.448237,0.000000
231.000000,37076.850185,24812.962093,22204.088831,18848.555547,-48951.750869,46001.432359,-38308.453656,12603.567553,0.094000,0.966000,-0.046000,192.000000,0.000000,0.000000,0.000000,0.000000,0.000000,0.000000,0.000000,0.000000,0.000000,1647341887.454733,0.000000
232.000000,37090.887081,24811.620988,22222.886649,18853.115303,-48945.894712,46010.373057,-38145.956474,13002.143860,0.094000,0.966000,-0.046000,192.000000,0.000000,0.000000,0.000000,0.000000,0.000000,0.000000,0.000000,0.000000,0.000000,1647341887.454738,0.000000
233.000000,37093.926918,24798.411107,22209.319140,18838.899593,-48949.918026,46002.594650,-37922.886064,13445.535415,0.094000,0.966000,-0.046000,192.000000,0.000000,0.000000,0.000000,0.000000,0.000000,0.000000,0.000000,0.000000,0.000000,1647341887.462630,0.000000
234.000000,37083.667467,24768.727990,22172.170540,18810.691692,-48969.945189,45979.818223,-37587.296973,14031.620506,0.102000,0.966000,-0.060000,192.000000,3.000000,48.000000,30.000000,48.000000,254.000000,32.000000,0.000000,0.000000,0.000000,1647341887.470664,0.000000
235.000000,37086.237918,24756.367476,22155.384380,18796.654796,-48978.707073,45972.486850,-37187.066637,14696.339035,0.102000,0.966000,-0.060000,192.000000,0.000000,0.000000,0.000000,0.000000,0.000000,0.000000,0.000000,0.000000,0.000000,1647341887.470674,0.000000
236.000000,37090.976488,24755.786330,22162.827511,18788.742279,-48981.098709,45977.895972,-36768.574925,15329.340438,0.102000,0.966000,-0.060000,192.000000,0.000000,0.000000,0.000000,0.000000,0.000000,0.000000,0.000000,0.000000,0.000000,1647341887.477913,0.000000
237.000000,37075.106749,24723.130432,22130.931572,18752.107770,-49013.776960,45948.324615,-36353.346569,15925.170890,0.102000,0.966000,-0.060000,192.000000,0.000000,0.000000,0.000000,0.000000,0.000000,0.000000,0.000000,0.000000,0.000000,1647341887.477918,0.000000
238.000000,37059.482880,24696.487152,22099.192095,18723.966923,-49042.633062,45926.486960,-35853.449804,16616.666808,0.102000,0.966000,-0.060000,192.000000,0.000000,0.000000,0.000000,0.000000,0.000000,0.000000,0.000000,0.000000,0.000000,1647341887.485273,0.000000
239.000000,37054.029054,24680.796228,22076.728592,18711.561705,-49058.368690,45911.846568,-35332.497696,17286.615644,0.102000,0.966000,-0.060000,192.000000,0.000000,0.000000,0.000000,0.000000,0.000000,0.000000,0.000000,0.000000,0.000000,1647341887.485304,0.000000
240.000000,37047.167068,24653.951782,22053.058094,18696.116650,-49076.898286,45891.394721,-34823.615530,17908.664692,0.102000,0.966000,-0.060000,192.000000,0.000000,0.000000,0.000000,0.000000,0.000000,0.000000,0.000000,0.000000,0.000000,1647341887.493297,0.000000
241.000000,37066.098996,24670.559129,22075.387487,18720.860031,-49059.754498,45915.422847,-34355.659408,18514.329912,0.102000,0.966000,-0.060000,192.000000,0.000000,0.000000,0.000000,0.000000,0.000000,0.000000,0.000000,0.000000,0.000000,1647341887.493301,0.000000
242.000000,37087.087284,24684.394858,22098.454487,18736.528604,-49041.493123,45938.378088,-33920.649757,19032.644514,0.102000,0.966000,-0.060000,192.000000,0.000000,0.000000,0.000000,0.000000,0.000000,0.000000,0.000000,0.000000,0.000000,1647341887.501327,0.000000
243.000000,37105.706287,24697.515332,22118.906333,18747.771531,-49023.656431,45956.214780,-33459.197993,19540.476148,0.102000,0.966000,-0.060000,192.000000,0.000000,0.000000,0.000000,0.000000,0.000000,0.000000,0.000000,0.000000,0.000000,1647341887.501331,0.000000
244.000000,37134.472982,24726.393786,22145.393150,18798.420584,-48986.552535,45988.803624,-32975.483891,20083.623538,0.122000,1.018000,-0.046000,192.000000,3.000000,208.000000,31.000000,208.000000,254.000000,144.000000,0.000000,0.000000,0.000000,1647341887.507871,0.000000
245.000000,37156.288285,24739.313095,22163.721581,18817.777195,-48960.848029,46000.292420,-32509.874703,20557.592280,0.122000,1.018000,-0.046000,192.000000,0.000000,0.000000,0.000000,0.000000,0.000000,0.000000,0.000000,0.000000,0.000000,1647341887.507874,0.000000
246.000000,37153.784889,24728.316036,22151.383418,18802.734471,-48970.369872,45975.593743,-32076.317915,20931.156985,0.122000,1.018000,-0.046000,192.000000,0.000000,0.000000,0.000000,0.000000,0.000000,0.000000,0.000000,0.000000,0.000000,1647341887.515893,0.000000
247.000000,37178.394160,24753.238231,22169.443628,18834.093968,-48952.019090,45983.930943,-31657.826204,21251.613945,0.122000,1.018000,-0.046000,192.000000,0.000000,0.000000,0.000000,0.000000,0.000000,0.000000,0.000000,0.000000,0.000000,1647341887.515896,0.000000
248.000000,37213.575806,24792.197322,22198.277378,18871.376678,-48918.066790,46009.903671,-31284.596775,21484.474419,0.122000,1.018000,-0.046000,192.000000,0.000000,0.000000,0.000000,0.000000,0.000000,0.000000,0.000000,0.000000,0.000000,1647341887.522896,0.000000
249.000000,37237.335710,24809.542276,22226.865259,18889.280425,-48894.016313,46023.202958,-30902.985442,21662.282546,0.122000,1.018000,-0.046000,192.000000,0.000000,0.000000,0.000000,0.000000,0.000000,0.000000,0.000000,0.000000,0.000000,1647341887.530989,0.000000
250.000000,37267.331751,24831.782261,22253.150911,18913.330902,-48863.193257,46040.749078,-30530.493621,21775.784704,0.122000,1.018000,-0.046000,192.000000,0.000000,0.000000,0.000000,0.000000,0.000000,0.000000,0.000000,0.000000,0.000000,1647341887.530993,0.000000
251.000000,37297.730124,24859.587831,22276.173207,18940.175347,-48828.011611,46065.961846,-30164.662619,21838.771920,0.122000,1.018000,-0.046000,192.000000,0.000000,0.000000,0.000000,0.000000,0.000000,0.000000,0.000000,0.000000,0.000000,1647341887.537519,0.000000
252.000000,37313.085772,24874.161169,22287.393783,18956.715638,-48805.905736,46082.770357,-29813.472010,21858.016772,0.122000,1.018000,-0.046000,192.000000,0.000000,0.000000,0.000000,0.000000,0.000000,0.000000,0.000000,0.000000,0.000000,1647341887.537522,0.000000
253.000000,37309.308327,24874.004707,22280.062411,18955.195720,-48802.172995,46081.786881,-29509.532989,21820.532897,0.122000,1.018000,-0.046000,192.000000,0.000000,0.000000,0.000000,0.000000,0.000000,0.000000,0.000000,0.000000,0.000000,1647341887.545670,0.000000
254.000000,37336.622159,24909.968663,22314.215876,18989.840924,-48772.892210,46110.218300,-29242.206126,21725.493279,0.132000,1.004000,-0.058000,192.000000,4.000000,32.000000,31.000000,96.000000,254.000000,48.000000,0.000000,0.000000,0.000000,1647341887.545697,0.000000
255.000000,37389.126407,24955.409760,22361.042781,19031.325761,-48730.937985,46146.361070,-29012.273730,21594.087374,0.132000,1.004000,-0.058000,192.000000,0.000000,0.000000,0.000000,0.000000,0.000000,0.000000,0.000000,0.000000,0.000000,1647341887.553525,0.000000
0.000000,37410.785247,24979.192016,22380.913482,19052.649325,-48713.682439,46184.090815,-28834.443251,21440.150909,0.132000,1.004000,-0.058000,192.000000,0.000000,0.000000,0.000000,0.000000,0.000000,0.000000,0.000000,0.000000,0.000000,1647341887.553529,0.000000
1.000000,37426.833800,24993.340670,22402.371156,19059.131331,-48703.154767,46198.239469,-28691.526197,21275.016221,0.132000,1.004000,-0.058000,192.000000,0.000000,0.000000,0.000000,0.000000,0.000000,0.000000,0.000000,0.000000,0.000000,1647341887.560176,0.000000
2.000000,37432.488791,25001.342595,22413.167049,19058.416076,-48702.305401,46204.475606,-28562.310763,21104.025376,0.132000,1.004000,-0.058000,192.000000,0.000000,0.000000,0.000000,0.000000,0.000000,0.000000,0.000000,0.000000,0.000000,1647341887.560180,0.000000
3.000000,37423.324576,24984.422324,22398.996043,19042.859261,-48718.689229,46195.870184,-28430.346063,20949.932450,0.132000,1.004000,-0.058000,192.000000,0.000000,0.000000,0.000000,0.000000,0.000000,0.000000,0.000000,0.000000,0.000000,1647341887.568222,0.000000
4.000000,37438.568466,24995.799362,22398.906636,19043.172186,-48717.616346,46211.829330,-28279.292974,20827.266076,0.132000,1.004000,-0.058000,192.000000,0.000000,0.000000,0.000000,0.000000,0.000000,0.000000,0.000000,0.000000,0.000000,1647341887.568226,0.000000
5.000000,37438.680224,24999.777973,22414.821078,19043.552165,-48711.447264,46231.700031,-28121.266141,20716.736700,0.132000,1.004000,-0.058000,192.000000,0.000000,0.000000,0.000000,0.000000,0.000000,0.000000,0.000000,0.000000,0.000000,1647341887.576170,0.000000
6.000000,37439.462535,25008.942188,22429.729692,19061.590023,-48686.390959,46270.659121,-27922.357967,20655.202348,0.132000,1.004000,-0.058000,192.000000,0.000000,0.000000,0.000000,0.000000,0.000000,0.000000,0.000000,0.000000,0.000000,1647341887.576173,0.000000
7.000000,37435.886256,25004.762412,22416.139831,19058.013744,-48690.078996,46266.613456,-27644.324618,20672.949633,0.132000,1.004000,-0.058000,192.000000,0.000000,0.000000,0.000000,0.000000,0.000000,0.000000,0.000000,0.000000,0.000000,1647341887.583270,0.000000
8.000000,37442.278855,25019.156935,22431.562535,19067.468532,-48676.824412,46282.505546,-27370.828673,20706.477249,0.070000,1.008000,-0.062000,192.000000,2.000000,48.000000,31.000000,128.000000,254.000000,16.000000,0.000000,0.000000,0.000000,1647341887.589842,0.000000
9.000000,37422.408154,24980.443714,22392.089354,19019.971075,-48711.067284,46255.750508,-27072.410533,20790.229236,0.070000,1.008000,-0.062000,192.000000,0.000000,0.000000,0.000000,0.000000,0.000000,0.000000,0.000000,0.000000,0.000000,1647341887.589846,0.000000
10.000000,37409.622956,24966.406818,22384.802685,19001.419127,-48728.121665,46236.416249,-26703.584397,20913.499107,0.070000,1.008000,-0.062000,192.000000,0.000000,0.000000,0.000000,0.000000,0.000000,0.000000,0.000000,0.000000,0.000000,1647341887.597745,0.000000
11.000000,37394.736695,24958.427245,22369.201168,18990.511476,-48739.565759,46230.135409,-26321.548381,21053.756303,0.070000,1.008000,-0.062000,192.000000,0.000000,0.000000,0.000000,0.000000,0.000000,0.000000,0.000000,0.000000,0.000000,1647341887.597748,0.000000
12.000000,37384.410189,24947.452539,22373.515054,18979.715583,-48746.248930,46228.749600,-25900.665033,21243.164986,0.070000,1.008000,-0.062000,192.000000,0.000000,0.000000,0.000000,0.000000,0.000000,0.000000,0.000000,0.000000,0.000000,1647341887.605771,0.000000
13.000000,37368.249877,24939.070635,22356.728894,18971.825417,-48760.956378,46205.392028,-25491.873979,21440.307372,0.070000,1.008000,-0.062000,192.000000,0.000000,0.000000,0.000000,0.000000,0.000000,0.000000,0.000000,0.000000,0.000000,1647341887.605775,0.000000
14.000000,37365.590020,24937.416606,22344.122510,18967.936214,-48770.746442,46199.178243,-25093.051802,21614.449813,0.070000,1.008000,-0.062000,192.000000,0.000000,0.000000,0.000000,0.000000,0.000000,0.000000,0.000000,0.000000,0.000000,1647341887.612921,0.000000
15.000000,37364.941819,24943.652742,22348.592859,18975.826380,-48766.857239,46220.412400,-24720.515277,21749.387294,0.070000,1.008000,-0.062000,192.000000,0.000000,0.000000,0.000000,0.000000,0.000000,0.000000,0.000000,0.000000,0.000000,1647341887.612925,0.000000
16.000000,37371.356770,24965.870376,22372.285708,19000.748575,-48746.897131,46241.244226,-24437.251620,21819.012978,0.070000,1.008000,-0.062000,192.000000,0.000000,0.000000,0.000000,0.000000,0.000000,0.000000,0.000000,0.000000,0.000000,1647341887.620418,0.000000
17.000000,37377.883479,24975.123999,22380.712316,19001.977921,-48738.626985,46250.073165,-24188.767277,21872.970089,0.070000,1.008000,-0.062000,192.000000,0.000000,0.000000,0.000000,0.000000,0.000000,0.000000,0.000000,0.000000,0.000000,1647341887.620422,0.000000
18.000000,37366.506441,24955.074484,22357.891185,18975.312290,-48757.558913,46222.357002,-23923.943809,21958.867843,0.072000,1.010000,-0.032000,192.000000,2.000000,64.000000,31.000000,144.000000,255.000000,0.000000,0.000000,0.000000,0.000000,1647341887.628492,0.000000
19.000000,37364.606543,24951.498205,22355.745418,18973.702964,-48767.684253,46214.668001,-23672.732553,22030.058149,0.072000,1.010000,-0.032000,192.000000,0.000000,0.000000,0.000000,0.000000,0.000000,0.000000,0.000000,0.000000,0.000000,1647341887.628495,0.000000
20.000000,37373.435482,24970.586594,22374.364421,19000.078022,-48750.294596,46244.462877,-23456.144149,22049.124187,0.072000,1.010000,-0.032000,192.000000,0.000000,0.000000,0.000000,0.000000,0.000000,0.000000,0.000000,0.000000,0.000000,1647341887.636472,0.000000
21.000000,37380.744503,24982.254205,22379.482970,19012.617351,-48742.605596,46256.465764,-23301.447725,22028.471175,0.072000,1.010000,-0.032000,192.000000,0.000000,0.000000,0.000000,0.000000,0.000000,0.000000,0.000000,0.000000,0.000000,1647341887.636475,0.000000
22.000000,37399.676430,25002.840162,22411.557723,19033.449177,-48721.550253,46272.335502,-23175.786218,21990.003823,0.072000,1.010000,-0.032000,192.000000,0.000000,0.000000,0.000000,0.000000,0.000000,0.000000,0.000000,0.000000,0.000000,1647341887.642619,0.000000
23.000000,37408.930052,25004.248322,22414.798726,19034.924392,-48714.196529,46274.369511,-23056.964345,21954.173977,0.072000,1.010000,-0.032000,192.000000,0.000000,0.000000,0.000000,0.000000,0.000000,0.000000,0.000000,0.000000,0.000000,1647341887.650018,0.000000
24.000000,37418.228378,25004.069508,22404.516924,19036.019628,-48716.766979,46271.888467,-22941.249364,21915.550162,0.072000,1.010000,-0.032000,192.000000,0.000000,0.000000,0.000000,0.000000,0.000000,0.000000,0.000000,0.000000,0.000000,1647341887.650021,0.000000
25.000000,37445.788079,25032.031540,22434.512965,19059.399552,-48689.676665,46298.375284,-22841.538232,21835.709731,0.072000,1.010000,-0.032000,192.000000,0.000000,0.000000,0.000000,0.000000,0.000000,0.000000,0.000000,0.000000,0.000000,1647341887.658125,0.000000
26.000000,37455.645198,25045.286124,22444.660657,19072.587082,-48676.869115,46308.634735,-22754.209966,21742.190032,0.072000,1.010000,-0.032000,192.000000,0.000000,0.000000,0.000000,0.000000,0.000000,0.000000,0.000000,0.000000,0.000000,1647341887.658129,0.000000
27.000000,37469.458576,25062.675782,22454.920108,19090.826105,-48664.530953,46319.721200,-22684.249006,21643.730598,0.072000,1.010000,-0.032000,192.000000,0.000000,0.000000,0.000000,0.000000,0.000000,0.000000,0.000000,0.000000,0.000000,1647341887.666238,0.000000
28.000000,37461.724873,25054.852671,22432.970695,19074.486980,-48677.584371,46298.196471,-22601.569903,21567.287632,0.072000,0.974000,-0.026000,192.000000,2.000000,64.000000,30.000000,112.000000,255.000000,48.000000,0.000000,0.000000,0.000000,1647341887.666259,0.000000
29.000000,37463.691826,25055.433816,22421.884229,19066.283890,-48682.926438,46288.965200,-22489.051221,21495.717346,0.072000,0.974000,-0.026000,192.000000,0.000000,0.000000,0.000000,0.000000,0.000000,0.000000,0.000000,0.000000,0.000000,1647341887.672746,0.000000
30.000000,37475.560603,25059.077151,22437.865727,19079.113791,-48677.606723,46284.941886,-22331.091443,21425.510517,0.072000,0.974000,-0.026000,192.000000,0.000000,0.000000,0.000000,0.000000,0.000000,0.000000,0.000000,0.000000,0.000000,1647341887.672750,0.000000
31.000000,37490.446864,25072.041162,22466.766532,19112.172021,-48659.054775,46306.399561,-22146.041351,21371.039316,0.072000,0.974000,-0.026000,192.000000,0.000000,0.000000,0.000000,0.000000,0.000000,0.000000,0.000000,0.000000,0.000000,1647341887.680742,0.000000
32.000000,37492.056190,25074.388096,22460.820968,19111.903800,-48659.501810,46317.575433,-21915.818383,21344.284277,0.072000,0.974000,-0.026000,192.000000,0.000000,0.000000,0.000000,0.000000,0.000000,0.000000,0.000000,0.000000,0.000000,1647341887.680745,0.000000
33.000000,37500.952184,25086.502741,22459.748085,19129.271105,-48641.352194,46344.665747,-21662.126084,21310.354329,0.072000,0.974000,-0.026000,192.000000,0.000000,0.000000,0.000000,0.000000,0.000000,0.000000,0.000000,0.000000,0.000000,1647341887.688722,0.000000
34.000000,37495.967745,25065.648564,22430.288485,19107.589913,-48657.087822,46333.288709,-21392.496990,21279.330108,0.072000,0.974000,-0.026000,192.000000,0.000000,0.000000,0.000000,0.000000,0.000000,0.000000,0.000000,0.000000,0.000000,1647341887.688726,0.000000
35.000000,37501.779199,25064.687439,22431.629590,19098.738623,-48665.089746,46326.091448,-21137.776510,21248.372942,0.072000,0.974000,-0.026000,192.000000,0.000000,0.000000,0.000000,0.000000,0.000000,0.000000,0.000000,0.000000,0.000000,1647341887.695346,0.000000
36.000000,37498.694658,25055.120892,22421.459546,19090.669643,-48675.572714,46308.388866,-20884.464191,21193.857037,0.072000,0.974000,-0.026000,192.000000,0.000000,0.000000,0.000000,0.000000,0.000000,0.000000,0.000000,0.000000,0.000000,1647341887.695350,0.000000
37.000000,37483.786045,25033.238534,22391.575264,19079.896102,-48692.180060,46304.723180,-20571.405658,21158.116598,0.072000,0.974000,-0.026000,192.000000,0.000000,0.000000,0.000000,0.000000,0.000000,0.000000,0.000000,0.000000,0.000000,1647341887.702367,0.000000
38.000000,37483.093140,25043.989723,22403.891075,19089.820276,-48686.055682,46328.080753,-20248.244136,21115.044786,0.084000,0.966000,-0.020000,192.000000,2.000000,160.000000,30.000000,48.000000,255.000000,96.000000,0.000000,0.000000,0.000000,1647341887.702370,0.000000
39.000000,37492.011487,25052.192813,22422.130099,19090.937864,-48680.355988,46345.537465,-19922.646275,21071.414181,0.084000,0.966000,-0.020000,192.000000,0.000000,0.000000,0.000000,0.000000,0.000000,0.000000,0.000000,0.000000,0.000000,1647341887.710400,0.000000
40.000000,37499.544024,25043.654447,22411.445965,19069.793113,-48692.515337,46341.804724,-19626.440957,21013.389053,0.084000,0.966000,-0.020000,192.000000,0.000000,0.000000,0.000000,0.000000,0.000000,0.000000,0.000000,0.000000,0.000000,1647341887.718427,0.000000
41.000000,37488.256393,25020.319226,22395.464467,19054.973907,-48711.156691,46325.979689,-19306.341625,20984.845875,0.084000,0.966000,-0.020000,192.000000,0.000000,0.000000,0.000000,0.000000,0.000000,0.000000,0.000000,0.000000,0.000000,1647341887.718430,0.000000
42.000000,37489.530443,25037.887697,22417.972674,19068.675526,-48694.325828,46336.485009,-18936.800234,20995.395898,0.084000,0.966000,-0.020000,192.000000,0.000000,0.000000,0.000000,0.000000,0.000000,0.000000,0.000000,0.000000,0.000000,1647341887.725054,0.000000
43.000000,37479.315696,25028.030578,22408.808459,19062.260576,-48702.528918,46329.935948,-18576.333651,21003.889561,0.084000,0.966000,-0.020000,192.000000,0.000000,0.000000,0.000000,0.000000,0.000000,0.000000,0.000000,0.000000,0.000000,1647341887.725065,0.000000
44.000000,37458.439166,24986.478685,22366.854235,19015.143098,-48746.941834,46290.216898,-18235.827176,21009.030462,0.084000,0.966000,-0.020000,192.000000,0.000000,0.000000,0.000000,0.000000,0.000000,0.000000,0.000000,0.000000,0.000000,1647341887.733026,0.000000
45.000000,37458.416815,24988.088010,22369.044706,19015.478374,-48750.182837,46293.234383,-17920.555821,21007.689358,0.084000,0.966000,-0.020000,192.000000,0.000000,0.000000,0.000000,0.000000,0.000000,0.000000,0.000000,0.000000,0.000000,1647341887.733031,0.000000
46.000000,37433.651082,24978.834388,22341.596763,18988.186894,-48766.298445,46276.671741,-17645.741122,20988.198637,0.084000,0.966000,-0.020000,192.000000,0.000000,0.000000,0.000000,0.000000,0.000000,0.000000,0.000000,0.000000,0.000000,1647341887.740995,0.000000
47.000000,37422.363451,24974.699315,22322.016635,18974.529979,-48789.700721,46244.887560,-17356.666011,21010.840954,0.084000,0.966000,-0.020000,192.000000,0.000000,0.000000,0.000000,0.000000,0.000000,0.000000,0.000000,0.000000,0.000000,1647341887.740999,0.000000
48.000000,37436.534457,24991.574882,22335.271220,18990.667938,-48778.569553,46254.498810,-17072.441229,21067.279108,0.060000,0.960000,-0.010000,192.000000,1.000000,224.000000,30.000000,0.000000,255.000000,176.000000,0.000000,0.000000,0.000000,1647341887.748094,0.000000
49.000000,37434.522800,24962.539966,22332.544307,18974.418220,-48779.083643,46255.839915,-16815.016188,21130.512194,0.060000,0.960000,-0.010000,192.000000,0.000000,0.000000,0.000000,0.000000,0.000000,0.000000,0.000000,0.000000,0.000000,1647341887.748097,0.000000
50.000000,37423.369279,24944.680923,22315.244057,18961.387153,-48796.339190,46244.082897,-16567.381211,21214.018311,0.060000,0.960000,-0.010000,192.000000,0.000000,0.000000,0.000000,0.000000,0.000000,0.000000,0.000000,0.000000,0.000000,1647341887.755647,0.000000
51.000000,37421.536436,24958.293135,22322.061339,18972.697136,-48796.070969,46239.880769,-16360.515816,21292.227065,0.060000,0.960000,-0.010000,192.000000,0.000000,0.000000,0.000000,0.000000,0.000000,0.000000,0.000000,0.000000,0.000000,1647341887.755650,0.000000
52.000000,37426.990262,24971.167740,22329.459766,18982.621310,-48788.940762,46244.820505,-16160.624166,21383.802162,0.060000,0.960000,-0.010000,192.000000,0.000000,0.000000,0.000000,0.000000,0.000000,0.000000,0.000000,0.000000,0.000000,1647341887.763625,0.000000
53.000000,37446.056300,24980.555472,22327.582220,18989.617406,-48776.446137,46252.554208,-15913.950314,21542.477196,0.060000,0.960000,-0.010000,192.000000,0.000000,0.000000,0.000000,0.000000,0.000000,0.000000,0.000000,0.000000,0.000000,1647341887.763628,0.000000
54.000000,37445.184582,24961.310620,22306.817449,18968.450304,-48794.260477,46230.113057,-15647.919851,21753.701181,0.060000,0.960000,-0.010000,192.000000,0.000000,0.000000,0.000000,0.000000,0.000000,0.000000,0.000000,0.000000,0.000000,1647341887.770722,0.000000
55.000000,37458.752091,24981.360135,22325.257638,18994.490086,-48784.001027,46245.356947,-15402.855325,21962.086494,0.060000,0.960000,-0.010000,192.000000,0.000000,0.000000,0.000000,0.000000,0.000000,0.000000,0.000000,0.000000,0.000000,1647341887.777863,0.000000
56.000000,37469.056245,25003.778935,22349.866909,19019.233467,-48762.163372,46264.735909,-15160.361249,22148.880023,0.060000,0.960000,-0.010000,192.000000,0.000000,0.000000,0.000000,0.000000,0.000000,0.000000,0.000000,0.000000,0.000000,1647341887.777867,0.000000
57.000000,37474.778292,25003.980101,22346.894127,19022.161546,-48756.284864,46266.702863,-14915.967276,22357.690019,0.060000,0.960000,-0.010000,192.000000,0.000000,0.000000,0.000000,0.000000,0.000000,0.000000,0.000000,0.000000,0.000000,1647341887.785291,0.000000
58.000000,37489.999830,25021.950903,22349.710447,19038.165395,-48747.388869,46278.862212,-14653.200168,22601.055813,0.090000,0.972000,-0.004000,192.000000,2.000000,208.000000,30.000000,96.000000,255.000000,224.000000,0.000000,0.000000,0.000000,1647341887.785295,0.000000
59.000000,37500.125170,25021.861496,22353.867871,19036.600773,-48752.932102,46269.161554,-14401.228953,22819.208839,0.090000,0.972000,-0.004000,192.000000,0.000000,0.000000,0.000000,0.000000,0.000000,0.000000,0.000000,0.000000,0.000000,1647341887.793347,0.000000
60.000000,37513.715030,25027.695301,22357.019467,19040.422921,-48742.762058,46284.293685,-14138.238327,23010.718585,0.090000,0.972000,-0.004000,192.000000,0.000000,0.000000,0.000000,0.000000,0.000000,0.000000,0.000000,0.000000,0.000000,1647341887.793351,0.000000
61.000000,37503.008545,25016.184153,22343.451958,19030.744616,-48752.552122,46282.505546,-13875.381812,23189.644300,0.090000,0.972000,-0.004000,192.000000,0.000000,0.000000,0.000000,0.000000,0.000000,0.000000,0.000000,0.000000,0.000000,1647341887.801354,0.000000
62.000000,37516.508998,25034.132604,22359.656973,19046.055561,-48737.017660,46303.113854,-13647.349316,23326.861659,0.090000,0.972000,-0.004000,192.000000,0.000000,0.000000,0.000000,0.000000,0.000000,0.000000,0.000000,0.000000,0.000000,1647341887.801358,0.000000
63.000000,37545.074528,25042.380398,22374.565586,19053.185767,-48724.590090,46312.479235,-13364.376231,23505.206228,0.090000,0.972000,-0.004000,192.000000,0.000000,0.000000,0.000000,0.000000,0.000000,0.000000,0.000000,0.000000,0.000000,1647341887.807931,0.000000
64.000000,37560.139604,25048.169499,22389.384793,19059.444256,-48715.962317,46317.798950,-13092.064928,23654.247660,0.090000,0.972000,-0.004000,192.000000,0.000000,0.000000,0.000000,0.000000,0.000000,0.000000,0.000000,0.000000,0.000000,1647341887.807935,0.000000
65.000000,37582.245479,25068.464883,22407.176782,19079.471419,-48696.426892,46339.547198,-12846.016925,23806.597150,0.090000,0.972000,-0.004000,192.000000,0.000000,0.000000,0.000000,0.000000,0.000000,0.000000,0.000000,0.000000,0.000000,1647341887.815949,0.000000
66.000000,37587.051104,25073.382267,22412.496497,19087.518047,-48690.168403,46348.443192,-12626.701609,23960.243042,0.090000,0.972000,-0.004000,192.000000,0.000000,0.000000,0.000000,0.000000,0.000000,0.000000,0.000000,0.000000,0.000000,1647341887.815953,0.000000
67.000000,37596.550595,25083.932291,22421.168974,19089.350890,-48681.674741,46361.943646,-12420.216193,24084.809313,0.090000,0.972000,-0.004000,192.000000,0.000000,0.000000,0.000000,0.000000,0.000000,0.000000,0.000000,0.000000,0.000000,1647341887.823925,0.000000
68.000000,37590.582680,25083.015869,22418.419709,19082.935939,-48685.429834,46359.730823,-12240.776389,24145.986038,0.090000,0.972000,-0.004000,192.000000,0.000000,0.000000,0.000000,0.000000,0.000000,0.000000,0.000000,0.000000,0.000000,1647341887.823929,0.000000
69.000000,37596.327078,25086.770962,22433.730654,19089.887332,-48682.345293,46369.945570,-12059.593148,24195.070469,0.082000,0.978000,-0.006000,192.000000,2.000000,144.000000,30.000000,144.000000,255.000000,208.000000,0.000000,0.000000,0.000000,1647341887.830039,0.000000
70.000000,37610.453380,25100.159657,22454.204852,19105.175925,-48669.180115,46385.569440,-11918.084254,24242.679684,0.082000,0.978000,-0.006000,192.000000,0.000000,0.000000,0.000000,0.000000,0.000000,0.000000,0.000000,0.000000,0.000000,1647341887.837596,0.000000
71.000000,37598.651659,25086.122762,22423.024168,19095.810544,-48684.155784,46366.816326,-11771.300348,24336.199383,0.082000,0.978000,-0.006000,192.000000,0.000000,0.000000,0.000000,0.000000,0.000000,0.000000,0.000000,0.000000,0.000000,1647341887.837599,0.000000
72.000000,37588.459264,25074.544558,22405.455697,19084.187637,-48697.008037,46351.013643,-11609.138442,24468.655821,0.082000,0.978000,-0.006000,192.000000,0.000000,0.000000,0.000000,0.000000,0.000000,0.000000,0.000000,0.000000,0.000000,1647341887.845646,0.000000
73.000000,37591.856729,25067.973145,22406.238008,19068.183788,-48699.600840,46347.817343,-11419.260373,24678.270480,0.082000,0.978000,-0.006000,192.000000,0.000000,0.000000,0.000000,0.000000,0.000000,0.000000,0.000000,0.000000,0.000000,1647341887.845650,0.000000
74.000000,37590.940307,25062.362857,22403.086412,19075.671622,-48702.797139,46346.163314,-11226.074246,24882.498370,0.082000,0.978000,-0.006000,192.000000,0.000000,0.000000,0.000000,0.000000,0.000000,0.000000,0.000000,0.000000,0.000000,1647341887.853644,0.000000
75.000000,37596.058857,25076.377401,22411.915351,19100.191486,-48696.225726,46354.567570,-11086.219381,25006.528199,0.082000,0.978000,-0.006000,192.000000,0.000000,0.000000,0.000000,0.000000,0.000000,0.000000,0.000000,0.000000,0.000000,1647341887.853648,0.000000
76.000000,37598.182273,25086.480389,22430.847279,19104.460669,-48686.659180,46370.593771,-10981.076775,25057.758398,0.082000,0.978000,-0.006000,192.000000,0.000000,0.000000,0.000000,0.000000,0.000000,0.000000,0.000000,0.000000,0.000000,1647341887.860197,0.000000
77.000000,37625.384346,25103.311253,22455.188329,19114.340140,-48668.487211,46381.389663,-10851.950747,25129.015759,0.082000,0.978000,-0.006000,192.000000,0.000000,0.000000,0.000000,0.000000,0.000000,0.000000,0.000000,0.000000,0.000000,1647341887.860201,0.000000
78.000000,37656.788547,25129.932181,22485.609053,19146.370190,-48643.140333,46403.763760,-10722.958830,25186.213873,0.082000,0.978000,-0.006000,192.000000,0.000000,0.000000,0.000000,0.000000,0.000000,0.000000,0.000000,0.000000,0.000000,1647341887.868222,0.000000
79.000000,37672.144195,25139.230506,22487.710117,19158.529539,-48636.546568,46409.485806,-10567.100116,25211.761917,0.100000,0.982000,-0.008000,192.000000,3.000000,32.000000,30.000000,176.000000,255.000000,192.000000,0.000000,0.000000,0.000000,1647341887.868226,0.000000
80.000000,37683.677695,25134.246067,22488.559483,19160.652955,-48644.637900,46403.629649,-10367.141410,25219.942656,0.100000,0.982000,-0.008000,192.000000,0.000000,0.000000,0.000000,0.000000,0.000000,0.000000,0.000000,0.000000,0.000000,1647341887.876225,0.000000
81.000000,37684.974096,25141.376274,22500.070632,19172.924062,-48643.676775,46410.245765,-10161.974747,25234.113662,0.100000,0.982000,-0.008000,192.000000,0.000000,0.000000,0.000000,0.000000,0.000000,0.000000,0.000000,0.000000,0.000000,1647341887.876228,0.000000
82.000000,37689.712666,25149.959344,22501.411736,19171.046516,-48640.122848,46416.951289,-9958.171541,25221.261408,0.100000,0.982000,-0.008000,192.000000,0.000000,0.000000,0.000000,0.000000,0.000000,0.000000,0.000000,0.000000,0.000000,1647341887.883456,0.000000
83.000000,37697.647536,25146.785396,22504.831553,19160.720010,-48636.591272,46417.040696,-9746.969908,25203.290606,0.100000,0.982000,-0.008000,192.000000,0.000000,0.000000,0.000000,0.000000,0.000000,0.000000,0.000000,0.000000,0.000000,1647341887.883462,0.000000
84.000000,37706.141198,25158.184786,22512.855829,19171.426495,-48622.956708,46428.171865,-9558.164723,25148.595887,0.100000,0.982000,-0.008000,192.000000,0.000000,0.000000,0.000000,0.000000,0.000000,0.000000,0.000000,0.000000,0.000000,1647341887.890037,0.000000
85.000000,37704.978908,25177.429638,22525.596324,19186.290406,-48613.747789,46443.773382,-9393.007683,25057.132549,0.100000,0.982000,-0.008000,192.000000,0.000000,0.000000,0.000000,0.000000,0.000000,0.000000,0.000000,0.000000,0.000000,1647341887.897846,0.000000
86.000000,37718.009975,25199.915493,22557.559318,19205.021167,-48589.429091,46471.802470,-9267.234417,24946.536117,0.100000,0.982000,-0.008000,192.000000,0.000000,0.000000,0.000000,0.000000,0.000000,0.000000,0.000000,0.000000,0.000000,1647341887.897855,0.000000
87.000000,37707.683469,25180.804751,22548.529213,19185.530446,-48604.762388,46452.915246,-9098.299932,24885.068820,0.100000,0.982000,-0.008000,192.000000,0.000000,0.000000,0.000000,0.000000,0.000000,0.000000,0.000000,0.000000,0.000000,1647341887.905922,0.000000
88.000000,37716.959443,25185.073934,22560.643859,19192.906522,-48600.962591,46459.397252,-8908.712436,24833.570401,0.100000,0.982000,-0.008000,192.000000,0.000000,0.000000,0.000000,0.000000,0.000000,0.000000,0.000000,0.000000,0.000000,1647341887.905926,0.000000
89.000000,37739.087670,25209.392632,22569.629260,19219.840374,-48583.125899,46483.760653,-8748.159855,24779.970918,0.086000,0.998000,-0.014000,192.000000,2.000000,176.000000,31.000000,48.000000,255.000000,144.000000,0.000000,0.000000,0.000000,1647341887.913278,0.000000
90.000000,37744.697958,25211.516048,22555.994696,19216.219391,-48588.915001,46483.224211,-8600.548935,24716.044929,0.086000,0.998000,-0.014000,192.000000,0.000000,0.000000,0.000000,0.000000,0.000000,0.000000,0.000000,0.000000,0.000000,1647341887.913286,0.000000
91.000000,37730.996338,25197.456801,22548.864490,19203.076566,-48604.158891,46477.122185,-8462.661023,24645.480471,0.086000,0.998000,-0.014000,192.000000,0.000000,0.000000,0.000000,0.000000,0.000000,0.000000,0.000000,0.000000,0.000000,1647341887.920902,0.000000
92.000000,37726.481286,25203.067088,22557.134635,19207.256342,-48600.247335,46494.891822,-8347.795409,24556.989915,0.086000,0.998000,-0.014000,192.000000,0.000000,0.000000,0.000000,0.000000,0.000000,0.000000,0.000000,0.000000,0.000000,1647341887.920914,0.000000
93.000000,37722.882655,25186.169170,22539.566164,19185.418688,-48615.535929,46478.619752,-8202.017331,24486.648975,0.086000,0.998000,-0.014000,192.000000,0.000000,0.000000,0.000000,0.000000,0.000000,0.000000,0.000000,0.000000,0.000000,1647341887.928908,0.000000
94.000000,37736.092536,25195.556902,22552.329010,19205.758775,-48606.148196,46501.887918,-8037.441437,24423.058262,0.086000,0.998000,-0.014000,192.000000,0.000000,0.000000,0.000000,0.000000,0.000000,0.000000,0.000000,0.000000,0.000000,1647341887.928924,0.000000
95.000000,37754.733891,25214.980568,22570.143350,19232.379703,-48586.769234,46517.243566,-7888.288246,24345.609468,0.086000,0.998000,-0.014000,192.000000,0.000000,0.000000,0.000000,0.000000,0.000000,0.000000,0.000000,0.000000,0.000000,1647341887.936973,0.000000
96.000000,37751.068205,25215.069975,22554.564184,19229.608086,-48591.507803,46507.364095,-7711.955334,24281.057630,0.086000,0.998000,-0.014000,192.000000,0.000000,0.000000,0.000000,0.000000,0.000000,0.000000,0.000000,0.000000,0.000000,1647341887.936989,0.000000
97.000000,37761.864097,25230.626789,22574.121961,19249.344677,-48576.979169,46523.211482,-7543.222015,24193.617605,0.086000,0.998000,-0.014000,192.000000,0.000000,0.000000,0.000000,0.000000,0.000000,0.000000,0.000000,0.000000,0.000000,1647341887.943596,0.000000
98.000000,37776.616249,25247.480005,22587.555359,19245.164900,-48574.900457,46523.636165,-7397.175717,24096.275758,0.086000,0.998000,-0.014000,192.000000,0.000000,0.000000,0.000000,0.000000,0.000000,0.000000,0.000000,0.000000,0.000000,1647341887.943612,0.000000
99.000000,37783.500586,25240.729778,22599.267673,19238.772302,-48572.553524,46534.230892,-7321.626821,23990.172027,0.080000,1.004000,-0.018000,192.000000,2.000000,128.000000,31.000000,96.000000,255.000000,112.000000,0.000000,0.000000,0.000000,1647341887.950473,0.000000
100.000000,37765.105100,25220.344987,22590.326976,19243.466168,-48572.933504,46539.192979,-7336.736600,23864.152892,0.080000,1.004000,-0.018000,192.000000,0.000000,0.000000,0.000000,0.000000,0.000000,0.000000,0.000000,0.000000,0.000000,1647341887.950489,0.000000
101.000000,37756.566734,25227.899877,22581.810961,19246.126025,-48573.000559,46541.271691,-7288.792108,23743.609934,0.080000,1.004000,-0.018000,192.000000,0.000000,0.000000,0.000000,0.000000,0.000000,0.000000,0.000000,0.000000,0.000000,1647341887.958571,0.000000
102.000000,37779.320810,25250.184566,22609.772993,19273.439857,-48551.565236,46559.644825,-7190.064453,23653.867680,0.080000,1.004000,-0.018000,192.000000,0.000000,0.000000,0.000000,0.000000,0.000000,0.000000,0.000000,0.000000,0.000000,1647341887.965471,0.000000
103.000000,37798.610365,25257.560641,22627.319113,19286.537979,-48539.964681,46565.076299,-7131.078199,23542.801862,0.080000,1.004000,-0.018000,192.000000,0.000000,0.000000,0.000000,0.000000,0.000000,0.000000,0.000000,0.000000,0.000000,1647341887.965488,0.000000
104.000000,37808.892168,25267.842444,22638.986723,19294.897532,-48533.326213,46565.456279,-7111.095740,23404.399860,0.080000,1.004000,-0.018000,192.000000,0.000000,0.000000,0.000000,0.000000,0.000000,0.000000,0.000000,0.000000,0.000000,1647341887.973154,0.000000
105.000000,37806.545235,25267.775389,22619.563057,19277.530226,-48545.463210,46556.470878,-7094.019007,23262.712152,0.080000,1.004000,-0.018000,192.000000,0.000000,0.000000,0.000000,0.000000,0.000000,0.000000,0.000000,0.000000,0.000000,1647341887.973170,0.000000
106.000000,37801.672554,25260.823996,22602.776897,19268.835398,-48557.868428,46548.513657,-7071.354338,23136.871831,0.080000,1.004000,-0.018000,192.000000,0.000000,0.000000,0.000000,0.000000,0.000000,0.000000,0.000000,0.000000,0.000000,1647341887.981149,0.000000
107.000000,37814.301290,25269.295307,22626.872078,19281.911168,-48538.355355,46563.712843,-7051.394230,23024.487260,0.080000,1.004000,-0.018000,192.000000,0.000000,0.000000,0.000000,0.000000,0.000000,0.000000,0.000000,0.000000,0.000000,1647341887.981184,0.000000
108.000000,37822.236159,25270.479950,22625.687435,19281.419430,-48535.337870,46558.974273,-7037.469093,22901.217389,0.080000,1.004000,-0.018000,192.000000,0.000000,0.000000,0.000000,0.000000,0.000000,0.000000,0.000000,0.000000,0.000000,1647341887.989165,0.000000
109.000000,37830.573360,25281.521712,22634.359912,19299.367881,-48528.677050,46567.579695,-7056.982166,22745.135158,0.072000,1.004000,-0.022000,192.000000,2.000000,64.000000,31.000000,96.000000,255.000000,80.000000,0.000000,0.000000,0.000000,1647341887.989181,0.000000
110.000000,37836.384813,25279.331241,22647.994476,19299.099660,-48525.167826,46566.372700,-7075.020024,22595.043194,0.072000,1.004000,-0.022000,192.000000,0.000000,0.000000,0.000000,0.000000,0.000000,0.000000,0.000000,0.000000,0.000000,1647341887.995778,0.000000
111.000000,37835.736613,25279.621813,22638.763206,19298.406756,-48521.211567,46562.438793,-7097.528231,22457.155282,0.072000,1.004000,-0.022000,192.000000,0.000000,0.000000,0.000000,0.000000,0.000000,0.000000,0.000000,0.000000,0.000000,1647341887.995794,0.000000
112.000000,37828.181723,25270.368191,22626.000360,19285.509799,-48536.254291,46547.708994,-7104.658437,22346.558851,0.072000,1.004000,-0.022000,192.000000,0.000000,0.000000,0.000000,0.000000,0.000000,0.000000,0.000000,0.000000,0.000000,1647341888.003500,0.000000
113.000000,37842.643302,25284.427438,22636.595087,19306.229866,-48527.715925,46570.932456,-7117.153062,22227.759329,0.072000,1.004000,-0.022000,192.000000,0.000000,0.000000,0.000000,0.000000,0.000000,0.000000,0.000000,0.000000,0.000000,1647341888.003512,0.000000
114.000000,37854.556782,25289.903616,22637.980895,19308.286227,-48521.032753,46585.550497,-7140.957670,22099.192095,0.072000,1.004000,-0.022000,192.000000,0.000000,0.000000,0.000000,0.000000,0.000000,0.000000,0.000000,0.000000,0.000000,1647341888.011799,0.000000
115.000000,37858.960075,25279.107723,22625.821546,19290.337776,-48530.532245,46576.587448,-7163.555284,21971.094247,0.072000,1.004000,-0.022000,192.000000,0.000000,0.000000,0.000000,0.000000,0.000000,0.000000,0.000000,0.000000,0.000000,1647341888.011816,0.000000
116.000000,37858.289523,25271.530482,22613.662197,19292.170619,-48538.176541,46564.137526,-7165.902217,21868.119761,0.072000,1.004000,-0.022000,192.000000,0.000000,0.000000,0.000000,0.000000,0.000000,0.000000,0.000000,0.000000,0.000000,1647341888.018621,0.000000
117.000000,37845.414918,25257.381828,22610.689415,19285.509799,-48548.659509,46551.709956,-7162.482400,21774.644765,0.072000,1.004000,-0.022000,192.000000,0.000000,0.000000,0.000000,0.000000,0.000000,0.000000,0.000000,0.000000,0.000000,1647341888.025461,0.000000
118.000000,37850.175840,25251.905650,22601.502848,19276.233825,-48554.158038,46544.892674,-7146.456199,21696.413660,0.072000,1.004000,-0.022000,192.000000,0.000000,0.000000,0.000000,0.000000,0.000000,0.000000,0.000000,0.000000,0.000000,1647341888.025477,0.000000
119.000000,37856.479032,25252.755016,22593.031537,19270.265909,-48557.175524,46548.156029,-7134.430961,21626.318589,0.086000,0.998000,-0.024000,192.000000,2.000000,176.000000,31.000000,48.000000,255.000000,64.000000,0.000000,0.000000,0.000000,1647341888.033452,0.000000
120.000000,37876.886174,25275.442037,22620.725348,19294.785773,-48533.996765,46575.782785,-7162.527104,21510.737718,0.086000,0.998000,-0.024000,192.000000,0.000000,0.000000,0.000000,0.000000,0.000000,0.000000,0.000000,0.000000,0.000000,1647341888.033469,0.000000
121.000000,37876.305029,25276.336107,22622.111156,19305.335797,-48531.135742,46577.302704,-7200.659180,21372.536882,0.086000,0.998000,-0.024000,192.000000,0.000000,0.000000,0.000000,0.000000,0.000000,0.000000,0.000000,0.000000,0.000000,1647341888.041388,0.000000
122.000000,37873.175785,25267.529520,22618.110194,19299.524343,-48530.800465,46567.982026,-7211.477424,21231.117395,0.086000,0.998000,-0.024000,192.000000,0.000000,0.000000,0.000000,0.000000,0.000000,0.000000,0.000000,0.000000,0.000000,1647341888.041405,0.000000
123.000000,37878.406093,25257.404179,22603.246284,19283.609901,-48538.087134,46558.594293,-7177.323959,21110.395623,0.086000,0.998000,-0.024000,192.000000,0.000000,0.000000,0.000000,0.000000,0.000000,0.000000,0.000000,0.000000,0.000000,1647341888.048525,0.000000
124.000000,37902.724791,25276.470217,22618.914857,19309.247352,-48520.563366,46576.542744,-7156.827409,20956.883843,0.086000,0.998000,-0.024000,192.000000,0.000000,0.000000,0.000000,0.000000,0.000000,0.000000,0.000000,0.000000,0.000000,1647341888.048541,0.000000
125.000000,37912.537207,25271.821054,22618.534877,19297.423279,-48522.329154,46576.363930,-7143.841045,20792.330300,0.086000,0.998000,-0.024000,192.000000,0.000000,0.000000,0.000000,0.000000,0.000000,0.000000,0.000000,0.000000,0.000000,1647341888.056057,0.000000
126.000000,37894.991087,25244.060188,22581.743906,19262.353392,-48548.659509,46543.015128,-7106.379522,20657.951612,0.086000,0.998000,-0.024000,192.000000,0.000000,0.000000,0.000000,0.000000,0.000000,0.000000,0.000000,0.000000,0.000000,1647341888.056073,0.000000
127.000000,37884.597526,25246.273011,22591.824543,19268.902453,-48548.570102,46545.697337,-7078.529248,20523.058834,0.086000,0.998000,-0.024000,192.000000,0.000000,0.000000,0.000000,0.000000,0.000000,0.000000,0.000000,0.000000,0.000000,1647341888.064066,0.000000
128.000000,37892.219471,25240.997999,22586.013089,19265.549691,-48548.011309,46543.439811,-7043.101733,20410.942484,0.086000,0.998000,-0.024000,192.000000,0.000000,0.000000,0.000000,0.000000,0.000000,0.000000,0.000000,0.000000,0.000000,1647341888.064082,0.000000
129.000000,37893.761741,25241.109758,22581.855664,19266.600223,-48551.408774,46542.858665,-7013.776244,20297.261512,0.088000,0.976000,-0.022000,192.000000,2.000000,192.000000,30.000000,128.000000,255.000000,80.000000,0.000000,0.000000,0.000000,1647341888.071286,0.000000
130.000000,37893.672334,25246.407121,22588.807057,19268.745991,-48547.072535,46547.016090,-6999.113500,20171.801170,0.088000,0.976000,-0.022000,192.000000,0.000000,0.000000,0.000000,0.000000,0.000000,0.000000,0.000000,0.000000,0.000000,1647341888.071302,0.000000
131.000000,37889.023172,25241.467385,22575.127789,19261.571081,-48554.828591,46539.237683,-6972.783145,20064.244576,0.088000,0.976000,-0.022000,192.000000,0.000000,0.000000,0.000000,0.000000,0.000000,0.000000,0.000000,0.000000,0.000000,1647341888.077656,0.000000
132.000000,37884.932802,25241.445034,22573.518464,19270.981165,-48551.654643,46535.057907,-6932.952336,19982.683060,0.088000,0.976000,-0.022000,192.000000,0.000000,0.000000,0.000000,0.000000,0.000000,0.000000,0.000000,0.000000,0.000000,1647341888.085659,0.000000
133.000000,37879.344866,25221.775499,22557.469911,19249.925822,-48566.585608,46521.400991,-6886.371301,19915.247847,0.088000,0.976000,-0.022000,192.000000,0.000000,0.000000,0.000000,0.000000,0.000000,0.000000,0.000000,0.000000,0.000000,1647341888.085675,0.000000
134.000000,37880.753026,25204.139972,22546.472853,19222.701397,-48582.321236,46514.159025,-6821.931222,19861.648364,0.088000,0.976000,-0.022000,192.000000,0.000000,0.000000,0.000000,0.000000,0.000000,0.000000,0.000000,0.000000,0.000000,1647341888.093710,0.000000
135.000000,37903.261233,25233.465461,22581.363926,19263.158055,-48555.856771,46548.468953,-6769.650491,19786.121820,0.088000,0.976000,-0.022000,192.000000,0.000000,0.000000,0.000000,0.000000,0.000000,0.000000,0.000000,0.000000,0.000000,1647341888.093727,0.000000
136.000000,37911.263157,25244.350761,22585.610758,19281.084154,-48541.194027,46563.355215,-6730.579642,19709.634150,0.088000,0.976000,-0.022000,192.000000,0.000000,0.000000,0.000000,0.000000,0.000000,0.000000,0.000000,0.000000,0.000000,1647341888.100855,0.000000
137.000000,37907.105733,25249.893993,22587.309490,19282.224093,-48535.270814,46567.266770,-6678.567133,19647.652763,0.088000,0.976000,-0.022000,192.000000,0.000000,0.000000,0.000000,0.000000,0.000000,0.000000,0.000000,0.000000,0.000000,1647341888.100872,0.000000
138.000000,37916.247596,25240.439205,22585.096667,19270.288261,-48543.205684,46555.420346,-6579.101870,19593.762707,0.088000,0.976000,-0.022000,192.000000,0.000000,0.000000,0.000000,0.000000,0.000000,0.000000,0.000000,0.000000,0.000000,1647341888.108342,0.000000
139.000000,37902.568329,25207.604493,22542.538946,19237.788825,-48574.185201,46524.127903,-6459.028299,19538.620953,0.096000,0.970000,-0.016000,192.000000,3.000000,0.000000,30.000000,80.000000,255.000000,128.000000,0.000000,0.000000,0.000000,1647341888.108360,0.000000
140.000000,37892.711209,25214.287664,22548.015123,19236.492424,-48573.492297,46535.102610,-6350.711745,19472.482142,0.096000,0.970000,-0.016000,192.000000,0.000000,0.000000,0.000000,0.000000,0.000000,0.000000,0.000000,0.000000,0.000000,1647341888.117750,0.000000
141.000000,37913.386573,25238.829880,22580.693374,19259.291203,-48547.832495,46556.649692,-6234.929709,19411.014844,0.096000,0.970000,-0.016000,192.000000,0.000000,0.000000,0.000000,0.000000,0.000000,0.000000,0.000000,0.000000,0.000000,1647341888.117766,0.000000
142.000000,37916.471114,25231.453804,22566.298850,19250.261098,-48554.359204,46542.523389,-6102.652085,19365.841969,0.096000,0.970000,-0.016000,192.000000,0.000000,0.000000,0.000000,0.000000,0.000000,0.000000,0.000000,0.000000,0.000000,1647341888.124391,0.000000
143.000000,37924.853018,25231.073824,22558.274574,19243.130892,-48555.119163,46544.356232,-5982.265590,19308.532096,0.096000,0.970000,-0.016000,192.000000,0.000000,0.000000,0.000000,0.000000,0.000000,0.000000,0.000000,0.000000,0.000000,1647341888.124408,0.000000
144.000000,37936.565332,25239.902763,22574.993679,19267.360183,-48542.043393,46567.847916,-5885.437833,19237.408845,0.096000,0.970000,-0.016000,192.000000,0.000000,0.000000,0.000000,0.000000,0.000000,0.000000,0.000000,0.000000,0.000000,1647341888.130977,0.000000
145.000000,37939.158134,25242.070883,22585.655461,19264.789732,-48540.925806,46568.049081,-5814.806320,19156.383771,0.096000,0.970000,-0.016000,192.000000,0.000000,0.000000,0.000000,0.000000,0.000000,0.000000,0.000000,0.000000,0.000000,1647341888.130994,0.000000
146.000000,37912.894835,25205.235208,22549.423283,19221.404996,-48577.627370,46525.960747,-5723.432389,19117.089405,0.096000,0.970000,-0.016000,192.000000,0.000000,0.000000,0.000000,0.000000,0.000000,0.000000,0.000000,0.000000,0.000000,1647341888.138075,0.000000
147.000000,37917.745163,25215.874638,22554.608888,19229.965714,-48572.352358,46539.260034,-5631.410257,19090.468477,0.096000,0.970000,-0.016000,192.000000,0.000000,0.000000,0.000000,0.000000,0.000000,0.000000,0.000000,0.000000,0.000000,1647341888.146037,0.000000
148.000000,37936.453573,25222.669568,22565.449484,19241.208642,-48565.915056,46550.279444,-5546.719497,19069.726058,0.096000,0.970000,-0.016000,192.000000,0.000000,0.000000,0.000000,0.000000,0.000000,0.000000,0.000000,0.000000,0.000000,1647341888.146058,0.000000
149.000000,37941.259198,25215.047624,22563.773103,19229.317514,-48572.486469,46543.842142,-5501.032531,19016.283037,0.090000,0.984000,-0.020000,192.000000,2.000000,208.000000,30.000000,192.000000,255.000000,96.000000,0.000000,0.000000,0.000000,1647341888.154098,0.000000
150.000000,37932.363204,25202.620054,22544.327086,19221.807327,-48581.673036,46539.170627,-5451.255196,18973.099467,0.090000,0.984000,-0.020000,192.000000,0.000000,0.000000,0.000000,0.000000,0.000000,0.000000,0.000000,0.000000,0.000000,1647341888.154132,0.000000
151.000000,37927.803448,25190.997146,22532.950048,19212.129022,-48588.155042,46534.566168,-5390.927838,18942.410522,0.090000,0.984000,-0.020000,192.000000,0.000000,0.000000,0.000000,0.000000,0.000000,0.000000,0.000000,0.000000,0.000000,1647341888.160691,0.000000
152.000000,37943.069690,25198.306167,22527.853850,19209.156240,-48583.125899,46535.035555,-5302.571392,18938.677780,0.090000,0.984000,-0.020000,192.000000,0.000000,0.000000,0.000000,0.000000,0.000000,0.000000,0.000000,0.000000,0.000000,1647341888.160707,0.000000
153.000000,37943.784945,25189.968966,22519.628408,19200.416708,-48588.803242,46522.496226,-5205.698932,18929.893545,0.090000,0.984000,-0.020000,192.000000,0.000000,0.000000,0.000000,0.000000,0.000000,0.000000,0.000000,0.000000,0.000000,1647341888.168637,0.000000
154.000000,37954.402024,25198.954368,22533.039455,19204.842353,-48580.533097,46535.862569,-5124.182120,18896.410632,0.090000,0.984000,-0.020000,192.000000,0.000000,0.000000,0.000000,0.000000,0.000000,0.000000,0.000000,0.000000,0.000000,1647341888.168653,0.000000
155.000000,37972.886917,25225.128260,22565.740057,19233.027903,-48557.980187,46556.739099,-5059.540875,18840.754788,0.090000,0.984000,-0.020000,192.000000,0.000000,0.000000,0.000000,0.000000,0.000000,0.000000,0.000000,0.000000,0.000000,1647341888.176634,0.000000
156.000000,37975.412664,25211.940731,22550.965554,19224.266019,-48563.344605,46541.115229,-4952.431315,18818.157174,0.090000,0.984000,-0.020000,192.000000,0.000000,0.000000,0.000000,0.000000,0.000000,0.000000,0.000000,0.000000,0.000000,1647341888.176652,0.000000
157.000000,37962.314542,25188.046716,22526.602152,19202.964807,-48581.382463,46527.190092,-4817.337372,18815.050282,0.090000,0.984000,-0.020000,192.000000,0.000000,0.000000,0.000000,0.000000,0.000000,0.000000,0.000000,0.000000,0.000000,1647341888.183724,0.000000
158.000000,37967.164870,25192.919397,22527.518574,19210.698510,-48580.711911,46533.314470,-4695.766234,18786.909436,0.090000,0.984000,-0.020000,192.000000,0.000000,0.000000,0.000000,0.000000,0.000000,0.000000,0.000000,0.000000,0.000000,1647341888.183740,0.000000
159.000000,37982.609926,25197.814429,22538.739149,19212.240781,-48574.341664,46540.198808,-4554.570264,18765.809389,0.090000,0.984000,-0.020000,192.000000,0.000000,0.000000,0.000000,0.000000,0.000000,0.000000,0.000000,0.000000,0.000000,1647341888.191289,0.000000
160.000000,37984.509824,25197.143876,22540.370827,19216.487612,-48573.067614,46547.418421,-4396.185803,18753.828854,0.088000,0.980000,-0.028000,192.000000,2.000000,192.000000,30.000000,160.000000,255.000000,32.000000,0.000000,0.000000,0.000000,1647341888.191305,0.000000
161.000000,37988.086103,25199.066126,22537.956838,19215.526487,-48568.418451,46547.776049,-4231.341688,18747.235089,0.088000,0.980000,-0.028000,192.000000,0.000000,0.000000,0.000000,0.000000,0.000000,0.000000,0.000000,0.000000,0.000000,1647341888.198323,0.000000
162.000000,37992.109417,25195.936882,22531.385425,19213.671293,-48569.379576,46542.545741,-4040.457790,18763.708325,0.088000,0.980000,-0.028000,192.000000,0.000000,0.000000,0.000000,0.000000,0.000000,0.000000,0.000000,0.000000,0.000000,1647341888.198339,0.000000
163.000000,38000.245452,25193.165266,22530.536059,19206.049348,-48568.932541,46541.428154,-3847.830456,18774.459514,0.088000,0.980000,-0.028000,192.000000,0.000000,0.000000,0.000000,0.000000,0.000000,0.000000,0.000000,0.000000,0.000000,1647341888.206436,0.000000
164.000000,37991.014181,25169.830044,22499.400079,19185.061060,-48589.049111,46515.723648,-3633.410172,18802.756822,0.088000,0.980000,-0.028000,192.000000,0.000000,0.000000,0.000000,0.000000,0.000000,0.000000,0.000000,0.000000,0.000000,1647341888.212881,0.000000
165.000000,37984.353362,25153.736788,22496.762573,19168.900748,-48597.565126,46505.039514,-3413.267841,18831.188241,0.088000,0.980000,-0.028000,192.000000,0.000000,0.000000,0.000000,0.000000,0.000000,0.000000,0.000000,0.000000,0.000000,1647341888.212898,0.000000
166.000000,37990.433036,25143.410283,22490.749954,19158.931870,-48602.907193,46498.870432,-3163.308282,18890.442716,0.088000,0.980000,-0.028000,192.000000,0.000000,0.000000,0.000000,0.000000,0.000000,0.000000,0.000000,0.000000,0.000000,1647341888.220912,0.000000
167.000000,37988.376676,25132.368521,22476.556596,19147.823053,-48615.759446,46487.024008,-2905.302096,18964.628156,0.088000,0.980000,-0.028000,192.000000,0.000000,0.000000,0.000000,0.000000,0.000000,0.000000,0.000000,0.000000,0.000000,1647341888.220928,0.000000
168.000000,37984.129844,25130.222753,22467.884119,19145.789045,-48624.767199,46488.074540,-2675.973198,19008.303464,0.088000,0.980000,-0.028000,192.000000,0.000000,0.000000,0.000000,0.000000,0.000000,0.000000,0.000000,0.000000,0.000000,1647341888.228737,0.000000
169.000000,37996.780932,25131.228582,22467.705306,19150.818187,-48620.095685,46496.434092,-2415.687134,19075.895140,0.088000,0.980000,-0.028000,192.000000,0.000000,0.000000,0.000000,0.000000,0.000000,0.000000,0.000000,0.000000,0.000000,1647341888.228753,0.000000
170.000000,37997.965574,25137.062387,22469.493445,19159.647126,-48613.591327,46497.864604,-2166.666349,19141.162233,0.090000,0.984000,-0.028000,192.000000,2.000000,208.000000,30.000000,192.000000,255.000000,32.000000,0.000000,0.000000,0.000000,1647341888.236200,0.000000
171.000000,38001.385391,25137.084739,22469.918128,19157.411952,-48609.612716,46495.227098,-1896.992552,19222.813156,0.090000,0.984000,-0.028000,192.000000,0.000000,0.000000,0.000000,0.000000,0.000000,0.000000,0.000000,0.000000,0.000000,1647341888.236235,0.000000
172.000000,38001.005411,25127.987579,22462.564404,19147.286611,-48615.245356,46485.124109,-1628.592805,19299.122012,0.090000,0.984000,-0.028000,192.000000,0.000000,0.000000,0.000000,0.000000,0.000000,0.000000,0.000000,0.000000,0.000000,1647341888.243560,0.000000
173.000000,38003.017068,25125.953570,22469.448742,19151.891071,-48614.261879,46486.778138,-1379.795537,19359.806998,0.090000,0.984000,-0.028000,192.000000,0.000000,0.000000,0.000000,0.000000,0.000000,0.000000,0.000000,0.000000,0.000000,1647341888.243577,0.000000
174.000000,38000.558376,25118.733957,22459.658678,19143.643277,-48624.364868,46483.894763,-1132.339374,19411.126603,0.090000,0.984000,-0.028000,192.000000,0.000000,0.000000,0.000000,0.000000,0.000000,0.000000,0.000000,0.000000,0.000000,1647341888.251581,0.000000
175.000000,37999.664307,25131.876782,22453.847224,19159.960051,-48618.531062,46495.651781,-915.102770,19441.122644,0.090000,0.984000,-0.028000,192.000000,0.000000,0.000000,0.000000,0.000000,0.000000,0.000000,0.000000,0.000000,0.000000,1647341888.251598,0.000000
176.000000,38009.141446,25137.062387,22466.073628,19161.323507,-48614.038362,46503.743113,-673.391005,19495.772659,0.090000,0.984000,-0.028000,192.000000,0.000000,0.000000,0.000000,0.000000,0.000000,0.000000,0.000000,0.000000,0.000000,1647341888.259538,0.000000
177.000000,38006.526292,25124.076024,22457.401151,19142.771559,-48627.427057,46492.723703,-414.557804,19554.893023,0.090000,0.984000,-0.028000,192.000000,0.000000,0.000000,0.000000,0.000000,0.000000,0.000000,0.000000,0.000000,0.000000,1647341888.259554,0.000000
178.000000,38001.921833,25115.112974,22446.158224,19133.920268,-48639.206426,46488.968609,-175.237677,19586.632500,0.090000,0.984000,-0.028000,192.000000,0.000000,0.000000,0.000000,0.000000,0.000000,0.000000,0.000000,0.000000,0.000000,1647341888.265774,0.000000
179.000000,38009.342612,25130.088643,22471.348640,19151.242870,-48626.063600,46504.838348,38.020317,19590.007614,0.090000,0.984000,-0.028000,192.000000,0.000000,0.000000,0.000000,0.000000,0.000000,0.000000,0.000000,0.000000,0.000000,1647341888.273285,0.000000
180.000000,38012.605967,25127.227620,22474.500236,19143.442111,-48623.627260,46505.240679,239.677756,19591.818105,0.090000,1.004000,-0.026000,192.000000,2.000000,208.000000,31.000000,96.000000,255.000000,48.000000,0.000000,0.000000,0.000000,1647341888.273302,0.000000
181.000000,38007.733286,25129.641608,22470.879253,19145.565527,-48626.689449,46508.325220,408.120502,19589.046489,0.090000,1.004000,-0.026000,192.000000,0.000000,0.000000,0.000000,0.000000,0.000000,0.000000,0.000000,0.000000,0.000000,1647341888.281180,0.000000
182.000000,38009.052039,25128.635779,22467.772361,19143.732684,-48625.840083,46523.770276,546.142524,19578.608224,0.090000,1.004000,-0.026000,192.000000,0.000000,0.000000,0.000000,0.000000,0.000000,0.000000,0.000000,0.000000,0.000000,1647341888.281196,0.000000
183.000000,37998.166740,25112.788393,22454.204852,19122.073844,-48644.280272,46517.914119,643.685537,19551.316744,0.090000,1.004000,-0.026000,192.000000,0.000000,0.000000,0.000000,0.000000,0.000000,0.000000,0.000000,0.000000,0.000000,1647341888.289309,0.000000
184.000000,37992.131769,25113.704814,22453.310782,19121.447995,-48651.678699,46506.514729,686.734997,19490.229427,0.090000,1.004000,-0.026000,192.000000,0.000000,0.000000,0.000000,0.000000,0.000000,0.000000,0.000000,0.000000,0.000000,1647341888.289325,0.000000
185.000000,37980.821786,25103.825343,22441.039674,19115.725948,-48660.172362,46493.170737,719.949689,19442.530804,0.090000,1.004000,-0.026000,192.000000,0.000000,0.000000,0.000000,0.000000,0.000000,0.000000,0.000000,0.000000,0.000000,1647341888.295821,0.000000
186.000000,37979.324219,25110.597922,22438.871555,19125.113681,-48658.943016,46497.842252,766.106041,19430.885545,0.090000,1.004000,-0.026000,192.000000,0.000000,0.000000,0.000000,0.000000,0.000000,0.000000,0.000000,0.000000,0.000000,1647341888.295837,0.000000
187.000000,37994.411647,25129.932181,22474.410829,19148.873585,-48637.597100,46516.349496,773.683283,19393.692242,0.090000,1.004000,-0.026000,192.000000,0.000000,0.000000,0.000000,0.000000,0.000000,0.000000,0.000000,0.000000,0.000000,1647341888.303739,0.000000
188.000000,37992.891728,25113.436593,22470.745143,19129.561678,-48645.979005,46505.866528,774.912629,19364.612623,0.090000,1.004000,-0.026000,192.000000,0.000000,0.000000,0.000000,0.000000,0.000000,0.000000,0.000000,0.000000,0.000000,1647341888.303755,0.000000
189.000000,37994.031667,25116.901114,22467.884119,19141.721027,-48645.263749,46511.253299,769.704672,19336.561184,0.090000,1.004000,-0.026000,192.000000,0.000000,0.000000,0.000000,0.000000,0.000000,0.000000,0.000000,0.000000,0.000000,1647341888.311863,0.000000
190.000000,38005.967499,25132.815556,22480.803428,19158.887167,-48631.562129,46527.704183,761.166306,19298.786735,0.096000,1.000000,-0.026000,192.000000,3.000000,0.000000,31.000000,64.000000,255.000000,48.000000,0.000000,0.000000,0.000000,1647341888.311880,0.000000
191.000000,38013.991775,25131.273285,22470.499274,19154.506225,-48628.723458,46525.401953,778.175983,19278.357241,0.096000,1.000000,-0.026000,192.000000,0.000000,0.000000,0.000000,0.000000,0.000000,0.000000,0.000000,0.000000,0.000000,1647341888.318960,0.000000
192.000000,38023.692432,25128.300503,22468.487617,19147.219556,-48632.612661,46520.573976,810.228385,19275.317404,0.096000,1.000000,-0.026000,192.000000,0.000000,0.000000,0.000000,0.000000,0.000000,0.000000,0.000000,0.000000,0.000000,1647341888.318976,0.000000
193.000000,38040.724461,25135.095434,22492.538094,19156.897862,-48620.274498,46522.607985,859.335167,19267.762514,0.096000,1.000000,-0.026000,192.000000,0.000000,0.000000,0.000000,0.000000,0.000000,0.000000,0.000000,0.000000,0.000000,1647341888.325451,0.000000
194.000000,38032.186095,25110.754384,22464.643117,19131.394521,-48641.687470,46495.875298,936.493389,19267.516645,0.096000,1.000000,-0.026000,192.000000,0.000000,0.000000,0.000000,0.000000,0.000000,0.000000,0.000000,0.000000,0.000000,1647341888.333475,0.000000
195.000000,38038.489287,25125.886515,22480.714021,19147.599536,-48632.724420,46504.681886,1028.694335,19269.908282,0.096000,1.000000,-0.026000,192.000000,0.000000,0.000000,0.000000,0.000000,0.000000,0.000000,0.000000,0.000000,0.000000,1647341888.333492,0.000000
196.000000,38045.999473,25129.462794,22489.520608,19156.003792,-48626.041249,46509.934546,1128.405467,19269.729468,0.096000,1.000000,-0.026000,192.000000,0.000000,0.000000,0.000000,0.000000,0.000000,0.000000,0.000000,0.000000,0.000000,1647341888.341444,0.000000
197.000000,38055.901296,25133.396701,22492.269873,19150.594670,-48624.186054,46514.248432,1245.416849,19280.480657,0.096000,1.000000,-0.026000,192.000000,0.000000,0.000000,0.000000,0.000000,0.000000,0.000000,0.000000,0.000000,0.000000,1647341888.341459,0.000000
198.000000,38048.145240,25115.045919,22458.876366,19125.270143,-48647.633034,46492.120205,1359.164877,19294.718718,0.096000,1.000000,-0.026000,192.000000,0.000000,0.000000,0.000000,0.000000,0.000000,0.000000,0.000000,0.000000,0.000000,1647341888.347875,0.000000
199.000000,38043.406670,25112.877800,22468.889948,19140.022295,-48653.310377,46491.002618,1440.189950,19265.952023,0.096000,1.000000,-0.026000,192.000000,0.000000,0.000000,0.000000,0.000000,0.000000,0.000000,0.000000,0.000000,0.000000,1647341888.347891,0.000000
200.000000,38051.229781,25120.745614,22485.720812,19145.856100,-48643.073278,46495.718836,1520.231547,19227.842298,0.108000,0.990000,-0.028000,192.000000,3.000000,96.000000,30.000000,240.000000,255.000000,32.000000,0.000000,0.000000,0.000000,1647341888.356049,0.000000
201.000000,38057.331807,25119.873896,22487.039564,19140.804606,-48638.334708,46501.306772,1629.419819,19219.616857,0.108000,0.990000,-0.028000,192.000000,0.000000,0.000000,0.000000,0.000000,0.000000,0.000000,0.000000,0.000000,0.000000,1647341888.356065,0.000000
202.000000,38069.379398,25124.500707,22485.720812,19146.034914,-48628.835217,46509.733380,1730.226187,19201.713109,0.108000,0.990000,-0.028000,192.000000,0.000000,0.000000,0.000000,0.000000,0.000000,0.000000,0.000000,0.000000,0.000000,1647341888.364085,0.000000
203.000000,38064.998456,25117.258742,22469.001707,19140.804606,-48641.821580,46506.447674,1819.946089,19168.364306,0.108000,0.990000,-0.028000,192.000000,0.000000,0.000000,0.000000,0.000000,0.000000,0.000000,0.000000,0.000000,0.000000,1647341888.364101,0.000000
204.000000,38077.358970,25133.061425,22490.593492,19153.388638,-48634.356098,46523.055020,1883.939133,19105.779422,0.108000,0.990000,-0.028000,192.000000,0.000000,0.000000,0.000000,0.000000,0.000000,0.000000,0.000000,0.000000,0.000000,1647341888.371179,0.000000
205.000000,38071.882793,25127.629951,22496.829629,19149.477082,-48633.484379,46521.602156,1963.287826,19067.423829,0.108000,0.990000,-0.028000,192.000000,0.000000,0.000000,0.000000,0.000000,0.000000,0.000000,0.000000,0.000000,0.000000,1647341888.371195,0.000000
206.000000,38065.713711,25123.204306,22494.259178,19143.151539,-48638.982909,46517.087104,2042.882388,19038.768892,0.108000,0.990000,-0.028000,192.000000,0.000000,0.000000,0.000000,0.000000,0.000000,0.000000,0.000000,0.000000,0.000000,1647341888.378665,0.000000
207.000000,38070.675799,25120.745614,22491.666376,19143.442111,-48640.122848,46517.824712,2110.764636,18997.015833,0.108000,0.990000,-0.028000,192.000000,0.000000,0.000000,0.000000,0.000000,0.000000,0.000000,0.000000,0.000000,0.000000,1647341888.378681,0.000000
208.000000,38058.494098,25102.171314,22466.587718,19123.236134,-48663.368662,46490.421473,2171.762547,18941.561156,0.108000,0.990000,-0.028000,192.000000,0.000000,0.000000,0.000000,0.000000,0.000000,0.000000,0.000000,0.000000,0.000000,1647341888.385735,0.000000
209.000000,38070.452281,25114.017739,22481.473980,19138.211803,-48656.953711,46504.681886,2228.290108,18881.010280,0.108000,0.990000,-0.028000,192.000000,0.000000,0.000000,0.000000,0.000000,0.000000,0.000000,0.000000,0.000000,0.000000,1647341888.393716,0.000000
210.000000,38076.017866,25130.021588,22501.009405,19158.820112,-48642.872112,46523.993793,2259.001405,18795.224285,0.108000,0.988000,-0.024000,192.000000,3.000000,96.000000,30.000000,224.000000,255.000000,64.000000,0.000000,0.000000,0.000000,1647341888.393732,0.000000
211.000000,38083.595107,25135.721282,22504.205704,19163.469274,-48634.356098,46523.837331,2290.182089,18710.712339,0.108000,0.988000,-0.024000,192.000000,0.000000,0.000000,0.000000,0.000000,0.000000,0.000000,0.000000,0.000000,0.000000,1647341888.400838,0.000000
212.000000,38087.171386,25139.297562,22490.861713,19154.215652,-48646.202522,46514.047267,2338.998299,18634.761111,0.108000,0.988000,-0.024000,192.000000,0.000000,0.000000,0.000000,0.000000,0.000000,0.000000,0.000000,0.000000,0.000000,1647341888.400854,0.000000
213.000000,38108.293785,25169.986507,22508.519591,19178.824923,-48638.737039,46529.022936,2343.893331,18531.585459,0.108000,0.988000,-0.024000,192.000000,0.000000,0.000000,0.000000,0.000000,0.000000,0.000000,0.000000,0.000000,0.000000,1647341888.408391,0.000000
214.000000,38109.299613,25156.620164,22504.809201,19173.259339,-48639.049964,46536.063735,2323.061505,18421.503117,0.108000,0.988000,-0.024000,192.000000,0.000000,0.000000,0.000000,0.000000,0.000000,0.000000,0.000000,0.000000,0.000000,1647341888.408425,0.000000
215.000000,38072.598049,25107.178105,22477.495370,19140.759902,-48651.209313,46528.307680,2330.750505,18336.342971,0.108000,0.988000,-0.024000,192.000000,0.000000,0.000000,0.000000,0.000000,0.000000,0.000000,0.000000,0.000000,0.000000,1647341888.416227,0.000000
216.000000,38080.354104,25126.042977,22518.354358,19160.652955,-48636.390106,46543.886846,2354.599816,18257.865996,0.108000,0.988000,-0.024000,192.000000,0.000000,0.000000,0.000000,0.000000,0.000000,0.000000,0.000000,0.000000,0.000000,1647341888.416238,0.000000
217.000000,38112.630023,25162.901004,22538.403873,19185.038708,-48621.727362,46556.873209,2340.026479,18136.093692,0.108000,0.988000,-0.024000,192.000000,0.000000,0.000000,0.000000,0.000000,0.000000,0.000000,0.000000,0.000000,0.000000,1647341888.424356,0.000000
218.000000,38124.990538,25171.014687,22534.335856,19184.703432,-48617.525234,46565.478631,2289.489185,17994.584798,0.108000,0.988000,-0.024000,192.000000,0.000000,0.000000,0.000000,0.000000,0.000000,0.000000,0.000000,0.000000,0.000000,1647341888.424372,0.000000
219.000000,38123.224750,25156.128425,22513.928713,19167.246719,-48631.495074,46548.379546,2267.517420,17896.103012,0.108000,0.988000,-0.024000,192.000000,0.000000,0.000000,0.000000,0.000000,0.000000,0.000000,0.000000,0.000000,0.000000,1647341888.430989,0.000000
220.000000,38122.487142,25156.418998,22518.913152,19169.481894,-48629.259900,46548.088974,2254.285187,17830.210069,0.102000,0.978000,-0.028000,192.000000,3.000000,48.000000,30.000000,144.000000,255.000000,32.000000,0.000000,0.000000,0.000000,1647341888.431005,0.000000
221.000000,38118.799105,25168.935975,22521.014216,19174.399277,-48620.430961,46557.230837,2213.157977,17755.778760,0.102000,0.978000,-0.028000,192.000000,0.000000,0.000000,0.000000,0.000000,0.000000,0.000000,0.000000,0.000000,0.000000,1647341888.439045,0.000000
222.000000,38118.463828,25167.416056,22509.145440,19171.739420,-48628.209368,46545.093840,2173.394224,17688.991748,0.102000,0.978000,-0.028000,192.000000,0.000000,0.000000,0.000000,0.000000,0.000000,0.000000,0.000000,0.000000,0.000000,1647341888.439062,0.000000
223.000000,38124.319985,25163.504501,22519.516649,19170.845350,-48628.432885,46545.071488,2139.754848,17633.537070,0.102000,0.978000,-0.028000,192.000000,0.000000,0.000000,0.000000,0.000000,0.000000,0.000000,0.000000,0.000000,0.000000,1647341888.445974,0.000000
224.000000,38124.141171,25157.648344,22519.896629,19168.721934,-48631.048039,46546.144372,2085.998903,17567.420610,0.102000,0.978000,-0.028000,192.000000,0.000000,0.000000,0.000000,0.000000,0.000000,0.000000,0.000000,0.000000,0.000000,1647341888.445991,0.000000
225.000000,38126.666919,25162.319858,22519.829574,19175.650975,-48627.561167,46554.213352,2061.568446,17532.283668,0.102000,0.978000,-0.028000,192.000000,0.000000,0.000000,0.000000,0.000000,0.000000,0.000000,0.000000,0.000000,0.000000,1647341888.454111,0.000000
226.000000,38151.946742,25191.220664,22556.844062,19206.809307,-48595.508766,46586.601029,2026.632670,17481.545208,0.102000,0.978000,-0.028000,192.000000,0.000000,0.000000,0.000000,0.000000,0.000000,0.000000,0.000000,0.000000,0.000000,1647341888.460682,0.000000
227.000000,38162.228544,25193.277024,22558.296926,19203.277731,-48593.072425,46588.590334,1995.027303,17428.236297,0.102000,0.978000,-0.028000,192.000000,0.000000,0.000000,0.000000,0.000000,0.000000,0.000000,0.000000,0.000000,0.000000,1647341888.460699,0.000000
228.000000,38152.684349,25193.142914,22542.606001,19206.786955,-48599.889708,46581.348369,1943.327718,17353.961450,0.102000,0.978000,-0.028000,192.000000,0.000000,0.000000,0.000000,0.000000,0.000000,0.000000,0.000000,0.000000,0.000000,1647341888.468696,0.000000
229.000000,38146.090585,25185.409210,22532.435957,19208.865667,-48605.030609,46583.807061,1904.525090,17291.510676,0.102000,0.978000,-0.028000,192.000000,0.000000,0.000000,0.000000,0.000000,0.000000,0.000000,0.000000,0.000000,0.000000,1647341888.468713,0.000000
230.000000,38155.634779,25203.625882,22567.036458,19224.556592,-48588.713835,46607.231689,1868.650540,17228.098777,0.098000,0.980000,-0.028000,192.000000,3.000000,16.000000,30.000000,160.000000,255.000000,32.000000,0.000000,0.000000,0.000000,1647341888.476644,0.000000
231.000000,38148.817497,25191.891216,22543.880051,19209.603275,-48598.995638,46589.216183,1844.354194,17179.483733,0.098000,0.980000,-0.028000,192.000000,0.000000,0.000000,0.000000,0.000000,0.000000,0.000000,0.000000,0.000000,0.000000,1647341888.476661,0.000000
232.000000,38162.720282,25205.726946,22554.832405,19222.053197,-48591.284286,46599.162710,1803.249336,17110.506250,0.098000,0.980000,-0.028000,192.000000,0.000000,0.000000,0.000000,0.000000,0.000000,0.000000,0.000000,0.000000,0.000000,1647341888.483295,0.000000
233.000000,38169.649323,25210.018481,22558.185167,19230.122176,-48585.025797,46603.767169,1746.162980,17018.394711,0.098000,0.980000,-0.028000,192.000000,0.000000,0.000000,0.000000,0.000000,0.000000,0.000000,0.000000,0.000000,0.000000,1647341888.483312,0.000000
234.000000,38166.140099,25210.912551,22563.840158,19238.951115,-48585.249315,46603.633059,1674.391529,16910.972227,0.098000,0.980000,-0.028000,192.000000,0.000000,0.000000,0.000000,0.000000,0.000000,0.000000,0.000000,0.000000,0.000000,1647341888.491263,0.000000
235.000000,38161.423881,25211.806621,22568.846949,19239.509909,-48584.668170,46594.804119,1588.404368,16797.917104,0.098000,0.980000,-0.028000,192.000000,0.000000,0.000000,0.000000,0.000000,0.000000,0.000000,0.000000,0.000000,0.000000,1647341888.491298,0.000000
236.000000,38164.396663,25222.110775,22576.424191,19244.494348,-48575.235733,46607.611669,1494.795262,16682.962082,0.098000,0.980000,-0.028000,192.000000,0.000000,0.000000,0.000000,0.000000,0.000000,0.000000,0.000000,0.000000,0.000000,1647341888.499001,0.000000
237.000000,38170.051655,25210.867847,22562.163778,19225.830641,-48581.382463,46597.486329,1409.590412,16579.585264,0.098000,0.980000,-0.028000,192.000000,0.000000,0.000000,0.000000,0.000000,0.000000,0.000000,0.000000,0.000000,0.000000,1647341888.499013,0.000000
238.000000,38178.254745,25221.037891,22567.036458,19252.809197,-48575.012216,46603.364838,1324.363211,16471.447524,0.098000,0.980000,-0.028000,192.000000,0.000000,0.000000,0.000000,0.000000,0.000000,0.000000,0.000000,0.000000,0.000000,1647341888.506517,0.000000
239.000000,38188.961230,25243.411987,22590.684604,19279.675994,-48552.414602,46641.698079,1204.960192,16327.524641,0.098000,0.980000,-0.028000,192.000000,0.000000,0.000000,0.000000,0.000000,0.000000,0.000000,0.000000,0.000000,0.000000,1647341888.506533,0.000000
240.000000,38193.051600,25254.073769,22601.368737,19293.534075,-48538.623576,46659.288902,1064.300664,16176.650366,0.086000,0.970000,-0.036000,192.000000,2.000000,176.000000,30.000000,80.000000,254.000000,224.000000,0.000000,0.000000,0.000000,1647341888.512908,0.000000
241.000000,38192.269289,25252.710313,22596.630168,19290.449535,-48537.818913,46652.136344,953.637177,16057.381458,0.086000,0.970000,-0.036000,192.000000,0.000000,0.000000,0.000000,0.000000,0.000000,0.000000,0.000000,0.000000,0.000000,1647341888.520735,0.000000
242.000000,38195.890271,25251.056284,22601.212275,19288.951968,-48536.231939,46653.432745,863.760813,15937.263183,0.086000,0.970000,-0.036000,192.000000,0.000000,0.000000,0.000000,0.000000,0.000000,0.000000,0.000000,0.000000,0.000000,1647341888.520746,0.000000
243.000000,38200.762951,25251.212746,22606.152011,19290.091907,-48543.965643,46649.387079,764.541419,15813.054539,0.086000,0.970000,-0.036000,192.000000,0.000000,0.000000,0.000000,0.000000,0.000000,0.000000,0.000000,0.000000,0.000000,1647341888.528919,0.000000
244.000000,38197.141969,25257.314772,22613.997473,19291.276549,-48546.983128,46652.315158,616.416409,15650.020915,0.086000,0.970000,-0.036000,192.000000,0.000000,0.000000,0.000000,0.000000,0.000000,0.000000,0.000000,0.000000,0.000000,1647341888.528936,0.000000
245.000000,38187.083684,25255.191357,22599.871171,19278.670165,-48553.241617,46644.179123,463.843401,15492.709338,0.086000,0.970000,-0.036000,192.000000,0.000000,0.000000,0.000000,0.000000,0.000000,0.000000,0.000000,0.000000,0.000000,1647341888.535889,0.000000
246.000000,38188.134216,25260.622830,22600.005281,19278.178427,-48548.301881,46647.308367,330.939928,15357.861263,0.086000,0.970000,-0.036000,192.000000,0.000000,0.000000,0.000000,0.000000,0.000000,0.000000,0.000000,0.000000,0.000000,1647341888.535906,0.000000
247.000000,38213.168170,25253.805548,22596.876037,19274.557444,-48549.553579,46634.143190,269.092651,15263.335736,0.086000,0.970000,-0.036000,192.000000,0.000000,0.000000,0.000000,0.000000,0.000000,0.000000,0.000000,0.000000,0.000000,1647341888.543542,0.000000
248.000000,38230.937806,25247.278839,22585.610758,19276.524398,-48551.587588,46623.637870,249.668986,15189.060889,0.086000,0.970000,-0.036000,192.000000,0.000000,0.000000,0.000000,0.000000,0.000000,0.000000,0.000000,0.000000,0.000000,1647341888.543559,0.000000
249.000000,38233.910588,25248.441130,22586.326013,19275.563273,-48548.078364,46625.940099,252.150029,15121.290400,0.086000,0.970000,-0.036000,192.000000,0.000000,0.000000,0.000000,0.000000,0.000000,0.000000,0.000000,0.000000,0.000000,1647341888.551349,0.000000
250.000000,38227.138010,25229.263333,22557.514615,19252.406866,-48561.243541,46605.018867,303.715504,15091.607284,0.082000,0.982000,-0.032000,192.000000,2.000000,144.000000,30.000000,176.000000,255.000000,0.000000,0.000000,0.000000,0.000000,1647341888.551360,0.000000
251.000000,38207.535530,25200.206065,22533.151213,19224.109557,-48583.148251,46585.036407,386.238144,15091.584932,0.082000,0.982000,-0.032000,192.000000,0.000000,0.000000,0.000000,0.000000,0.000000,0.000000,0.000000,0.000000,0.000000,1647341888.559597,0.000000
252.000000,38210.173036,25203.692937,22543.365961,19225.830641,-48581.360111,46584.119986,455.081517,15075.402269,0.082000,0.982000,-0.032000,192.000000,0.000000,0.000000,0.000000,0.000000,0.000000,0.000000,0.000000,0.000000,0.000000,1647341888.559614,0.000000
253.000000,38223.740545,25220.344987,22556.352324,19244.248479,-48566.116222,46598.000419,515.990021,15041.137045,0.082000,0.982000,-0.032000,192.000000,0.000000,0.000000,0.000000,0.000000,0.000000,0.000000,0.000000,0.000000,0.000000,1647341888.566179,0.000000
254.000000,38233.620016,25216.299321,22555.815882,19241.476863,-48565.512725,46593.217146,591.449510,15014.761986,0.082000,0.982000,-0.032000,192.000000,0.000000,0.000000,0.000000,0.000000,0.000000,0.000000,0.000000,0.000000,0.000000,1647341888.566195,0.000000
255.000000,38226.914492,25213.080670,22551.725513,19251.557499,-48569.893666,46589.015018,667.110165,14990.309178,0.082000,0.982000,-0.032000,192.000000,0.000000,0.000000,0.000000,0.000000,0.000000,0.000000,0.000000,0.000000,0.000000,1647341888.573180,0.000000
0.000000,38225.908664,25215.964045,22551.524347,19261.369915,-48568.865486,46596.368742,738.456933,14956.423933,0.082000,0.982000,-0.032000,192.000000,0.000000,0.000000,0.000000,0.000000,0.000000,0.000000,0.000000,0.000000,0.000000,1647341888.581190,0.000000
1.000000,38238.984434,25226.134089,22563.594289,19273.663375,-48557.399041,46607.544614,768.028291,14870.168551,0.082000,0.982000,-0.032000,192.000000,0.000000,0.000000,0.000000,0.000000,0.000000,0.000000,0.000000,0.000000,0.000000,1647341888.581225,0.000000
2.000000,38236.302225,25200.831914,22547.478682,19249.523491,-48575.593361,46587.696265,812.932946,14785.053108,0.082000,0.982000,-0.032000,192.000000,0.000000,0.000000,0.000000,0.000000,0.000000,0.000000,0.000000,0.000000,0.000000,1647341888.588464,0.000000
3.000000,38239.453821,25219.540324,22554.877109,19268.455418,-48567.569085,46608.617498,849.790972,14684.291444,0.082000,0.982000,-0.032000,192.000000,0.000000,0.000000,0.000000,0.000000,0.000000,0.000000,0.000000,0.000000,0.000000,1647341888.588482,0.000000
4.000000,38239.051490,25227.609304,22552.664286,19271.338793,-48562.942274,46620.575681,902.786959,14584.580312,0.082000,0.982000,-0.032000,192.000000,0.000000,0.000000,0.000000,0.000000,0.000000,0.000000,0.000000,0.000000,0.000000,1647341888.595866,0.000000
5.000000,38229.619054,25215.226437,22543.410664,19255.670220,-48574.520478,46604.214204,983.543811,14489.317177,0.096000,0.990000,-0.040000,192.000000,3.000000,0.000000,30.000000,240.000000,254.000000,192.000000,0.000000,0.000000,0.000000,1647341888.595883,0.000000
6.000000,38230.490772,25217.930999,22536.660437,19253.345639,-48575.861582,46602.962506,1067.429908,14379.413650,0.096000,0.990000,-0.040000,192.000000,0.000000,0.000000,0.000000,0.000000,0.000000,0.000000,0.000000,0.000000,0.000000,1647341888.603848,0.000000
7.000000,38222.600606,25205.816353,22539.297943,19242.594450,-48584.846984,46599.274468,1111.976935,14229.835776,0.096000,0.990000,-0.040000,192.000000,0.000000,0.000000,0.000000,0.000000,0.000000,0.000000,0.000000,0.000000,0.000000,1647341888.603864,0.000000
8.000000,38226.936844,25209.102059,22536.146347,19246.058970,-48586.009274,46596.547556,1172.371348,14085.890542,0.096000,0.990000,-0.040000,192.000000,0.000000,0.000000,0.000000,0.000000,0.000000,0.000000,0.000000,0.000000,0.000000,1647341888.611878,0.000000
9.000000,38232.100097,25214.287664,22542.203670,19249.724656,-48575.213382,46616.373553,1247.853189,13919.280639,0.096000,0.990000,-0.040000,192.000000,0.000000,0.000000,0.000000,0.000000,0.000000,0.000000,0.000000,0.000000,0.000000,1647341888.611895,0.000000
10.000000,38221.952405,25199.311995,22521.617713,19234.592525,-48589.250277,46598.447454,1345.887941,13754.011840,0.096000,0.990000,-0.040000,192.000000,0.000000,0.000000,0.000000,0.000000,0.000000,0.000000,0.000000,0.000000,0.000000,1647341888.618472,0.000000
11.000000,38220.298376,25201.211894,22519.293132,19233.765511,-48594.659399,46595.877003,1428.544692,13570.191094,0.096000,0.990000,-0.040000,192.000000,0.000000,0.000000,0.000000,0.000000,0.000000,0.000000,0.000000,0.000000,0.000000,1647341888.618489,0.000000
12.000000,38240.236132,25218.109813,22543.164795,19253.949136,-48577.470908,46609.712733,1490.526079,13352.798027,0.096000,0.990000,-0.040000,192.000000,0.000000,0.000000,0.000000,0.000000,0.000000,0.000000,0.000000,0.000000,0.000000,1647341888.626449,0.000000
13.000000,38233.932940,25202.105963,22530.692521,19240.403979,-48591.396045,46599.587393,1554.943807,13138.958888,0.096000,0.990000,-0.040000,192.000000,0.000000,0.000000,0.000000,0.000000,0.000000,0.000000,0.000000,0.000000,0.000000,1647341888.626465,0.000000
14.000000,38222.801771,25195.691013,22527.675036,19233.810214,-48594.860565,46593.910050,1622.535482,12934.485130,0.096000,0.990000,-0.040000,192.000000,0.000000,0.000000,0.000000,0.000000,0.000000,0.000000,0.000000,0.000000,0.000000,1647341888.633368,0.000000
15.000000,38210.374202,25177.429638,22511.470021,19214.699473,-48610.372676,46575.536916,1727.365163,12744.562357,0.098000,1.006000,-0.028000,192.000000,3.000000,16.000000,31.000000,112.000000,255.000000,32.000000,0.000000,0.000000,0.000000,1647341888.641447,0.000000
16.000000,38203.266347,25161.939879,22500.092983,19202.003682,-48625.795379,46560.673006,1814.380504,12540.982669,0.098000,1.006000,-0.028000,192.000000,0.000000,0.000000,0.000000,0.000000,0.000000,0.000000,0.000000,0.000000,0.000000,1647341888.641463,0.000000
17.000000,38235.877542,25197.367394,22523.539963,19233.966676,-48600.560260,46588.612686,1835.212330,12284.809325,0.098000,1.006000,-0.028000,192.000000,0.000000,0.000000,0.000000,0.000000,0.000000,0.000000,0.000000,0.000000,0.000000,1647341888.648131,0.000000
18.000000,38241.286664,25196.428620,22508.653701,19236.559479,-48601.923716,46583.740006,1868.516429,12027.674857,0.098000,1.006000,-0.028000,192.000000,0.000000,0.000000,0.000000,0.000000,0.000000,0.000000,0.000000,0.000000,0.000000,1647341888.648148,0.000000
19.000000,38247.992187,25202.955330,22534.157042,19250.574023,-48587.484489,46603.789521,1911.834110,11791.483973,0.098000,1.006000,-0.028000,192.000000,0.000000,0.000000,0.000000,0.000000,0.000000,0.000000,0.000000,0.000000,0.000000,1647341888.656145,0.000000
20.000000,38249.914438,25183.844588,22527.093891,19227.551726,-48596.983981,46599.006247,1991.495727,11589.491259,0.098000,1.006000,-0.028000,192.000000,0.000000,0.000000,0.000000,0.000000,0.000000,0.000000,0.000000,0.000000,0.000000,1647341888.656162,0.000000
21.000000,38252.574295,25176.043829,22521.237734,19223.617819,-48599.956763,46600.615573,2082.690845,11372.813448,0.098000,1.006000,-0.028000,192.000000,0.000000,0.000000,0.000000,0.000000,0.000000,0.000000,0.000000,0.000000,0.000000,1647341888.663863,0.000000
22.000000,38251.881391,25181.274138,22519.829574,19241.275697,-48594.659399,46611.500873,2150.774258,11144.266861,0.098000,1.006000,-0.028000,192.000000,0.000000,0.000000,0.000000,0.000000,0.000000,0.000000,0.000000,0.000000,0.000000,1647341888.663887,0.000000
23.000000,38248.662740,25182.056449,22514.152231,19238.414674,-48600.381446,46606.985820,2197.712922,10913.418044,0.098000,1.006000,-0.028000,192.000000,0.000000,0.000000,0.000000,0.000000,0.000000,0.000000,0.000000,0.000000,0.000000,1647341888.670913,0.000000
24.000000,38245.399385,25186.191521,22517.639103,19239.442854,-48595.508766,46602.202547,2262.532981,10705.323303,0.098000,1.006000,-0.028000,192.000000,0.000000,0.000000,0.000000,0.000000,0.000000,0.000000,0.000000,0.000000,0.000000,1647341888.670925,0.000000
25.000000,38248.059243,25190.259539,22514.778079,19239.062874,-48593.295943,46609.265698,2322.368601,10498.502612,0.092000,1.008000,-0.020000,192.000000,2.000000,224.000000,31.000000,128.000000,255.000000,96.000000,0.000000,0.000000,0.000000,1647341888.678781,0.000000
26.000000,38255.167097,25185.520969,22508.027853,19235.374836,-48595.687580,46612.976088,2355.985624,10254.287452,0.092000,1.008000,-0.020000,192.000000,0.000000,0.000000,0.000000,0.000000,0.000000,0.000000,0.000000,0.000000,0.000000,1647341888.678798,0.000000
27.000000,38256.687016,25172.176978,22504.161001,19226.568249,-48606.461120,46601.397884,2416.178872,10035.486226,0.092000,1.008000,-0.020000,192.000000,0.000000,0.000000,0.000000,0.000000,0.000000,0.000000,0.000000,0.000000,0.000000,1647341888.686711,0.000000
28.000000,38258.072824,25190.438353,22519.740167,19245.075493,-48593.899440,46622.028544,2434.015564,9767.153533,0.092000,1.008000,-0.020000,192.000000,0.000000,0.000000,0.000000,0.000000,0.000000,0.000000,0.000000,0.000000,0.000000,1647341888.686727,0.000000
29.000000,38250.070900,25185.520969,22511.894704,19239.688723,-48597.118091,46618.273451,2449.997061,9488.293170,0.092000,1.008000,-0.020000,192.000000,0.000000,0.000000,0.000000,0.000000,0.000000,0.000000,0.000000,0.000000,0.000000,1647341888.693714,0.000000
30.000000,38265.873583,25201.055431,22538.627391,19258.441837,-48581.315408,46629.695193,2472.326454,9231.784550,0.092000,1.008000,-0.020000,192.000000,0.000000,0.000000,0.000000,0.000000,0.000000,0.000000,0.000000,0.000000,0.000000,1647341888.693730,0.000000
31.000000,38292.606269,25220.970836,22552.865452,19270.645889,-48568.373748,46634.076134,2482.652960,8990.363358,0.092000,1.008000,-0.020000,192.000000,0.000000,0.000000,0.000000,0.000000,0.000000,0.000000,0.000000,0.000000,0.000000,1647341888.700897,0.000000
32.000000,38297.546005,25221.060243,22544.818824,19270.020040,-48571.301826,46629.404620,2489.514946,8766.667100,0.092000,1.008000,-0.020000,192.000000,0.000000,0.000000,0.000000,0.000000,0.000000,0.000000,0.000000,0.000000,0.000000,1647341888.708358,0.000000
33.000000,38274.501356,25204.966987,22534.179394,19268.298956,-48575.615713,46636.266605,2463.966902,8556.963033,0.092000,1.008000,-0.020000,192.000000,0.000000,0.000000,0.000000,0.000000,0.000000,0.000000,0.000000,0.000000,0.000000,1647341888.708374,0.000000
34.000000,38269.673380,25205.212856,22534.872298,19269.729468,-48575.481603,46637.160675,2420.671573,8375.668034,0.092000,1.008000,-0.020000,192.000000,0.000000,0.000000,0.000000,0.000000,0.000000,0.000000,0.000000,0.000000,0.000000,1647341888.716351,0.000000
35.000000,38274.546060,25198.775554,22527.093891,19260.274680,-48581.203649,46615.703001,2382.226572,8212.723817,0.098000,0.988000,-0.020000,192.000000,3.000000,16.000000,30.000000,224.000000,255.000000,96.000000,0.000000,0.000000,0.000000,1647341888.716368,0.000000
36.000000,38283.062075,25205.414022,22536.571030,19272.009346,-48572.151193,46624.777809,2359.673662,8077.071080,0.098000,0.988000,-0.020000,192.000000,0.000000,0.000000,0.000000,0.000000,0.000000,0.000000,0.000000,0.000000,0.000000,1647341888.723441,0.000000
37.000000,38310.510017,25234.627752,22562.767275,19297.557389,-48548.860675,46647.263664,2310.410417,7935.718648,0.098000,0.988000,-0.020000,192.000000,0.000000,0.000000,0.000000,0.000000,0.000000,0.000000,0.000000,0.000000,0.000000,1647341888.723458,0.000000
38.000000,38307.336069,25231.565563,22563.594289,19292.081212,-48550.537056,46648.157733,2259.828420,7804.178632,0.098000,0.988000,-0.020000,192.000000,0.000000,0.000000,0.000000,0.000000,0.000000,0.000000,0.000000,0.000000,0.000000,1647341888.730700,0.000000
39.000000,38295.310831,25214.421775,22548.909193,19275.719735,-48564.015158,46633.584396,2234.749762,7726.618079,0.098000,0.988000,-0.020000,192.000000,0.000000,0.000000,0.000000,0.000000,0.000000,0.000000,0.000000,0.000000,0.000000,1647341888.730711,0.000000
40.000000,38293.992078,25215.427603,22546.271687,19277.530226,-48568.217286,46635.037259,2197.824681,7663.027366,0.098000,0.988000,-0.020000,192.000000,0.000000,0.000000,0.000000,0.000000,0.000000,0.000000,0.000000,0.000000,0.000000,1647341888.738963,0.000000
41.000000,38311.135866,25235.275952,22564.667173,19303.726471,-48554.962701,46660.361786,2123.661592,7552.699155,0.098000,0.988000,-0.020000,192.000000,0.000000,0.000000,0.000000,0.000000,0.000000,0.000000,0.000000,0.000000,0.000000,1647341888.738980,0.000000
42.000000,38325.038651,25230.716196,22563.661344,19296.909189,-48552.235788,46665.882667,2080.232153,7450.931662,0.098000,0.988000,-0.020000,192.000000,0.000000,0.000000,0.000000,0.000000,0.000000,0.000000,0.000000,0.000000,0.000000,1647341888.746804,0.000000
43.000000,38322.848180,25220.836725,22555.659420,19279.519532,-48560.930617,46657.009024,2062.484868,7370.331272,0.098000,0.988000,-0.020000,192.000000,0.000000,0.000000,0.000000,0.000000,0.000000,0.000000,0.000000,0.000000,0.000000,1647341888.746838,0.000000
44.000000,38324.323395,25231.140880,22561.403818,19279.228959,-48554.828591,46667.670806,2026.386801,7266.954454,0.098000,0.988000,-0.020000,192.000000,0.000000,0.000000,0.000000,0.000000,0.000000,0.000000,0.000000,0.000000,0.000000,1647341888.753617,0.000000
45.000000,38319.808342,25222.848382,22550.138539,19267.226072,-48557.957835,46668.296655,2018.854263,7183.805964,0.104000,0.974000,-0.012000,192.000000,3.000000,64.000000,30.000000,112.000000,255.000000,160.000000,0.000000,0.000000,0.000000,1647341888.753634,0.000000
46.000000,38316.992023,25212.432469,22551.591402,19261.235805,-48567.166754,46652.337510,2021.558824,7105.798376,0.104000,0.974000,-0.012000,192.000000,0.000000,0.000000,0.000000,0.000000,0.000000,0.000000,0.000000,0.000000,0.000000,1647341888.760638,0.000000
47.000000,38317.573168,25207.358623,22539.454405,19251.892776,-48578.588495,46639.619367,2004.303277,7001.259267,0.104000,0.974000,-0.012000,192.000000,0.000000,0.000000,0.000000,0.000000,0.000000,0.000000,0.000000,0.000000,0.000000,1647341888.768639,0.000000
48.000000,38305.592633,25204.072917,22521.796527,19245.321363,-48587.350379,46646.123725,1963.153716,6893.210935,0.104000,0.974000,-0.012000,192.000000,0.000000,0.000000,0.000000,0.000000,0.000000,0.000000,0.000000,0.000000,0.000000,1647341888.768655,0.000000
49.000000,38310.353555,25214.175905,22525.819841,19250.819892,-48581.985960,46643.441515,1935.236387,6821.618297,0.104000,0.974000,-0.012000,192.000000,0.000000,0.000000,0.000000,0.000000,0.000000,0.000000,0.000000,0.000000,0.000000,1647341888.776653,0.000000
50.000000,38313.415744,25208.364452,22523.875239,19243.644982,-48587.685655,46632.444457,1933.157674,6775.573704,0.104000,0.974000,-0.012000,192.000000,0.000000,0.000000,0.000000,0.000000,0.000000,0.000000,0.000000,0.000000,0.000000,1647341888.776670,0.000000
51.000000,38307.626642,25201.882446,22524.746957,19246.662467,-48591.865431,46637.361841,1912.683477,6713.257040,0.104000,0.974000,-0.012000,192.000000,0.000000,0.000000,0.000000,0.000000,0.000000,0.000000,0.000000,0.000000,0.000000,1647341888.783272,0.000000
52.000000,38314.645089,25203.402365,22520.008388,19239.889889,-48592.580687,46640.491085,1874.752566,6641.016202,0.104000,0.974000,-0.012000,192.000000,0.000000,0.000000,0.000000,0.000000,0.000000,0.000000,0.000000,0.000000,0.000000,1647341888.783288,0.000000
53.000000,38323.004642,25216.634597,22541.264897,19254.887909,-48580.041358,46659.668882,1855.552418,6602.325332,0.104000,0.974000,-0.012000,192.000000,0.000000,0.000000,0.000000,0.000000,0.000000,0.000000,0.000000,0.000000,0.000000,1647341888.791301,0.000000
54.000000,38334.873418,25230.447975,22572.959670,19280.637119,-48559.209533,46675.873897,1828.953842,6558.873541,0.104000,0.974000,-0.012000,192.000000,0.000000,0.000000,0.000000,0.000000,0.000000,0.000000,0.000000,0.000000,0.000000,1647341888.791317,0.000000
55.000000,38335.611026,25216.634597,22563.974269,19272.858712,-48565.400966,46664.496859,1851.685566,6567.389556,0.112000,0.972000,-0.010000,192.000000,3.000000,128.000000,30.000000,96.000000,255.000000,176.000000,0.000000,0.000000,0.000000,1647341888.799269,0.000000
56.000000,38333.152334,25212.365414,22551.189071,19260.297031,-48575.682768,46659.624178,1861.140354,6557.353623,0.112000,0.972000,-0.010000,192.000000,0.000000,0.000000,0.000000,0.000000,0.000000,0.000000,0.000000,0.000000,0.000000,1647341888.799285,0.000000
57.000000,38339.656692,25218.042757,22545.958763,19259.514720,-48575.794527,46660.205324,1864.202543,6532.654945,0.112000,0.972000,-0.010000,192.000000,0.000000,0.000000,0.000000,0.000000,0.000000,0.000000,0.000000,0.000000,0.000000,1647341888.806374,0.000000
58.000000,38336.795668,25222.043720,22557.626373,19262.085171,-48575.548658,46663.379271,1865.342482,6506.615163,0.112000,0.972000,-0.010000,192.000000,0.000000,0.000000,0.000000,0.000000,0.000000,0.000000,0.000000,0.000000,0.000000,1647341888.806390,0.000000
59.000000,38353.403014,25243.590801,22585.566054,19278.603110,-48558.628387,46676.611504,1861.766203,6475.993273,0.112000,0.972000,-0.010000,192.000000,0.000000,0.000000,0.000000,0.000000,0.000000,0.000000,0.000000,0.000000,0.000000,1647341888.813866,0.000000
60.000000,38365.718826,25247.390598,22588.471781,19286.292110,-48550.425297,46681.841812,1862.526162,6444.186740,0.112000,0.972000,-0.010000,192.000000,0.000000,0.000000,0.000000,0.000000,0.000000,0.000000,0.000000,0.000000,0.000000,1647341888.813882,0.000000
61.000000,38376.112387,25259.505243,22591.042231,19295.791602,-48540.769343,46686.513327,1846.678775,6393.492984,0.112000,0.972000,-0.010000,192.000000,0.000000,0.000000,0.000000,0.000000,0.000000,0.000000,0.000000,0.000000,0.000000,1647341888.820944,0.000000
62.000000,38368.781015,25238.852231,22565.360077,19278.133724,-48558.024890,46665.502687,1828.327993,6343.201559,0.112000,0.972000,-0.010000,192.000000,0.000000,0.000000,0.000000,0.000000,0.000000,0.000000,0.000000,0.000000,0.000000,1647341888.828955,0.000000
63.000000,38354.118270,25221.753147,22547.858661,19259.671183,-48575.481603,46643.396812,1824.595252,6320.246317,0.112000,0.972000,-0.010000,192.000000,0.000000,0.000000,0.000000,0.000000,0.000000,0.000000,0.000000,0.000000,0.000000,1647341888.828972,0.000000
64.000000,38355.906410,25227.944580,22562.253185,19259.581776,-48574.073443,46646.414297,1797.393179,6277.576837,0.112000,0.972000,-0.010000,192.000000,0.000000,0.000000,0.000000,0.000000,0.000000,0.000000,0.000000,0.000000,0.000000,1647341888.836073,0.000000
65.000000,38357.180459,25220.233228,22550.473815,19240.985124,-48587.015103,46633.807914,1782.953952,6237.656622,0.108000,0.974000,-0.002000,192.000000,3.000000,96.000000,30.000000,112.000000,255.000000,240.000000,0.000000,0.000000,0.000000,1647341888.836108,0.000000
66.000000,38365.584715,25234.515993,22559.280403,19266.264947,-48575.459251,46650.169390,1763.932617,6184.750043,0.108000,0.974000,-0.002000,192.000000,0.000000,0.000000,0.000000,0.000000,0.000000,0.000000,0.000000,0.000000,0.000000,1647341888.843518,0.000000
67.000000,38377.989933,25241.646199,22568.735190,19273.193988,-48569.826611,46658.193667,1741.670280,6102.652085,0.108000,0.974000,-0.002000,192.000000,0.000000,0.000000,0.000000,0.000000,0.000000,0.000000,0.000000,0.000000,0.000000,1647341888.843536,0.000000
68.000000,38376.559422,25236.997037,22569.472798,19265.862616,-48572.486469,46654.483277,1747.571140,6035.775666,0.108000,0.974000,-0.002000,192.000000,0.000000,0.000000,0.000000,0.000000,0.000000,0.000000,0.000000,0.000000,0.000000,1647341888.851538,0.000000
69.000000,38373.005494,25229.196278,22576.491246,19261.414619,-48574.051091,46649.655300,1753.047318,5979.628084,0.108000,0.974000,-0.002000,192.000000,0.000000,0.000000,0.000000,0.000000,0.000000,0.000000,0.000000,0.000000,0.000000,1647341888.851555,0.000000
70.000000,38373.452529,25227.274028,22568.981060,19256.117255,-48582.634161,46636.467771,1770.459327,5936.779790,0.108000,0.974000,-0.002000,192.000000,0.000000,0.000000,0.000000,0.000000,0.000000,0.000000,0.000000,0.000000,0.000000,1647341888.858766,0.000000
71.000000,38368.959828,25219.585028,22558.498092,19245.164900,-48592.446577,46627.594129,1775.667283,5865.410669,0.108000,0.974000,-0.002000,192.000000,0.000000,0.000000,0.000000,0.000000,0.000000,0.000000,0.000000,0.000000,0.000000,1647341888.858782,0.000000
72.000000,38379.755721,25226.156441,22561.515577,19249.054104,-48588.199745,46639.641719,1783.132766,5788.118337,0.108000,0.974000,-0.002000,192.000000,0.000000,0.000000,0.000000,0.000000,0.000000,0.000000,0.000000,0.000000,0.000000,1647341888.866169,0.000000
73.000000,38378.526375,25226.558772,22562.946089,19247.824758,-48583.192954,46643.843847,1791.917001,5718.604412,0.108000,0.974000,-0.002000,192.000000,0.000000,0.000000,0.000000,0.000000,0.000000,0.000000,0.000000,0.000000,0.000000,1647341888.866184,0.000000
74.000000,38378.615782,25226.514068,22571.439752,19243.309706,-48577.314446,46647.911864,1793.168699,5642.228501,0.108000,0.974000,-0.002000,192.000000,0.000000,0.000000,0.000000,0.000000,0.000000,0.000000,0.000000,0.000000,0.000000,1647341888.874223,0.000000
75.000000,38381.387398,25222.691920,22562.744923,19245.477825,-48580.197821,46642.435687,1782.015178,5562.522180,0.098000,0.992000,0.004000,192.000000,3.000000,16.000000,31.000000,0.000000,0.000000,32.000000,0.000000,0.000000,0.000000,1647341888.874239,0.000000
76.000000,38387.422369,25230.515031,22565.628298,19258.061857,-48576.174507,46660.786469,1726.851073,5455.122048,0.098000,0.992000,0.004000,192.000000,0.000000,0.000000,0.000000,0.000000,0.000000,0.000000,0.000000,0.000000,0.000000,1647341888.880762,0.000000
77.000000,38403.068591,25242.741435,22574.278423,19263.023944,-48568.485507,46684.814594,1637.645261,5299.732721,0.098000,0.992000,0.004000,192.000000,0.000000,0.000000,0.000000,0.000000,0.000000,0.000000,0.000000,0.000000,0.000000,1647341888.888027,0.000000
78.000000,38386.908279,25213.237132,22559.638030,19228.959886,-48590.747844,46653.075117,1611.761941,5191.639685,0.098000,0.992000,0.004000,192.000000,0.000000,0.000000,0.000000,0.000000,0.000000,0.000000,0.000000,0.000000,0.000000,1647341888.888040,0.000000
79.000000,38379.599259,25211.069013,22561.202653,19229.026941,-48589.294981,46651.599902,1605.257583,5104.378474,0.098000,0.992000,0.004000,192.000000,0.000000,0.000000,0.000000,0.000000,0.000000,0.000000,0.000000,0.000000,0.000000,1647341888.895872,0.000000
80.000000,38398.508835,25234.247772,22579.799304,19252.138645,-48570.765385,46668.833097,1562.342234,4996.620714,0.098000,0.992000,0.004000,192.000000,0.000000,0.000000,0.000000,0.000000,0.000000,0.000000,0.000000,0.000000,0.000000,1647341888.895889,0.000000
81.000000,38407.315422,25243.076711,22574.390182,19258.173616,-48567.099698,46667.424937,1509.323896,4898.027169,0.098000,0.992000,0.004000,192.000000,0.000000,0.000000,0.000000,0.000000,0.000000,0.000000,0.000000,0.000000,0.000000,1647341888.903903,0.000000
82.000000,38403.403867,25234.627752,22565.494188,19250.663430,-48573.939332,46666.217943,1460.552390,4796.483194,0.098000,0.992000,0.004000,192.000000,0.000000,0.000000,0.000000,0.000000,0.000000,0.000000,0.000000,0.000000,0.000000,1647341888.903919,0.000000
83.000000,38410.668184,25238.896935,22593.880903,19259.179444,-48557.086117,46676.164469,1405.723561,4683.584533,0.098000,0.992000,0.004000,192.000000,0.000000,0.000000,0.000000,0.000000,0.000000,0.000000,0.000000,0.000000,0.000000,1647341888.911785,0.000000
84.000000,38410.019983,25233.644275,22578.234682,19261.168749,-48557.711966,46662.686367,1371.167764,4591.495346,0.098000,0.992000,0.004000,192.000000,0.000000,0.000000,0.000000,0.000000,0.000000,0.000000,0.000000,0.000000,0.000000,1647341888.911802,0.000000
85.000000,38407.024849,25225.798813,22572.758504,19250.484616,-48565.959759,46648.761231,1350.224179,4516.415836,0.092000,0.974000,-0.004000,192.000000,2.000000,224.000000,30.000000,112.000000,255.000000,224.000000,0.000000,0.000000,0.000000,1647341888.918483,0.000000
86.000000,38403.113294,25213.415946,22564.220138,19235.598354,-48577.917943,46646.034318,1318.350591,4438.922338,0.092000,0.974000,-0.004000,192.000000,0.000000,0.000000,0.000000,0.000000,0.000000,0.000000,0.000000,0.000000,0.000000,1647341888.918519,0.000000
87.000000,38411.897530,25221.350815,22578.525255,19253.122121,-48573.805222,46661.211152,1270.316693,4354.231579,0.092000,0.974000,-0.004000,192.000000,0.000000,0.000000,0.000000,0.000000,0.000000,0.000000,0.000000,0.000000,0.000000,1647341888.926502,0.000000
88.000000,38428.817800,25239.545135,22589.343499,19271.517607,-48555.588550,46674.555144,1228.541282,4281.096671,0.092000,0.974000,-0.004000,192.000000,0.000000,0.000000,0.000000,0.000000,0.000000,0.000000,0.000000,0.000000,0.000000,1647341888.926518,0.000000
89.000000,38418.446591,25231.476156,22572.087952,19262.129874,-48564.350434,46666.284998,1206.100131,4225.127903,0.092000,0.974000,-0.004000,192.000000,0.000000,0.000000,0.000000,0.000000,0.000000,0.000000,0.000000,0.000000,0.000000,1647341888.934485,0.000000
90.000000,38394.865500,25200.921321,22539.186184,19228.445796,-48592.379521,46638.658242,1206.167186,4192.695521,0.092000,0.974000,-0.004000,192.000000,0.000000,0.000000,0.000000,0.000000,0.000000,0.000000,0.000000,0.000000,0.000000,1647341888.934500,0.000000
91.000000,38390.015172,25193.142914,22538.672094,19215.079452,-48600.984943,46629.672841,1195.952439,4131.027058,0.092000,0.974000,-0.004000,192.000000,0.000000,0.000000,0.000000,0.000000,0.000000,0.000000,0.000000,0.000000,0.000000,1647341888.941677,0.000000
92.000000,38391.646849,25189.074896,22546.226984,19208.172763,-48601.051998,46632.802085,1176.774642,4056.148715,0.092000,0.974000,-0.004000,192.000000,0.000000,0.000000,0.000000,0.000000,0.000000,0.000000,0.000000,0.000000,0.000000,1647341888.941694,0.000000
93.000000,38389.925765,25189.767801,22543.455368,19209.893848,-48600.873184,46632.131533,1180.082700,4005.969048,0.092000,0.974000,-0.004000,192.000000,0.000000,0.000000,0.000000,0.000000,0.000000,0.000000,0.000000,0.000000,0.000000,1647341888.947930,0.000000
94.000000,38385.075436,25183.509312,22527.093891,19199.410880,-48611.959650,46616.664126,1188.129328,3956.772859,0.092000,0.974000,-0.004000,192.000000,0.000000,0.000000,0.000000,0.000000,0.000000,0.000000,0.000000,0.000000,0.000000,1647341888.956177,0.000000
95.000000,38380.783901,25175.574443,22522.377672,19187.475048,-48626.197711,46609.690381,1195.684218,3897.674846,0.094000,0.984000,-0.020000,192.000000,2.000000,240.000000,30.000000,192.000000,255.000000,96.000000,0.000000,0.000000,0.000000,1647341888.956194,0.000000
96.000000,38394.507872,25185.118638,22540.124958,19198.539162,-48615.960612,46625.470713,1189.336322,3820.315459,0.094000,0.984000,-0.020000,192.000000,0.000000,0.000000,0.000000,0.000000,0.000000,0.000000,0.000000,0.000000,0.000000,1647341888.964224,0.000000
97.000000,38396.005439,25182.279966,22532.078330,19197.779202,-48620.207443,46615.144207,1201.272154,3768.057080,0.094000,0.984000,-0.020000,192.000000,0.000000,0.000000,0.000000,0.000000,0.000000,0.000000,0.000000,0.000000,0.000000,1647341888.964241,0.000000
98.000000,38386.617707,25181.609414,22521.371844,19196.415746,-48618.508711,46627.057687,1202.769721,3709.361399,0.094000,0.984000,-0.020000,192.000000,0.000000,0.000000,0.000000,0.000000,0.000000,0.000000,0.000000,0.000000,0.000000,1647341888.971367,0.000000
99.000000,38363.506003,25156.351943,22495.108544,19173.751077,-48641.329842,46593.463015,1235.492675,3678.873620,0.094000,0.984000,-0.020000,192.000000,0.000000,0.000000,0.000000,0.000000,0.000000,0.000000,0.000000,0.000000,0.000000,1647341888.971383,0.000000
100.000000,38376.648829,25161.381085,22494.415640,19186.178647,-48639.631109,46598.469806,1263.879390,3633.231358,0.094000,0.984000,-0.020000,192.000000,0.000000,0.000000,0.000000,0.000000,0.000000,0.000000,0.000000,0.000000,0.000000,1647341888.978769,0.000000
101.000000,38396.094846,25174.948594,22500.204742,19202.093089,-48629.818693,46605.220032,1296.490585,3580.011854,0.094000,0.984000,-0.020000,192.000000,0.000000,0.000000,0.000000,0.000000,0.000000,0.000000,0.000000,0.000000,0.000000,1647341888.978785,0.000000
102.000000,38385.500119,25157.849509,22491.062878,19186.625682,-48642.805057,46586.981009,1337.953071,3529.027525,0.094000,0.984000,-0.020000,192.000000,0.000000,0.000000,0.000000,0.000000,0.000000,0.000000,0.000000,0.000000,0.000000,1647341888.986746,0.000000
103.000000,38371.642038,25152.619201,22478.680012,19173.415801,-48652.081031,46585.438739,1364.618702,3470.756527,0.094000,0.984000,-0.020000,192.000000,0.000000,0.000000,0.000000,0.000000,0.000000,0.000000,0.000000,0.000000,0.000000,1647341888.986763,0.000000
104.000000,38373.094901,25154.005009,22480.334041,19158.484835,-48655.433793,46584.835241,1401.677895,3414.988925,0.094000,0.984000,-0.020000,192.000000,0.000000,0.000000,0.000000,0.000000,0.000000,0.000000,0.000000,0.000000,0.000000,1647341888.994807,0.000000
105.000000,38372.603163,25150.004047,22480.758724,19151.533443,-48658.160705,46588.724445,1456.350262,3373.347625,0.094000,0.984000,-0.020000,192.000000,0.000000,0.000000,0.000000,0.000000,0.000000,0.000000,0.000000,0.000000,0.000000,1647341888.994823,0.000000
106.000000,38360.756738,25136.727111,22465.470131,19139.105873,-48670.834144,46571.603009,1501.232565,3320.418694,0.086000,0.986000,-0.032000,192.000000,2.000000,176.000000,30.000000,208.000000,255.000000,0.000000,0.000000,0.000000,0.000000,1647341889.001337,0.000000
107.000000,38366.389378,25140.705721,22463.816102,19144.537347,-48673.136374,46572.094747,1568.824240,3307.477034,0.086000,0.986000,-0.032000,192.000000,0.000000,0.000000,0.000000,0.000000,0.000000,0.000000,0.000000,0.000000,0.000000,1647341889.001374,0.000000
108.000000,38368.557497,25132.927314,22437.418692,19134.121434,-48685.921572,46551.173514,1667.596599,3334.030906,0.086000,0.986000,-0.032000,192.000000,0.000000,0.000000,0.000000,0.000000,0.000000,0.000000,0.000000,0.000000,0.000000,1647341889.008369,0.000000
109.000000,38352.643055,25112.900151,22435.071759,19126.588896,-48693.297648,46554.123945,1756.914169,3356.069726,0.086000,0.986000,-0.032000,192.000000,0.000000,0.000000,0.000000,0.000000,0.000000,0.000000,0.000000,0.000000,0.000000,1647341889.016302,0.000000
110.000000,38354.721767,25101.746631,22450.896794,19124.733701,-48686.882697,46557.007320,1855.597121,3383.674131,0.086000,0.986000,-0.032000,192.000000,0.000000,0.000000,0.000000,0.000000,0.000000,0.000000,0.000000,0.000000,0.000000,1647341889.016319,0.000000
111.000000,38359.996779,25104.115916,22437.083416,19120.643332,-48689.609610,46544.378584,1961.678500,3420.822730,0.086000,0.986000,-0.032000,192.000000,0.000000,0.000000,0.000000,0.000000,0.000000,0.000000,0.000000,0.000000,0.000000,1647341889.023566,0.000000
112.000000,38361.941381,25110.352052,22431.406073,19127.885297,-48691.487156,46548.580712,2047.866827,3447.845989,0.086000,0.986000,-0.032000,192.000000,0.000000,0.000000,0.000000,0.000000,0.000000,0.000000,0.000000,0.000000,0.000000,1647341889.023583,0.000000
113.000000,38370.189174,25120.924428,22451.187366,19142.279821,-48675.192735,46571.334788,2144.381660,3461.167629,0.086000,0.986000,-0.032000,192.000000,0.000000,0.000000,0.000000,0.000000,0.000000,0.000000,0.000000,0.000000,0.000000,1647341889.031061,0.000000
114.000000,38368.848070,25121.215000,22457.959945,19151.108760,-48667.011996,46579.470823,2250.395984,3477.350292,0.086000,0.986000,-0.032000,192.000000,0.000000,0.000000,0.000000,0.000000,0.000000,0.000000,0.000000,0.000000,0.000000,1647341889.031077,0.000000
115.000000,38379.398093,25120.656207,22457.110579,19153.031010,-48664.039214,46577.637980,2354.443354,3494.762301,0.086000,0.986000,-0.032000,192.000000,0.000000,0.000000,0.000000,0.000000,0.000000,0.000000,0.000000,0.000000,0.000000,1647341889.039100,0.000000
116.000000,38384.494291,25112.319006,22448.482805,19141.542213,-48674.008092,46563.735195,2450.645262,3506.541670,0.094000,0.984000,-0.022000,192.000000,2.000000,240.000000,30.000000,192.000000,255.000000,80.000000,0.000000,0.000000,0.000000,1647341889.039117,0.000000
117.000000,38385.589526,25110.888494,22441.039674,19129.852251,-48682.457052,46551.732308,2540.901606,3506.608725,0.094000,0.984000,-0.022000,192.000000,0.000000,0.000000,0.000000,0.000000,0.000000,0.000000,0.000000,0.000000,0.000000,1647341889.046892,0.000000
118.000000,38390.775131,25120.656207,22458.496387,19132.713274,-48673.292836,46577.481517,2643.049078,3518.745723,0.094000,0.984000,-0.022000,192.000000,0.000000,0.000000,0.000000,0.000000,0.000000,0.000000,0.000000,0.000000,0.000000,1647341889.046909,0.000000
119.000000,38384.963678,25111.223771,22448.527509,19129.785196,-48676.735005,46566.372700,2741.575568,3531.329755,0.094000,0.984000,-0.022000,192.000000,0.000000,0.000000,0.000000,0.000000,0.000000,0.000000,0.000000,0.000000,0.000000,1647341889.053699,0.000000
120.000000,38380.001590,25094.795238,22431.920163,19120.375111,-48691.844784,46545.250302,2864.711328,3580.838869,0.094000,0.984000,-0.022000,192.000000,0.000000,0.000000,0.000000,0.000000,0.000000,0.000000,0.000000,0.000000,0.000000,1647341889.053715,0.000000
121.000000,38388.651715,25108.630968,22443.408959,19136.446015,-48680.847726,46575.603971,2944.462352,3591.768872,0.094000,0.984000,-0.022000,192.000000,0.000000,0.000000,0.000000,0.000000,0.000000,0.000000,0.000000,0.000000,0.000000,1647341889.061675,0.000000
122.000000,38383.644925,25104.495895,22432.054273,19127.728835,-48688.022636,46575.112233,3005.862594,3583.968113,0.094000,0.984000,-0.022000,192.000000,0.000000,0.000000,0.000000,0.000000,0.000000,0.000000,0.000000,0.000000,0.000000,1647341889.061691,0.000000
123.000000,38395.312535,25113.056614,22439.050369,19128.824071,-48684.714578,46572.497078,3097.013008,3612.220718,0.094000,0.984000,-0.022000,192.000000,0.000000,0.000000,0.000000,0.000000,0.000000,0.000000,0.000000,0.000000,0.000000,1647341889.068758,0.000000
124.000000,38395.446646,25117.996349,22436.144642,19144.358533,-48678.299627,46577.436814,3194.377207,3657.035966,0.094000,0.984000,-0.022000,192.000000,0.000000,0.000000,0.000000,0.000000,0.000000,0.000000,0.000000,0.000000,0.000000,1647341889.076801,0.000000
125.000000,38394.440817,25111.380233,22437.441044,19140.715199,-48682.367645,46579.895506,3315.054275,3707.841481,0.094000,0.984000,-0.022000,192.000000,0.000000,0.000000,0.000000,0.000000,0.000000,0.000000,0.000000,0.000000,0.000000,1647341889.076819,0.000000
126.000000,38404.521454,25118.577494,22458.429332,19145.319658,-48675.058624,46587.316285,3409.982134,3723.532405,0.100000,0.972000,-0.012000,192.000000,3.000000,32.000000,30.000000,96.000000,255.000000,160.000000,0.000000,0.000000,0.000000,1647341889.083363,0.000000
127.000000,38407.628346,25119.695082,22456.305916,19142.860966,-48674.857458,46588.478576,3488.481461,3727.242795,0.100000,0.972000,-0.012000,192.000000,0.000000,0.000000,0.000000,0.000000,0.000000,0.000000,0.000000,0.000000,0.000000,1647341889.083379,0.000000
128.000000,38408.969451,25123.450175,22451.455587,19149.231213,-48672.398767,46585.729311,3579.877744,3752.276749,0.100000,0.972000,-0.012000,192.000000,0.000000,0.000000,0.000000,0.000000,0.000000,0.000000,0.000000,0.000000,0.000000,1647341889.091344,0.000000
129.000000,38402.778018,25113.950683,22439.072721,19142.346876,-48678.769014,46578.643808,3701.538289,3808.804310,0.100000,0.972000,-0.012000,192.000000,0.000000,0.000000,0.000000,0.000000,0.000000,0.000000,0.000000,0.000000,0.000000,1647341889.091378,0.000000
130.000000,38398.419428,25109.681500,22446.314686,19144.738513,-48678.657255,46583.114157,3803.797520,3837.079267,0.100000,0.972000,-0.012000,192.000000,0.000000,0.000000,0.000000,0.000000,0.000000,0.000000,0.000000,0.000000,0.000000,1647341889.099337,0.000000
131.000000,38404.677916,25110.128535,22445.130044,19144.179719,-48681.004188,46585.863422,3893.740939,3850.512666,0.100000,0.972000,-0.012000,192.000000,0.000000,0.000000,0.000000,0.000000,0.000000,0.000000,0.000000,0.000000,0.000000,1647341889.099353,0.000000
132.000000,38410.377611,25118.644550,22446.202927,19141.944545,-48680.445395,46588.277410,3982.946751,3874.473736,0.100000,0.972000,-0.012000,192.000000,0.000000,0.000000,0.000000,0.000000,0.000000,0.000000,0.000000,0.000000,0.000000,1647341889.105976,0.000000
133.000000,38401.705134,25109.972073,22428.723863,19133.205012,-48690.570735,46576.229820,4063.413032,3914.282193,0.100000,0.972000,-0.012000,192.000000,0.000000,0.000000,0.000000,0.000000,0.000000,0.000000,0.000000,0.000000,0.000000,1647341889.105993,0.000000
134.000000,38404.052067,25116.051747,22441.553765,19145.990210,-48681.272409,46589.573811,4129.417733,3947.094553,0.100000,0.972000,-0.012000,192.000000,0.000000,0.000000,0.000000,0.000000,0.000000,0.000000,0.000000,0.000000,0.000000,1647341889.113958,0.000000
135.000000,38406.622518,25115.962340,22439.475052,19142.145710,-48683.596991,46584.924648,4195.623600,3979.370472,0.100000,0.972000,-0.012000,192.000000,0.000000,0.000000,0.000000,0.000000,0.000000,0.000000,0.000000,0.000000,0.000000,1647341889.113975,0.000000
136.000000,38410.668184,25109.301521,22429.372064,19125.024274,-48691.911839,46578.755567,4258.722575,4018.709543,0.100000,0.980000,0.004000,192.000000,3.000000,32.000000,30.000000,160.000000,0.000000,32.000000,0.000000,0.000000,0.000000,1647341889.121953,0.000000
137.000000,38400.341678,25098.170352,22427.159241,19118.229344,-48701.388979,46577.414462,4301.682627,4046.872741,0.100000,0.980000,0.004000,192.000000,0.000000,0.000000,0.000000,0.000000,0.000000,0.000000,0.000000,0.000000,0.000000,1647341889.121969,0.000000
138.000000,38395.960736,25097.969186,22426.153413,19121.626809,-48697.678590,46589.886736,4336.193721,4071.169087,0.100000,0.980000,0.004000,192.000000,0.000000,0.000000,0.000000,0.000000,0.000000,0.000000,0.000000,0.000000,0.000000,1647341889.129122,0.000000
139.000000,38398.262965,25099.198532,22426.153413,19126.186565,-48695.823395,46587.293933,4385.166393,4117.392494,0.100000,0.980000,0.004000,192.000000,0.000000,0.000000,0.000000,0.000000,0.000000,0.000000,0.000000,0.000000,0.000000,1647341889.135659,0.000000
140.000000,38414.467980,25113.168372,22436.256401,19139.374094,-48683.529935,46597.933364,4415.564765,4153.892893,0.100000,0.980000,0.004000,192.000000,0.000000,0.000000,0.000000,0.000000,0.000000,0.000000,0.000000,0.000000,0.000000,1647341889.135674,0.000000
141.000000,38414.959719,25097.566855,22424.611142,19122.476175,-48697.164499,46588.344465,4444.085591,4199.624562,0.100000,0.980000,0.004000,192.000000,0.000000,0.000000,0.000000,0.000000,0.000000,0.000000,0.000000,0.000000,0.000000,1647341889.143583,0.000000
142.000000,38426.828495,25119.180992,22448.371047,19144.693809,-48678.232572,46607.298745,4443.996184,4226.938394,0.100000,0.980000,0.004000,192.000000,0.000000,0.000000,0.000000,0.000000,0.000000,0.000000,0.000000,0.000000,0.000000,1647341889.143599,0.000000
143.000000,38419.675937,25117.303445,22443.431311,19144.425588,-48681.898258,46601.040256,4454.255635,4262.947054,0.100000,0.980000,0.004000,192.000000,0.000000,0.000000,0.000000,0.000000,0.000000,0.000000,0.000000,0.000000,0.000000,1647341889.151623,0.000000
144.000000,38425.375631,25129.373387,22450.583869,19160.876472,-48671.392938,46613.758399,4448.421830,4288.137470,0.100000,0.980000,0.004000,192.000000,0.000000,0.000000,0.000000,0.000000,0.000000,0.000000,0.000000,0.000000,0.000000,1647341889.151639,0.000000
145.000000,38440.328949,25128.814593,22446.761721,19159.781237,-48668.286046,46618.944003,4472.315845,4346.833151,0.100000,0.980000,0.004000,192.000000,0.000000,0.000000,0.000000,0.000000,0.000000,0.000000,0.000000,0.000000,0.000000,1647341889.158816,0.000000
146.000000,38449.671978,25125.327721,22446.046465,19153.880376,-48672.219953,46612.238480,4483.759938,4401.326704,0.098000,0.974000,0.010000,192.000000,3.000000,16.000000,30.000000,112.000000,0.000000,80.000000,0.000000,0.000000,0.000000,1647341889.158832,0.000000
147.000000,38444.844001,25132.480280,22456.372971,19164.408048,-48668.375453,46620.642736,4472.248789,4431.367449,0.098000,0.974000,0.010000,192.000000,0.000000,0.000000,0.000000,0.000000,0.000000,0.000000,0.000000,0.000000,0.000000,1647341889.166190,0.000000
148.000000,38454.075271,25151.926297,22480.915187,19179.495475,-48650.225836,46644.424992,4455.261464,4449.204141,0.098000,0.974000,0.010000,192.000000,0.000000,0.000000,0.000000,0.000000,0.000000,0.000000,0.000000,0.000000,0.000000,1647341889.166207,0.000000
149.000000,38461.496051,25163.124521,22488.492428,19194.292330,-48639.608757,46650.549370,4449.070030,4470.438298,0.098000,0.974000,0.010000,192.000000,0.000000,0.000000,0.000000,0.000000,0.000000,0.000000,0.000000,0.000000,0.000000,1647341889.174195,0.000000
150.000000,38462.926562,25159.145911,22475.975451,19190.827810,-48643.699127,46644.626158,4440.531664,4493.706464,0.098000,0.974000,0.010000,192.000000,0.000000,0.000000,0.000000,0.000000,0.000000,0.000000,0.000000,0.000000,0.000000,1647341889.174231,0.000000
151.000000,38464.133556,25145.287829,22470.007535,19176.746211,-48655.009109,46635.327832,4441.179865,4526.407066,0.098000,0.974000,0.010000,192.000000,0.000000,0.000000,0.000000,0.000000,0.000000,0.000000,0.000000,0.000000,0.000000,1647341889.182231,0.000000
152.000000,38455.125803,25141.756253,22464.285489,19177.193246,-48655.590255,46638.546483,4412.368466,4528.664592,0.098000,0.974000,0.010000,192.000000,0.000000,0.000000,0.000000,0.000000,0.000000,0.000000,0.000000,0.000000,0.000000,1647341889.182247,0.000000
153.000000,38445.760422,25135.341303,22451.299125,19163.312812,-48665.067394,46633.897320,4395.112919,4540.108686,0.098000,0.974000,0.010000,192.000000,0.000000,0.000000,0.000000,0.000000,0.000000,0.000000,0.000000,0.000000,0.000000,1647341889.188477,0.000000
154.000000,38444.039338,25136.011855,22446.806424,19158.820112,-48662.295778,46632.310347,4421.130350,4589.506041,0.098000,0.974000,0.010000,192.000000,0.000000,0.000000,0.000000,0.000000,0.000000,0.000000,0.000000,0.000000,0.000000,1647341889.188495,0.000000
155.000000,38461.719568,25154.273230,22476.958928,19176.746211,-48641.016917,46645.967263,4410.848547,4607.096864,0.098000,0.974000,0.010000,192.000000,0.000000,0.000000,0.000000,0.000000,0.000000,0.000000,0.000000,0.000000,0.000000,1647341889.195879,0.000000
156.000000,38473.498937,25168.913623,22486.503123,19185.686908,-48632.076220,46654.595036,4380.181954,4608.348561,0.102000,0.980000,0.014000,192.000000,3.000000,48.000000,30.000000,160.000000,0.000000,112.000000,0.000000,0.000000,0.000000,1647341889.203978,0.000000
157.000000,38464.938219,25156.262536,22475.953099,19175.896844,-48639.362888,46647.040146,4359.573646,4630.297974,0.102000,0.980000,0.014000,192.000000,0.000000,0.000000,0.000000,0.000000,0.000000,0.000000,0.000000,0.000000,0.000000,1647341889.203995,0.000000
158.000000,38452.778870,25138.068216,22461.111541,19165.592690,-48649.331766,46634.232597,4364.938064,4678.488335,0.102000,0.980000,0.014000,192.000000,0.000000,0.000000,0.000000,0.000000,0.000000,0.000000,0.000000,0.000000,0.000000,1647341889.211932,0.000000
159.000000,38453.360016,25143.097358,22453.579003,19175.360403,-48650.114077,46638.345318,4360.333605,4718.073275,0.102000,0.980000,0.014000,192.000000,0.000000,0.000000,0.000000,0.000000,0.000000,0.000000,0.000000,0.000000,0.000000,1647341889.211948,0.000000
