%OpenBCI Raw EEG Data
%Number of channels = 8
%Sample Rate = 256 Hz
%Board = OpenBCI_GUI$BoardCytonSerial
%Channels = Fp1, Fp2, F3, F4, Fz, Pz, O1, O2
%Data recorded at AIMS Lab (http://aimsl.uiu.ac.bd) by Rana Depto (mail@ranadepto.com)
%Brainwaves were obtained via the Ultracortex Mark IV Headset using the OpenBCI Cyton Board
%Recording Application = ConcentrateToday (https://concentrate.today)
%Data type = RAW data with noise
%Day No = 1
%Subject ID = 5
%Session ID = 7
%Record starting timestamp (UTC+6) = 2022-03-09T11:37:43.357276
%Record ending timestamp (UTC+6)   = 2022-03-09T11:38:04.202355
%Recorded durations = ~20 seconds
Sample Index, EXG Channel 0, EXG Channel 1, EXG Channel 2, EXG Channel 3, EXG Channel 4, EXG Channel 5, EXG Channel 6, EXG Channel 7, Accel Channel 0, Accel Channel 1, Accel Channel 2, Other, Other, Other, Other, Other, Other, Other, Analog Channel 0, Analog Channel 1, Analog Channel 2, Timestamp, Timestamp (Formatted)
221.000000,-2887.174831,8309.797443,4028.298441,16227.321771,-90584.981809,5662.121554,16190.284931,35652.775842,-0.146000,0.952000,0.204000,192.000000,0.000000,0.000000,0.000000,0.000000,0.000000,0.000000,0.000000,0.000000,0.000000,1646804263.363996,0.000000
222.000000,-2894.707369,8303.114272,4023.224595,16224.527803,-90595.442426,5656.265397,16183.490000,35647.254961,-0.146000,0.952000,0.204000,192.000000,0.000000,0.000000,0.000000,0.000000,0.000000,0.000000,0.000000,0.000000,0.000000,1646804263.364002,0.000000
223.000000,-2901.614058,8296.095824,4016.742589,16223.030236,-90591.396760,5651.727993,16181.031308,35643.030482,-0.150000,0.956000,0.206000,192.000000,251.000000,80.000000,29.000000,224.000000,6.000000,112.000000,0.000000,0.000000,0.000000,1646804263.370600,0.000000
224.000000,-2899.110663,8297.459280,4015.177967,16221.733835,-90577.561030,5650.990385,16178.282044,35641.667025,-0.150000,0.956000,0.206000,192.000000,0.000000,0.000000,0.000000,0.000000,0.000000,0.000000,0.000000,0.000000,0.000000,1646804263.370606,0.000000
225.000000,-2898.887145,8294.240629,4012.048723,16222.538498,-90571.526059,5651.817399,16179.109058,35640.817659,-0.150000,0.956000,0.206000,192.000000,0.000000,0.000000,0.000000,0.000000,0.000000,0.000000,0.000000,0.000000,0.000000,1646804263.378705,0.000000
226.000000,-2892.583953,8293.927705,4016.586127,16214.648332,-90588.803958,5655.058402,16183.333538,35646.517354,-0.150000,0.956000,0.206000,192.000000,0.000000,0.000000,0.000000,0.000000,0.000000,0.000000,0.000000,0.000000,0.000000,1646804263.378709,0.000000
227.000000,-2898.529517,8285.769318,4014.596822,16208.300437,-90606.014801,5654.097277,16176.136276,35652.328807,-0.150000,0.956000,0.206000,192.000000,0.000000,0.000000,0.000000,0.000000,0.000000,0.000000,0.000000,0.000000,0.000000,1646804263.386578,0.000000
228.000000,-2907.246698,8280.829582,4007.623077,16208.009864,-90599.890423,5655.013699,16170.816561,35648.529011,-0.150000,0.956000,0.206000,192.000000,0.000000,0.000000,0.000000,0.000000,0.000000,0.000000,0.000000,0.000000,0.000000,1646804263.386582,0.000000
229.000000,-2911.962916,8279.622588,4003.778577,16212.033178,-90575.079986,5653.985519,16167.843779,35643.611627,-0.150000,0.956000,0.206000,192.000000,0.000000,0.000000,0.000000,0.000000,0.000000,0.000000,0.000000,0.000000,0.000000,1646804263.393689,0.000000
230.000000,-2906.263221,8277.163896,4008.763016,16219.923344,-90555.253989,5654.432554,16175.823352,35646.539706,-0.150000,0.956000,0.206000,192.000000,0.000000,0.000000,0.000000,0.000000,0.000000,0.000000,0.000000,0.000000,0.000000,1646804263.393693,0.000000
231.000000,-2911.225308,8272.022995,4004.382074,16214.648332,-90556.662149,5652.733821,16168.000241,35643.253999,-0.150000,0.956000,0.206000,192.000000,0.000000,0.000000,0.000000,0.000000,0.000000,0.000000,0.000000,0.000000,0.000000,1646804263.400306,0.000000
232.000000,-2905.972648,8267.887922,4005.901993,16210.110928,-90572.308370,5645.447152,16162.747581,35637.353139,-0.150000,0.956000,0.206000,192.000000,0.000000,0.000000,0.000000,0.000000,0.000000,0.000000,0.000000,0.000000,0.000000,1646804263.400312,0.000000
233.000000,-2903.044570,8270.659539,4009.768845,16213.463690,-90565.625199,5649.001080,16163.127561,35633.620397,-0.150000,0.956000,0.206000,192.000000,0.000000,0.000000,0.000000,0.000000,0.000000,0.000000,0.000000,0.000000,0.000000,1646804263.408270,0.000000
234.000000,-2911.962916,8268.267902,3998.525917,16208.747471,-90544.256931,5648.486990,16172.358831,35647.344368,-0.146000,0.952000,0.206000,192.000000,251.000000,112.000000,29.000000,192.000000,6.000000,112.000000,0.000000,0.000000,0.000000,1646804263.416247,0.000000
235.000000,-2903.245736,8273.922893,4003.152728,16214.827146,-90549.666053,5649.045783,16179.042003,35650.808889,-0.146000,0.952000,0.206000,192.000000,0.000000,0.000000,0.000000,0.000000,0.000000,0.000000,0.000000,0.000000,0.000000,1646804263.416259,0.000000
236.000000,-2904.877413,8274.414632,4003.108025,16218.336370,-90567.793318,5647.592920,16169.341346,35640.862362,-0.146000,0.952000,0.206000,192.000000,0.000000,0.000000,0.000000,0.000000,0.000000,0.000000,0.000000,0.000000,0.000000,1646804263.422893,0.000000
237.000000,-2906.598497,8272.514733,4006.125510,16221.309152,-90590.167414,5647.570568,16169.006070,35628.367737,-0.146000,0.952000,0.206000,192.000000,0.000000,0.000000,0.000000,0.000000,0.000000,0.000000,0.000000,0.000000,0.000000,1646804263.422897,0.000000
238.000000,-2903.111625,8276.828620,4009.612383,16227.098254,-90602.796150,5654.745478,16181.210122,35642.449336,-0.146000,0.952000,0.206000,192.000000,0.000000,0.000000,0.000000,0.000000,0.000000,0.000000,0.000000,0.000000,0.000000,1646804263.430825,0.000000
239.000000,-2906.777311,8276.023957,4000.090539,16228.729931,-90575.817594,5659.752269,16173.498770,35650.495964,-0.146000,0.952000,0.206000,192.000000,0.000000,0.000000,0.000000,0.000000,0.000000,0.000000,0.000000,0.000000,0.000000,1646804263.430829,0.000000
240.000000,-2912.029971,8264.579864,4002.772749,16216.838803,-90555.946893,5657.360632,16167.530855,35638.560133,-0.146000,0.952000,0.206000,192.000000,0.000000,0.000000,0.000000,0.000000,0.000000,0.000000,0.000000,0.000000,0.000000,1646804263.438960,0.000000
241.000000,-2909.481872,8261.852951,4008.606554,16214.044835,-90585.115920,5661.652167,16172.448238,35647.858459,-0.146000,0.952000,0.206000,192.000000,0.000000,0.000000,0.000000,0.000000,0.000000,0.000000,0.000000,0.000000,0.000000,1646804263.438964,0.000000
242.000000,-2913.259317,8260.221274,4006.058455,16213.128413,-90608.652307,5665.049632,16174.638709,35653.446395,-0.146000,0.952000,0.206000,192.000000,0.000000,0.000000,0.000000,0.000000,0.000000,0.000000,0.000000,0.000000,0.000000,1646804263.446104,0.000000
243.000000,-2907.336105,8263.395222,4008.315981,16209.909762,-90599.152815,5667.441269,16168.827256,35640.772956,-0.146000,0.952000,0.206000,192.000000,0.000000,0.000000,0.000000,0.000000,0.000000,0.000000,0.000000,0.000000,0.000000,1646804263.446110,0.000000
244.000000,-2905.100930,8267.820867,4009.992362,16223.454919,-90584.043036,5664.334376,16160.177131,35637.688415,-0.144000,0.944000,0.204000,192.000000,251.000000,128.000000,29.000000,128.000000,6.000000,96.000000,0.000000,0.000000,0.000000,1646804263.453557,0.000000
245.000000,-2901.167023,8270.771297,4014.909746,16230.182794,-90576.130518,5664.088507,16163.082857,35639.923589,-0.144000,0.944000,0.204000,192.000000,0.000000,0.000000,0.000000,0.000000,0.000000,0.000000,0.000000,0.000000,0.000000,1646804263.453561,0.000000
246.000000,-2901.323486,8268.871399,4014.395656,16226.315943,-90581.182013,5674.191496,16173.990509,35659.995456,-0.144000,0.944000,0.204000,192.000000,0.000000,0.000000,0.000000,0.000000,0.000000,0.000000,0.000000,0.000000,0.000000,1646804263.461548,0.000000
247.000000,-2908.744265,8255.147428,4006.103159,16219.029274,-90594.235431,5669.207057,16171.330651,35660.397787,-0.144000,0.944000,0.204000,192.000000,0.000000,0.000000,0.000000,0.000000,0.000000,0.000000,0.000000,0.000000,0.000000,1646804263.461552,0.000000
248.000000,-2908.453692,8251.951128,4009.008886,16218.649294,-90599.622202,5671.062251,16175.868055,35655.525107,-0.144000,0.944000,0.204000,192.000000,0.000000,0.000000,0.000000,0.000000,0.000000,0.000000,0.000000,0.000000,0.000000,1646804263.468639,0.000000
249.000000,-2908.163119,8253.694565,4006.416083,16222.292629,-90595.107149,5670.883438,16176.538608,35637.017862,-0.144000,0.944000,0.204000,192.000000,0.000000,0.000000,0.000000,0.000000,0.000000,0.000000,0.000000,0.000000,0.000000,1646804263.475671,0.000000
250.000000,-2905.480910,8261.607082,4007.980705,16227.388826,-90598.012876,5672.291597,16179.444334,35646.159726,-0.144000,0.944000,0.204000,192.000000,0.000000,0.000000,0.000000,0.000000,0.000000,0.000000,0.000000,0.000000,0.000000,1646804263.475674,0.000000
251.000000,-2911.225308,8260.333033,4002.683342,16222.024408,-90608.093513,5667.038937,16170.213064,35661.381264,-0.144000,0.944000,0.204000,192.000000,0.000000,0.000000,0.000000,0.000000,0.000000,0.000000,0.000000,0.000000,0.000000,1646804263.483179,0.000000
252.000000,-2909.392465,8259.885998,4002.102196,16223.186698,-90614.173188,5663.306196,16164.356907,35647.567886,-0.144000,0.944000,0.204000,192.000000,0.000000,0.000000,0.000000,0.000000,0.000000,0.000000,0.000000,0.000000,0.000000,1646804263.483183,0.000000
253.000000,-2910.487701,8250.744134,4005.812586,16214.581277,-90594.883632,5665.206094,16160.512407,35641.510563,-0.144000,0.944000,0.204000,192.000000,0.000000,0.000000,0.000000,0.000000,0.000000,0.000000,0.000000,0.000000,0.000000,1646804263.491171,0.000000
254.000000,-2915.718009,8247.525483,4007.064284,16214.469518,-90575.996408,5667.977711,16164.423962,35647.389072,-0.156000,0.946000,0.202000,192.000000,251.000000,32.000000,29.000000,144.000000,6.000000,80.000000,0.000000,0.000000,0.000000,1646804263.491174,0.000000
255.000000,-2910.442997,8250.900596,4011.199356,16220.616248,-90566.519268,5673.252722,16162.769933,35640.281217,-0.156000,0.946000,0.202000,192.000000,0.000000,0.000000,0.000000,0.000000,0.000000,0.000000,0.000000,0.000000,0.000000,1646804263.499169,0.000000
0.000000,-2904.698599,8254.365117,4010.215880,16214.827146,-90579.706798,5673.677406,16157.897253,35632.681624,-0.156000,0.946000,0.202000,192.000000,0.000000,0.000000,0.000000,0.000000,0.000000,0.000000,0.000000,0.000000,0.000000,1646804263.499173,0.000000
1.000000,-2904.519785,8252.152294,4011.758150,16215.251829,-90590.435635,5679.779432,16171.353003,35642.382281,-0.156000,0.946000,0.202000,192.000000,0.000000,0.000000,0.000000,0.000000,0.000000,0.000000,0.000000,0.000000,0.000000,1646804263.505787,0.000000
2.000000,-2901.792872,8258.142562,4012.629868,16215.698864,-90596.761179,5678.080699,16177.946768,35646.070319,-0.156000,0.946000,0.202000,192.000000,0.000000,0.000000,0.000000,0.000000,0.000000,0.000000,0.000000,0.000000,0.000000,1646804263.505790,0.000000
3.000000,-2904.922116,8255.817980,4010.819377,16223.544326,-90575.772891,5681.724034,16171.911797,35643.969255,-0.156000,0.946000,0.202000,192.000000,0.000000,0.000000,0.000000,0.000000,0.000000,0.000000,0.000000,0.000000,0.000000,1646804263.513775,0.000000
4.000000,-2901.703465,8257.203788,4013.233365,16234.407274,-90568.061539,5682.573400,16165.608605,35635.766165,-0.156000,0.946000,0.202000,192.000000,0.000000,0.000000,0.000000,0.000000,0.000000,0.000000,0.000000,0.000000,0.000000,1646804263.513779,0.000000
5.000000,-2901.882279,8253.783972,4011.020543,16222.404387,-90587.015818,5678.505382,16169.318994,35636.257903,-0.156000,0.946000,0.202000,192.000000,0.000000,0.000000,0.000000,0.000000,0.000000,0.000000,0.000000,0.000000,0.000000,1646804263.521938,0.000000
6.000000,-2896.584916,8261.316509,4011.735798,16226.204184,-90608.294679,5683.333359,16187.066279,35650.764185,-0.156000,0.946000,0.202000,192.000000,0.000000,0.000000,0.000000,0.000000,0.000000,0.000000,0.000000,0.000000,0.000000,1646804263.521943,0.000000
7.000000,-2892.136919,8269.318434,4012.272240,16226.517108,-90624.119714,5681.791089,16188.899122,35651.032406,-0.156000,0.946000,0.202000,192.000000,0.000000,0.000000,0.000000,0.000000,0.000000,0.000000,0.000000,0.000000,0.000000,1646804263.528993,0.000000
8.000000,-2896.942544,8265.853914,4008.763016,16221.666780,-90622.108057,5682.931028,16186.194561,35655.301589,-0.150000,0.948000,0.204000,192.000000,251.000000,80.000000,29.000000,160.000000,6.000000,96.000000,0.000000,0.000000,0.000000,1646804263.535386,0.000000
9.000000,-2915.829768,8253.627509,3997.005999,16217.397597,-90585.808824,5678.505382,16164.513369,35635.699110,-0.150000,0.948000,0.204000,192.000000,0.000000,0.000000,0.000000,0.000000,0.000000,0.000000,0.000000,0.000000,0.000000,1646804263.535390,0.000000
10.000000,-2900.518823,8258.097858,4003.689170,16212.860192,-90603.511405,5672.246894,16169.676622,35635.095612,-0.150000,0.948000,0.204000,192.000000,0.000000,0.000000,0.000000,0.000000,0.000000,0.000000,0.000000,0.000000,0.000000,1646804263.543382,0.000000
11.000000,-2901.815224,8257.114381,4002.482176,16217.978742,-90619.381144,5674.102089,16170.682451,35645.198601,-0.150000,0.948000,0.204000,192.000000,0.000000,0.000000,0.000000,0.000000,0.000000,0.000000,0.000000,0.000000,0.000000,1646804263.543386,0.000000
12.000000,-2900.295305,8259.550722,4006.729008,16220.370379,-90623.493865,5677.410147,16170.883616,35637.509601,-0.150000,0.948000,0.204000,192.000000,0.000000,0.000000,0.000000,0.000000,0.000000,0.000000,0.000000,0.000000,0.000000,1646804263.551466,0.000000
13.000000,-2901.502299,8260.623605,4005.499662,16213.910724,-90610.395743,5674.794993,16162.300546,35615.493133,-0.150000,0.948000,0.204000,192.000000,0.000000,0.000000,0.000000,0.000000,0.000000,0.000000,0.000000,0.000000,0.000000,1646804263.551470,0.000000
14.000000,-2907.760788,8254.119248,3999.487042,16215.207126,-90587.932240,5670.481106,16165.742715,35632.368700,-0.150000,0.948000,0.204000,192.000000,0.000000,0.000000,0.000000,0.000000,0.000000,0.000000,0.000000,0.000000,0.000000,1646804263.558026,0.000000
15.000000,-2902.329314,8255.907387,4001.498699,16228.394655,-90597.141158,5669.631740,16168.357869,35653.491098,-0.150000,0.948000,0.204000,192.000000,0.000000,0.000000,0.000000,0.000000,0.000000,0.000000,0.000000,0.000000,0.000000,1646804263.558029,0.000000
16.000000,-2904.877413,8254.141599,4000.716388,16226.427701,-90607.735885,5673.073908,16171.800038,35652.842898,-0.150000,0.948000,0.204000,192.000000,0.000000,0.000000,0.000000,0.000000,0.000000,0.000000,0.000000,0.000000,0.000000,1646804263.566052,0.000000
17.000000,-2902.753997,8252.062887,4006.483138,16222.337332,-90603.220833,5674.593827,16168.670794,35641.510563,-0.150000,0.948000,0.204000,192.000000,0.000000,0.000000,0.000000,0.000000,0.000000,0.000000,0.000000,0.000000,0.000000,1646804263.566056,0.000000
18.000000,-2898.216593,8257.382602,4005.633772,16224.483100,-90601.723266,5673.252722,16168.335517,35629.082993,-0.150000,0.946000,0.198000,192.000000,251.000000,80.000000,29.000000,144.000000,6.000000,48.000000,0.000000,0.000000,0.000000,1646804263.574072,0.000000
19.000000,-2900.004733,8249.201864,4009.277106,16219.006922,-90583.216021,5682.104013,16170.369526,35637.084918,-0.150000,0.946000,0.198000,192.000000,0.000000,0.000000,0.000000,0.000000,0.000000,0.000000,0.000000,0.000000,0.000000,1646804263.574076,0.000000
20.000000,-2903.089273,8247.100800,4006.326676,16222.337332,-90582.590173,5674.415013,16165.966233,35636.012034,-0.150000,0.946000,0.198000,192.000000,0.000000,0.000000,0.000000,0.000000,0.000000,0.000000,0.000000,0.000000,0.000000,1646804263.581298,0.000000
21.000000,-2898.306000,8254.476876,4010.260583,16230.071036,-90605.143083,5674.325606,16166.882654,35628.971234,-0.150000,0.946000,0.198000,192.000000,0.000000,0.000000,0.000000,0.000000,0.000000,0.000000,0.000000,0.000000,0.000000,1646804263.581302,0.000000
22.000000,-2896.763730,8257.628472,4014.507415,16230.987457,-90611.155702,5680.271170,16165.720363,35631.429926,-0.150000,0.946000,0.198000,192.000000,0.000000,0.000000,0.000000,0.000000,0.000000,0.000000,0.000000,0.000000,0.000000,1646804263.587676,0.000000
23.000000,-2888.426529,8271.754774,4020.587089,16240.017562,-90612.362696,5687.401377,16174.683413,35649.266618,-0.150000,0.946000,0.198000,192.000000,0.000000,0.000000,0.000000,0.000000,0.000000,0.000000,0.000000,0.000000,0.000000,1646804263.595742,0.000000
24.000000,-2899.155366,8265.585693,4009.679438,16234.675495,-90583.104263,5690.128289,16167.128523,35647.411424,-0.150000,0.946000,0.198000,192.000000,0.000000,0.000000,0.000000,0.000000,0.000000,0.000000,0.000000,0.000000,0.000000,1646804263.595779,0.000000
25.000000,-2907.067884,8255.505056,4004.203260,16223.745492,-90570.833155,5676.381967,16159.730096,35627.607778,-0.150000,0.946000,0.198000,192.000000,0.000000,0.000000,0.000000,0.000000,0.000000,0.000000,0.000000,0.000000,0.000000,1646804263.603821,0.000000
26.000000,-2903.603363,8263.685794,4006.080807,16223.812547,-90581.874917,5674.794993,16161.808808,35632.323996,-0.150000,0.946000,0.198000,192.000000,0.000000,0.000000,0.000000,0.000000,0.000000,0.000000,0.000000,0.000000,0.000000,1646804263.603827,0.000000
27.000000,-2905.235041,8268.781992,4005.320848,16228.551117,-90588.647495,5674.683234,16166.927358,35629.060641,-0.150000,0.946000,0.198000,192.000000,0.000000,0.000000,0.000000,0.000000,0.000000,0.000000,0.000000,0.000000,0.000000,1646804263.610953,0.000000
28.000000,-2904.072750,8257.874341,4006.080807,16226.003018,-90570.140251,5679.265342,16167.866131,35628.054813,-0.146000,0.950000,0.200000,192.000000,251.000000,112.000000,29.000000,176.000000,6.000000,64.000000,0.000000,0.000000,0.000000,1646804263.610956,0.000000
29.000000,-2896.763730,8266.368004,4007.310153,16229.065207,-90554.762251,5678.192458,16168.089648,35633.329825,-0.146000,0.950000,0.200000,192.000000,0.000000,0.000000,0.000000,0.000000,0.000000,0.000000,0.000000,0.000000,0.000000,1646804263.618331,0.000000
30.000000,-2898.887145,8272.537085,4000.224650,16231.210975,-90562.384196,5669.430574,16162.993451,35632.435755,-0.146000,0.950000,0.200000,192.000000,0.000000,0.000000,0.000000,0.000000,0.000000,0.000000,0.000000,0.000000,0.000000,1646804263.618335,0.000000
31.000000,-2891.712235,8272.201809,4007.690133,16225.332466,-90586.188803,5671.665749,16164.602776,35633.665101,-0.146000,0.950000,0.200000,192.000000,0.000000,0.000000,0.000000,0.000000,0.000000,0.000000,0.000000,0.000000,0.000000,1646804263.626353,0.000000
32.000000,-2891.332256,8270.458373,4013.009848,16228.864041,-90591.843795,5679.064176,16168.827256,35636.302607,-0.146000,0.950000,0.200000,192.000000,0.000000,0.000000,0.000000,0.000000,0.000000,0.000000,0.000000,0.000000,0.000000,1646804263.626356,0.000000
33.000000,-2886.504279,8274.973425,4014.350952,16226.718274,-90574.320027,5675.934932,16168.603738,35635.006205,-0.146000,0.950000,0.200000,192.000000,0.000000,0.000000,0.000000,0.000000,0.000000,0.000000,0.000000,0.000000,0.000000,1646804263.633451,0.000000
34.000000,-2885.006712,8278.281483,4012.048723,16231.523899,-90576.510498,5670.302292,16165.206273,35630.491153,-0.146000,0.950000,0.200000,192.000000,0.000000,0.000000,0.000000,0.000000,0.000000,0.000000,0.000000,0.000000,0.000000,1646804263.633454,0.000000
35.000000,-2884.134994,8274.302873,4014.194490,16241.112797,-90592.268478,5674.638531,16176.449201,35634.469764,-0.146000,0.950000,0.200000,192.000000,0.000000,0.000000,0.000000,0.000000,0.000000,0.000000,0.000000,0.000000,0.000000,1646804263.640986,0.000000
36.000000,-2890.482889,8269.519600,4009.813548,16237.223594,-90606.350077,5676.292560,16184.182904,35649.870116,-0.146000,0.950000,0.200000,192.000000,0.000000,0.000000,0.000000,0.000000,0.000000,0.000000,0.000000,0.000000,0.000000,1646804263.640990,0.000000
37.000000,-2894.796776,8265.496286,4003.622115,16226.941791,-90612.496807,5672.850391,16179.019651,35649.445432,-0.146000,0.950000,0.200000,192.000000,0.000000,0.000000,0.000000,0.000000,0.000000,0.000000,0.000000,0.000000,0.000000,1646804263.648001,0.000000
38.000000,-2892.293381,8266.256245,3998.637676,16228.662876,-90593.251955,5671.598693,16172.314128,35644.639807,-0.146000,0.952000,0.194000,192.000000,251.000000,112.000000,29.000000,192.000000,6.000000,16.000000,0.000000,0.000000,0.000000,1646804263.648005,0.000000
39.000000,-2888.448881,8271.263036,4008.606554,16239.861100,-90569.872030,5677.030167,16176.270387,35638.738947,-0.146000,0.952000,0.194000,192.000000,0.000000,0.000000,0.000000,0.000000,0.000000,0.000000,0.000000,0.000000,0.000000,1646804263.656053,0.000000
40.000000,-2891.399311,8266.993852,4002.281010,16234.206108,-90584.065388,5669.877609,16173.319956,35637.621360,-0.146000,0.952000,0.194000,192.000000,0.000000,0.000000,0.000000,0.000000,0.000000,0.000000,0.000000,0.000000,0.000000,1646804263.663153,0.000000
41.000000,-2898.216593,8265.630396,3996.067225,16232.350914,-90596.515309,5665.809592,16175.599834,35647.701996,-0.146000,0.952000,0.194000,192.000000,0.000000,0.000000,0.000000,0.000000,0.000000,0.000000,0.000000,0.000000,0.000000,1646804263.663156,0.000000
42.000000,-2897.568392,8265.518637,3995.486080,16230.428664,-90596.560013,5668.692967,16177.320919,35643.321054,-0.146000,0.952000,0.194000,192.000000,0.000000,0.000000,0.000000,0.000000,0.000000,0.000000,0.000000,0.000000,0.000000,1646804263.670602,0.000000
43.000000,-2893.366265,8264.490457,4002.616287,16232.015637,-90590.323876,5667.441269,16172.604701,35639.051871,-0.146000,0.952000,0.194000,192.000000,0.000000,0.000000,0.000000,0.000000,0.000000,0.000000,0.000000,0.000000,0.000000,1646804263.670611,0.000000
44.000000,-2905.480910,8255.460352,3995.173156,16229.735759,-90579.952667,5668.022414,16170.213064,35644.528049,-0.146000,0.952000,0.194000,192.000000,0.000000,0.000000,0.000000,0.000000,0.000000,0.000000,0.000000,0.000000,0.000000,1646804263.678681,0.000000
45.000000,-2912.700523,8250.095934,3990.322827,16216.347065,-90577.739844,5664.647301,16164.625128,35628.904179,-0.146000,0.952000,0.194000,192.000000,0.000000,0.000000,0.000000,0.000000,0.000000,0.000000,0.000000,0.000000,0.000000,1646804263.678685,0.000000
46.000000,-2893.120395,8258.589597,4001.833976,16219.297495,-90595.174205,5670.928141,16182.908855,35634.849743,-0.146000,0.952000,0.194000,192.000000,0.000000,0.000000,0.000000,0.000000,0.000000,0.000000,0.000000,0.000000,0.000000,1646804263.686676,0.000000
47.000000,-2884.202049,8269.541951,4010.372342,16237.178890,-90602.259708,5678.326568,16185.546361,35639.364796,-0.146000,0.952000,0.194000,192.000000,0.000000,0.000000,0.000000,0.000000,0.000000,0.000000,0.000000,0.000000,0.000000,1646804263.686680,0.000000
48.000000,-2892.226326,8266.815039,4007.712484,16238.967030,-90579.304466,5683.914505,16182.104192,35652.149993,-0.152000,0.952000,0.198000,192.000000,251.000000,64.000000,29.000000,192.000000,6.000000,48.000000,0.000000,0.000000,0.000000,1646804263.693355,0.000000
49.000000,-2896.316695,8264.468105,4003.957391,16234.094350,-90569.201478,5684.026263,16185.568712,35641.532915,-0.152000,0.952000,0.198000,192.000000,0.000000,0.000000,0.000000,0.000000,0.000000,0.000000,0.000000,0.000000,0.000000,1646804263.693360,0.000000
50.000000,-2898.149538,8262.501152,4000.090539,16234.407274,-90584.534774,5680.673502,16185.345195,35644.684511,-0.152000,0.952000,0.198000,192.000000,0.000000,0.000000,0.000000,0.000000,0.000000,0.000000,0.000000,0.000000,0.000000,1646804263.701217,0.000000
51.000000,-2894.685017,8266.479762,4007.153691,16236.485986,-90598.348152,5682.729862,16186.708651,35654.049892,-0.152000,0.952000,0.198000,192.000000,0.000000,0.000000,0.000000,0.000000,0.000000,0.000000,0.000000,0.000000,0.000000,1646804263.701222,0.000000
52.000000,-2892.405139,8269.497248,4013.903918,16238.944678,-90586.434673,5684.897981,16181.120715,35646.159726,-0.152000,0.952000,0.198000,192.000000,0.000000,0.000000,0.000000,0.000000,0.000000,0.000000,0.000000,0.000000,0.000000,1646804263.709256,0.000000
53.000000,-2894.014465,8262.523504,4009.411217,16232.730893,-90590.860318,5678.594789,16175.957462,35647.009092,-0.152000,0.952000,0.198000,192.000000,0.000000,0.000000,0.000000,0.000000,0.000000,0.000000,0.000000,0.000000,0.000000,1646804263.709259,0.000000
54.000000,-2889.611171,8264.311643,4008.628906,16233.937887,-90591.754388,5675.912580,16180.874846,35646.986740,-0.152000,0.952000,0.198000,192.000000,0.000000,0.000000,0.000000,0.000000,0.000000,0.000000,0.000000,0.000000,0.000000,1646804263.716436,0.000000
55.000000,-2893.187451,8262.165876,4006.952525,16235.144882,-90598.638725,5676.337263,16181.947730,35642.404633,-0.152000,0.952000,0.198000,192.000000,0.000000,0.000000,0.000000,0.000000,0.000000,0.000000,0.000000,0.000000,0.000000,1646804263.722955,0.000000
56.000000,-2891.779291,8264.512809,4011.311115,16236.821262,-90609.166397,5681.098185,16187.803887,35644.081014,-0.152000,0.952000,0.198000,192.000000,0.000000,0.000000,0.000000,0.000000,0.000000,0.000000,0.000000,0.000000,0.000000,1646804263.722959,0.000000
57.000000,-2889.007674,8267.597350,4011.646391,16240.509300,-90607.400609,5674.079737,16184.272311,35642.605799,-0.152000,0.952000,0.198000,192.000000,0.000000,0.000000,0.000000,0.000000,0.000000,0.000000,0.000000,0.000000,0.000000,1646804263.730877,0.000000
58.000000,-2897.993076,8258.164913,4004.002095,16234.943716,-90587.641667,5671.844563,16179.086707,35639.968293,-0.150000,0.952000,0.202000,192.000000,251.000000,80.000000,29.000000,192.000000,6.000000,80.000000,0.000000,0.000000,0.000000,1646804263.730881,0.000000
59.000000,-2892.449843,8263.842257,4013.345124,16236.553042,-90587.708722,5679.645321,16183.825276,35647.478479,-0.150000,0.952000,0.202000,192.000000,0.000000,0.000000,0.000000,0.000000,0.000000,0.000000,0.000000,0.000000,0.000000,1646804263.738980,0.000000
60.000000,-2900.317657,8258.075506,4003.063321,16233.021466,-90593.430769,5681.880496,16179.980776,35643.522220,-0.150000,0.952000,0.202000,192.000000,0.000000,0.000000,0.000000,0.000000,0.000000,0.000000,0.000000,0.000000,0.000000,1646804263.738983,0.000000
61.000000,-2892.315733,8259.170742,4010.707618,16227.120605,-90609.076990,5681.232295,16185.389898,35644.058662,-0.150000,0.952000,0.202000,192.000000,0.000000,0.000000,0.000000,0.000000,0.000000,0.000000,0.000000,0.000000,0.000000,1646804263.746008,0.000000
62.000000,-2893.701541,8262.970538,4011.981668,16245.650202,-90613.547339,5683.780394,16179.600797,35646.942037,-0.150000,0.952000,0.202000,192.000000,0.000000,0.000000,0.000000,0.000000,0.000000,0.000000,0.000000,0.000000,0.000000,1646804263.746011,0.000000
63.000000,-2894.863831,8261.115344,4006.259621,16245.717257,-90599.711609,5681.947551,16172.358831,35642.851668,-0.150000,0.952000,0.202000,192.000000,0.000000,0.000000,0.000000,0.000000,0.000000,0.000000,0.000000,0.000000,0.000000,1646804263.753482,0.000000
64.000000,-2893.478023,8264.736326,4013.099255,16241.984515,-90587.440501,5688.340150,16183.490000,35651.881773,-0.150000,0.952000,0.202000,192.000000,0.000000,0.000000,0.000000,0.000000,0.000000,0.000000,0.000000,0.000000,0.000000,1646804263.753486,0.000000
65.000000,-2898.797738,8259.729536,4007.064284,16236.508338,-90580.131481,5686.082624,16179.891369,35648.439604,-0.150000,0.952000,0.202000,192.000000,0.000000,0.000000,0.000000,0.000000,0.000000,0.000000,0.000000,0.000000,0.000000,1646804263.761625,0.000000
66.000000,-2899.021256,8259.528370,4006.058455,16243.616193,-90581.360827,5684.585057,16178.505561,35645.533877,-0.150000,0.952000,0.202000,192.000000,0.000000,0.000000,0.000000,0.000000,0.000000,0.000000,0.000000,0.000000,0.000000,1646804263.761630,0.000000
67.000000,-2893.567430,8266.144486,4008.695961,16244.577318,-90595.710647,5684.897981,16191.626035,35654.362816,-0.150000,0.952000,0.202000,192.000000,0.000000,0.000000,0.000000,0.000000,0.000000,0.000000,0.000000,0.000000,0.000000,1646804263.768703,0.000000
68.000000,-2897.970724,8267.105611,4006.125510,16247.281879,-90574.945876,5686.484955,16185.166381,35647.143203,-0.156000,0.950000,0.202000,192.000000,251.000000,32.000000,29.000000,176.000000,6.000000,80.000000,0.000000,0.000000,0.000000,1646804263.768706,0.000000
69.000000,-2897.769558,8263.171704,4006.706656,16243.258565,-90558.360882,5685.680292,16186.194561,35647.970217,-0.156000,0.950000,0.202000,192.000000,0.000000,0.000000,0.000000,0.000000,0.000000,0.000000,0.000000,0.000000,0.000000,1646804263.775234,0.000000
70.000000,-2896.249640,8264.758678,4004.784406,16238.005905,-90574.834117,5679.734728,16184.071146,35645.220953,-0.156000,0.950000,0.202000,192.000000,0.000000,0.000000,0.000000,0.000000,0.000000,0.000000,0.000000,0.000000,0.000000,1646804263.783162,0.000000
71.000000,-2898.574221,8258.611948,4000.269353,16231.836823,-90596.582365,5675.331435,16172.716459,35638.582485,-0.156000,0.950000,0.202000,192.000000,0.000000,0.000000,0.000000,0.000000,0.000000,0.000000,0.000000,0.000000,0.000000,1646804263.783166,0.000000
72.000000,-2899.490642,8259.327204,4000.045836,16235.614268,-90580.533812,5677.656016,16177.723250,35639.364796,-0.156000,0.950000,0.202000,192.000000,0.000000,0.000000,0.000000,0.000000,0.000000,0.000000,0.000000,0.000000,0.000000,1646804263.791255,0.000000
73.000000,-2889.767634,8270.994815,4007.645429,16238.408236,-90580.265591,5677.365443,16192.341291,35652.999360,-0.156000,0.950000,0.202000,192.000000,0.000000,0.000000,0.000000,0.000000,0.000000,0.000000,0.000000,0.000000,0.000000,1646804263.791259,0.000000
74.000000,-2897.814262,8257.248492,4005.522013,16231.210975,-90563.993521,5678.103051,16180.763087,35653.178174,-0.156000,0.950000,0.202000,192.000000,0.000000,0.000000,0.000000,0.000000,0.000000,0.000000,0.000000,0.000000,0.000000,1646804263.798263,0.000000
75.000000,-2895.914363,8259.796591,4007.645429,16228.931097,-90572.353074,5680.248818,16184.495829,35653.558153,-0.156000,0.950000,0.202000,192.000000,0.000000,0.000000,0.000000,0.000000,0.000000,0.000000,0.000000,0.000000,0.000000,1646804263.798267,0.000000
76.000000,-2894.796776,8261.696489,4009.187699,16229.445187,-90595.062446,5687.222563,16193.257713,35656.597991,-0.156000,0.950000,0.202000,192.000000,0.000000,0.000000,0.000000,0.000000,0.000000,0.000000,0.000000,0.000000,0.000000,1646804263.805711,0.000000
77.000000,-2894.685017,8264.892789,4012.294592,16235.033123,-90594.414245,5688.518964,16193.347119,35661.627133,-0.156000,0.950000,0.202000,192.000000,0.000000,0.000000,0.000000,0.000000,0.000000,0.000000,0.000000,0.000000,0.000000,1646804263.805716,0.000000
78.000000,-2902.239907,8253.806323,4006.617249,16228.931097,-90591.888498,5683.936856,16189.502619,35658.341427,-0.156000,0.950000,0.202000,192.000000,0.000000,0.000000,0.000000,0.000000,0.000000,0.000000,0.000000,0.000000,0.000000,1646804263.813860,0.000000
79.000000,-2907.291401,8241.781085,3999.241173,16227.299419,-90564.261742,5679.511211,16183.400593,35646.696168,-0.154000,0.948000,0.206000,192.000000,251.000000,48.000000,29.000000,160.000000,6.000000,112.000000,0.000000,0.000000,0.000000,1646804263.813863,0.000000
80.000000,-2896.227288,8256.421477,4010.774673,16236.418931,-90580.980847,5684.026263,16192.967140,35651.613552,-0.154000,0.948000,0.206000,192.000000,0.000000,0.000000,0.000000,0.000000,0.000000,0.000000,0.000000,0.000000,0.000000,1646804263.821830,0.000000
81.000000,-2899.267125,8256.779105,4003.353894,16228.484062,-90598.526966,5679.958246,16186.418079,35649.020749,-0.154000,0.948000,0.206000,192.000000,0.000000,0.000000,0.000000,0.000000,0.000000,0.000000,0.000000,0.000000,0.000000,1646804263.821835,0.000000
82.000000,-2901.256430,8257.874341,4006.505490,16231.412140,-90579.080949,5678.974769,16187.915646,35650.965351,-0.154000,0.948000,0.206000,192.000000,0.000000,0.000000,0.000000,0.000000,0.000000,0.000000,0.000000,0.000000,0.000000,1646804263.828405,0.000000
83.000000,-2901.189375,8256.041498,4006.170214,16226.517108,-90566.988655,5676.381967,16187.558018,35643.633979,-0.154000,0.948000,0.206000,192.000000,0.000000,0.000000,0.000000,0.000000,0.000000,0.000000,0.000000,0.000000,0.000000,1646804263.828409,0.000000
84.000000,-2901.010561,8255.080373,4006.773711,16227.187661,-90562.339492,5676.359615,16185.076974,35638.694243,-0.154000,0.948000,0.206000,192.000000,0.000000,0.000000,0.000000,0.000000,0.000000,0.000000,0.000000,0.000000,0.000000,1646804263.835439,0.000000
85.000000,-2910.264183,8246.653765,3996.469557,16220.571544,-90560.707815,5673.073908,16183.065317,35637.755470,-0.154000,0.948000,0.206000,192.000000,0.000000,0.000000,0.000000,0.000000,0.000000,0.000000,0.000000,0.000000,0.000000,1646804263.843454,0.000000
86.000000,-2906.419683,8245.312660,3999.040007,16217.665817,-90586.792301,5673.342129,16189.279102,35644.192772,-0.154000,0.948000,0.206000,192.000000,0.000000,0.000000,0.000000,0.000000,0.000000,0.000000,0.000000,0.000000,0.000000,1646804263.843463,0.000000
87.000000,-2907.984305,8243.524521,4002.482176,16222.180870,-90573.358902,5678.035996,16187.960349,35649.937171,-0.154000,0.948000,0.206000,192.000000,0.000000,0.000000,0.000000,0.000000,0.000000,0.000000,0.000000,0.000000,0.000000,1646804263.851778,0.000000
88.000000,-2897.121358,8252.196998,4011.981668,16231.345085,-90579.080949,5672.671577,16189.010881,35642.896371,-0.154000,0.948000,0.206000,192.000000,0.000000,0.000000,0.000000,0.000000,0.000000,0.000000,0.000000,0.000000,0.000000,1646804263.851788,0.000000
89.000000,-2886.303113,8260.042460,4029.974822,16233.647315,-90573.113033,5687.647246,16193.123602,35646.472650,-0.138000,0.944000,0.208000,192.000000,251.000000,176.000000,29.000000,128.000000,6.000000,128.000000,0.000000,0.000000,0.000000,1646804263.858519,0.000000
90.000000,-2893.232154,8259.506018,4018.351915,16228.059379,-90579.192707,5683.087490,16186.775707,35645.399767,-0.138000,0.944000,0.208000,192.000000,0.000000,0.000000,0.000000,0.000000,0.000000,0.000000,0.000000,0.000000,0.000000,1646804263.858537,0.000000
91.000000,-2900.027084,8251.951128,4010.953487,16230.361608,-90587.172280,5684.540353,16186.507486,35649.423081,-0.138000,0.944000,0.208000,192.000000,0.000000,0.000000,0.000000,0.000000,0.000000,0.000000,0.000000,0.000000,0.000000,1646804263.866196,0.000000
92.000000,-2892.695712,8259.193094,4021.123531,16238.519995,-90585.227678,5689.234220,16197.146916,35666.522165,-0.138000,0.944000,0.208000,192.000000,0.000000,0.000000,0.000000,0.000000,0.000000,0.000000,0.000000,0.000000,0.000000,1646804263.866208,0.000000
93.000000,-2902.374018,8253.359288,4007.086635,16233.692018,-90563.390024,5683.422766,16190.441393,35665.628095,-0.138000,0.944000,0.208000,192.000000,0.000000,0.000000,0.000000,0.000000,0.000000,0.000000,0.000000,0.000000,0.000000,1646804263.874431,0.000000
94.000000,-2902.798701,8250.297099,4005.074978,16228.886393,-90562.764175,5678.885362,16192.140125,35657.804985,-0.138000,0.944000,0.208000,192.000000,0.000000,0.000000,0.000000,0.000000,0.000000,0.000000,0.000000,0.000000,0.000000,1646804263.874449,0.000000
95.000000,-2913.572241,8247.525483,3998.257696,16222.940829,-90570.833155,5672.269246,16186.999224,35647.411424,-0.138000,0.944000,0.208000,192.000000,0.000000,0.000000,0.000000,0.000000,0.000000,0.000000,0.000000,0.000000,0.000000,1646804263.880967,0.000000
96.000000,-2921.618869,8244.865625,3991.239249,16216.302361,-90583.238373,5666.413089,16193.190657,35643.186944,-0.138000,0.944000,0.208000,192.000000,0.000000,0.000000,0.000000,0.000000,0.000000,0.000000,0.000000,0.000000,0.000000,1646804263.880983,0.000000
97.000000,-2909.504224,8252.889902,4004.940868,16218.626942,-90576.711664,5678.997121,16199.829125,35651.770014,-0.138000,0.944000,0.208000,192.000000,0.000000,0.000000,0.000000,0.000000,0.000000,0.000000,0.000000,0.000000,0.000000,1646804263.888963,0.000000
98.000000,-2898.350704,8258.947224,4014.105083,16219.610419,-90578.365693,5682.975731,16201.393747,35658.564944,-0.138000,0.944000,0.208000,192.000000,0.000000,0.000000,0.000000,0.000000,0.000000,0.000000,0.000000,0.000000,0.000000,1646804263.888980,0.000000
99.000000,-2896.696674,8261.383565,4018.351915,16230.987457,-90572.196611,5685.456775,16199.113870,35654.631037,-0.140000,0.948000,0.198000,192.000000,251.000000,160.000000,29.000000,160.000000,6.000000,48.000000,0.000000,0.000000,0.000000,1646804263.896246,0.000000
100.000000,-2899.602401,8253.493399,4014.060380,16228.841690,-90576.242277,5684.339188,16201.796079,35651.792366,-0.140000,0.948000,0.198000,192.000000,0.000000,0.000000,0.000000,0.000000,0.000000,0.000000,0.000000,0.000000,0.000000,1646804263.896263,0.000000
101.000000,-2909.884204,8244.552701,3999.755263,16219.409254,-90577.136347,5677.097222,16192.877733,35639.007168,-0.140000,0.948000,0.198000,192.000000,0.000000,0.000000,0.000000,0.000000,0.000000,0.000000,0.000000,0.000000,0.000000,1646804263.904189,0.000000
102.000000,-2911.001791,8243.859797,3996.067225,16218.962219,-90563.032396,5674.437365,16183.065317,35643.499868,-0.140000,0.948000,0.198000,192.000000,0.000000,0.000000,0.000000,0.000000,0.000000,0.000000,0.000000,0.000000,0.000000,1646804263.910819,0.000000
103.000000,-2898.238945,8257.114381,4007.041932,16228.417007,-90562.138326,5677.343092,16188.385032,35650.272447,-0.140000,0.948000,0.198000,192.000000,0.000000,0.000000,0.000000,0.000000,0.000000,0.000000,0.000000,0.000000,0.000000,1646804263.910836,0.000000
104.000000,-2889.387654,8274.593446,4012.831034,16237.268297,-90566.854545,5680.204115,16196.006977,35652.731139,-0.140000,0.948000,0.198000,192.000000,0.000000,0.000000,0.000000,0.000000,0.000000,0.000000,0.000000,0.000000,0.000000,1646804263.918828,0.000000
105.000000,-2887.264238,8279.689643,4017.971935,16232.507376,-90582.970152,5682.551048,16203.315998,35658.855517,-0.140000,0.948000,0.198000,192.000000,0.000000,0.000000,0.000000,0.000000,0.000000,0.000000,0.000000,0.000000,0.000000,1646804263.918844,0.000000
106.000000,-2892.248677,8268.022033,4017.837825,16233.334390,-90600.225699,5685.367368,16200.343216,35657.648523,-0.140000,0.948000,0.198000,192.000000,0.000000,0.000000,0.000000,0.000000,0.000000,0.000000,0.000000,0.000000,0.000000,1646804263.926751,0.000000
107.000000,-2898.954201,8262.232931,4012.227537,16235.949544,-90593.207251,5681.388757,16192.564808,35648.171383,-0.140000,0.948000,0.198000,192.000000,0.000000,0.000000,0.000000,0.000000,0.000000,0.000000,0.000000,0.000000,0.000000,1646804263.926786,0.000000
108.000000,-2897.054302,8263.149352,4010.506452,16234.139053,-90575.415263,5674.213847,16190.240227,35646.942037,-0.140000,0.948000,0.198000,192.000000,0.000000,0.000000,0.000000,0.000000,0.000000,0.000000,0.000000,0.000000,0.000000,1646804263.933757,0.000000
109.000000,-2900.116491,8257.740230,4012.294592,16226.830033,-90569.089719,5673.208019,16187.937997,35639.320092,-0.152000,0.954000,0.202000,192.000000,251.000000,64.000000,29.000000,208.000000,6.000000,80.000000,0.000000,0.000000,0.000000,1646804263.933773,0.000000
110.000000,-2902.418721,8256.175608,4009.142996,16226.315943,-90589.832138,5671.308121,16189.234399,35644.885676,-0.152000,0.954000,0.202000,192.000000,0.000000,0.000000,0.000000,0.000000,0.000000,0.000000,0.000000,0.000000,0.000000,1646804263.941243,0.000000
111.000000,-2895.579087,8261.271806,4011.780502,16231.814472,-90603.600812,5675.331435,16199.024463,35653.893430,-0.152000,0.954000,0.202000,192.000000,0.000000,0.000000,0.000000,0.000000,0.000000,0.000000,0.000000,0.000000,0.000000,1646804263.941260,0.000000
112.000000,-2901.882279,8257.248492,4009.232403,16231.300382,-90597.409379,5675.420842,16200.499678,35650.071281,-0.152000,0.954000,0.202000,192.000000,0.000000,0.000000,0.000000,0.000000,0.000000,0.000000,0.000000,0.000000,0.000000,1646804263.949429,0.000000
113.000000,-2905.279744,8256.600291,4005.566717,16224.438396,-90574.945876,5671.576342,16196.029329,35645.131546,-0.152000,0.954000,0.202000,192.000000,0.000000,0.000000,0.000000,0.000000,0.000000,0.000000,0.000000,0.000000,0.000000,1646804263.949447,0.000000
114.000000,-2909.660686,8251.235873,3999.263525,16215.251829,-90575.974056,5661.540408,16183.758221,35640.705900,-0.152000,0.954000,0.202000,192.000000,0.000000,0.000000,0.000000,0.000000,0.000000,0.000000,0.000000,0.000000,0.000000,1646804263.957434,0.000000
115.000000,-2901.524651,8258.142562,4007.243098,16219.655123,-90581.785510,5671.375176,16194.844686,35652.999360,-0.152000,0.954000,0.202000,192.000000,0.000000,0.000000,0.000000,0.000000,0.000000,0.000000,0.000000,0.000000,0.000000,1646804263.957450,0.000000
116.000000,-2893.723892,8263.328166,4009.634734,16225.131300,-90593.341362,5678.952417,16205.238248,35658.274371,-0.152000,0.954000,0.202000,192.000000,0.000000,0.000000,0.000000,0.000000,0.000000,0.000000,0.000000,0.000000,0.000000,1646804263.963619,0.000000
117.000000,-2909.571279,8245.804399,3994.122624,16219.565716,-90575.705835,5673.833868,16183.825276,35645.891505,-0.152000,0.954000,0.202000,192.000000,0.000000,0.000000,0.000000,0.000000,0.000000,0.000000,0.000000,0.000000,0.000000,1646804263.971130,0.000000
118.000000,-2914.086332,8247.190207,3995.016693,16225.645390,-90541.373556,5667.575379,16179.734907,35637.084918,-0.152000,0.954000,0.202000,192.000000,0.000000,0.000000,0.000000,0.000000,0.000000,0.000000,0.000000,0.000000,0.000000,1646804263.971148,0.000000
119.000000,-2908.096064,8255.795629,4004.605592,16214.201297,-90531.918768,5667.240103,16186.373375,35640.147107,-0.154000,0.956000,0.202000,192.000000,251.000000,48.000000,29.000000,224.000000,6.000000,80.000000,0.000000,0.000000,0.000000,1646804263.979103,0.000000
120.000000,-2897.836613,8262.143524,4014.485063,16219.856288,-90556.326873,5673.498592,16195.582294,35653.759319,-0.154000,0.956000,0.202000,192.000000,0.000000,0.000000,0.000000,0.000000,0.000000,0.000000,0.000000,0.000000,0.000000,1646804263.979120,0.000000
121.000000,-2903.089273,8255.885036,4005.790234,16219.498661,-90563.188858,5678.147754,16196.699881,35656.307418,-0.154000,0.956000,0.202000,192.000000,0.000000,0.000000,0.000000,0.000000,0.000000,0.000000,0.000000,0.000000,0.000000,1646804263.986207,0.000000
122.000000,-2907.134939,8255.795629,3998.302400,16213.039006,-90565.714606,5674.571475,16198.622131,35656.687398,-0.154000,0.956000,0.202000,192.000000,0.000000,0.000000,0.000000,0.000000,0.000000,0.000000,0.000000,0.000000,0.000000,1646804263.986223,0.000000
123.000000,-2911.270012,8258.634300,3993.742644,16215.855326,-90549.621350,5672.559818,16194.241189,35653.245229,-0.154000,0.956000,0.202000,192.000000,0.000000,0.000000,0.000000,0.000000,0.000000,0.000000,0.000000,0.000000,0.000000,1646804263.993681,0.000000
124.000000,-2897.881317,8264.132829,4007.980705,16221.890297,-90549.420184,5675.420842,16199.851477,35653.558153,-0.154000,0.956000,0.202000,192.000000,0.000000,0.000000,0.000000,0.000000,0.000000,0.000000,0.000000,0.000000,0.000000,1646804263.993698,0.000000
125.000000,-2893.679189,8267.887922,4012.808682,16222.314980,-90561.132498,5673.967978,16189.837896,35645.578581,-0.154000,0.956000,0.202000,192.000000,0.000000,0.000000,0.000000,0.000000,0.000000,0.000000,0.000000,0.000000,0.000000,1646804264.001506,0.000000
126.000000,-2898.440110,8268.603178,4009.746493,16224.416044,-90565.178164,5669.788202,16184.920512,35644.058662,-0.154000,0.956000,0.202000,192.000000,0.000000,0.000000,0.000000,0.000000,0.000000,0.000000,0.000000,0.000000,0.000000,1646804264.001524,0.000000
127.000000,-2899.088311,8269.229027,4011.869909,16225.980666,-90568.307408,5669.810554,16189.793192,35641.175287,-0.154000,0.956000,0.202000,192.000000,0.000000,0.000000,0.000000,0.000000,0.000000,0.000000,0.000000,0.000000,0.000000,1646804264.009707,0.000000
128.000000,-2900.094140,8266.278597,4013.456883,16225.801852,-90567.234524,5673.275074,16197.526896,35647.098499,-0.154000,0.956000,0.202000,192.000000,0.000000,0.000000,0.000000,0.000000,0.000000,0.000000,0.000000,0.000000,0.000000,1646804264.009723,0.000000
129.000000,-2903.893936,8262.523504,4008.003057,16227.612344,-90554.315216,5673.632702,16192.341291,35651.613552,-0.146000,0.946000,0.196000,192.000000,251.000000,112.000000,29.000000,144.000000,6.000000,32.000000,0.000000,0.000000,0.000000,1646804264.015971,0.000000
130.000000,-2899.445939,8264.646919,4007.757188,16221.152690,-90579.036245,5670.481106,16199.337387,35658.006150,-0.146000,0.946000,0.196000,192.000000,0.000000,0.000000,0.000000,0.000000,0.000000,0.000000,0.000000,0.000000,0.000000,1646804264.015982,0.000000
131.000000,-2905.257393,8258.768411,4002.437473,16215.765919,-90577.136347,5668.000062,16186.663948,35641.644674,-0.146000,0.946000,0.196000,192.000000,0.000000,0.000000,0.000000,0.000000,0.000000,0.000000,0.000000,0.000000,0.000000,1646804264.023272,0.000000
132.000000,-2915.539195,8243.792742,3991.261600,16215.162422,-90559.277303,5658.478219,16176.292738,35643.969255,-0.146000,0.946000,0.196000,192.000000,0.000000,0.000000,0.000000,0.000000,0.000000,0.000000,0.000000,0.000000,0.000000,1646804264.031105,0.000000
133.000000,-2920.635393,8238.361268,3990.300475,16210.401501,-90530.845884,5652.376193,16177.656195,35650.406557,-0.146000,0.946000,0.196000,192.000000,0.000000,0.000000,0.000000,0.000000,0.000000,0.000000,0.000000,0.000000,0.000000,1646804264.031116,0.000000
134.000000,-2922.512939,8241.959899,3989.406406,16208.009864,-90530.309442,5642.787295,16186.418079,35636.012034,-0.146000,0.946000,0.196000,192.000000,0.000000,0.000000,0.000000,0.000000,0.000000,0.000000,0.000000,0.000000,0.000000,1646804264.039341,0.000000
135.000000,-2907.961954,8263.886960,3996.558964,16221.465614,-90576.823423,5645.469504,16191.022538,35642.762261,-0.146000,0.946000,0.196000,192.000000,0.000000,0.000000,0.000000,0.000000,0.000000,0.000000,0.000000,0.000000,0.000000,1646804264.039358,0.000000
136.000000,-2892.539250,8277.253303,4011.154653,16229.512242,-90588.647495,5661.316891,16185.993396,35643.589275,-0.146000,0.946000,0.196000,192.000000,0.000000,0.000000,0.000000,0.000000,0.000000,0.000000,0.000000,0.000000,0.000000,1646804264.046052,0.000000
137.000000,-2895.601439,8274.571094,4005.410255,16229.780463,-90587.261687,5660.489876,16184.696994,35643.276351,-0.146000,0.946000,0.196000,192.000000,0.000000,0.000000,0.000000,0.000000,0.000000,0.000000,0.000000,0.000000,0.000000,1646804264.046068,0.000000
138.000000,-2903.849233,8266.747983,3998.458862,16221.018579,-90572.978922,5649.828094,16179.466686,35639.185982,-0.146000,0.946000,0.196000,192.000000,0.000000,0.000000,0.000000,0.000000,0.000000,0.000000,0.000000,0.000000,0.000000,1646804264.053984,0.000000
139.000000,-2908.744265,8259.953053,4001.141071,16225.533632,-90545.106297,5657.092411,16178.282044,35633.642749,-0.146000,0.952000,0.198000,192.000000,251.000000,112.000000,29.000000,192.000000,6.000000,48.000000,0.000000,0.000000,0.000000,1646804264.054001,0.000000
140.000000,-2912.365247,8255.616815,3996.447205,16223.097291,-90555.499858,5659.215827,16182.171247,35633.463935,-0.146000,0.952000,0.198000,192.000000,0.000000,0.000000,0.000000,0.000000,0.000000,0.000000,0.000000,0.000000,0.000000,1646804264.061806,0.000000
141.000000,-2906.799663,8262.568207,4002.996266,16221.309152,-90576.175222,5657.584150,16177.253863,35636.190848,-0.146000,0.952000,0.198000,192.000000,0.000000,0.000000,0.000000,0.000000,0.000000,0.000000,0.000000,0.000000,0.000000,1646804264.061822,0.000000
142.000000,-2898.753035,8268.089088,4007.690133,16224.617210,-90572.710702,5663.954397,16183.892332,35639.253037,-0.146000,0.952000,0.198000,192.000000,0.000000,0.000000,0.000000,0.000000,0.000000,0.000000,0.000000,0.000000,0.000000,1646804264.069207,0.000000
143.000000,-2906.710256,8259.997756,4002.415121,16226.472405,-90547.162658,5668.603560,16187.759183,35638.560133,-0.146000,0.952000,0.198000,192.000000,0.000000,0.000000,0.000000,0.000000,0.000000,0.000000,0.000000,0.000000,0.000000,1646804264.069222,0.000000
144.000000,-2913.728704,8254.074544,3995.888412,16226.606515,-90528.297785,5665.966054,16182.283006,35636.190848,-0.146000,0.952000,0.198000,192.000000,0.000000,0.000000,0.000000,0.000000,0.000000,0.000000,0.000000,0.000000,0.000000,1646804264.076525,0.000000
145.000000,-2903.804529,8261.517675,4003.800929,16227.835861,-90544.256931,5665.474315,16193.011843,35641.890543,-0.146000,0.952000,0.198000,192.000000,0.000000,0.000000,0.000000,0.000000,0.000000,0.000000,0.000000,0.000000,0.000000,1646804264.076536,0.000000
146.000000,-2897.814262,8265.429230,4007.623077,16226.718274,-90573.694178,5666.256626,16198.175096,35646.115022,-0.146000,0.952000,0.198000,192.000000,0.000000,0.000000,0.000000,0.000000,0.000000,0.000000,0.000000,0.000000,0.000000,1646804264.083472,0.000000
147.000000,-2895.780253,8264.289291,4007.801891,16225.131300,-90579.595039,5664.021452,16194.576465,35643.946903,-0.146000,0.952000,0.198000,192.000000,0.000000,0.000000,0.000000,0.000000,0.000000,0.000000,0.000000,0.000000,0.000000,1646804264.091790,0.000000
148.000000,-2901.234079,8261.674137,4004.739702,16221.197393,-90560.931332,5655.058402,16175.488076,35622.533932,-0.146000,0.952000,0.198000,192.000000,0.000000,0.000000,0.000000,0.000000,0.000000,0.000000,0.000000,0.000000,0.000000,1646804264.091807,0.000000
149.000000,-2905.793834,8257.717879,4001.275182,16224.974838,-90556.282169,5650.610405,16171.397706,35621.371641,-0.146000,0.952000,0.200000,192.000000,251.000000,112.000000,29.000000,192.000000,6.000000,64.000000,0.000000,0.000000,0.000000,1646804264.098203,0.000000
150.000000,-2907.827843,8258.924873,3998.861194,16227.791158,-90548.615521,5650.722164,16172.068259,35627.026633,-0.146000,0.952000,0.200000,192.000000,0.000000,0.000000,0.000000,0.000000,0.000000,0.000000,0.000000,0.000000,0.000000,1646804264.098238,0.000000
151.000000,-2902.731645,8263.462277,4000.045836,16220.750358,-90572.397777,5643.010812,16179.377279,35631.787554,-0.146000,0.952000,0.200000,192.000000,0.000000,0.000000,0.000000,0.000000,0.000000,0.000000,0.000000,0.000000,0.000000,1646804264.106265,0.000000
152.000000,-2899.177718,8258.567245,4007.310153,16220.348027,-90562.607713,5648.978728,16174.035212,35632.994548,-0.146000,0.952000,0.200000,192.000000,0.000000,0.000000,0.000000,0.000000,0.000000,0.000000,0.000000,0.000000,0.000000,1646804264.106277,0.000000
153.000000,-2907.269050,8255.259187,3999.308228,16220.079806,-90546.559161,5648.084658,16173.588177,35631.385223,-0.146000,0.952000,0.200000,192.000000,0.000000,0.000000,0.000000,0.000000,0.000000,0.000000,0.000000,0.000000,0.000000,1646804264.114200,0.000000
154.000000,-2906.933773,8248.576015,3997.654199,16215.497698,-90530.890588,5648.151713,16178.818486,35638.537781,-0.146000,0.952000,0.200000,192.000000,0.000000,0.000000,0.000000,0.000000,0.000000,0.000000,0.000000,0.000000,0.000000,1646804264.114216,0.000000
155.000000,-2905.302096,8252.867550,4000.515223,16216.727044,-90544.167524,5652.711469,16178.594968,35634.849743,-0.146000,0.952000,0.200000,192.000000,0.000000,0.000000,0.000000,0.000000,0.000000,0.000000,0.000000,0.000000,0.000000,1646804264.121385,0.000000
156.000000,-2902.374018,8257.539065,4001.610458,16217.263486,-90558.852620,5658.813495,16176.270387,35632.592217,-0.146000,0.952000,0.200000,192.000000,0.000000,0.000000,0.000000,0.000000,0.000000,0.000000,0.000000,0.000000,0.000000,1646804264.121402,0.000000
157.000000,-2902.396369,8255.706222,4004.627944,16223.678437,-90556.058652,5663.350900,16173.297605,35630.669967,-0.146000,0.952000,0.200000,192.000000,0.000000,0.000000,0.000000,0.000000,0.000000,0.000000,0.000000,0.000000,0.000000,1646804264.128907,0.000000
158.000000,-2892.941581,8258.231969,4010.528804,16226.561812,-90537.640814,5664.848466,16178.639672,35637.531953,-0.146000,0.952000,0.200000,192.000000,0.000000,0.000000,0.000000,0.000000,0.000000,0.000000,0.000000,0.000000,0.000000,1646804264.128923,0.000000
159.000000,-2887.979494,8263.283463,4015.669705,16229.445187,-90556.505687,5666.681310,16193.436526,35660.330732,-0.150000,0.954000,0.202000,192.000000,251.000000,80.000000,29.000000,208.000000,6.000000,80.000000,0.000000,0.000000,0.000000,1646804264.136684,0.000000
160.000000,-2898.551869,8250.073582,4009.165348,16226.226536,-90573.828289,5670.749327,16183.646462,35657.760281,-0.150000,0.954000,0.202000,192.000000,0.000000,0.000000,0.000000,0.000000,0.000000,0.000000,0.000000,0.000000,0.000000,1646804264.136701,0.000000
161.000000,-2908.900727,8245.402067,3996.849537,16225.466576,-90570.967265,5666.457792,16172.180017,35647.769052,-0.150000,0.954000,0.202000,192.000000,0.000000,0.000000,0.000000,0.000000,0.000000,0.000000,0.000000,0.000000,0.000000,1646804264.144034,0.000000
162.000000,-2906.173814,8247.816056,4005.298496,16226.830033,-90564.820536,5662.501533,16174.929282,35637.710767,-0.150000,0.954000,0.202000,192.000000,0.000000,0.000000,0.000000,0.000000,0.000000,0.000000,0.000000,0.000000,0.000000,1646804264.144050,0.000000
163.000000,-2904.698599,8244.440942,4007.064284,16224.594858,-90562.719472,5661.495705,16176.046869,35643.030482,-0.150000,0.954000,0.202000,192.000000,0.000000,0.000000,0.000000,0.000000,0.000000,0.000000,0.000000,0.000000,0.000000,1646804264.151151,0.000000
164.000000,-2901.614058,8248.732477,4001.990438,16227.567640,-90557.556219,5661.383946,16172.895273,35639.297740,-0.150000,0.954000,0.202000,192.000000,0.000000,0.000000,0.000000,0.000000,0.000000,0.000000,0.000000,0.000000,0.000000,1646804264.158377,0.000000
165.000000,-2903.625715,8246.810227,4004.493833,16226.003018,-90543.429916,5664.200266,16166.860302,35630.759374,-0.150000,0.954000,0.202000,192.000000,0.000000,0.000000,0.000000,0.000000,0.000000,0.000000,0.000000,0.000000,0.000000,1646804264.158393,0.000000
166.000000,-2897.613096,8249.514788,4012.093426,16230.160443,-90562.786527,5667.284807,16175.979814,35635.520296,-0.150000,0.954000,0.202000,192.000000,0.000000,0.000000,0.000000,0.000000,0.000000,0.000000,0.000000,0.000000,0.000000,1646804264.166520,0.000000
167.000000,-2900.451767,8251.951128,4005.522013,16235.122530,-90566.452213,5668.715318,16174.795172,35646.316188,-0.150000,0.954000,0.202000,192.000000,0.000000,0.000000,0.000000,0.000000,0.000000,0.000000,0.000000,0.000000,0.000000,1646804264.166537,0.000000
168.000000,-2900.787044,8250.677079,4011.109949,16234.429626,-90539.428954,5675.242028,16166.815599,35641.689377,-0.150000,0.954000,0.202000,192.000000,0.000000,0.000000,0.000000,0.000000,0.000000,0.000000,0.000000,0.000000,0.000000,1646804264.174561,0.000000
169.000000,-2896.651971,8249.358326,4015.580298,16231.501547,-90523.492160,5675.912580,16167.195578,35633.530990,-0.150000,0.948000,0.202000,192.000000,251.000000,80.000000,29.000000,160.000000,6.000000,80.000000,0.000000,0.000000,0.000000,1646804264.174577,0.000000
170.000000,-2902.396369,8235.410838,4009.008886,16223.320809,-90542.804067,5672.649225,16178.170285,35645.399767,-0.150000,0.948000,0.202000,192.000000,0.000000,0.000000,0.000000,0.000000,0.000000,0.000000,0.000000,0.000000,0.000000,1646804264.181077,0.000000
171.000000,-2910.800625,8234.516768,4002.057493,16225.757149,-90561.713643,5673.029205,16177.432677,35640.705900,-0.150000,0.948000,0.202000,192.000000,0.000000,0.000000,0.000000,0.000000,0.000000,0.000000,0.000000,0.000000,0.000000,1646804264.181101,0.000000
172.000000,-2908.431340,8237.578957,4006.505490,16222.918477,-90560.506649,5675.867877,16182.126544,35646.226781,-0.150000,0.948000,0.202000,192.000000,0.000000,0.000000,0.000000,0.000000,0.000000,0.000000,0.000000,0.000000,0.000000,1646804264.190262,0.000000
173.000000,-2908.364285,8234.717934,4006.729008,16223.052588,-90544.502800,5674.437365,16177.678547,35637.576656,-0.150000,0.948000,0.202000,192.000000,0.000000,0.000000,0.000000,0.000000,0.000000,0.000000,0.000000,0.000000,0.000000,1646804264.190273,0.000000
174.000000,-2912.231137,8230.202881,4004.918516,16234.876661,-90532.991652,5679.131231,16185.412250,35640.102403,-0.150000,0.948000,0.202000,192.000000,0.000000,0.000000,0.000000,0.000000,0.000000,0.000000,0.000000,0.000000,0.000000,1646804264.197051,0.000000
175.000000,-2915.382733,8227.028933,3996.268391,16231.143919,-90540.546541,5677.857182,16182.394765,35634.000377,-0.150000,0.948000,0.202000,192.000000,0.000000,0.000000,0.000000,0.000000,0.000000,0.000000,0.000000,0.000000,0.000000,1646804264.197067,0.000000
176.000000,-2911.672343,8227.520672,4001.029313,16227.321771,-90535.718564,5675.331435,16175.868055,35624.724403,-0.150000,0.948000,0.202000,192.000000,0.000000,0.000000,0.000000,0.000000,0.000000,0.000000,0.000000,0.000000,0.000000,1646804264.203759,0.000000
177.000000,-2908.431340,8232.438056,4006.997229,16225.913611,-90540.255969,5673.677406,16172.112962,35629.664139,-0.150000,0.948000,0.202000,192.000000,0.000000,0.000000,0.000000,0.000000,0.000000,0.000000,0.000000,0.000000,0.000000,1646804264.203775,0.000000
178.000000,-2904.028047,8234.025029,4010.662915,16221.935001,-90535.606806,5678.863010,16180.047832,35646.651464,-0.150000,0.948000,0.202000,192.000000,0.000000,0.000000,0.000000,0.000000,0.000000,0.000000,0.000000,0.000000,0.000000,1646804264.210659,0.000000
179.000000,-2910.197128,8226.336029,4004.069150,16221.890297,-90517.613651,5676.292560,16176.985643,35641.823487,-0.150000,0.948000,0.202000,192.000000,0.000000,0.000000,0.000000,0.000000,0.000000,0.000000,0.000000,0.000000,0.000000,1646804264.218801,0.000000
180.000000,-2907.000829,8232.348649,4008.405388,16232.082693,-90532.969300,5679.533563,16181.232474,35641.287046,-0.142000,0.948000,0.198000,192.000000,251.000000,144.000000,29.000000,160.000000,6.000000,48.000000,0.000000,0.000000,0.000000,1646804264.218817,0.000000
181.000000,-2917.707314,8227.297154,3994.703769,16220.772710,-90543.049937,5670.794031,16173.275253,35629.530028,-0.142000,0.948000,0.198000,192.000000,0.000000,0.000000,0.000000,0.000000,0.000000,0.000000,0.000000,0.000000,0.000000,1646804264.226841,0.000000
182.000000,-2909.504224,8230.225233,4005.969048,16212.457861,-90546.112126,5674.951455,16176.896236,35627.160743,-0.142000,0.948000,0.198000,192.000000,0.000000,0.000000,0.000000,0.000000,0.000000,0.000000,0.000000,0.000000,0.000000,1646804264.226857,0.000000
183.000000,-2911.113550,8233.466236,4001.409292,16217.732873,-90531.583492,5673.498592,16168.648442,35630.111173,-0.142000,0.948000,0.198000,192.000000,0.000000,0.000000,0.000000,0.000000,0.000000,0.000000,0.000000,0.000000,0.000000,1646804264.233210,0.000000
184.000000,-2911.582936,8231.588689,4002.884508,16219.386902,-90520.899358,5677.723071,16172.247073,35632.547514,-0.142000,0.948000,0.198000,192.000000,0.000000,0.000000,0.000000,0.000000,0.000000,0.000000,0.000000,0.000000,0.000000,1646804264.233226,0.000000
185.000000,-2908.565451,8235.142617,4002.593935,16220.303323,-90529.795352,5677.991292,16173.722288,35644.393938,-0.142000,0.948000,0.198000,192.000000,0.000000,0.000000,0.000000,0.000000,0.000000,0.000000,0.000000,0.000000,0.000000,1646804264.241384,0.000000
186.000000,-2911.784102,8233.555643,3997.520089,16213.307227,-90542.826419,5669.967016,16165.586253,35635.252075,-0.142000,0.948000,0.198000,192.000000,0.000000,0.000000,0.000000,0.000000,0.000000,0.000000,0.000000,0.000000,0.000000,1646804264.241401,0.000000
187.000000,-2903.692770,8243.748038,4005.477310,16216.995265,-90552.594132,5677.991292,16178.505561,35633.285121,-0.142000,0.948000,0.198000,192.000000,0.000000,0.000000,0.000000,0.000000,0.000000,0.000000,0.000000,0.000000,0.000000,1646804264.249397,0.000000
188.000000,-2896.875488,8248.397201,4018.240156,16235.994248,-90545.173352,5684.786223,16179.444334,35642.359929,-0.142000,0.948000,0.198000,192.000000,0.000000,0.000000,0.000000,0.000000,0.000000,0.000000,0.000000,0.000000,0.000000,1646804264.249414,0.000000
189.000000,-2907.224346,8239.076524,4002.839804,16227.522937,-90541.328852,5678.438327,16169.006070,35646.517354,-0.142000,0.948000,0.198000,192.000000,0.000000,0.000000,0.000000,0.000000,0.000000,0.000000,0.000000,0.000000,0.000000,1646804264.256498,0.000000
190.000000,-2906.196166,8233.443884,4004.650295,16225.444225,-90560.238428,5679.198286,16173.789343,35639.297740,-0.148000,0.948000,0.204000,192.000000,251.000000,96.000000,29.000000,160.000000,6.000000,96.000000,0.000000,0.000000,0.000000,1646804264.256528,0.000000
191.000000,-2896.316695,8242.004602,4007.868947,16229.802815,-90580.846737,5682.461641,16183.400593,35643.388110,-0.148000,0.948000,0.204000,192.000000,0.000000,0.000000,0.000000,0.000000,0.000000,0.000000,0.000000,0.000000,0.000000,1646804264.263937,0.000000
192.000000,-2899.378884,8241.781085,4011.780502,16232.976762,-90565.826364,5682.931028,16178.416154,35641.912894,-0.148000,0.948000,0.204000,192.000000,0.000000,0.000000,0.000000,0.000000,0.000000,0.000000,0.000000,0.000000,0.000000,1646804264.263953,0.000000
193.000000,-2893.992113,8250.297099,4018.575432,16239.749341,-90552.035338,5684.629760,16181.277177,35652.127642,-0.148000,0.948000,0.204000,192.000000,0.000000,0.000000,0.000000,0.000000,0.000000,0.000000,0.000000,0.000000,0.000000,1646804264.271107,0.000000
194.000000,-2901.837576,8242.652803,4007.578374,16236.441283,-90554.136402,5672.269246,16174.728116,35646.986740,-0.148000,0.948000,0.204000,192.000000,0.000000,0.000000,0.000000,0.000000,0.000000,0.000000,0.000000,0.000000,0.000000,1646804264.279133,0.000000
195.000000,-2906.978477,8232.885090,4000.381112,16230.361608,-90548.570818,5669.922312,16171.241244,35641.219990,-0.148000,0.948000,0.204000,192.000000,0.000000,0.000000,0.000000,0.000000,0.000000,0.000000,0.000000,0.000000,0.000000,1646804264.279150,0.000000
196.000000,-2907.492567,8232.840387,4002.102196,16217.509355,-90556.393928,5674.750289,16176.806829,35649.579543,-0.148000,0.948000,0.204000,192.000000,0.000000,0.000000,0.000000,0.000000,0.000000,0.000000,0.000000,0.000000,0.000000,1646804264.286038,0.000000
197.000000,-2908.654858,8231.186358,3999.107063,16214.469518,-90554.605789,5672.179839,16175.689241,35646.919685,-0.148000,0.948000,0.204000,192.000000,0.000000,0.000000,0.000000,0.000000,0.000000,0.000000,0.000000,0.000000,0.000000,1646804264.286056,0.000000
198.000000,-2911.784102,8227.744189,3995.821356,16219.453957,-90528.208378,5670.816382,16170.168360,35639.454203,-0.148000,0.948000,0.204000,192.000000,0.000000,0.000000,0.000000,0.000000,0.000000,0.000000,0.000000,0.000000,0.000000,1646804264.293684,0.000000
199.000000,-2908.945430,8232.616870,3999.241173,16220.593896,-90532.142285,5669.430574,16175.979814,35640.147107,-0.148000,0.948000,0.204000,192.000000,0.000000,0.000000,0.000000,0.000000,0.000000,0.000000,0.000000,0.000000,0.000000,1646804264.293700,0.000000
200.000000,-2899.512994,8246.452599,4002.035141,16227.210012,-90560.640760,5675.957283,16182.350061,35647.880810,-0.146000,0.948000,0.204000,192.000000,251.000000,112.000000,29.000000,160.000000,6.000000,96.000000,0.000000,0.000000,0.000000,1646804264.301721,0.000000
201.000000,-2898.127186,8235.768465,4008.360685,16219.342198,-90581.539641,5679.310045,16187.423907,35653.312284,-0.146000,0.948000,0.204000,192.000000,0.000000,0.000000,0.000000,0.000000,0.000000,0.000000,0.000000,0.000000,0.000000,1646804264.301739,0.000000
202.000000,-2908.654858,8219.719913,4003.800929,16208.836878,-90555.991597,5687.513135,16189.949654,35656.128604,-0.146000,0.948000,0.204000,192.000000,0.000000,0.000000,0.000000,0.000000,0.000000,0.000000,0.000000,0.000000,0.000000,1646804264.309706,0.000000
203.000000,-2907.090236,8224.145558,4004.739702,16224.952486,-90539.853637,5687.937819,16190.463744,35654.429871,-0.146000,0.948000,0.204000,192.000000,0.000000,0.000000,0.000000,0.000000,0.000000,0.000000,0.000000,0.000000,0.000000,1646804264.309723,0.000000
204.000000,-2905.480910,8229.889957,4009.478272,16228.215841,-90536.769096,5690.776490,16188.228570,35650.697130,-0.146000,0.948000,0.204000,192.000000,0.000000,0.000000,0.000000,0.000000,0.000000,0.000000,0.000000,0.000000,0.000000,1646804264.316335,0.000000
205.000000,-2908.520747,8228.750018,4004.762054,16219.833937,-90543.094640,5686.261438,16182.841800,35647.009092,-0.146000,0.948000,0.204000,192.000000,0.000000,0.000000,0.000000,0.000000,0.000000,0.000000,0.000000,0.000000,0.000000,1646804264.316352,0.000000
206.000000,-2912.141730,8224.123207,3996.022522,16216.771748,-90547.095602,5677.968940,16172.336480,35640.929418,-0.146000,0.948000,0.204000,192.000000,0.000000,0.000000,0.000000,0.000000,0.000000,0.000000,0.000000,0.000000,0.000000,1646804264.324329,0.000000
207.000000,-2918.847253,8218.781140,3993.340313,16212.457861,-90529.080096,5674.571475,16169.654270,35640.147107,-0.146000,0.948000,0.204000,192.000000,0.000000,0.000000,0.000000,0.000000,0.000000,0.000000,0.000000,0.000000,0.000000,1646804264.324345,0.000000
208.000000,-2901.859927,8230.158178,4010.417045,16217.509355,-90511.310460,5676.069042,16182.148896,35640.840011,-0.146000,0.948000,0.204000,192.000000,0.000000,0.000000,0.000000,0.000000,0.000000,0.000000,0.000000,0.000000,0.000000,1646804264.331361,0.000000
209.000000,-2903.737474,8227.431265,4002.415121,16216.995265,-90502.928555,5671.911618,16174.594006,35641.510563,-0.146000,0.948000,0.204000,192.000000,0.000000,0.000000,0.000000,0.000000,0.000000,0.000000,0.000000,0.000000,0.000000,1646804264.338619,0.000000
210.000000,-2906.397332,8226.023105,4000.716388,16218.157556,-90511.645736,5670.637568,16177.477381,35637.084918,-0.144000,0.944000,0.200000,192.000000,251.000000,128.000000,29.000000,128.000000,6.000000,64.000000,0.000000,0.000000,0.000000,1646804264.338636,0.000000
211.000000,-2903.223384,8230.493454,4004.516185,16219.118681,-90532.969300,5672.135135,16180.941901,35631.228761,-0.144000,0.944000,0.200000,192.000000,0.000000,0.000000,0.000000,0.000000,0.000000,0.000000,0.000000,0.000000,0.000000,1646804264.346012,0.000000
212.000000,-2904.318619,8236.260204,4004.627944,16218.850460,-90536.009137,5671.553990,16179.980776,35630.669967,-0.144000,0.944000,0.200000,192.000000,0.000000,0.000000,0.000000,0.000000,0.000000,0.000000,0.000000,0.000000,0.000000,1646804264.346028,0.000000
213.000000,-2901.256430,8246.497303,4007.131339,16222.426739,-90529.191855,5673.587999,16187.558018,35643.231647,-0.144000,0.944000,0.200000,192.000000,0.000000,0.000000,0.000000,0.000000,0.000000,0.000000,0.000000,0.000000,0.000000,1646804264.353805,0.000000
214.000000,-2909.683038,8235.030858,3998.458862,16211.228515,-90543.027585,5674.884400,16192.765974,35645.913857,-0.144000,0.944000,0.200000,192.000000,0.000000,0.000000,0.000000,0.000000,0.000000,0.000000,0.000000,0.000000,0.000000,1646804264.353829,0.000000
215.000000,-2901.167023,8239.925890,4005.253792,16214.916553,-90560.081966,5679.220638,16194.844686,35644.751566,-0.144000,0.944000,0.200000,192.000000,0.000000,0.000000,0.000000,0.000000,0.000000,0.000000,0.000000,0.000000,0.000000,1646804264.361864,0.000000
216.000000,-2903.513956,8237.690716,4003.376246,16212.055530,-90566.943951,5678.952417,16187.602721,35632.122830,-0.144000,0.944000,0.200000,192.000000,0.000000,0.000000,0.000000,0.000000,0.000000,0.000000,0.000000,0.000000,0.000000,1646804264.361875,0.000000
217.000000,-2902.485776,8238.249509,3999.598801,16213.933076,-90576.331684,5673.476240,16189.882599,35640.258865,-0.144000,0.944000,0.200000,192.000000,0.000000,0.000000,0.000000,0.000000,0.000000,0.000000,0.000000,0.000000,0.000000,1646804264.368427,0.000000
218.000000,-2911.806454,8228.079465,3993.228554,16205.662931,-90557.086832,5669.162353,16178.192637,35629.261807,-0.144000,0.944000,0.200000,192.000000,0.000000,0.000000,0.000000,0.000000,0.000000,0.000000,0.000000,0.000000,0.000000,1646804264.368438,0.000000
219.000000,-2909.548927,8225.196090,3995.329618,16204.925323,-90532.589320,5667.955359,16174.482247,35629.127697,-0.144000,0.944000,0.200000,192.000000,0.000000,0.000000,0.000000,0.000000,0.000000,0.000000,0.000000,0.000000,0.000000,1646804264.376330,0.000000
220.000000,-2912.700523,8226.604250,3991.485118,16209.552134,-90534.109239,5663.619121,16168.313166,35625.171438,-0.142000,0.946000,0.194000,192.000000,251.000000,144.000000,29.000000,144.000000,6.000000,16.000000,0.000000,0.000000,0.000000,1646804264.376340,0.000000
221.000000,-2911.426474,8226.134864,3991.507470,16203.897143,-90530.734125,5661.540408,16166.346212,35630.222932,-0.142000,0.946000,0.194000,192.000000,0.000000,0.000000,0.000000,0.000000,0.000000,0.000000,0.000000,0.000000,0.000000,1646804264.384303,0.000000
222.000000,-2903.737474,8227.095989,3999.196470,16210.222687,-90523.201588,5659.260530,16168.022593,35625.126734,-0.142000,0.946000,0.194000,192.000000,0.000000,0.000000,0.000000,0.000000,0.000000,0.000000,0.000000,0.000000,0.000000,1646804264.384312,0.000000
223.000000,-2904.050398,8233.287422,3996.760130,16210.066224,-90506.102503,5654.723126,16167.553206,35624.724403,-0.142000,0.946000,0.194000,192.000000,0.000000,0.000000,0.000000,0.000000,0.000000,0.000000,0.000000,0.000000,0.000000,1646804264.391377,0.000000
224.000000,-2898.842442,8235.276727,3999.218821,16211.876716,-90510.796369,5652.957338,16173.096439,35630.826429,-0.142000,0.946000,0.194000,192.000000,0.000000,0.000000,0.000000,0.000000,0.000000,0.000000,0.000000,0.000000,0.000000,1646804264.391385,0.000000
225.000000,-2896.294343,8242.205768,3999.710560,16218.850460,-90537.283187,5658.433516,16181.187771,35635.766165,-0.142000,0.946000,0.194000,192.000000,0.000000,0.000000,0.000000,0.000000,0.000000,0.000000,0.000000,0.000000,0.000000,1646804264.397978,0.000000
226.000000,-2905.257393,8237.087218,3989.026426,16213.150765,-90523.022774,5657.472391,16165.921529,35625.462011,-0.142000,0.946000,0.194000,192.000000,0.000000,0.000000,0.000000,0.000000,0.000000,0.000000,0.000000,0.000000,0.000000,1646804264.406001,0.000000
227.000000,-2895.109701,8235.991983,4004.158557,16211.474384,-90531.337623,5659.953434,16172.872922,35633.665101,-0.142000,0.946000,0.194000,192.000000,0.000000,0.000000,0.000000,0.000000,0.000000,0.000000,0.000000,0.000000,0.000000,1646804264.406012,0.000000
228.000000,-2887.532459,8239.344745,4013.143958,16224.773672,-90536.009137,5668.894132,16180.718384,35646.964389,-0.142000,0.946000,0.194000,192.000000,0.000000,0.000000,0.000000,0.000000,0.000000,0.000000,0.000000,0.000000,0.000000,1646804264.413997,0.000000
229.000000,-2894.327390,8234.673230,4006.393731,16218.582239,-90518.954756,5667.128344,16168.715497,35639.275389,-0.142000,0.946000,0.194000,192.000000,0.000000,0.000000,0.000000,0.000000,0.000000,0.000000,0.000000,0.000000,0.000000,1646804264.414006,0.000000
230.000000,-2893.925058,8237.646012,4008.248926,16219.677474,-90518.775942,5667.642435,16173.632881,35641.175287,-0.148000,0.948000,0.198000,192.000000,251.000000,96.000000,29.000000,160.000000,6.000000,48.000000,0.000000,0.000000,0.000000,1646804264.421219,0.000000
231.000000,-2888.068901,8245.223253,4013.568641,16219.364550,-90540.568893,5674.079737,16179.958425,35646.092671,-0.148000,0.948000,0.198000,192.000000,0.000000,0.000000,0.000000,0.000000,0.000000,0.000000,0.000000,0.000000,0.000000,1646804264.421232,0.000000
232.000000,-2898.283648,8235.790817,4005.119682,16213.351931,-90530.063573,5677.946589,16168.670794,35635.676758,-0.148000,0.948000,0.198000,192.000000,0.000000,0.000000,0.000000,0.000000,0.000000,0.000000,0.000000,0.000000,0.000000,1646804264.428617,0.000000
233.000000,-2902.128148,8230.851082,3997.765958,16207.004035,-90504.068494,5673.163315,16159.841855,35625.819638,-0.148000,0.948000,0.198000,192.000000,0.000000,0.000000,0.000000,0.000000,0.000000,0.000000,0.000000,0.000000,0.000000,1646804264.428625,0.000000
234.000000,-2897.009599,8232.214538,4000.694037,16204.634750,-90505.297840,5672.716281,16170.838913,35631.049947,-0.148000,0.948000,0.198000,192.000000,0.000000,0.000000,0.000000,0.000000,0.000000,0.000000,0.000000,0.000000,0.000000,1646804264.436681,0.000000
235.000000,-2897.166061,8232.974497,4000.135243,16211.474384,-90535.517399,5673.565647,16175.689241,35628.591255,-0.148000,0.948000,0.198000,192.000000,0.000000,0.000000,0.000000,0.000000,0.000000,0.000000,0.000000,0.000000,0.000000,1646804264.436717,0.000000
236.000000,-2889.879392,8245.647937,4015.245022,16235.323696,-90563.524135,5684.115670,16189.346157,35635.766165,-0.148000,0.948000,0.198000,192.000000,0.000000,0.000000,0.000000,0.000000,0.000000,0.000000,0.000000,0.000000,0.000000,1646804264.443786,0.000000
237.000000,-2891.242849,8240.149407,4012.227537,16229.355780,-90550.940102,5685.456775,16183.758221,35645.243304,-0.148000,0.948000,0.198000,192.000000,0.000000,0.000000,0.000000,0.000000,0.000000,0.000000,0.000000,0.000000,0.000000,1646804264.443794,0.000000
238.000000,-2899.557698,8233.734457,4002.973915,16214.737739,-90527.291957,5680.204115,16175.197503,35640.817659,-0.148000,0.948000,0.198000,192.000000,0.000000,0.000000,0.000000,0.000000,0.000000,0.000000,0.000000,0.000000,0.000000,1646804264.451314,0.000000
239.000000,-2905.927945,8234.226195,4001.297534,16219.431605,-90510.014058,5676.873705,16176.985643,35640.840011,-0.148000,0.948000,0.198000,192.000000,0.000000,0.000000,0.000000,0.000000,0.000000,0.000000,0.000000,0.000000,0.000000,1646804264.451326,0.000000
240.000000,-2893.187451,8241.088181,4012.339295,16234.206108,-90532.254044,5679.444156,16190.128468,35643.946903,-0.146000,0.946000,0.194000,192.000000,251.000000,112.000000,29.000000,144.000000,6.000000,16.000000,0.000000,0.000000,0.000000,1646804264.458236,0.000000
241.000000,-2896.942544,8235.723762,4009.791197,16225.421873,-90564.708777,5678.438327,16188.317977,35647.076147,-0.146000,0.946000,0.194000,192.000000,0.000000,0.000000,0.000000,0.000000,0.000000,0.000000,0.000000,0.000000,0.000000,1646804264.466271,0.000000
242.000000,-2899.222422,8228.459445,4009.880604,16216.861155,-90570.207306,5682.148717,16189.010881,35646.137374,-0.146000,0.946000,0.194000,192.000000,0.000000,0.000000,0.000000,0.000000,0.000000,0.000000,0.000000,0.000000,0.000000,1646804264.466280,0.000000
243.000000,-2903.536308,8230.091122,4008.137167,16220.437434,-90545.933312,5681.500516,16181.947730,35640.482383,-0.146000,0.946000,0.194000,192.000000,0.000000,0.000000,0.000000,0.000000,0.000000,0.000000,0.000000,0.000000,0.000000,1646804264.473459,0.000000
244.000000,-2909.124244,8228.526500,4000.828147,16216.771748,-90530.532960,5675.957283,16173.029384,35634.402708,-0.146000,0.946000,0.194000,192.000000,0.000000,0.000000,0.000000,0.000000,0.000000,0.000000,0.000000,0.000000,0.000000,1646804264.473473,0.000000
245.000000,-2916.902651,8221.575108,3991.798042,16208.143974,-90522.843960,5672.202190,16166.323860,35625.596121,-0.146000,0.946000,0.194000,192.000000,0.000000,0.000000,0.000000,0.000000,0.000000,0.000000,0.000000,0.000000,0.000000,1646804264.480890,0.000000
246.000000,-2917.103817,8223.519710,3989.316999,16203.807736,-90529.862407,5660.176952,16168.491980,35623.450354,-0.146000,0.946000,0.194000,192.000000,0.000000,0.000000,0.000000,0.000000,0.000000,0.000000,0.000000,0.000000,0.000000,1646804264.480899,0.000000
247.000000,-2907.939602,8231.119303,3999.576449,16219.923344,-90545.687443,5665.295501,16175.711593,35626.691357,-0.146000,0.946000,0.194000,192.000000,0.000000,0.000000,0.000000,0.000000,0.000000,0.000000,0.000000,0.000000,0.000000,1646804264.488928,0.000000
248.000000,-2901.837576,8238.294213,4003.845633,16226.628867,-90540.457134,5671.688100,16178.013823,35637.844877,-0.146000,0.946000,0.194000,192.000000,0.000000,0.000000,0.000000,0.000000,0.000000,0.000000,0.000000,0.000000,0.000000,1646804264.488942,0.000000
249.000000,-2898.529517,8242.541044,4009.657086,16228.171137,-90523.246291,5677.857182,16176.963291,35636.883752,-0.146000,0.946000,0.194000,192.000000,0.000000,0.000000,0.000000,0.000000,0.000000,0.000000,0.000000,0.000000,0.000000,1646804264.497003,0.000000
250.000000,-2900.988209,8240.417628,4000.381112,16219.565716,-90535.159771,5669.140001,16178.483209,35629.932359,-0.148000,0.950000,0.194000,192.000000,251.000000,96.000000,29.000000,176.000000,6.000000,16.000000,0.000000,0.000000,0.000000,1646804264.497012,0.000000
251.000000,-2897.680151,8242.339878,4005.611420,16226.718274,-90558.070309,5672.716281,16181.455991,35636.436717,-0.148000,0.950000,0.194000,192.000000,0.000000,0.000000,0.000000,0.000000,0.000000,0.000000,0.000000,0.000000,0.000000,1646804264.503582,0.000000
252.000000,-2906.039704,8234.852044,3999.688208,16224.505451,-90529.214207,5673.051557,16168.447276,35636.347310,-0.148000,0.950000,0.194000,192.000000,0.000000,0.000000,0.000000,0.000000,0.000000,0.000000,0.000000,0.000000,0.000000,1646804264.503595,0.000000
253.000000,-2903.603363,8232.616870,4000.068188,16220.571544,-90515.110256,5660.109897,16168.715497,35631.564037,-0.148000,0.950000,0.194000,192.000000,0.000000,0.000000,0.000000,0.000000,0.000000,0.000000,0.000000,0.000000,0.000000,1646804264.511561,0.000000
254.000000,-2896.182584,8242.719858,4007.019580,16220.616248,-90520.899358,5664.513190,16183.288834,35642.963426,-0.148000,0.950000,0.194000,192.000000,0.000000,0.000000,0.000000,0.000000,0.000000,0.000000,0.000000,0.000000,0.000000,1646804264.511573,0.000000
255.000000,-2899.110663,8235.612003,4006.729008,16221.912649,-90536.813800,5664.624949,16179.064355,35641.599970,-0.148000,0.950000,0.194000,192.000000,0.000000,0.000000,0.000000,0.000000,0.000000,0.000000,0.000000,0.000000,0.000000,1646804264.518497,0.000000
0.000000,-2903.536308,8230.895785,4000.694037,16219.856288,-90537.953739,5660.869856,16175.979814,35633.575694,-0.148000,0.950000,0.194000,192.000000,0.000000,0.000000,0.000000,0.000000,0.000000,0.000000,0.000000,0.000000,0.000000,1646804264.526495,0.000000
1.000000,-2915.874471,8225.240794,3991.574525,16215.832974,-90535.159771,5654.633719,16174.303433,35633.218066,-0.148000,0.950000,0.194000,192.000000,0.000000,0.000000,0.000000,0.000000,0.000000,0.000000,0.000000,0.000000,0.000000,1646804264.526507,0.000000
2.000000,-2897.613096,8244.239777,4003.286839,16221.152690,-90533.081059,5660.825152,16185.881637,35645.913857,-0.148000,0.950000,0.194000,192.000000,0.000000,0.000000,0.000000,0.000000,0.000000,0.000000,0.000000,0.000000,0.000000,1646804264.533062,0.000000
3.000000,-2899.222422,8240.685849,4007.243098,16219.409254,-90513.098599,5667.128344,16180.114887,35643.455165,-0.148000,0.950000,0.194000,192.000000,0.000000,0.000000,0.000000,0.000000,0.000000,0.000000,0.000000,0.000000,0.000000,1646804264.533067,0.000000
4.000000,-2902.083445,8234.092085,4007.913650,16221.487966,-90523.805085,5667.016586,16180.517218,35636.459069,-0.148000,0.952000,0.192000,192.000000,251.000000,96.000000,29.000000,192.000000,6.000000,0.000000,0.000000,0.000000,0.000000,1646804264.541031,0.000000
5.000000,-2908.006657,8229.755846,4000.470519,16220.124509,-90521.659317,5669.318815,16166.100343,35627.540723,-0.148000,0.952000,0.192000,192.000000,0.000000,0.000000,0.000000,0.000000,0.000000,0.000000,0.000000,0.000000,0.000000,1646804264.541036,0.000000
6.000000,-2906.106759,8225.576070,4002.348066,16221.219745,-90509.119989,5668.938836,16166.323860,35624.500886,-0.148000,0.952000,0.192000,192.000000,0.000000,0.000000,0.000000,0.000000,0.000000,0.000000,0.000000,0.000000,0.000000,1646804264.549013,0.000000
7.000000,-2899.512994,8232.818035,4012.339295,16223.790195,-90511.869253,5674.593827,16182.104192,35633.218066,-0.148000,0.952000,0.192000,192.000000,0.000000,0.000000,0.000000,0.000000,0.000000,0.000000,0.000000,0.000000,0.000000,1646804264.549017,0.000000
8.000000,-2900.630581,8232.281593,4007.176042,16221.197393,-90522.776904,5675.510249,16187.826239,35647.277313,-0.148000,0.952000,0.192000,192.000000,0.000000,0.000000,0.000000,0.000000,0.000000,0.000000,0.000000,0.000000,0.000000,1646804264.556341,0.000000
9.000000,-2896.674323,8235.008506,4007.958354,16226.830033,-90533.058707,5676.739595,16188.273274,35645.667988,-0.148000,0.952000,0.192000,192.000000,0.000000,0.000000,0.000000,0.000000,0.000000,0.000000,0.000000,0.000000,0.000000,1646804264.556347,0.000000
10.000000,-2905.100930,8228.638259,4001.990438,16214.067187,-90536.031489,5675.063214,16181.143067,35637.263732,-0.148000,0.952000,0.192000,192.000000,0.000000,0.000000,0.000000,0.000000,0.000000,0.000000,0.000000,0.000000,0.000000,1646804264.563873,0.000000
11.000000,-2913.080503,8225.620774,3993.183850,16212.793137,-90525.034431,5669.519981,16173.163494,35626.713708,-0.148000,0.952000,0.192000,192.000000,0.000000,0.000000,0.000000,0.000000,0.000000,0.000000,0.000000,0.000000,0.000000,1646804264.563885,0.000000
12.000000,-2907.000829,8230.940489,3996.782481,16215.654160,-90518.552425,5669.788202,16181.634805,35623.495057,-0.148000,0.952000,0.192000,192.000000,0.000000,0.000000,0.000000,0.000000,0.000000,0.000000,0.000000,0.000000,0.000000,1646804264.571905,0.000000
13.000000,-2908.431340,8230.538157,3991.999208,16213.396634,-90518.440666,5666.323682,16188.049756,35631.228761,-0.148000,0.952000,0.192000,192.000000,0.000000,0.000000,0.000000,0.000000,0.000000,0.000000,0.000000,0.000000,0.000000,1646804264.571922,0.000000
14.000000,-2916.746189,8226.201919,3985.248981,16208.635713,-90519.848826,5659.282882,16173.364660,35626.981929,-0.146000,0.954000,0.194000,192.000000,251.000000,112.000000,29.000000,208.000000,6.000000,16.000000,0.000000,0.000000,0.000000,1646804264.578936,0.000000
15.000000,-2908.230175,8229.957012,3993.876755,16208.121623,-90515.266718,5660.646339,16176.024518,35629.418269,-0.146000,0.954000,0.194000,192.000000,0.000000,0.000000,0.000000,0.000000,0.000000,0.000000,0.000000,0.000000,0.000000,1646804264.585431,0.000000
16.000000,-2898.283648,8235.299079,4009.634734,16213.039006,-90527.202550,5665.496667,16185.188733,35632.234589,-0.146000,0.954000,0.194000,192.000000,0.000000,0.000000,0.000000,0.000000,0.000000,0.000000,0.000000,0.000000,0.000000,1646804264.585441,0.000000
17.000000,-2907.559622,8227.051285,4002.906859,16208.479250,-90512.450398,5665.675481,16186.418079,35631.161705,-0.146000,0.954000,0.194000,192.000000,0.000000,0.000000,0.000000,0.000000,0.000000,0.000000,0.000000,0.000000,0.000000,1646804264.593476,0.000000
18.000000,-2907.738436,8228.414742,4003.175080,16216.503527,-90502.839148,5665.988405,16181.053660,35628.099516,-0.146000,0.954000,0.194000,192.000000,0.000000,0.000000,0.000000,0.000000,0.000000,0.000000,0.000000,0.000000,0.000000,1646804264.593489,0.000000
19.000000,-2906.419683,8232.616870,4000.939906,16216.324713,-90514.506759,5665.966054,16189.480268,35635.564999,-0.146000,0.954000,0.194000,192.000000,0.000000,0.000000,0.000000,0.000000,0.000000,0.000000,0.000000,0.000000,0.000000,1646804264.601511,0.000000
20.000000,-2892.919230,8245.916157,4012.518109,16224.058416,-90549.464887,5675.622007,16199.851477,35643.075185,-0.146000,0.954000,0.194000,192.000000,0.000000,0.000000,0.000000,0.000000,0.000000,0.000000,0.000000,0.000000,0.000000,1646804264.601523,0.000000
21.000000,-2896.987247,8246.743172,4012.294592,16227.746454,-90549.822515,5681.925199,16199.180925,35643.902200,-0.146000,0.954000,0.194000,192.000000,0.000000,0.000000,0.000000,0.000000,0.000000,0.000000,0.000000,0.000000,0.000000,1646804264.608679,0.000000
22.000000,-2891.779291,8251.437038,4016.407313,16231.456844,-90529.236559,5685.210906,16192.609512,35640.303569,-0.146000,0.954000,0.194000,192.000000,0.000000,0.000000,0.000000,0.000000,0.000000,0.000000,0.000000,0.000000,0.000000,1646804264.608705,0.000000
23.000000,-2895.489680,8244.977384,4009.299458,16220.973876,-90503.844977,5680.338225,16184.853457,35637.688415,-0.146000,0.954000,0.194000,192.000000,0.000000,0.000000,0.000000,0.000000,0.000000,0.000000,0.000000,0.000000,0.000000,1646804264.616148,0.000000
24.000000,-2893.075692,8249.827713,4008.964182,16215.877678,-90516.160788,5676.940760,16191.558980,35641.689377,-0.146000,0.954000,0.194000,192.000000,0.000000,0.000000,0.000000,0.000000,0.000000,0.000000,0.000000,0.000000,0.000000,1646804264.616162,0.000000
25.000000,-2894.573259,8248.128980,4006.572545,16207.339312,-90542.938178,5678.751252,16191.402518,35643.365758,-0.146000,0.954000,0.200000,192.000000,251.000000,112.000000,29.000000,208.000000,6.000000,64.000000,0.000000,0.000000,0.000000,1646804264.624105,0.000000
26.000000,-2902.306962,8241.959899,4008.539499,16214.380111,-90534.109239,5677.700720,16180.137239,35633.352176,-0.146000,0.954000,0.200000,192.000000,0.000000,0.000000,0.000000,0.000000,0.000000,0.000000,0.000000,0.000000,0.000000,1646804264.624118,0.000000
27.000000,-2901.323486,8247.346669,4011.780502,16225.980666,-90511.198701,5676.806650,16178.259692,35625.372604,-0.146000,0.954000,0.200000,192.000000,0.000000,0.000000,0.000000,0.000000,0.000000,0.000000,0.000000,0.000000,0.000000,1646804264.632141,0.000000
28.000000,-2904.430378,8246.184378,4003.331542,16223.589030,-90493.920802,5664.043804,16176.605663,35625.283197,-0.146000,0.954000,0.200000,192.000000,0.000000,0.000000,0.000000,0.000000,0.000000,0.000000,0.000000,0.000000,0.000000,1646804264.632154,0.000000
29.000000,-2901.189375,8245.424419,4008.763016,16219.476309,-90498.793483,5668.424746,16181.947730,35628.211275,-0.146000,0.954000,0.200000,192.000000,0.000000,0.000000,0.000000,0.000000,0.000000,0.000000,0.000000,0.000000,0.000000,1646804264.638246,0.000000
30.000000,-2892.583953,8255.259187,4015.267374,16223.767844,-90530.644718,5674.862048,16191.111945,35638.895409,-0.146000,0.954000,0.200000,192.000000,0.000000,0.000000,0.000000,0.000000,0.000000,0.000000,0.000000,0.000000,0.000000,1646804264.638254,0.000000
31.000000,-2891.779291,8256.376774,4018.374266,16232.127396,-90525.548521,5680.405281,16187.222742,35640.392976,-0.146000,0.954000,0.200000,192.000000,0.000000,0.000000,0.000000,0.000000,0.000000,0.000000,0.000000,0.000000,0.000000,1646804264.645778,0.000000
32.000000,-2888.203012,8259.506018,4018.798950,16235.703675,-90514.193835,5678.371272,16185.009919,35635.922627,-0.146000,0.954000,0.200000,192.000000,0.000000,0.000000,0.000000,0.000000,0.000000,0.000000,0.000000,0.000000,0.000000,1646804264.653766,0.000000
33.000000,-2885.878430,8258.500190,4018.776598,16234.675495,-90501.453340,5678.103051,16190.553151,35637.084918,-0.146000,0.954000,0.200000,192.000000,0.000000,0.000000,0.000000,0.000000,0.000000,0.000000,0.000000,0.000000,0.000000,1646804264.653779,0.000000
34.000000,-2888.560639,8258.433134,4013.523938,16233.781425,-90515.825512,5676.985464,16197.504544,35649.601895,-0.146000,0.954000,0.200000,192.000000,0.000000,0.000000,0.000000,0.000000,0.000000,0.000000,0.000000,0.000000,0.000000,1646804264.661776,0.000000
35.000000,-2888.426529,8256.376774,4011.221708,16228.707579,-90528.722468,5676.538429,16195.358776,35645.198601,-0.150000,0.950000,0.200000,192.000000,251.000000,80.000000,29.000000,176.000000,6.000000,64.000000,0.000000,0.000000,0.000000,1646804264.661788,0.000000
36.000000,-2888.426529,8259.818943,4012.093426,16228.796986,-90529.013041,5673.900923,16186.351023,35632.703976,-0.150000,0.950000,0.200000,192.000000,0.000000,0.000000,0.000000,0.000000,0.000000,0.000000,0.000000,0.000000,0.000000,1646804264.668357,0.000000
37.000000,-2896.629619,8257.293195,4005.969048,16230.138091,-90512.070419,5670.548161,16188.832067,35638.314264,-0.150000,0.950000,0.200000,192.000000,0.000000,0.000000,0.000000,0.000000,0.000000,0.000000,0.000000,0.000000,0.000000,1646804264.668371,0.000000
38.000000,-2891.511070,8257.539065,4002.482176,16225.555983,-90506.594241,5659.774621,16183.825276,35631.429926,-0.150000,0.950000,0.200000,192.000000,0.000000,0.000000,0.000000,0.000000,0.000000,0.000000,0.000000,0.000000,0.000000,1646804264.676363,0.000000
39.000000,-2885.029064,8263.194056,4016.563775,16232.328562,-90513.411524,5666.770717,16192.229532,35640.616493,-0.150000,0.950000,0.200000,192.000000,0.000000,0.000000,0.000000,0.000000,0.000000,0.000000,0.000000,0.000000,0.000000,1646804264.676376,0.000000
40.000000,-2892.919230,8251.749963,4012.227537,16221.398559,-90514.931442,5664.379080,16181.455991,35631.117002,-0.150000,0.950000,0.200000,192.000000,0.000000,0.000000,0.000000,0.000000,0.000000,0.000000,0.000000,0.000000,0.000000,1646804264.684412,0.000000
41.000000,-2888.828860,8256.443829,4010.998191,16217.487004,-90510.729314,5656.243045,16183.557055,35628.814772,-0.150000,0.950000,0.200000,192.000000,0.000000,0.000000,0.000000,0.000000,0.000000,0.000000,0.000000,0.000000,0.000000,1646804264.684425,0.000000
42.000000,-2874.099061,8266.859742,4028.521958,16233.088521,-90512.673916,5662.523885,16188.340329,35634.246246,-0.150000,0.950000,0.200000,192.000000,0.000000,0.000000,0.000000,0.000000,0.000000,0.000000,0.000000,0.000000,0.000000,1646804264.690944,0.000000
43.000000,-2885.520802,8256.913216,4017.971935,16232.015637,-90513.970317,5657.606501,16185.054622,35637.688415,-0.150000,0.950000,0.200000,192.000000,0.000000,0.000000,0.000000,0.000000,0.000000,0.000000,0.000000,0.000000,0.000000,1646804264.690962,0.000000
44.000000,-2888.985323,8257.136733,4014.820339,16231.188623,-90525.392059,5659.372289,16185.881637,35635.006205,-0.150000,0.950000,0.200000,192.000000,0.000000,0.000000,0.000000,0.000000,0.000000,0.000000,0.000000,0.000000,0.000000,1646804264.698974,0.000000
45.000000,-2896.227288,8244.910329,4012.249888,16216.592934,-90528.789524,5656.958301,16181.478343,35628.926531,-0.152000,0.948000,0.196000,192.000000,251.000000,64.000000,29.000000,160.000000,6.000000,32.000000,0.000000,0.000000,0.000000,1646804264.698983,0.000000
46.000000,-2897.814262,8244.955032,4010.931136,16217.062320,-90528.007213,5653.896112,16179.198465,35620.656386,-0.152000,0.948000,0.196000,192.000000,0.000000,0.000000,0.000000,0.000000,0.000000,0.000000,0.000000,0.000000,0.000000,1646804264.706051,0.000000
47.000000,-2896.160233,8255.035669,4009.634734,16221.979704,-90511.489273,5655.907769,16184.629939,35629.172400,-0.152000,0.948000,0.196000,192.000000,0.000000,0.000000,0.000000,0.000000,0.000000,0.000000,0.000000,0.000000,0.000000,1646804264.714044,0.000000
48.000000,-2897.702503,8252.196998,4009.835900,16216.257658,-90513.880910,5655.281920,16190.262579,35629.418269,-0.152000,0.948000,0.196000,192.000000,0.000000,0.000000,0.000000,0.000000,0.000000,0.000000,0.000000,0.000000,0.000000,1646804264.714057,0.000000
49.000000,-2900.585878,8251.101762,4003.912688,16216.905858,-90524.274471,5658.433516,16193.995320,35637.755470,-0.152000,0.948000,0.196000,192.000000,0.000000,0.000000,0.000000,0.000000,0.000000,0.000000,0.000000,0.000000,0.000000,1646804264.720694,0.000000
50.000000,-2895.355570,8256.756754,4011.646391,16229.355780,-90528.834227,5666.122516,16192.900085,35641.801136,-0.152000,0.948000,0.196000,192.000000,0.000000,0.000000,0.000000,0.000000,0.000000,0.000000,0.000000,0.000000,0.000000,1646804264.720707,0.000000
51.000000,-2892.740416,8256.689698,4015.021505,16231.970934,-90524.587396,5671.218714,16198.532724,35639.342444,-0.152000,0.948000,0.196000,192.000000,0.000000,0.000000,0.000000,0.000000,0.000000,0.000000,0.000000,0.000000,0.000000,1646804264.728637,0.000000
52.000000,-2890.058206,8258.723707,4015.669705,16235.413103,-90520.385268,5672.604522,16206.020559,35650.987703,-0.152000,0.948000,0.196000,192.000000,0.000000,0.000000,0.000000,0.000000,0.000000,0.000000,0.000000,0.000000,0.000000,1646804264.728650,0.000000
53.000000,-2890.348779,8258.835466,4013.501586,16235.994248,-90522.933367,5670.704624,16204.478288,35650.384206,-0.152000,0.948000,0.196000,192.000000,0.000000,0.000000,0.000000,0.000000,0.000000,0.000000,0.000000,0.000000,0.000000,1646804264.736618,0.000000
54.000000,-2893.835651,8255.929739,4008.651258,16231.814472,-90522.665146,5667.105993,16204.008902,35645.243304,-0.152000,0.948000,0.196000,192.000000,0.000000,0.000000,0.000000,0.000000,0.000000,0.000000,0.000000,0.000000,0.000000,1646804264.736626,0.000000
55.000000,-2903.469253,8239.143579,3997.140109,16210.826184,-90528.118971,5654.968995,16191.804849,35633.151011,-0.146000,0.950000,0.198000,192.000000,251.000000,112.000000,29.000000,176.000000,6.000000,48.000000,0.000000,0.000000,0.000000,1646804264.743889,0.000000
56.000000,-2909.012486,8236.349611,3999.196470,16210.848535,-90511.645736,5656.175990,16177.902064,35621.997490,-0.146000,0.950000,0.198000,192.000000,0.000000,0.000000,0.000000,0.000000,0.000000,0.000000,0.000000,0.000000,0.000000,1646804264.743902,0.000000
57.000000,-2897.367227,8250.408858,4009.366513,16231.456844,-90501.073361,5659.551103,16184.451125,35628.546551,-0.146000,0.950000,0.198000,192.000000,0.000000,0.000000,0.000000,0.000000,0.000000,0.000000,0.000000,0.000000,0.000000,1646804264.751317,0.000000
58.000000,-2892.181622,8254.879207,4016.764941,16234.474329,-90503.509701,5665.295501,16198.778593,35647.590238,-0.146000,0.950000,0.198000,192.000000,0.000000,0.000000,0.000000,0.000000,0.000000,0.000000,0.000000,0.000000,0.000000,1646804264.751330,0.000000
59.000000,-2894.617962,8257.047326,4014.842691,16238.408236,-90509.924651,5667.709490,16200.745547,35657.268543,-0.146000,0.950000,0.198000,192.000000,0.000000,0.000000,0.000000,0.000000,0.000000,0.000000,0.000000,0.000000,0.000000,1646804264.759282,0.000000
60.000000,-2890.013503,8263.082297,4013.233365,16234.608440,-90531.203512,5657.360632,16190.106117,35645.489174,-0.146000,0.950000,0.198000,192.000000,0.000000,0.000000,0.000000,0.000000,0.000000,0.000000,0.000000,0.000000,0.000000,1646804264.759295,0.000000
61.000000,-2888.426529,8255.840332,4015.066208,16229.355780,-90533.818666,5658.589978,16194.554114,35638.917761,-0.146000,0.950000,0.198000,192.000000,0.000000,0.000000,0.000000,0.000000,0.000000,0.000000,0.000000,0.000000,0.000000,1646804264.766329,0.000000
62.000000,-2891.444014,8254.007489,4018.083694,16233.647315,-90512.159826,5661.674519,16188.116811,35631.496982,-0.146000,0.950000,0.198000,192.000000,0.000000,0.000000,0.000000,0.000000,0.000000,0.000000,0.000000,0.000000,0.000000,1646804264.773454,0.000000
63.000000,-2893.232154,8264.848085,4021.257641,16238.564699,-90490.053951,5661.741574,16191.760146,35643.812793,-0.146000,0.950000,0.198000,192.000000,0.000000,0.000000,0.000000,0.000000,0.000000,0.000000,0.000000,0.000000,0.000000,1646804264.773467,0.000000
64.000000,-2884.269105,8275.196943,4025.415066,16242.811530,-90516.741933,5664.133211,16202.690149,35652.842898,-0.146000,0.950000,0.198000,192.000000,0.000000,0.000000,0.000000,0.000000,0.000000,0.000000,0.000000,0.000000,0.000000,1646804264.780915,0.000000
65.000000,-2882.525668,8273.118230,4023.291650,16235.100178,-90535.785620,5667.262455,16200.231457,35649.423081,-0.146000,0.952000,0.196000,192.000000,251.000000,112.000000,29.000000,192.000000,6.000000,32.000000,0.000000,0.000000,0.000000,1646804264.780942,0.000000
66.000000,-2887.510107,8264.803382,4019.514205,16235.658972,-90535.226826,5667.485972,16193.749451,35646.629113,-0.146000,0.952000,0.196000,192.000000,0.000000,0.000000,0.000000,0.000000,0.000000,0.000000,0.000000,0.000000,0.000000,1646804264.788931,0.000000
67.000000,-2903.290439,8244.172721,4009.232403,16221.264448,-90508.292974,5658.388812,16181.612454,35628.568903,-0.146000,0.952000,0.196000,192.000000,0.000000,0.000000,0.000000,0.000000,0.000000,0.000000,0.000000,0.000000,0.000000,1646804264.788944,0.000000
68.000000,-2910.353590,8244.016259,3998.682380,16216.101195,-90499.888718,5647.414106,16182.841800,35627.943054,-0.146000,0.952000,0.196000,192.000000,0.000000,0.000000,0.000000,0.000000,0.000000,0.000000,0.000000,0.000000,0.000000,1646804264.796135,0.000000
69.000000,-2896.115529,8250.565320,4008.785368,16224.348989,-90502.749741,5654.790181,16184.093497,35632.838086,-0.146000,0.952000,0.196000,192.000000,0.000000,0.000000,0.000000,0.000000,0.000000,0.000000,0.000000,0.000000,0.000000,1646804264.796148,0.000000
70.000000,-2884.202049,8257.092030,4026.867929,16234.250812,-90532.835189,5659.439344,16195.761108,35636.794345,-0.146000,0.952000,0.196000,192.000000,0.000000,0.000000,0.000000,0.000000,0.000000,0.000000,0.000000,0.000000,0.000000,1646804264.803592,0.000000
71.000000,-2888.448881,8257.024974,4019.938889,16231.568603,-90533.751611,5654.812533,16188.608550,35630.558208,-0.146000,0.952000,0.196000,192.000000,0.000000,0.000000,0.000000,0.000000,0.000000,0.000000,0.000000,0.000000,0.000000,1646804264.803605,0.000000
72.000000,-2877.809450,8270.324262,4025.795046,16236.083655,-90531.427030,5659.037013,16195.314073,35642.091708,-0.146000,0.952000,0.196000,192.000000,0.000000,0.000000,0.000000,0.000000,0.000000,0.000000,0.000000,0.000000,0.000000,1646804264.811595,0.000000
73.000000,-2887.085424,8264.423402,4018.709543,16229.221669,-90524.430934,5660.311062,16198.219800,35644.282179,-0.146000,0.952000,0.196000,192.000000,0.000000,0.000000,0.000000,0.000000,0.000000,0.000000,0.000000,0.000000,0.000000,1646804264.811608,0.000000
74.000000,-2897.434282,8257.092030,4005.298496,16226.405350,-90515.624346,5652.778524,16182.238302,35628.770069,-0.146000,0.952000,0.196000,192.000000,0.000000,0.000000,0.000000,0.000000,0.000000,0.000000,0.000000,0.000000,0.000000,1646804264.819627,0.000000
75.000000,-2890.102910,8260.511847,4011.489929,16220.951524,-90528.521303,5655.348975,16188.921474,35629.418269,-0.148000,0.962000,0.198000,192.000000,251.000000,96.000000,30.000000,16.000000,6.000000,48.000000,0.000000,0.000000,0.000000,1646804264.819640,0.000000
76.000000,-2893.969762,8257.315547,4006.036103,16223.074940,-90520.809951,5655.863065,16183.244131,35628.032461,-0.148000,0.962000,0.198000,192.000000,0.000000,0.000000,0.000000,0.000000,0.000000,0.000000,0.000000,0.000000,0.000000,1646804264.825720,0.000000
77.000000,-2894.975590,8256.890864,4010.305287,16223.454919,-90504.493177,5649.425763,16181.232474,35628.859476,-0.148000,0.962000,0.198000,192.000000,0.000000,0.000000,0.000000,0.000000,0.000000,0.000000,0.000000,0.000000,0.000000,1646804264.833260,0.000000
78.000000,-2895.489680,8264.892789,4009.277106,16226.785329,-90498.033523,5647.034126,16181.970082,35627.607778,-0.148000,0.962000,0.198000,192.000000,0.000000,0.000000,0.000000,0.000000,0.000000,0.000000,0.000000,0.000000,0.000000,1646804264.833273,0.000000
79.000000,-2885.386692,8274.504039,4016.384961,16231.143919,-90518.775942,5645.268338,16186.708651,35623.919740,-0.148000,0.962000,0.198000,192.000000,0.000000,0.000000,0.000000,0.000000,0.000000,0.000000,0.000000,0.000000,0.000000,1646804264.841260,0.000000
80.000000,-2889.924096,8265.988024,4016.161444,16219.900992,-90535.383288,5651.549179,16199.024463,35639.320092,-0.148000,0.962000,0.198000,192.000000,0.000000,0.000000,0.000000,0.000000,0.000000,0.000000,0.000000,0.000000,0.000000,1646804264.841273,0.000000
81.000000,-2895.623791,8258.723707,4015.625002,16214.938905,-90532.701079,5650.163370,16195.224666,35639.118926,-0.148000,0.962000,0.198000,192.000000,0.000000,0.000000,0.000000,0.000000,0.000000,0.000000,0.000000,0.000000,0.000000,1646804264.849228,0.000000
82.000000,-2889.052378,8264.713975,4022.688153,16232.015637,-90501.051009,5654.566664,16187.222742,35627.473668,-0.148000,0.962000,0.198000,192.000000,0.000000,0.000000,0.000000,0.000000,0.000000,0.000000,0.000000,0.000000,0.000000,1646804264.849241,0.000000
83.000000,-2889.521764,8267.038556,4018.150749,16226.651219,-90486.500023,5651.258606,16188.362680,35629.664139,-0.148000,0.962000,0.198000,192.000000,0.000000,0.000000,0.000000,0.000000,0.000000,0.000000,0.000000,0.000000,0.000000,1646804264.855855,0.000000
84.000000,-2897.255468,8261.115344,4011.825205,16219.565716,-90494.300782,5647.972899,16190.016710,35635.721461,-0.148000,0.962000,0.198000,192.000000,0.000000,0.000000,0.000000,0.000000,0.000000,0.000000,0.000000,0.000000,0.000000,1646804264.855868,0.000000
85.000000,-2895.243811,8266.256245,4011.825205,16221.420911,-90515.065553,5647.749382,16190.888428,35633.061604,-0.150000,0.968000,0.202000,192.000000,251.000000,80.000000,30.000000,64.000000,6.000000,80.000000,0.000000,0.000000,0.000000,1646804264.863888,0.000000
86.000000,-2891.511070,8261.070640,4015.468540,16227.433530,-90526.509646,5651.370365,16186.932169,35624.389127,-0.150000,0.968000,0.202000,192.000000,0.000000,0.000000,0.000000,0.000000,0.000000,0.000000,0.000000,0.000000,0.000000,1646804264.863915,0.000000
87.000000,-2893.589782,8257.024974,4010.126473,16227.947620,-90521.726372,5646.855312,16184.406422,35627.652482,-0.150000,0.968000,0.202000,192.000000,0.000000,0.000000,0.000000,0.000000,0.000000,0.000000,0.000000,0.000000,0.000000,1646804264.871928,0.000000
88.000000,-2883.978532,8263.194056,4021.123531,16231.859175,-90520.228806,5655.863065,16200.902009,35639.744775,-0.150000,0.968000,0.202000,192.000000,0.000000,0.000000,0.000000,0.000000,0.000000,0.000000,0.000000,0.000000,0.000000,1646804264.871941,0.000000
89.000000,-2895.690846,8246.318489,4014.753284,16222.426739,-90530.667070,5655.192513,16193.280064,35639.565961,-0.150000,0.968000,0.202000,192.000000,0.000000,0.000000,0.000000,0.000000,0.000000,0.000000,0.000000,0.000000,0.000000,1646804264.879080,0.000000
90.000000,-2896.137881,8245.290309,4012.786330,16215.274181,-90526.979032,5649.716336,16185.747526,35633.843915,-0.150000,0.968000,0.202000,192.000000,0.000000,0.000000,0.000000,0.000000,0.000000,0.000000,0.000000,0.000000,0.000000,1646804264.879093,0.000000
91.000000,-2888.135956,8251.884073,4014.686229,16226.271239,-90538.177256,5645.536559,16184.607587,35633.463935,-0.150000,0.968000,0.202000,192.000000,0.000000,0.000000,0.000000,0.000000,0.000000,0.000000,0.000000,0.000000,0.000000,1646804264.885527,0.000000
92.000000,-2900.027084,8241.557567,4005.767883,16229.355780,-90507.622422,5641.870873,16177.276215,35626.244322,-0.150000,0.968000,0.202000,192.000000,0.000000,0.000000,0.000000,0.000000,0.000000,0.000000,0.000000,0.000000,0.000000,1646804264.885540,0.000000
93.000000,-2891.511070,8250.185341,4015.177967,16228.461710,-90495.775997,5646.855312,16187.893294,35630.893484,-0.150000,0.968000,0.202000,192.000000,0.000000,0.000000,0.000000,0.000000,0.000000,0.000000,0.000000,0.000000,0.000000,1646804264.893559,0.000000
94.000000,-2898.842442,8243.837445,4010.506452,16224.438396,-90495.328962,5654.343147,16186.105154,35633.016900,-0.150000,0.968000,0.202000,192.000000,0.000000,0.000000,0.000000,0.000000,0.000000,0.000000,0.000000,0.000000,0.000000,1646804264.901563,0.000000
95.000000,-2898.551869,8246.452599,4005.276144,16216.771748,-90510.863425,5648.241120,16179.869018,35621.125772,-0.148000,0.960000,0.200000,192.000000,251.000000,96.000000,30.000000,0.000000,6.000000,64.000000,0.000000,0.000000,0.000000,1646804264.901576,0.000000
96.000000,-2888.113605,8256.890864,4013.702752,16228.394655,-90533.639852,5653.158504,16185.345195,35632.636921,-0.148000,0.960000,0.200000,192.000000,0.000000,0.000000,0.000000,0.000000,0.000000,0.000000,0.000000,0.000000,0.000000,1646804264.908105,0.000000
97.000000,-2894.796776,8252.487570,4008.897127,16237.491815,-90514.327945,5661.808629,16179.958425,35639.096575,-0.148000,0.960000,0.200000,192.000000,0.000000,0.000000,0.000000,0.000000,0.000000,0.000000,0.000000,0.000000,0.000000,1646804264.908118,0.000000
98.000000,-2900.451767,8245.782047,4003.443301,16230.741588,-90491.193890,5658.813495,16174.459895,35631.161705,-0.148000,0.960000,0.200000,192.000000,0.000000,0.000000,0.000000,0.000000,0.000000,0.000000,0.000000,0.000000,0.000000,1646804264.916125,0.000000
99.000000,-2894.863831,8246.743172,4010.662915,16230.674533,-90488.779901,5660.601635,16174.705765,35636.012034,-0.148000,0.960000,0.200000,192.000000,0.000000,0.000000,0.000000,0.000000,0.000000,0.000000,0.000000,0.000000,0.000000,1646804264.916138,0.000000
100.000000,-2890.102910,8250.721783,4014.485063,16232.082693,-90505.610765,5661.853333,16178.371451,35631.496982,-0.148000,0.960000,0.200000,192.000000,0.000000,0.000000,0.000000,0.000000,0.000000,0.000000,0.000000,0.000000,0.000000,1646804264.924149,0.000000
101.000000,-2881.810413,8254.722745,4019.670668,16238.497643,-90523.492160,5667.061289,16180.606625,35625.506714,-0.148000,0.960000,0.200000,192.000000,0.000000,0.000000,0.000000,0.000000,0.000000,0.000000,0.000000,0.000000,0.000000,1646804264.924162,0.000000
102.000000,-2888.068901,8250.900596,4019.156577,16242.632716,-90512.740971,5667.105993,16173.744640,35627.183095,-0.148000,0.960000,0.200000,192.000000,0.000000,0.000000,0.000000,0.000000,0.000000,0.000000,0.000000,0.000000,0.000000,1646804264.931372,0.000000
103.000000,-2887.443052,8255.661518,4018.620136,16245.292574,-90488.556384,5665.988405,16171.375355,35630.625264,-0.148000,0.960000,0.200000,192.000000,0.000000,0.000000,0.000000,0.000000,0.000000,0.000000,0.000000,0.000000,0.000000,1646804264.931385,0.000000
104.000000,-2885.185526,8249.313623,4017.413141,16231.143919,-90488.511680,5662.121554,16173.968157,35623.942092,-0.148000,0.960000,0.200000,192.000000,0.000000,0.000000,0.000000,0.000000,0.000000,0.000000,0.000000,0.000000,0.000000,1646804264.938760,0.000000
105.000000,-2887.778328,8246.921986,4014.775636,16229.892222,-90511.444570,5660.266359,16173.230549,35625.529066,-0.140000,0.958000,0.204000,192.000000,251.000000,160.000000,29.000000,240.000000,6.000000,96.000000,0.000000,0.000000,0.000000,1646804264.938773,0.000000
106.000000,-2891.064035,8246.094971,4011.042894,16232.641486,-90512.986840,5655.170161,16169.095477,35623.182133,-0.140000,0.958000,0.204000,192.000000,0.000000,0.000000,0.000000,0.000000,0.000000,0.000000,0.000000,0.000000,0.000000,1646804264.946646,0.000000
107.000000,-2892.226326,8247.436076,4007.354856,16230.249850,-90508.158864,5651.146847,16168.044945,35619.739964,-0.140000,0.958000,0.204000,192.000000,0.000000,0.000000,0.000000,0.000000,0.000000,0.000000,0.000000,0.000000,0.000000,1646804264.946662,0.000000
108.000000,-2894.752073,8239.478855,4007.287801,16224.885431,-90478.811023,5658.411164,16170.280119,35627.630130,-0.140000,0.958000,0.204000,192.000000,0.000000,0.000000,0.000000,0.000000,0.000000,0.000000,0.000000,0.000000,0.000000,1646804264.953714,0.000000
109.000000,-2883.263276,8250.431210,4017.077865,16224.706617,-90503.420294,5663.909693,16176.560959,35639.387147,-0.140000,0.958000,0.204000,192.000000,0.000000,0.000000,0.000000,0.000000,0.000000,0.000000,0.000000,0.000000,0.000000,1646804264.960934,0.000000
110.000000,-2887.890087,8249.000698,4014.574470,16234.720198,-90513.076247,5664.714356,16172.112962,35631.698147,-0.140000,0.958000,0.204000,192.000000,0.000000,0.000000,0.000000,0.000000,0.000000,0.000000,0.000000,0.000000,0.000000,1646804264.960946,0.000000
111.000000,-2896.070826,8242.071657,4007.913650,16230.205146,-90518.507721,5659.037013,16167.866131,35627.741888,-0.140000,0.958000,0.204000,192.000000,0.000000,0.000000,0.000000,0.000000,0.000000,0.000000,0.000000,0.000000,0.000000,1646804264.968464,0.000000
112.000000,-2883.017407,8245.737344,4018.173101,16233.647315,-90500.492215,5664.155562,16166.301509,35628.814772,-0.140000,0.958000,0.204000,192.000000,0.000000,0.000000,0.000000,0.000000,0.000000,0.000000,0.000000,0.000000,0.000000,1646804264.968477,0.000000
113.000000,-2884.693788,8245.133846,4013.903918,16231.970934,-90489.428102,5661.540408,16166.994413,35623.293891,-0.140000,0.958000,0.204000,192.000000,0.000000,0.000000,0.000000,0.000000,0.000000,0.000000,0.000000,0.000000,0.000000,1646804264.976434,0.000000
114.000000,-2880.558715,8251.392335,4017.994287,16236.329524,-90503.733218,5664.535542,16175.622186,35626.959577,-0.140000,0.958000,0.204000,192.000000,0.000000,0.000000,0.000000,0.000000,0.000000,0.000000,0.000000,0.000000,0.000000,1646804264.976447,0.000000
115.000000,-2891.064035,8244.575053,4013.322772,16235.033123,-90507.711829,5669.698795,16177.589140,35623.383298,-0.150000,0.958000,0.194000,192.000000,251.000000,80.000000,29.000000,240.000000,6.000000,16.000000,0.000000,0.000000,0.000000,1646804264.984394,0.000000
116.000000,-2891.265201,8237.847178,4011.758150,16230.451015,-90501.028657,5661.719222,16173.476419,35619.963481,-0.150000,0.958000,0.194000,192.000000,0.000000,0.000000,0.000000,0.000000,0.000000,0.000000,0.000000,0.000000,0.000000,1646804264.984407,0.000000
117.000000,-2893.343913,8238.093047,4015.557947,16231.322733,-90491.529166,5658.522923,16168.022593,35621.662214,-0.150000,0.958000,0.194000,192.000000,0.000000,0.000000,0.000000,0.000000,0.000000,0.000000,0.000000,0.000000,0.000000,1646804264.991082,0.000000
118.000000,-2892.449843,8244.329184,4017.122569,16230.361608,-90475.681779,5663.149734,16169.006070,35623.338595,-0.150000,0.958000,0.194000,192.000000,0.000000,0.000000,0.000000,0.000000,0.000000,0.000000,0.000000,0.000000,0.000000,1646804264.991096,0.000000
119.000000,-2894.081520,8244.239777,4013.188662,16228.104082,-90474.944171,5661.227484,16169.922491,35614.353194,-0.150000,0.958000,0.194000,192.000000,0.000000,0.000000,0.000000,0.000000,0.000000,0.000000,0.000000,0.000000,0.000000,1646804264.999010,0.000000
120.000000,-2894.260334,8240.574091,4009.813548,16235.122530,-90489.450453,5661.540408,16174.683413,35623.293891,-0.150000,0.958000,0.194000,192.000000,0.000000,0.000000,0.000000,0.000000,0.000000,0.000000,0.000000,0.000000,0.000000,1646804264.999024,0.000000
121.000000,-2886.593686,8247.413724,4015.200319,16235.770730,-90508.829416,5657.450039,16179.131410,35628.479496,-0.150000,0.958000,0.194000,192.000000,0.000000,0.000000,0.000000,0.000000,0.000000,0.000000,0.000000,0.000000,0.000000,1646804265.006980,0.000000
122.000000,-2884.649084,8245.983213,4018.441322,16233.736722,-90499.128759,5666.882475,16177.410326,35627.652482,-0.150000,0.958000,0.194000,192.000000,0.000000,0.000000,0.000000,0.000000,0.000000,0.000000,0.000000,0.000000,0.000000,1646804265.006987,0.000000
123.000000,-2879.597590,8250.453562,4020.698848,16236.508338,-90484.913049,5673.230371,16186.753355,35634.358005,-0.150000,0.958000,0.194000,192.000000,0.000000,0.000000,0.000000,0.000000,0.000000,0.000000,0.000000,0.000000,0.000000,1646804265.013282,0.000000
124.000000,-2883.844421,8244.910329,4013.166310,16227.165309,-90504.023791,5662.099202,16182.528875,35630.021766,-0.150000,0.958000,0.194000,192.000000,0.000000,0.000000,0.000000,0.000000,0.000000,0.000000,0.000000,0.000000,0.000000,1646804265.020664,0.000000
125.000000,-2897.255468,8239.635317,4004.404426,16228.841690,-90506.303669,5656.868894,16171.375355,35622.891560,-0.150000,0.958000,0.194000,192.000000,0.000000,0.000000,0.000000,0.000000,0.000000,0.000000,0.000000,0.000000,0.000000,1646804265.020677,0.000000
126.000000,-2894.707369,8236.103742,4002.146900,16230.406312,-90503.643811,5652.018565,16171.621224,35628.926531,-0.148000,0.956000,0.200000,192.000000,251.000000,96.000000,29.000000,224.000000,6.000000,64.000000,0.000000,0.000000,0.000000,1646804265.028692,0.000000
127.000000,-2889.745282,8240.998774,4008.517147,16232.596783,-90498.726427,5654.410202,16165.854474,35627.048984,-0.148000,0.956000,0.200000,192.000000,0.000000,0.000000,0.000000,0.000000,0.000000,0.000000,0.000000,0.000000,0.000000,1646804265.028704,0.000000
128.000000,-2888.426529,8240.395277,4014.797987,16235.435454,-90490.724503,5662.970920,16175.622186,35633.553342,-0.148000,0.956000,0.200000,192.000000,0.000000,0.000000,0.000000,0.000000,0.000000,0.000000,0.000000,0.000000,0.000000,1646804265.036743,0.000000
129.000000,-2890.147613,8234.628527,4006.304324,16226.114777,-90493.630230,5659.841676,16171.844741,35629.150048,-0.148000,0.956000,0.200000,192.000000,0.000000,0.000000,0.000000,0.000000,0.000000,0.000000,0.000000,0.000000,0.000000,1646804265.036770,0.000000
130.000000,-2891.242849,8235.120265,4005.052627,16225.444225,-90500.425160,5659.037013,16171.800038,35626.758412,-0.148000,0.956000,0.200000,192.000000,0.000000,0.000000,0.000000,0.000000,0.000000,0.000000,0.000000,0.000000,0.000000,1646804265.043361,0.000000
131.000000,-2888.828860,8237.601309,4008.785368,16225.712445,-90514.931442,5662.210961,16179.153762,35625.640825,-0.148000,0.956000,0.200000,192.000000,0.000000,0.000000,0.000000,0.000000,0.000000,0.000000,0.000000,0.000000,0.000000,1646804265.043375,0.000000
132.000000,-2890.773462,8235.768465,4004.203260,16231.479196,-90522.039297,5661.942740,16176.471552,35624.567941,-0.148000,0.956000,0.200000,192.000000,0.000000,0.000000,0.000000,0.000000,0.000000,0.000000,0.000000,0.000000,0.000000,1646804265.051285,0.000000
133.000000,-2883.307980,8244.977384,4008.807720,16249.472350,-90504.403770,5667.888304,16175.219855,35631.452278,-0.148000,0.956000,0.200000,192.000000,0.000000,0.000000,0.000000,0.000000,0.000000,0.000000,0.000000,0.000000,0.000000,1646804265.051297,0.000000
134.000000,-2890.304076,8239.411800,4007.064284,16239.414065,-90505.275489,5666.189571,16178.036175,35633.553342,-0.148000,0.956000,0.200000,192.000000,0.000000,0.000000,0.000000,0.000000,0.000000,0.000000,0.000000,0.000000,0.000000,1646804265.059292,0.000000
135.000000,-2894.930887,8236.953108,4003.555060,16231.054512,-90517.144265,5661.719222,16174.325785,35632.659272,-0.148000,0.956000,0.200000,192.000000,0.000000,0.000000,0.000000,0.000000,0.000000,0.000000,0.000000,0.000000,0.000000,1646804265.059305,0.000000
136.000000,-2890.281724,8239.925890,4010.215880,16229.892222,-90528.208378,5666.837772,16177.611491,35631.832258,-0.146000,0.948000,0.200000,192.000000,251.000000,112.000000,29.000000,160.000000,6.000000,64.000000,0.000000,0.000000,0.000000,1646804265.066488,0.000000
137.000000,-2895.266163,8231.499282,4007.243098,16227.344123,-90518.172445,5664.468487,16174.303433,35644.460993,-0.146000,0.948000,0.200000,192.000000,0.000000,0.000000,0.000000,0.000000,0.000000,0.000000,0.000000,0.000000,0.000000,1646804265.066502,0.000000
138.000000,-2894.550907,8228.302983,4001.543403,16218.738701,-90500.358105,5661.406298,16174.906930,35644.237476,-0.146000,0.948000,0.200000,192.000000,0.000000,0.000000,0.000000,0.000000,0.000000,0.000000,0.000000,0.000000,0.000000,1646804265.072949,0.000000
139.000000,-2892.673360,8234.315602,4003.532708,16229.959277,-90496.290087,5662.076850,16172.180017,35633.799211,-0.146000,0.948000,0.200000,192.000000,0.000000,0.000000,0.000000,0.000000,0.000000,0.000000,0.000000,0.000000,0.000000,1646804265.080960,0.000000
140.000000,-2898.507166,8235.768465,3997.900069,16230.920402,-90505.051971,5659.014661,16167.262634,35630.155877,-0.146000,0.948000,0.200000,192.000000,0.000000,0.000000,0.000000,0.000000,0.000000,0.000000,0.000000,0.000000,0.000000,1646804265.080974,0.000000
141.000000,-2892.405139,8239.344745,4009.187699,16233.714370,-90500.268698,5659.595807,16165.474494,35624.858513,-0.146000,0.948000,0.200000,192.000000,0.000000,0.000000,0.000000,0.000000,0.000000,0.000000,0.000000,0.000000,0.000000,1646804265.088896,0.000000
142.000000,-2899.803567,8230.627564,4005.924345,16223.857251,-90483.862517,5660.266359,16164.468666,35628.904179,-0.146000,0.948000,0.200000,192.000000,0.000000,0.000000,0.000000,0.000000,0.000000,0.000000,0.000000,0.000000,0.000000,1646804265.088908,0.000000
143.000000,-2903.916288,8229.241756,3999.487042,16222.896126,-90473.737177,5654.387850,16168.201407,35627.116040,-0.146000,0.948000,0.200000,192.000000,0.000000,0.000000,0.000000,0.000000,0.000000,0.000000,0.000000,0.000000,0.000000,1646804265.096152,0.000000
144.000000,-2883.039759,8248.173684,4017.726066,16234.451978,-90504.247308,5659.081716,16180.293701,35637.353139,-0.146000,0.948000,0.200000,192.000000,0.000000,0.000000,0.000000,0.000000,0.000000,0.000000,0.000000,0.000000,0.000000,1646804265.096165,0.000000
145.000000,-2886.057244,8247.480780,4014.216842,16231.322733,-90519.938233,5662.926216,16175.398669,35629.910008,-0.146000,0.948000,0.200000,192.000000,0.000000,0.000000,0.000000,0.000000,0.000000,0.000000,0.000000,0.000000,0.000000,1646804265.103552,0.000000
146.000000,-2888.247715,8250.095934,4014.507415,16234.541385,-90519.714715,5665.116687,16177.365622,35624.724403,-0.146000,0.946000,0.194000,192.000000,251.000000,112.000000,29.000000,144.000000,6.000000,16.000000,0.000000,0.000000,0.000000,1646804265.103565,0.000000
147.000000,-2899.334180,8238.271861,4004.896165,16232.730893,-90507.622422,5662.434478,16171.107134,35622.802153,-0.146000,0.946000,0.194000,192.000000,0.000000,0.000000,0.000000,0.000000,0.000000,0.000000,0.000000,0.000000,0.000000,1646804265.111566,0.000000
148.000000,-2905.413855,8237.109570,3997.162461,16228.461710,-90487.796424,5652.443248,16164.245148,35615.694298,-0.146000,0.946000,0.194000,192.000000,0.000000,0.000000,0.000000,0.000000,0.000000,0.000000,0.000000,0.000000,0.000000,1646804265.111579,0.000000
149.000000,-2902.686942,8240.350573,3999.487042,16234.764902,-90497.787654,5650.096315,16164.289852,35613.660289,-0.146000,0.946000,0.194000,192.000000,0.000000,0.000000,0.000000,0.000000,0.000000,0.000000,0.000000,0.000000,0.000000,1646804265.119598,0.000000
150.000000,-2905.704427,8233.220367,3996.938943,16224.214879,-90497.452378,5655.930120,16166.435619,35618.532970,-0.146000,0.946000,0.194000,192.000000,0.000000,0.000000,0.000000,0.000000,0.000000,0.000000,0.000000,0.000000,0.000000,1646804265.119625,0.000000
151.000000,-2904.184509,8234.784989,3997.810662,16228.506414,-90496.088922,5658.768792,16174.146971,35622.109249,-0.146000,0.946000,0.194000,192.000000,0.000000,0.000000,0.000000,0.000000,0.000000,0.000000,0.000000,0.000000,0.000000,1646804265.126210,0.000000
152.000000,-2905.905593,8232.616870,3997.408330,16230.965105,-90484.689532,5658.545275,16168.380221,35621.662214,-0.146000,0.946000,0.194000,192.000000,0.000000,0.000000,0.000000,0.000000,0.000000,0.000000,0.000000,0.000000,0.000000,1646804265.126223,0.000000
153.000000,-2890.058206,8238.674192,4008.070112,16235.457806,-90485.136567,5657.360632,16175.242206,35623.293891,-0.146000,0.946000,0.194000,192.000000,0.000000,0.000000,0.000000,0.000000,0.000000,0.000000,0.000000,0.000000,0.000000,1646804265.133173,0.000000
154.000000,-2905.100930,8232.572166,3993.340313,16221.398559,-90493.987858,5652.577359,16171.643576,35621.371641,-0.146000,0.946000,0.194000,192.000000,0.000000,0.000000,0.000000,0.000000,0.000000,0.000000,0.000000,0.000000,0.000000,1646804265.133185,0.000000
155.000000,-2898.551869,8240.395277,3999.844670,16223.969009,-90508.851768,5654.343147,16171.665927,35622.556284,-0.146000,0.946000,0.194000,192.000000,0.000000,0.000000,0.000000,0.000000,0.000000,0.000000,0.000000,0.000000,0.000000,1646804265.141266,0.000000
156.000000,-2892.405139,8245.782047,4003.488005,16234.653143,-90514.663221,5658.768792,16170.235416,35624.657348,-0.150000,0.956000,0.198000,192.000000,251.000000,80.000000,29.000000,224.000000,6.000000,48.000000,0.000000,0.000000,0.000000,1646804265.148429,0.000000
157.000000,-2899.311829,8246.720820,3995.173156,16234.608440,-90498.301744,5652.398545,16168.603738,35621.148124,-0.150000,0.956000,0.198000,192.000000,0.000000,0.000000,0.000000,0.000000,0.000000,0.000000,0.000000,0.000000,0.000000,1646804265.148442,0.000000
158.000000,-2898.015427,8236.707239,3997.631848,16227.813509,-90477.246401,5653.672594,16169.497808,35624.187961,-0.150000,0.956000,0.198000,192.000000,0.000000,0.000000,0.000000,0.000000,0.000000,0.000000,0.000000,0.000000,0.000000,1646804265.155853,0.000000
159.000000,-2902.329314,8229.353515,3997.743606,16223.589030,-90482.677875,5654.097277,16174.795172,35618.018880,-0.150000,0.956000,0.198000,192.000000,0.000000,0.000000,0.000000,0.000000,0.000000,0.000000,0.000000,0.000000,0.000000,1646804265.155865,0.000000
160.000000,-2907.201994,8228.168872,3998.034179,16222.873774,-90498.525262,5658.500571,16174.750468,35608.854664,-0.150000,0.956000,0.198000,192.000000,0.000000,0.000000,0.000000,0.000000,0.000000,0.000000,0.000000,0.000000,0.000000,1646804265.163879,0.000000
161.000000,-2911.918212,8222.558585,3988.378225,16221.063283,-90495.999515,5655.170161,16170.235416,35606.418324,-0.150000,0.956000,0.198000,192.000000,0.000000,0.000000,0.000000,0.000000,0.000000,0.000000,0.000000,0.000000,0.000000,1646804265.163892,0.000000
162.000000,-2900.697637,8229.599384,3994.524955,16221.756187,-90498.994648,5661.696871,16179.556093,35625.417307,-0.150000,0.956000,0.198000,192.000000,0.000000,0.000000,0.000000,0.000000,0.000000,0.000000,0.000000,0.000000,0.000000,1646804265.171886,0.000000
163.000000,-2902.865756,8228.548852,3996.134281,16227.724102,-90481.560288,5664.557894,16168.156703,35631.362871,-0.150000,0.956000,0.198000,192.000000,0.000000,0.000000,0.000000,0.000000,0.000000,0.000000,0.000000,0.000000,0.000000,1646804265.171898,0.000000
164.000000,-2895.132052,8236.640184,4004.829109,16229.624001,-90484.220145,5668.335339,16181.478343,35627.652482,-0.150000,0.956000,0.198000,192.000000,0.000000,0.000000,0.000000,0.000000,0.000000,0.000000,0.000000,0.000000,0.000000,1646804265.178490,0.000000
165.000000,-2895.064997,8234.226195,4000.090539,16224.416044,-90501.073361,5662.501533,16172.180017,35621.058717,-0.150000,0.956000,0.198000,192.000000,0.000000,0.000000,0.000000,0.000000,0.000000,0.000000,0.000000,0.000000,0.000000,1646804265.178503,0.000000
