%OpenBCI Raw EEG Data
%Number of channels = 8
%Sample Rate = 256 Hz
%Board = OpenBCI_GUI$BoardCytonSerial
%Channels = Fp1, Fp2, F3, F4, Fz, Pz, O1, O2
%Data recorded at AIMS Lab (http://aimsl.uiu.ac.bd) by Rana Depto (mail@ranadepto.com)
%Brainwaves were obtained via the Ultracortex Mark IV Headset using the OpenBCI Cyton Board
%Recording Application = ConcentrateToday (https://concentrate.today)
%Data type = RAW data with noise
%Day No = 10
%Subject ID = 6
%Session ID = 7
%Record starting timestamp (UTC+6) = 2022-03-30T16:11:24.186941
%Record ending timestamp (UTC+6)   = 2022-03-30T16:11:55.034711
%Recorded durations = ~30 seconds
Sample Index, EXG Channel 0, EXG Channel 1, EXG Channel 2, EXG Channel 3, EXG Channel 4, EXG Channel 5, EXG Channel 6, EXG Channel 7, Accel Channel 0, Accel Channel 1, Accel Channel 2, Other, Other, Other, Other, Other, Other, Other, Analog Channel 0, Analog Channel 1, Analog Channel 2, Timestamp, Timestamp (Formatted)
218.000000,347.569626,-559.665329,-1731.142608,528.596405,-31114.522352,37482.869623,1441.218131,-18738.473205,0.168000,0.954000,0.208000,192.000000,0.000000,0.000000,0.000000,0.000000,0.000000,0.000000,0.000000,0.000000,0.000000,1648635084.187298,0.000000
219.000000,342.987519,-568.226048,-1740.686803,512.525500,-31123.552456,37472.006675,1405.500043,-18763.529511,0.168000,0.954000,0.208000,192.000000,0.000000,0.000000,0.000000,0.000000,0.000000,0.000000,0.000000,0.000000,0.000000,1648635084.187310,0.000000
220.000000,340.327661,-570.841202,-1746.766477,501.059055,-31132.448451,37458.528573,1388.736235,-18766.345831,0.168000,0.954000,0.208000,192.000000,0.000000,0.000000,0.000000,0.000000,0.000000,0.000000,0.000000,0.000000,0.000000,1648635084.195111,0.000000
221.000000,343.970995,-559.128888,-1738.094001,533.312623,-31117.182209,37469.771501,1428.030602,-18731.253592,0.168000,0.954000,0.208000,192.000000,0.000000,0.000000,0.000000,0.000000,0.000000,0.000000,0.000000,0.000000,0.000000,1648635084.195118,0.000000
222.000000,342.071097,-563.107498,-1737.892835,529.959861,-31116.511657,37477.035818,1437.083058,-18726.090339,0.168000,0.954000,0.208000,192.000000,0.000000,0.000000,0.000000,0.000000,0.000000,0.000000,0.000000,0.000000,0.000000,1648635084.203123,0.000000
223.000000,344.194513,-563.956864,-1740.440934,519.722762,-31122.859552,37470.643219,1425.348392,-18740.283697,0.164000,0.956000,0.212000,192.000000,5.000000,32.000000,29.000000,224.000000,6.000000,160.000000,0.000000,0.000000,0.000000,1648635084.203129,0.000000
224.000000,339.813571,-564.962693,-1746.699422,514.715971,-31124.401823,37470.263239,1419.671049,-18740.171938,0.164000,0.956000,0.212000,192.000000,0.000000,0.000000,0.000000,0.000000,0.000000,0.000000,0.000000,0.000000,0.000000,1648635084.209759,0.000000
225.000000,338.248949,-565.342673,-1746.319443,513.553681,-31127.464012,37468.050416,1418.911090,-18740.864842,0.164000,0.956000,0.212000,192.000000,0.000000,0.000000,0.000000,0.000000,0.000000,0.000000,0.000000,0.000000,0.000000,1648635084.209765,0.000000
226.000000,338.584225,-567.041405,-1747.280568,515.051247,-31125.452355,37472.409007,1416.005363,-18745.290487,0.164000,0.956000,0.212000,192.000000,0.000000,0.000000,0.000000,0.000000,0.000000,0.000000,0.000000,0.000000,0.000000,1648635084.217763,0.000000
227.000000,337.578397,-569.231876,-1747.861713,517.420532,-31126.234666,37470.106777,1406.729389,-18756.444008,0.164000,0.956000,0.212000,192.000000,0.000000,0.000000,0.000000,0.000000,0.000000,0.000000,0.000000,0.000000,0.000000,1648635084.217769,0.000000
228.000000,334.940891,-572.919914,-1752.980262,506.937564,-31132.135526,37467.871603,1411.646773,-18760.400267,0.164000,0.956000,0.212000,192.000000,0.000000,0.000000,0.000000,0.000000,0.000000,0.000000,0.000000,0.000000,0.000000,1648635084.225798,0.000000
229.000000,329.710582,-574.708053,-1753.226132,503.763617,-31131.889657,37469.704446,1413.300802,-18759.685011,0.164000,0.956000,0.212000,192.000000,0.000000,0.000000,0.000000,0.000000,0.000000,0.000000,0.000000,0.000000,0.000000,1648635084.225807,0.000000
230.000000,334.270338,-568.315455,-1750.633329,508.211614,-31133.655445,37463.825937,1404.829491,-18755.706400,0.164000,0.956000,0.212000,192.000000,0.000000,0.000000,0.000000,0.000000,0.000000,0.000000,0.000000,0.000000,0.000000,1648635084.232952,0.000000
231.000000,334.985594,-567.242571,-1753.404946,509.373904,-31132.962541,37462.596591,1411.713828,-18760.243804,0.164000,0.956000,0.212000,192.000000,0.000000,0.000000,0.000000,0.000000,0.000000,0.000000,0.000000,0.000000,0.000000,1648635084.232958,0.000000
232.000000,335.611443,-568.181344,-1757.003576,507.250489,-31135.667102,37458.640332,1399.710941,-18761.741371,0.164000,0.956000,0.212000,192.000000,0.000000,0.000000,0.000000,0.000000,0.000000,0.000000,0.000000,0.000000,0.000000,1648635084.239360,0.000000
233.000000,336.170237,-568.069585,-1748.934597,509.977401,-31132.180230,37460.584934,1392.983066,-18757.785113,0.170000,0.956000,0.212000,192.000000,5.000000,80.000000,29.000000,224.000000,6.000000,160.000000,0.000000,0.000000,0.000000,1648635084.247444,0.000000
234.000000,333.152751,-572.294065,-1750.342757,507.317544,-31132.001416,37465.837594,1415.513625,-18751.325458,0.170000,0.956000,0.212000,192.000000,0.000000,0.000000,0.000000,0.000000,0.000000,0.000000,0.000000,0.000000,0.000000,1648635084.247451,0.000000
235.000000,333.778600,-573.724577,-1751.080364,503.405989,-31133.610741,37466.351684,1412.831415,-18742.116540,0.170000,0.956000,0.212000,192.000000,0.000000,0.000000,0.000000,0.000000,0.000000,0.000000,0.000000,0.000000,0.000000,1648635084.255437,0.000000
236.000000,336.147885,-570.818850,-1749.269873,502.176643,-31134.482459,37463.580068,1409.903337,-18739.993124,0.170000,0.956000,0.212000,192.000000,0.000000,0.000000,0.000000,0.000000,0.000000,0.000000,0.000000,0.000000,0.000000,1648635084.255443,0.000000
237.000000,335.343222,-571.467050,-1750.789791,499.650896,-31133.275465,37465.077634,1412.742008,-18748.084456,0.170000,0.956000,0.212000,192.000000,0.000000,0.000000,0.000000,0.000000,0.000000,0.000000,0.000000,0.000000,0.000000,1648635084.261976,0.000000
238.000000,339.768867,-563.688643,-1745.201855,504.747093,-31128.983930,37462.306018,1398.950982,-18760.512025,0.170000,0.956000,0.212000,192.000000,0.000000,0.000000,0.000000,0.000000,0.000000,0.000000,0.000000,0.000000,0.000000,1648635084.261983,0.000000
239.000000,333.242158,-572.137603,-1753.069669,489.369093,-31134.840087,37462.618943,1397.699284,-18774.012479,0.170000,0.956000,0.212000,192.000000,0.000000,0.000000,0.000000,0.000000,0.000000,0.000000,0.000000,0.000000,0.000000,1648635084.270055,0.000000
240.000000,330.895225,-574.037501,-1759.484620,500.880241,-31138.416366,37459.824975,1392.088996,-18766.837569,0.170000,0.956000,0.212000,192.000000,0.000000,0.000000,0.000000,0.000000,0.000000,0.000000,0.000000,0.000000,0.000000,1648635084.270060,0.000000
241.000000,337.533693,-570.863553,-1753.628463,506.937564,-31134.996549,37462.171908,1411.065627,-18746.028095,0.170000,0.956000,0.212000,192.000000,0.000000,0.000000,0.000000,0.000000,0.000000,0.000000,0.000000,0.000000,0.000000,1648635084.278107,0.000000
242.000000,345.088583,-565.543838,-1739.300995,512.659611,-31123.373642,37474.688885,1429.528168,-18742.295354,0.170000,0.956000,0.212000,192.000000,0.000000,0.000000,0.000000,0.000000,0.000000,0.000000,0.000000,0.000000,0.000000,1648635084.278129,0.000000
243.000000,342.562836,-568.427213,-1744.911283,504.948259,-31127.061680,37471.760806,1418.911090,-18754.544110,0.170000,0.954000,0.216000,192.000000,5.000000,80.000000,29.000000,208.000000,6.000000,192.000000,0.000000,0.000000,0.000000,1648635084.285251,0.000000
244.000000,338.740687,-569.164821,-1749.985129,505.797625,-31128.402785,37465.167041,1402.862537,-18759.752066,0.170000,0.954000,0.216000,192.000000,0.000000,0.000000,0.000000,0.000000,0.000000,0.000000,0.000000,0.000000,0.000000,1648635084.285256,0.000000
245.000000,334.180931,-575.155088,-1756.981225,499.785006,-31134.281294,37461.389597,1391.150223,-18770.123276,0.170000,0.954000,0.216000,192.000000,0.000000,0.000000,0.000000,0.000000,0.000000,0.000000,0.000000,0.000000,0.000000,1648635084.292679,0.000000
246.000000,342.339318,-568.918952,-1748.509914,501.304925,-31131.353215,37462.954219,1400.426197,-18765.429409,0.170000,0.954000,0.216000,192.000000,0.000000,0.000000,0.000000,0.000000,0.000000,0.000000,0.000000,0.000000,0.000000,1648635084.292684,0.000000
247.000000,332.281033,-578.709016,-1761.630388,485.792814,-31139.466898,37462.395425,1409.456302,-18764.334174,0.170000,0.954000,0.216000,192.000000,0.000000,0.000000,0.000000,0.000000,0.000000,0.000000,0.000000,0.000000,0.000000,1648635084.299767,0.000000
248.000000,335.142056,-573.143431,-1757.875294,490.307866,-31138.326959,37461.747225,1409.903337,-18763.864787,0.170000,0.954000,0.216000,192.000000,0.000000,0.000000,0.000000,0.000000,0.000000,0.000000,0.000000,0.000000,0.000000,1648635084.307726,0.000000
249.000000,338.472466,-569.321283,-1758.501143,496.901631,-31136.784689,37462.015445,1408.584584,-18763.373049,0.170000,0.954000,0.216000,192.000000,0.000000,0.000000,0.000000,0.000000,0.000000,0.000000,0.000000,0.000000,0.000000,1648635084.307730,0.000000
250.000000,344.820362,-563.554533,-1753.986091,503.428340,-31132.761375,37467.178698,1414.708962,-18763.328345,0.170000,0.954000,0.216000,192.000000,0.000000,0.000000,0.000000,0.000000,0.000000,0.000000,0.000000,0.000000,0.000000,1648635084.314958,0.000000
251.000000,340.729992,-569.231876,-1756.221265,498.376846,-31135.175363,37467.022236,1406.617630,-18770.257386,0.170000,0.954000,0.216000,192.000000,0.000000,0.000000,0.000000,0.000000,0.000000,0.000000,0.000000,0.000000,0.000000,1648635084.314965,0.000000
252.000000,333.197455,-576.049158,-1758.143515,498.354494,-31133.610741,37470.754978,1413.010229,-18760.288508,0.170000,0.954000,0.216000,192.000000,0.000000,0.000000,0.000000,0.000000,0.000000,0.000000,0.000000,0.000000,0.000000,1648635084.322401,0.000000
253.000000,334.762077,-577.882001,-1756.176562,496.789872,-31133.543686,37465.748187,1410.082151,-18768.022212,0.162000,0.956000,0.218000,192.000000,5.000000,16.000000,29.000000,224.000000,6.000000,208.000000,0.000000,0.000000,0.000000,1648635084.322420,0.000000
254.000000,330.783466,-584.364007,-1758.635254,482.082424,-31137.723462,37463.445957,1405.455340,-18779.466305,0.162000,0.956000,0.218000,192.000000,0.000000,0.000000,0.000000,0.000000,0.000000,0.000000,0.000000,0.000000,0.000000,1648635084.330326,0.000000
255.000000,325.575510,-592.321228,-1762.077422,475.376901,-31140.182154,37456.405158,1383.528278,-18786.887084,0.162000,0.956000,0.218000,192.000000,0.000000,0.000000,0.000000,0.000000,0.000000,0.000000,0.000000,0.000000,0.000000,1648635084.330332,0.000000
0.000000,333.465676,-583.425234,-1758.009405,499.002695,-31131.912009,37456.226344,1387.216316,-18766.658755,0.162000,0.956000,0.218000,192.000000,0.000000,0.000000,0.000000,0.000000,0.000000,0.000000,0.000000,0.000000,0.000000,1648635084.338411,0.000000
1.000000,341.512304,-577.770242,-1750.298053,500.701428,-31122.323110,37469.570335,1411.825587,-18742.742389,0.162000,0.956000,0.218000,192.000000,0.000000,0.000000,0.000000,0.000000,0.000000,0.000000,0.000000,0.000000,0.000000,1648635084.338420,0.000000
2.000000,336.483161,-581.659446,-1755.148382,493.928849,-31125.899389,37473.124262,1416.184177,-18747.615069,0.162000,0.956000,0.218000,192.000000,0.000000,0.000000,0.000000,0.000000,0.000000,0.000000,0.000000,0.000000,0.000000,1648635084.344964,0.000000
3.000000,340.282958,-579.670141,-1749.068707,498.689771,-31121.853724,37477.974591,1422.219148,-18741.066008,0.162000,0.956000,0.218000,192.000000,0.000000,0.000000,0.000000,0.000000,0.000000,0.000000,0.000000,0.000000,0.000000,1648635084.344969,0.000000
4.000000,344.663900,-573.009321,-1746.207684,500.232041,-31120.579674,37479.203937,1424.521378,-18741.356580,0.162000,0.956000,0.218000,192.000000,0.000000,0.000000,0.000000,0.000000,0.000000,0.000000,0.000000,0.000000,0.000000,1648635084.352924,0.000000
5.000000,341.445248,-575.244495,-1749.605149,494.711160,-31125.787631,37479.785082,1421.995631,-18756.891043,0.162000,0.956000,0.218000,192.000000,0.000000,0.000000,0.000000,0.000000,0.000000,0.000000,0.000000,0.000000,0.000000,1648635084.352928,0.000000
6.000000,342.786353,-573.255190,-1748.286396,501.215518,-31124.021843,37479.740379,1403.734255,-18772.470209,0.162000,0.956000,0.218000,192.000000,0.000000,0.000000,0.000000,0.000000,0.000000,0.000000,0.000000,0.000000,0.000000,1648635084.359985,0.000000
7.000000,353.649301,-561.855800,-1739.457457,512.167872,-31115.170552,37482.601402,1411.087979,-18751.794845,0.162000,0.956000,0.216000,192.000000,5.000000,16.000000,29.000000,224.000000,6.000000,192.000000,0.000000,0.000000,0.000000,1648635084.368033,0.000000
8.000000,361.986501,-552.579826,-1731.746105,522.024992,-31107.503904,37491.989135,1423.627308,-18731.074778,0.162000,0.956000,0.216000,192.000000,0.000000,0.000000,0.000000,0.000000,0.000000,0.000000,0.000000,0.000000,0.000000,1648635084.368037,0.000000
9.000000,362.031205,-552.289254,-1731.924919,518.180492,-31109.068526,37490.737437,1414.373686,-18738.160281,0.162000,0.956000,0.216000,192.000000,0.000000,0.000000,0.000000,0.000000,0.000000,0.000000,0.000000,0.000000,0.000000,1648635084.374600,0.000000
10.000000,354.632778,-555.977292,-1738.719849,513.710143,-31113.829447,37480.030952,1401.968467,-18752.487749,0.162000,0.956000,0.216000,192.000000,0.000000,0.000000,0.000000,0.000000,0.000000,0.000000,0.000000,0.000000,0.000000,1648635084.374606,0.000000
11.000000,352.151734,-559.508867,-1739.233940,508.926870,-31116.019918,37472.453710,1405.455340,-18758.522720,0.162000,0.956000,0.216000,192.000000,0.000000,0.000000,0.000000,0.000000,0.000000,0.000000,0.000000,0.000000,0.000000,1648635084.383999,0.000000
12.000000,342.138152,-570.483574,-1750.387460,494.934677,-31127.329901,37462.797757,1390.882002,-18774.325403,0.162000,0.956000,0.216000,192.000000,0.000000,0.000000,0.000000,0.000000,0.000000,0.000000,0.000000,0.000000,0.000000,1648635084.384005,0.000000
13.000000,337.690155,-576.809117,-1756.377728,490.620791,-31132.336692,37462.037797,1405.701209,-18764.557691,0.162000,0.956000,0.216000,192.000000,0.000000,0.000000,0.000000,0.000000,0.000000,0.000000,0.000000,0.000000,0.000000,1648635084.390609,0.000000
14.000000,336.036126,-573.255190,-1752.108544,496.991038,-31128.201619,37467.089291,1426.041296,-18764.669450,0.162000,0.956000,0.216000,192.000000,0.000000,0.000000,0.000000,0.000000,0.000000,0.000000,0.000000,0.000000,0.000000,1648635084.390613,0.000000
15.000000,336.885492,-569.969484,-1746.475905,498.980343,-31122.211352,37466.374036,1409.568061,-18774.727735,0.162000,0.956000,0.216000,192.000000,0.000000,0.000000,0.000000,0.000000,0.000000,0.000000,0.000000,0.000000,0.000000,1648635084.397247,0.000000
16.000000,341.467600,-566.594370,-1749.605149,496.879279,-31121.585503,37465.859946,1405.388284,-18767.284604,0.162000,0.956000,0.216000,192.000000,0.000000,0.000000,0.000000,0.000000,0.000000,0.000000,0.000000,0.000000,0.000000,1648635084.397252,0.000000
17.000000,341.422897,-565.767356,-1747.347623,494.889974,-31122.792497,37466.999884,1408.226956,-18765.898796,0.160000,0.952000,0.212000,192.000000,5.000000,0.000000,29.000000,192.000000,6.000000,160.000000,0.000000,0.000000,0.000000,1648635084.405233,0.000000
18.000000,343.412202,-563.912161,-1745.783001,495.404064,-31120.244398,37464.496489,1390.882002,-18774.057183,0.160000,0.952000,0.212000,192.000000,0.000000,0.000000,0.000000,0.000000,0.000000,0.000000,0.000000,0.000000,0.000000,1648635084.405237,0.000000
19.000000,348.463696,-555.910236,-1738.608091,515.475931,-31111.728384,37465.904649,1380.734310,-18780.695651,0.160000,0.952000,0.212000,192.000000,0.000000,0.000000,0.000000,0.000000,0.000000,0.000000,0.000000,0.000000,0.000000,1648635084.413224,0.000000
20.000000,343.769830,-562.481649,-1742.743163,510.625602,-31113.762392,37473.124262,1397.006380,-18776.694688,0.160000,0.952000,0.212000,192.000000,0.000000,0.000000,0.000000,0.000000,0.000000,0.000000,0.000000,0.000000,0.000000,1648635084.413229,0.000000
21.000000,335.499684,-572.450527,-1755.550713,495.672285,-31125.631169,37469.592687,1403.846014,-18779.198084,0.160000,0.952000,0.212000,192.000000,0.000000,0.000000,0.000000,0.000000,0.000000,0.000000,0.000000,0.000000,0.000000,1648635084.420409,0.000000
22.000000,328.704754,-579.983065,-1763.977321,484.049378,-31137.678759,37460.137899,1395.039427,-18786.060069,0.160000,0.952000,0.212000,192.000000,0.000000,0.000000,0.000000,0.000000,0.000000,0.000000,0.000000,0.000000,0.000000,1648635084.426900,0.000000
23.000000,334.404449,-572.986969,-1753.181428,493.973552,-31129.430965,37461.993094,1391.686665,-18785.233055,0.160000,0.952000,0.212000,192.000000,0.000000,0.000000,0.000000,0.000000,0.000000,0.000000,0.000000,0.000000,0.000000,1648635084.426905,0.000000
24.000000,338.181894,-568.628379,-1749.336928,500.701428,-31124.714747,37466.977533,1410.998572,-18782.014404,0.160000,0.952000,0.212000,192.000000,0.000000,0.000000,0.000000,0.000000,0.000000,0.000000,0.000000,0.000000,0.000000,1648635084.434910,0.000000
25.000000,337.757210,-570.148298,-1755.595416,490.821956,-31125.586465,37465.792890,1399.286258,-18785.121296,0.160000,0.952000,0.212000,192.000000,0.000000,0.000000,0.000000,0.000000,0.000000,0.000000,0.000000,0.000000,0.000000,1648635084.434915,0.000000
26.000000,345.312100,-566.348501,-1749.448687,496.521651,-31119.260921,37464.317675,1391.194927,-18781.366203,0.160000,0.952000,0.212000,192.000000,0.000000,0.000000,0.000000,0.000000,0.000000,0.000000,0.000000,0.000000,0.000000,1648635084.442891,0.000000
27.000000,349.000138,-565.990873,-1743.011384,502.869547,-31114.187075,37469.324466,1390.703188,-18772.045526,0.160000,0.952000,0.212000,192.000000,0.000000,0.000000,0.000000,0.000000,0.000000,0.000000,0.000000,0.000000,0.000000,1648635084.442896,0.000000
28.000000,344.172161,-569.835373,-1745.760649,500.366151,-31115.908160,37470.978495,1395.262944,-18767.485770,0.160000,0.950000,0.202000,192.000000,5.000000,0.000000,29.000000,176.000000,6.000000,80.000000,0.000000,0.000000,0.000000,1648635084.450080,0.000000
29.000000,338.159542,-576.384434,-1753.874332,495.515823,-31118.925645,37471.514937,1418.598165,-18777.432296,0.160000,0.950000,0.202000,192.000000,0.000000,0.000000,0.000000,0.000000,0.000000,0.000000,0.000000,0.000000,0.000000,1648635084.450085,0.000000
30.000000,337.645452,-578.686664,-1752.756745,488.586782,-31121.831372,37471.760806,1415.044238,-18770.190331,0.160000,0.950000,0.202000,192.000000,0.000000,0.000000,0.000000,0.000000,0.000000,0.000000,0.000000,0.000000,0.000000,1648635084.457493,0.000000
31.000000,336.237292,-578.619609,-1754.678995,484.317599,-31124.446526,37471.581992,1400.403845,-18756.555767,0.160000,0.950000,0.202000,192.000000,0.000000,0.000000,0.000000,0.000000,0.000000,0.000000,0.000000,0.000000,0.000000,1648635084.457497,0.000000
32.000000,338.651280,-574.037501,-1751.817972,493.504166,-31121.250227,37471.514937,1397.364008,-18754.700572,0.160000,0.950000,0.202000,192.000000,0.000000,0.000000,0.000000,0.000000,0.000000,0.000000,0.000000,0.000000,0.000000,1648635084.465533,0.000000
33.000000,339.143019,-574.126908,-1754.276664,491.134881,-31123.284235,37472.386655,1410.864462,-18759.528549,0.160000,0.950000,0.202000,192.000000,0.000000,0.000000,0.000000,0.000000,0.000000,0.000000,0.000000,0.000000,0.000000,1648635084.465537,0.000000
34.000000,341.512304,-570.327112,-1751.974434,496.812224,-31119.953825,37473.683056,1416.765322,-18752.644211,0.160000,0.950000,0.202000,192.000000,0.000000,0.000000,0.000000,0.000000,0.000000,0.000000,0.000000,0.000000,0.000000,1648635084.473484,0.000000
35.000000,334.672670,-573.635170,-1755.774230,494.800567,-31122.144296,37475.448844,1411.959697,-18761.182578,0.160000,0.950000,0.202000,192.000000,0.000000,0.000000,0.000000,0.000000,0.000000,0.000000,0.000000,0.000000,0.000000,1648635084.473488,0.000000
36.000000,339.992385,-575.490364,-1751.236826,483.468233,-31125.050023,37475.627658,1418.531110,-18750.006706,0.160000,0.950000,0.202000,192.000000,0.000000,0.000000,0.000000,0.000000,0.000000,0.000000,0.000000,0.000000,0.000000,1648635084.479636,0.000000
37.000000,337.109010,-573.657521,-1753.628463,489.592611,-31124.044195,37477.080521,1413.479616,-18760.377915,0.160000,0.950000,0.202000,192.000000,0.000000,0.000000,0.000000,0.000000,0.000000,0.000000,0.000000,0.000000,0.000000,1648635084.479641,0.000000
38.000000,337.556045,-567.533143,-1754.656643,506.803454,-31121.361985,37471.716103,1406.841148,-18769.743296,0.160000,0.948000,0.210000,192.000000,5.000000,0.000000,29.000000,160.000000,6.000000,144.000000,0.000000,0.000000,0.000000,1648635084.487136,0.000000
39.000000,337.109010,-570.170649,-1752.868504,499.650896,-31121.049061,37471.984323,1405.500043,-18764.133008,0.160000,0.948000,0.210000,192.000000,0.000000,0.000000,0.000000,0.000000,0.000000,0.000000,0.000000,0.000000,0.000000,1648635084.495159,0.000000
40.000000,333.957414,-570.058891,-1753.650815,497.169852,-31120.758488,37472.386655,1401.029694,-18766.904624,0.160000,0.948000,0.210000,192.000000,0.000000,0.000000,0.000000,0.000000,0.000000,0.000000,0.000000,0.000000,0.000000,1648635084.495163,0.000000
41.000000,335.902016,-564.359196,-1750.610977,502.310753,-31116.332843,37471.984323,1399.040389,-18768.223377,0.160000,0.948000,0.210000,192.000000,0.000000,0.000000,0.000000,0.000000,0.000000,0.000000,0.000000,0.000000,0.000000,1648635084.503111,0.000000
42.000000,337.779562,-567.220219,-1753.963739,496.342837,-31122.747794,37467.648085,1387.819813,-18778.952215,0.160000,0.948000,0.210000,192.000000,0.000000,0.000000,0.000000,0.000000,0.000000,0.000000,0.000000,0.000000,0.000000,1648635084.503115,0.000000
43.000000,334.695021,-575.177440,-1756.444783,484.027026,-31129.632131,37465.412911,1379.862592,-18786.238883,0.160000,0.948000,0.210000,192.000000,0.000000,0.000000,0.000000,0.000000,0.000000,0.000000,0.000000,0.000000,0.000000,1648635084.509672,0.000000
44.000000,327.855388,-585.459243,-1764.781983,472.091195,-31138.326959,37463.334198,1394.413578,-18784.495447,0.160000,0.948000,0.210000,192.000000,0.000000,0.000000,0.000000,0.000000,0.000000,0.000000,0.000000,0.000000,0.000000,1648635084.509676,0.000000
45.000000,334.449152,-578.396091,-1758.903475,484.362302,-31131.844954,37464.809414,1401.007342,-18772.000822,0.160000,0.948000,0.210000,192.000000,0.000000,0.000000,0.000000,0.000000,0.000000,0.000000,0.000000,0.000000,0.000000,1648635084.517708,0.000000
46.000000,336.751382,-574.842164,-1757.115335,491.939544,-31124.938264,37467.357512,1398.727465,-18766.904624,0.160000,0.948000,0.210000,192.000000,0.000000,0.000000,0.000000,0.000000,0.000000,0.000000,0.000000,0.000000,0.000000,1648635084.517712,0.000000
47.000000,335.790257,-573.970446,-1753.539056,493.526518,-31123.597160,37469.793853,1409.031619,-18760.959060,0.160000,0.948000,0.210000,192.000000,0.000000,0.000000,0.000000,0.000000,0.000000,0.000000,0.000000,0.000000,0.000000,1648635084.525765,0.000000
48.000000,336.796085,-570.841202,-1751.482696,493.571221,-31123.932436,37467.469271,1409.031619,-18762.188406,0.158000,0.954000,0.210000,192.000000,4.000000,240.000000,29.000000,208.000000,6.000000,144.000000,0.000000,0.000000,0.000000,1648635084.525769,0.000000
49.000000,341.936987,-564.202734,-1745.537131,502.042532,-31115.930511,37470.620867,1412.719657,-18774.101886,0.158000,0.954000,0.210000,192.000000,0.000000,0.000000,0.000000,0.000000,0.000000,0.000000,0.000000,0.000000,0.000000,1648635084.532403,0.000000
50.000000,342.920463,-562.079318,-1744.553655,502.713085,-31116.221084,37466.709312,1406.058837,-18788.719927,0.158000,0.954000,0.210000,192.000000,0.000000,0.000000,0.000000,0.000000,0.000000,0.000000,0.000000,0.000000,0.000000,1648635084.532407,0.000000
51.000000,344.149809,-560.604103,-1742.787867,506.468178,-31113.829447,37472.006675,1404.047180,-18773.341927,0.158000,0.954000,0.210000,192.000000,0.000000,0.000000,0.000000,0.000000,0.000000,0.000000,0.000000,0.000000,0.000000,1648635084.540419,0.000000
52.000000,336.907844,-568.226048,-1748.599320,498.622715,-31119.462087,37475.292382,1402.191985,-18764.244767,0.158000,0.954000,0.210000,192.000000,0.000000,0.000000,0.000000,0.000000,0.000000,0.000000,0.000000,0.000000,0.000000,1648635084.540424,0.000000
53.000000,331.051687,-571.779975,-1751.013309,493.861794,-31127.843991,37470.196184,1416.407694,-18752.979488,0.158000,0.954000,0.210000,192.000000,0.000000,0.000000,0.000000,0.000000,0.000000,0.000000,0.000000,0.000000,0.000000,1648635084.547472,0.000000
54.000000,335.052649,-562.056966,-1741.647928,503.964782,-31123.954788,37475.426492,1453.600997,-18724.592772,0.158000,0.954000,0.210000,192.000000,0.000000,0.000000,0.000000,0.000000,0.000000,0.000000,0.000000,0.000000,0.000000,1648635084.555439,0.000000
55.000000,341.601711,-562.504001,-1734.227149,505.104721,-31117.137506,37478.198108,1437.105410,-18724.592772,0.158000,0.954000,0.210000,192.000000,0.000000,0.000000,0.000000,0.000000,0.000000,0.000000,0.000000,0.000000,0.000000,1648635084.555443,0.000000
56.000000,344.283920,-562.861629,-1736.082344,515.945317,-31116.154029,37475.962934,1430.757514,-18740.127234,0.158000,0.954000,0.210000,192.000000,0.000000,0.000000,0.000000,0.000000,0.000000,0.000000,0.000000,0.000000,0.000000,1648635084.562128,0.000000
57.000000,345.401507,-561.945207,-1733.288376,521.443846,-31115.975215,37477.885184,1443.810933,-18729.264287,0.158000,0.954000,0.210000,192.000000,0.000000,0.000000,0.000000,0.000000,0.000000,0.000000,0.000000,0.000000,0.000000,1648635084.562133,0.000000
58.000000,344.216865,-560.894675,-1732.103733,522.092047,-31115.170552,37480.232117,1442.782753,-18724.123385,0.156000,0.952000,0.212000,192.000000,4.000000,224.000000,29.000000,192.000000,6.000000,160.000000,0.000000,0.000000,0.000000,1648635084.569992,0.000000
59.000000,343.523961,-563.174553,-1733.802466,519.454541,-31122.367814,37470.531460,1435.116104,-18729.040769,0.156000,0.952000,0.212000,192.000000,0.000000,0.000000,0.000000,0.000000,0.000000,0.000000,0.000000,0.000000,0.000000,1648635084.569996,0.000000
60.000000,342.875760,-565.141507,-1737.579910,521.220329,-31123.641863,37464.384730,1418.464055,-18743.658810,0.156000,0.952000,0.212000,192.000000,0.000000,0.000000,0.000000,0.000000,0.000000,0.000000,0.000000,0.000000,0.000000,1648635084.578037,0.000000
61.000000,337.667803,-569.768318,-1738.921015,520.192149,-31122.770145,37467.402216,1415.535976,-18742.205947,0.156000,0.952000,0.212000,192.000000,0.000000,0.000000,0.000000,0.000000,0.000000,0.000000,0.000000,0.000000,0.000000,1648635084.578041,0.000000
62.000000,337.019603,-572.361120,-1741.424411,517.644050,-31127.955750,37462.998922,1417.100598,-18736.573307,0.156000,0.952000,0.212000,192.000000,0.000000,0.000000,0.000000,0.000000,0.000000,0.000000,0.000000,0.000000,0.000000,1648635084.585118,0.000000
63.000000,334.158580,-576.831469,-1741.536169,509.262146,-31130.950884,37463.825937,1405.567098,-18742.742389,0.156000,0.952000,0.212000,192.000000,0.000000,0.000000,0.000000,0.000000,0.000000,0.000000,0.000000,0.000000,0.000000,1648635084.585122,0.000000
64.000000,337.421934,-572.115251,-1736.976413,517.085256,-31127.843991,37458.975608,1393.206584,-18753.560633,0.156000,0.952000,0.212000,192.000000,0.000000,0.000000,0.000000,0.000000,0.000000,0.000000,0.000000,0.000000,0.000000,1648635084.592652,0.000000
65.000000,340.819399,-565.208562,-1729.488579,524.461332,-31121.026709,37459.467347,1401.633191,-18748.911470,0.156000,0.952000,0.212000,192.000000,0.000000,0.000000,0.000000,0.000000,0.000000,0.000000,0.000000,0.000000,0.000000,1648635084.592663,0.000000
66.000000,342.451077,-559.173591,-1724.928823,533.111457,-31113.807096,37462.641294,1403.644848,-18743.189423,0.156000,0.952000,0.212000,192.000000,0.000000,0.000000,0.000000,0.000000,0.000000,0.000000,0.000000,0.000000,0.000000,1648635084.600667,0.000000
67.000000,341.221731,-559.888847,-1725.420561,531.882111,-31114.544703,37460.629637,1397.162842,-18747.704476,0.156000,0.952000,0.212000,192.000000,0.000000,0.000000,0.000000,0.000000,0.000000,0.000000,0.000000,0.000000,0.000000,1648635084.600671,0.000000
68.000000,335.142056,-567.331978,-1735.165922,519.029858,-31125.631169,37450.884277,1391.217278,-18754.611165,0.162000,0.950000,0.206000,192.000000,5.000000,16.000000,29.000000,176.000000,6.000000,112.000000,0.000000,0.000000,0.000000,1648635084.607696,0.000000
69.000000,334.292690,-568.047234,-1736.417620,516.682925,-31126.882866,37450.101966,1382.589505,-18759.617956,0.162000,0.950000,0.206000,192.000000,0.000000,0.000000,0.000000,0.000000,0.000000,0.000000,0.000000,0.000000,0.000000,1648635084.614813,0.000000
70.000000,332.213978,-566.303798,-1738.228111,523.477855,-31124.401823,37452.001864,1388.065682,-18762.188406,0.162000,0.950000,0.206000,192.000000,0.000000,0.000000,0.000000,0.000000,0.000000,0.000000,0.000000,0.000000,0.000000,1648635084.614817,0.000000
71.000000,334.963242,-565.655597,-1733.914224,523.567262,-31125.452355,37453.722948,1407.310534,-18748.799711,0.162000,0.950000,0.206000,192.000000,0.000000,0.000000,0.000000,0.000000,0.000000,0.000000,0.000000,0.000000,0.000000,1648635084.622370,0.000000
72.000000,336.080830,-565.901466,-1737.110524,524.684849,-31126.189962,37456.092233,1405.075360,-18742.809444,0.162000,0.950000,0.206000,192.000000,0.000000,0.000000,0.000000,0.000000,0.000000,0.000000,0.000000,0.000000,0.000000,1648635084.622374,0.000000
73.000000,333.108048,-571.623513,-1742.743163,511.586727,-31134.728329,37449.945503,1400.135624,-18744.552880,0.162000,0.950000,0.206000,192.000000,0.000000,0.000000,0.000000,0.000000,0.000000,0.000000,0.000000,0.000000,0.000000,1648635084.630421,0.000000
74.000000,331.051687,-573.232838,-1738.362222,508.077503,-31134.102480,37448.514992,1403.153110,-18750.610203,0.162000,0.950000,0.206000,192.000000,0.000000,0.000000,0.000000,0.000000,0.000000,0.000000,0.000000,0.000000,0.000000,1648635084.630426,0.000000
75.000000,329.576472,-576.607952,-1742.519646,516.414704,-31134.750680,37443.888181,1392.066645,-18773.274872,0.162000,0.950000,0.206000,192.000000,0.000000,0.000000,0.000000,0.000000,0.000000,0.000000,0.000000,0.000000,0.000000,1648635084.638311,0.000000
76.000000,330.336431,-577.054987,-1743.436068,513.598384,-31137.209372,37442.658835,1396.089959,-18762.233110,0.162000,0.950000,0.206000,192.000000,0.000000,0.000000,0.000000,0.000000,0.000000,0.000000,0.000000,0.000000,0.000000,1648635084.638315,0.000000
77.000000,336.997251,-571.243533,-1735.925881,518.158140,-31131.017939,37452.381844,1426.845959,-18730.672447,0.162000,0.950000,0.206000,192.000000,0.000000,0.000000,0.000000,0.000000,0.000000,0.000000,0.000000,0.000000,0.000000,1648635084.644935,0.000000
78.000000,335.343222,-575.713882,-1739.010422,512.592556,-31130.056814,37457.410986,1430.645756,-18725.643304,0.166000,0.952000,0.210000,192.000000,5.000000,48.000000,29.000000,192.000000,6.000000,144.000000,0.000000,0.000000,0.000000,1648635084.644939,0.000000
79.000000,329.442362,-583.402882,-1745.872408,496.767521,-31135.465936,37461.099024,1429.952852,-18727.342037,0.166000,0.952000,0.210000,192.000000,0.000000,0.000000,0.000000,0.000000,0.000000,0.000000,0.000000,0.000000,0.000000,1648635084.652951,0.000000
80.000000,327.855388,-582.575867,-1743.905454,507.004619,-31134.817736,37461.948390,1424.811950,-18726.023284,0.166000,0.952000,0.210000,192.000000,0.000000,0.000000,0.000000,0.000000,0.000000,0.000000,0.000000,0.000000,0.000000,1648635084.652955,0.000000
81.000000,334.896187,-575.132737,-1738.183408,514.514806,-31130.168573,37461.389597,1412.339677,-18731.700627,0.166000,0.952000,0.210000,192.000000,0.000000,0.000000,0.000000,0.000000,0.000000,0.000000,0.000000,0.000000,0.000000,1648635084.660946,0.000000
82.000000,333.018641,-574.328074,-1737.266986,513.039590,-31129.319206,37457.992131,1393.832432,-18745.938688,0.166000,0.952000,0.210000,192.000000,0.000000,0.000000,0.000000,0.000000,0.000000,0.000000,0.000000,0.000000,0.000000,1648635084.660952,0.000000
83.000000,331.386963,-576.876173,-1738.898663,504.009486,-31133.543686,37458.975608,1405.924726,-18735.992162,0.166000,0.952000,0.210000,192.000000,0.000000,0.000000,0.000000,0.000000,0.000000,0.000000,0.000000,0.000000,0.000000,1648635084.667230,0.000000
84.000000,330.336431,-579.223106,-1744.933634,498.578012,-31138.639884,37457.254524,1413.323154,-18736.819176,0.166000,0.952000,0.210000,192.000000,0.000000,0.000000,0.000000,0.000000,0.000000,0.000000,0.000000,0.000000,0.000000,1648635084.674514,0.000000
85.000000,333.800952,-572.361120,-1740.798562,520.169797,-31125.899389,37463.669475,1420.945099,-18732.460586,0.166000,0.952000,0.210000,192.000000,0.000000,0.000000,0.000000,0.000000,0.000000,0.000000,0.000000,0.000000,0.000000,1648635084.674518,0.000000
86.000000,332.504551,-573.568114,-1739.680974,511.430265,-31125.072375,37463.669475,1417.681744,-18733.086435,0.166000,0.952000,0.210000,192.000000,0.000000,0.000000,0.000000,0.000000,0.000000,0.000000,0.000000,0.000000,0.000000,1648635084.682561,0.000000
87.000000,324.882606,-574.193963,-1747.705251,506.959916,-31132.895486,37456.829841,1408.696343,-18740.127234,0.166000,0.952000,0.210000,192.000000,0.000000,0.000000,0.000000,0.000000,0.000000,0.000000,0.000000,0.000000,0.000000,1648635084.682586,0.000000
88.000000,327.967146,-574.037501,-1737.155227,505.887032,-31128.425137,37460.719044,1415.513625,-18740.283697,0.166000,0.950000,0.206000,192.000000,5.000000,48.000000,29.000000,176.000000,6.000000,112.000000,0.000000,0.000000,0.000000,1648635084.690586,0.000000
89.000000,331.632832,-571.623513,-1734.517721,517.375829,-31123.865381,37460.987265,1408.338715,-18745.558708,0.166000,0.950000,0.206000,192.000000,0.000000,0.000000,0.000000,0.000000,0.000000,0.000000,0.000000,0.000000,0.000000,1648635084.690590,0.000000
90.000000,324.793199,-580.921838,-1744.598358,503.450692,-31134.124831,37453.119451,1392.223107,-18755.505235,0.166000,0.950000,0.206000,192.000000,0.000000,0.000000,0.000000,0.000000,0.000000,0.000000,0.000000,0.000000,0.000000,1648635084.697214,0.000000
91.000000,327.475408,-579.178402,-1742.407887,506.401122,-31132.336692,37451.331312,1389.339732,-18751.370162,0.166000,0.950000,0.206000,192.000000,0.000000,0.000000,0.000000,0.000000,0.000000,0.000000,0.000000,0.000000,0.000000,1648635084.697218,0.000000
92.000000,331.319908,-576.384434,-1737.423448,514.224233,-31125.117078,37456.941599,1398.079264,-18744.105845,0.166000,0.950000,0.206000,192.000000,0.000000,0.000000,0.000000,0.000000,0.000000,0.000000,0.000000,0.000000,0.000000,1648635084.705555,0.000000
93.000000,333.912710,-576.451490,-1741.670280,509.910346,-31131.129698,37451.778347,1390.144395,-18737.422673,0.166000,0.950000,0.206000,192.000000,0.000000,0.000000,0.000000,0.000000,0.000000,0.000000,0.000000,0.000000,0.000000,1648635084.705567,0.000000
94.000000,340.126495,-572.852859,-1742.139666,509.463311,-31131.420270,37448.537344,1395.084130,-18748.911470,0.166000,0.950000,0.206000,192.000000,0.000000,0.000000,0.000000,0.000000,0.000000,0.000000,0.000000,0.000000,0.000000,1648635084.713541,0.000000
95.000000,337.891321,-574.350426,-1738.898663,508.077503,-31131.219105,37449.587876,1401.990819,-18771.084401,0.166000,0.950000,0.206000,192.000000,0.000000,0.000000,0.000000,0.000000,0.000000,0.000000,0.000000,0.000000,0.000000,1648635084.713552,0.000000
96.000000,332.370440,-579.223106,-1742.899626,504.389465,-31135.890619,37446.413928,1390.591430,-18772.917244,0.166000,0.950000,0.206000,192.000000,0.000000,0.000000,0.000000,0.000000,0.000000,0.000000,0.000000,0.000000,0.000000,1648635084.720603,0.000000
97.000000,331.096391,-576.227972,-1742.899626,509.060980,-31134.437756,37455.935771,1413.837244,-18726.783243,0.166000,0.950000,0.206000,192.000000,0.000000,0.000000,0.000000,0.000000,0.000000,0.000000,0.000000,0.000000,0.000000,1648635084.720618,0.000000
98.000000,331.632832,-576.004455,-1743.301957,504.233003,-31138.818698,37457.232172,1432.635061,-18715.406205,0.162000,0.948000,0.216000,192.000000,5.000000,16.000000,29.000000,160.000000,6.000000,192.000000,0.000000,0.000000,0.000000,1648635084.727061,0.000000
99.000000,331.230501,-573.523411,-1743.078440,514.581861,-31135.667102,37459.065015,1424.722543,-18728.705493,0.162000,0.948000,0.216000,192.000000,0.000000,0.000000,0.000000,0.000000,0.000000,0.000000,0.000000,0.000000,0.000000,1648635084.727078,0.000000
100.000000,332.862178,-573.724577,-1741.871445,513.061942,-31132.560209,37462.149556,1405.835319,-18737.936764,0.162000,0.948000,0.216000,192.000000,0.000000,0.000000,0.000000,0.000000,0.000000,0.000000,0.000000,0.000000,0.000000,1648635084.735046,0.000000
101.000000,329.420010,-575.266847,-1744.978338,509.128035,-31135.376529,37453.611190,1383.416520,-18752.040714,0.162000,0.948000,0.216000,192.000000,0.000000,0.000000,0.000000,0.000000,0.000000,0.000000,0.000000,0.000000,0.000000,1648635084.743186,0.000000
102.000000,325.016716,-578.999588,-1748.442858,505.842329,-31135.756509,37458.170945,1390.278505,-18755.996973,0.162000,0.948000,0.216000,192.000000,0.000000,0.000000,0.000000,0.000000,0.000000,0.000000,0.000000,0.000000,0.000000,1648635084.743204,0.000000
103.000000,333.175103,-571.020016,-1741.446762,512.234928,-31131.308512,37465.614076,1426.667145,-18731.298295,0.162000,0.948000,0.216000,192.000000,0.000000,0.000000,0.000000,0.000000,0.000000,0.000000,0.000000,0.000000,0.000000,1648635084.750233,0.000000
104.000000,335.343222,-569.388338,-1740.396230,507.563413,-31132.627265,37464.384730,1421.839168,-18734.606354,0.162000,0.948000,0.216000,192.000000,0.000000,0.000000,0.000000,0.000000,0.000000,0.000000,0.000000,0.000000,0.000000,1648635084.750243,0.000000
105.000000,343.099277,-562.079318,-1733.757762,507.183433,-31130.012110,37467.245754,1420.118084,-18736.953287,0.162000,0.948000,0.216000,192.000000,0.000000,0.000000,0.000000,0.000000,0.000000,0.000000,0.000000,0.000000,0.000000,1648635084.757888,0.000000
106.000000,345.245045,-560.738213,-1731.388477,518.828692,-31121.764317,37478.131053,1415.580680,-18742.608278,0.162000,0.948000,0.216000,192.000000,0.000000,0.000000,0.000000,0.000000,0.000000,0.000000,0.000000,0.000000,0.000000,1648635084.757906,0.000000
107.000000,343.166333,-564.090975,-1734.852998,517.509939,-31123.284235,37478.958068,1405.432988,-18751.727790,0.162000,0.948000,0.216000,192.000000,0.000000,0.000000,0.000000,0.000000,0.000000,0.000000,0.000000,0.000000,0.000000,1648635084.765626,0.000000
108.000000,344.641548,-561.811097,-1732.729582,515.163006,-31124.290064,37472.967800,1403.309572,-18750.029057,0.164000,0.942000,0.212000,192.000000,5.000000,32.000000,29.000000,112.000000,6.000000,160.000000,0.000000,0.000000,0.000000,1648635084.765637,0.000000
109.000000,339.880626,-568.114289,-1736.663489,510.178567,-31125.899389,37473.213669,1405.231822,-18746.586889,0.164000,0.942000,0.212000,192.000000,0.000000,0.000000,0.000000,0.000000,0.000000,0.000000,0.000000,0.000000,0.000000,1648635084.773788,0.000000
110.000000,337.198417,-570.125946,-1741.737335,504.300058,-31130.593256,37466.686960,1404.225994,-18747.793883,0.164000,0.942000,0.212000,192.000000,0.000000,0.000000,0.000000,0.000000,0.000000,0.000000,0.000000,0.000000,0.000000,1648635084.773804,0.000000
111.000000,339.008908,-571.310588,-1739.859788,498.130977,-31132.627265,37463.669475,1394.838261,-18751.057238,0.164000,0.942000,0.212000,192.000000,0.000000,0.000000,0.000000,0.000000,0.000000,0.000000,0.000000,0.000000,0.000000,1648635084.780351,0.000000
112.000000,341.735821,-568.315455,-1740.195065,506.043494,-31130.995587,37458.729739,1371.346578,-18773.274872,0.164000,0.942000,0.212000,192.000000,0.000000,0.000000,0.000000,0.000000,0.000000,0.000000,0.000000,0.000000,0.000000,1648635084.780362,0.000000
113.000000,343.143981,-566.527315,-1739.837437,509.865643,-31130.079166,37459.199126,1359.567208,-18787.915264,0.164000,0.942000,0.212000,192.000000,0.000000,0.000000,0.000000,0.000000,0.000000,0.000000,0.000000,0.000000,0.000000,1648635084.788266,0.000000
114.000000,343.680423,-569.164821,-1743.033736,504.903556,-31132.671968,37460.830803,1383.707092,-18770.570310,0.164000,0.942000,0.212000,192.000000,0.000000,0.000000,0.000000,0.000000,0.000000,0.000000,0.000000,0.000000,0.000000,1648635084.788277,0.000000
115.000000,346.295577,-563.688643,-1734.361259,516.682925,-31121.026709,37477.795777,1415.737142,-18732.907621,0.164000,0.942000,0.212000,192.000000,0.000000,0.000000,0.000000,0.000000,0.000000,0.000000,0.000000,0.000000,0.000000,1648635084.795309,0.000000
116.000000,346.206170,-565.990873,-1731.097905,513.151349,-31118.903293,37481.372056,1421.928575,-18721.374121,0.164000,0.942000,0.212000,192.000000,0.000000,0.000000,0.000000,0.000000,0.000000,0.000000,0.000000,0.000000,0.000000,1648635084.803198,0.000000
117.000000,340.729992,-568.829545,-1733.489541,509.128035,-31121.116116,37477.192280,1407.221127,-18735.433368,0.164000,0.942000,0.212000,192.000000,0.000000,0.000000,0.000000,0.000000,0.000000,0.000000,0.000000,0.000000,0.000000,1648635084.803204,0.000000
118.000000,338.919501,-565.521486,-1734.852998,510.916175,-31122.636035,37468.966838,1399.085092,-18755.594642,0.164000,0.948000,0.206000,192.000000,5.000000,32.000000,29.000000,160.000000,6.000000,112.000000,0.000000,0.000000,0.000000,1648635084.809790,0.000000
119.000000,337.064306,-564.761527,-1736.238806,510.469140,-31123.731270,37468.385693,1394.547688,-18756.064028,0.164000,0.948000,0.206000,192.000000,0.000000,0.000000,0.000000,0.000000,0.000000,0.000000,0.000000,0.000000,0.000000,1648635084.809795,0.000000
120.000000,332.951585,-569.813021,-1742.072611,501.953125,-31129.922703,37471.224364,1400.873232,-18733.689932,0.164000,0.948000,0.206000,192.000000,0.000000,0.000000,0.000000,0.000000,0.000000,0.000000,0.000000,0.000000,0.000000,1648635084.817799,0.000000
121.000000,332.281033,-573.925742,-1744.196027,500.276744,-31131.934360,37473.437187,1416.452398,-18727.878479,0.164000,0.948000,0.206000,192.000000,0.000000,0.000000,0.000000,0.000000,0.000000,0.000000,0.000000,0.000000,0.000000,1648635084.817806,0.000000
122.000000,339.791219,-566.035577,-1738.228111,509.798588,-31128.648654,37467.916306,1426.376572,-18739.993124,0.164000,0.948000,0.206000,192.000000,0.000000,0.000000,0.000000,0.000000,0.000000,0.000000,0.000000,0.000000,0.000000,1648635084.825837,0.000000
123.000000,336.349051,-568.650731,-1738.630442,506.065846,-31127.754584,37473.124262,1417.279412,-18747.570365,0.164000,0.948000,0.206000,192.000000,0.000000,0.000000,0.000000,0.000000,0.000000,0.000000,0.000000,0.000000,0.000000,1648635084.825843,0.000000
124.000000,338.695984,-566.549667,-1734.674184,509.820939,-31125.675872,37474.577126,1418.665221,-18739.277868,0.164000,0.948000,0.206000,192.000000,0.000000,0.000000,0.000000,0.000000,0.000000,0.000000,0.000000,0.000000,0.000000,1648635084.832858,0.000000
125.000000,341.668766,-567.041405,-1730.293242,510.469140,-31120.579674,37482.757864,1424.253157,-18732.818214,0.164000,0.948000,0.206000,192.000000,0.000000,0.000000,0.000000,0.000000,0.000000,0.000000,0.000000,0.000000,0.000000,1648635084.832875,0.000000
126.000000,342.741649,-564.761527,-1732.595471,515.520634,-31120.825544,37484.434245,1419.201662,-18741.803615,0.164000,0.948000,0.206000,192.000000,0.000000,0.000000,0.000000,0.000000,0.000000,0.000000,0.000000,0.000000,0.000000,1648635084.840852,0.000000
127.000000,341.355841,-561.676986,-1729.287413,520.773294,-31120.289102,37481.461463,1411.490311,-18750.006706,0.164000,0.948000,0.206000,192.000000,0.000000,0.000000,0.000000,0.000000,0.000000,0.000000,0.000000,0.000000,0.000000,1648635084.840868,0.000000
128.000000,338.763039,-563.934513,-1729.779152,516.973498,-31120.065584,37482.802568,1411.177386,-18744.843453,0.164000,0.948000,0.206000,192.000000,0.000000,0.000000,0.000000,0.000000,0.000000,0.000000,0.000000,0.000000,0.000000,1648635084.848836,0.000000
129.000000,334.046821,-565.812059,-1737.155227,508.971573,-31126.793459,37476.924059,1399.062741,-18743.032961,0.162000,0.950000,0.204000,192.000000,5.000000,16.000000,29.000000,176.000000,6.000000,96.000000,0.000000,0.000000,0.000000,1648635084.848871,0.000000
130.000000,334.203283,-566.907295,-1738.250463,515.297117,-31124.625340,37475.135919,1386.992799,-18754.052371,0.162000,0.950000,0.204000,192.000000,0.000000,0.000000,0.000000,0.000000,0.000000,0.000000,0.000000,0.000000,0.000000,1648635084.855927,0.000000
131.000000,333.800952,-563.018091,-1734.808294,518.359306,-31119.372680,37480.433283,1404.382456,-18748.218566,0.162000,0.950000,0.204000,192.000000,0.000000,0.000000,0.000000,0.000000,0.000000,0.000000,0.000000,0.000000,0.000000,1648635084.862450,0.000000
132.000000,330.783466,-564.336844,-1738.719849,512.369038,-31122.256055,37481.506167,1414.172520,-18744.754046,0.162000,0.950000,0.204000,192.000000,0.000000,0.000000,0.000000,0.000000,0.000000,0.000000,0.000000,0.000000,0.000000,1648635084.862466,0.000000
133.000000,330.783466,-564.627417,-1740.262120,512.726666,-31124.871209,37479.382751,1406.438816,-18748.933822,0.162000,0.950000,0.204000,192.000000,0.000000,0.000000,0.000000,0.000000,0.000000,0.000000,0.000000,0.000000,0.000000,1648635084.870329,0.000000
134.000000,331.833998,-565.856763,-1742.318480,510.849120,-31125.966445,37480.768559,1402.750779,-18754.387647,0.162000,0.950000,0.204000,192.000000,0.000000,0.000000,0.000000,0.000000,0.000000,0.000000,0.000000,0.000000,0.000000,1648635084.870345,0.000000
135.000000,329.017678,-569.902428,-1746.028870,503.517747,-31130.079166,37480.477986,1399.241555,-18750.833720,0.162000,0.950000,0.204000,192.000000,0.000000,0.000000,0.000000,0.000000,0.000000,0.000000,0.000000,0.000000,0.000000,1648635084.878391,0.000000
136.000000,336.706678,-559.710033,-1729.935614,517.420532,-31119.082107,37480.992077,1407.355238,-18739.434330,0.162000,0.950000,0.204000,192.000000,0.000000,0.000000,0.000000,0.000000,0.000000,0.000000,0.000000,0.000000,0.000000,1648635084.878407,0.000000
137.000000,339.813571,-555.217332,-1724.682954,521.443846,-31111.661328,37480.276821,1402.303744,-18752.040714,0.162000,0.950000,0.204000,192.000000,0.000000,0.000000,0.000000,0.000000,0.000000,0.000000,0.000000,0.000000,0.000000,1648635084.885612,0.000000
138.000000,336.416106,-561.587579,-1731.790809,516.034724,-31116.668119,37476.566431,1382.790671,-18771.978470,0.162000,0.950000,0.204000,192.000000,0.000000,0.000000,0.000000,0.000000,0.000000,0.000000,0.000000,0.000000,0.000000,1648635084.885628,0.000000
139.000000,331.543426,-565.119155,-1739.189236,509.910346,-31121.138468,37471.492585,1368.999644,-18765.652927,0.158000,0.956000,0.204000,192.000000,4.000000,240.000000,29.000000,224.000000,6.000000,96.000000,0.000000,0.000000,0.000000,1648635084.893062,0.000000
140.000000,325.240234,-569.164821,-1744.419544,503.540099,-31125.228837,37472.364303,1372.017130,-18742.027133,0.158000,0.956000,0.204000,192.000000,0.000000,0.000000,0.000000,0.000000,0.000000,0.000000,0.000000,0.000000,0.000000,1648635084.893080,0.000000
141.000000,331.677536,-563.107498,-1738.719849,511.586727,-31121.496096,37476.164100,1412.205566,-18730.627743,0.158000,0.956000,0.204000,192.000000,0.000000,0.000000,0.000000,0.000000,0.000000,0.000000,0.000000,0.000000,0.000000,1648635084.900902,0.000000
142.000000,333.957414,-564.314492,-1736.663489,502.981305,-31123.597160,37484.434245,1446.180218,-18725.777415,0.158000,0.956000,0.204000,192.000000,0.000000,0.000000,0.000000,0.000000,0.000000,0.000000,0.000000,0.000000,0.000000,1648635084.900917,0.000000
143.000000,339.321833,-558.212466,-1730.963794,516.124131,-31118.523314,37486.870585,1443.073326,-18708.790089,0.158000,0.956000,0.204000,192.000000,0.000000,0.000000,0.000000,0.000000,0.000000,0.000000,0.000000,0.000000,0.000000,1648635084.909104,0.000000
144.000000,344.060402,-555.150277,-1728.169826,527.143541,-31113.382413,37487.049399,1436.859541,-18699.491763,0.158000,0.956000,0.204000,192.000000,0.000000,0.000000,0.000000,0.000000,0.000000,0.000000,0.000000,0.000000,0.000000,1648635084.909120,0.000000
145.000000,346.072059,-551.573998,-1726.918128,528.484646,-31111.460163,37486.490606,1424.789599,-18711.069967,0.158000,0.956000,0.204000,192.000000,0.000000,0.000000,0.000000,0.000000,0.000000,0.000000,0.000000,0.000000,0.000000,1648635084.915307,0.000000
146.000000,341.244083,-558.592446,-1730.516759,520.438018,-31113.941206,37485.373018,1412.451436,-18725.710359,0.158000,0.956000,0.204000,192.000000,0.000000,0.000000,0.000000,0.000000,0.000000,0.000000,0.000000,0.000000,0.000000,1648635084.922849,0.000000
147.000000,341.914635,-557.184286,-1734.048335,523.008469,-31119.864418,37475.627658,1407.936383,-18734.584002,0.158000,0.956000,0.204000,192.000000,0.000000,0.000000,0.000000,0.000000,0.000000,0.000000,0.000000,0.000000,0.000000,1648635084.922866,0.000000
148.000000,343.099277,-555.217332,-1733.646003,524.170759,-31119.886770,37472.766635,1409.679819,-18737.400322,0.158000,0.956000,0.204000,192.000000,0.000000,0.000000,0.000000,0.000000,0.000000,0.000000,0.000000,0.000000,0.000000,1648635084.930850,0.000000
149.000000,336.527865,-560.157068,-1741.513817,513.821902,-31123.775974,37472.073730,1401.029694,-18752.979488,0.156000,0.956000,0.206000,192.000000,4.000000,224.000000,29.000000,224.000000,6.000000,112.000000,0.000000,0.000000,0.000000,1648635084.930866,0.000000
150.000000,322.938004,-571.154126,-1754.477829,499.181509,-31133.297817,37468.296286,1390.524374,-18760.333211,0.156000,0.956000,0.206000,192.000000,0.000000,0.000000,0.000000,0.000000,0.000000,0.000000,0.000000,0.000000,0.000000,1648635084.937806,0.000000
151.000000,319.093504,-573.970446,-1758.747012,491.045474,-31139.243381,37461.367245,1374.140546,-18764.758857,0.156000,0.956000,0.206000,192.000000,0.000000,0.000000,0.000000,0.000000,0.000000,0.000000,0.000000,0.000000,0.000000,1648635084.937822,0.000000
152.000000,323.653260,-571.981141,-1753.561408,491.067826,-31138.125794,37454.572315,1350.112420,-18767.709287,0.156000,0.956000,0.206000,192.000000,0.000000,0.000000,0.000000,0.000000,0.000000,0.000000,0.000000,0.000000,0.000000,1648635084.945332,0.000000
153.000000,320.546367,-572.830507,-1753.762573,495.962858,-31136.404709,37460.830803,1366.630359,-18761.428447,0.156000,0.956000,0.206000,192.000000,0.000000,0.000000,0.000000,0.000000,0.000000,0.000000,0.000000,0.000000,0.000000,1648635084.945348,0.000000
154.000000,317.797103,-579.692492,-1755.058975,494.889974,-31135.287122,37466.195222,1402.795482,-18756.756932,0.156000,0.956000,0.206000,192.000000,0.000000,0.000000,0.000000,0.000000,0.000000,0.000000,0.000000,0.000000,0.000000,1648635084.953370,0.000000
155.000000,325.866082,-572.964617,-1745.917111,497.013390,-31132.224933,37463.222440,1422.308555,-18751.839549,0.156000,0.956000,0.206000,192.000000,0.000000,0.000000,0.000000,0.000000,0.000000,0.000000,0.000000,0.000000,0.000000,1648635084.953387,0.000000
156.000000,333.152751,-565.052100,-1742.027908,499.382675,-31128.849820,37465.010579,1420.632174,-18749.224394,0.156000,0.956000,0.206000,192.000000,0.000000,0.000000,0.000000,0.000000,0.000000,0.000000,0.000000,0.000000,0.000000,1648635084.961372,0.000000
157.000000,330.336431,-565.253266,-1750.521571,498.846233,-31133.498983,37465.167041,1403.801311,-18756.220490,0.156000,0.956000,0.206000,192.000000,0.000000,0.000000,0.000000,0.000000,0.000000,0.000000,0.000000,0.000000,0.000000,1648635084.961388,0.000000
158.000000,327.296594,-563.576885,-1751.996786,497.594535,-31137.008206,37463.535364,1401.543784,-18756.600470,0.156000,0.956000,0.206000,192.000000,0.000000,0.000000,0.000000,0.000000,0.000000,0.000000,0.000000,0.000000,0.000000,1648635084.967647,0.000000
159.000000,325.866082,-566.527315,-1749.739259,492.766558,-31135.398881,37468.765672,1401.722598,-18754.432351,0.156000,0.952000,0.208000,192.000000,4.000000,224.000000,29.000000,192.000000,6.000000,128.000000,0.000000,0.000000,0.000000,1648635084.967653,0.000000
160.000000,321.440437,-572.115251,-1757.227094,493.817090,-31139.086919,37468.855079,1393.765377,-18755.482883,0.156000,0.952000,0.208000,192.000000,0.000000,0.000000,0.000000,0.000000,0.000000,0.000000,0.000000,0.000000,0.000000,1648635084.974867,0.000000
161.000000,317.618289,-577.479670,-1763.954969,488.363265,-31143.445509,37470.151480,1399.018037,-18742.362409,0.156000,0.952000,0.208000,192.000000,0.000000,0.000000,0.000000,0.000000,0.000000,0.000000,0.000000,0.000000,0.000000,1648635084.974883,0.000000
162.000000,320.613422,-576.987931,-1756.981225,494.934677,-31136.427061,37477.952239,1406.103540,-18745.491653,0.156000,0.952000,0.208000,192.000000,0.000000,0.000000,0.000000,0.000000,0.000000,0.000000,0.000000,0.000000,0.000000,1648635084.983025,0.000000
163.000000,326.134303,-572.517582,-1746.654719,499.002695,-31132.180230,37475.404140,1410.976220,-18749.559671,0.156000,0.952000,0.208000,192.000000,0.000000,0.000000,0.000000,0.000000,0.000000,0.000000,0.000000,0.000000,0.000000,1648635084.991033,0.000000
164.000000,326.335469,-570.282408,-1747.749954,498.466253,-31128.089860,37481.215594,1414.194872,-18747.056275,0.156000,0.952000,0.208000,192.000000,0.000000,0.000000,0.000000,0.000000,0.000000,0.000000,0.000000,0.000000,0.000000,1648635084.991048,0.000000
165.000000,323.720315,-572.964617,-1754.880161,488.787948,-31135.309474,37473.236021,1400.806177,-18752.241880,0.156000,0.952000,0.208000,192.000000,0.000000,0.000000,0.000000,0.000000,0.000000,0.000000,0.000000,0.000000,0.000000,1648635084.997683,0.000000
166.000000,324.524978,-573.434004,-1756.042451,484.876392,-31138.595180,37464.138861,1386.456357,-18759.796770,0.156000,0.952000,0.208000,192.000000,0.000000,0.000000,0.000000,0.000000,0.000000,0.000000,0.000000,0.000000,0.000000,1648635084.997699,0.000000
167.000000,331.431667,-566.504963,-1748.845190,491.157233,-31135.041253,37460.942562,1382.254229,-18766.926976,0.156000,0.952000,0.208000,192.000000,0.000000,0.000000,0.000000,0.000000,0.000000,0.000000,0.000000,0.000000,0.000000,1648635085.005291,0.000000
168.000000,335.075001,-559.486515,-1745.760649,496.499300,-31130.146221,37462.551887,1386.612819,-18772.537264,0.156000,0.952000,0.208000,192.000000,0.000000,0.000000,0.000000,0.000000,0.000000,0.000000,0.000000,0.000000,0.000000,1648635085.005301,0.000000
169.000000,340.417068,-547.528332,-1737.311690,507.608117,-31122.367814,37465.725835,1384.422348,-18768.513950,0.160000,0.956000,0.200000,192.000000,5.000000,0.000000,29.000000,224.000000,6.000000,64.000000,0.000000,0.000000,0.000000,1648635085.013349,0.000000
170.000000,334.560911,-548.489457,-1745.514780,509.016276,-31123.306587,37471.202012,1379.236743,-18761.316688,0.160000,0.956000,0.200000,192.000000,0.000000,0.000000,0.000000,0.000000,0.000000,0.000000,0.000000,0.000000,0.000000,1648635085.013360,0.000000
171.000000,330.761114,-553.160972,-1747.280568,505.305887,-31123.194828,37476.432321,1396.738159,-18742.541223,0.160000,0.956000,0.200000,192.000000,0.000000,0.000000,0.000000,0.000000,0.000000,0.000000,0.000000,0.000000,0.000000,1648635085.020635,0.000000
172.000000,339.277129,-542.901521,-1733.646003,515.811207,-31114.790572,37478.667495,1402.326095,-18741.244822,0.160000,0.956000,0.200000,192.000000,0.000000,0.000000,0.000000,0.000000,0.000000,0.000000,0.000000,0.000000,0.000000,1648635085.020646,0.000000
173.000000,335.790257,-549.115306,-1740.172713,509.195090,-31120.490267,37473.794815,1386.411653,-18761.204929,0.160000,0.956000,0.200000,192.000000,0.000000,0.000000,0.000000,0.000000,0.000000,0.000000,0.000000,0.000000,0.000000,1648635085.028278,0.000000
174.000000,338.763039,-549.562341,-1741.737335,506.557585,-31122.703090,37470.307943,1384.936438,-18773.029002,0.160000,0.956000,0.200000,192.000000,0.000000,0.000000,0.000000,0.000000,0.000000,0.000000,0.000000,0.000000,0.000000,1648635085.028294,0.000000
175.000000,339.701812,-547.751850,-1740.575044,497.996866,-31123.373642,37480.276821,1424.990764,-18741.982429,0.160000,0.956000,0.200000,192.000000,0.000000,0.000000,0.000000,0.000000,0.000000,0.000000,0.000000,0.000000,0.000000,1648635085.036305,0.000000
176.000000,336.349051,-550.992853,-1742.296129,501.930773,-31123.775974,37478.533385,1416.206529,-18736.215679,0.160000,0.956000,0.200000,192.000000,0.000000,0.000000,0.000000,0.000000,0.000000,0.000000,0.000000,0.000000,0.000000,1648635085.036321,0.000000
177.000000,337.556045,-548.243588,-1739.680974,518.582823,-31118.143334,37474.666533,1405.991781,-18750.006706,0.160000,0.956000,0.200000,192.000000,0.000000,0.000000,0.000000,0.000000,0.000000,0.000000,0.000000,0.000000,0.000000,1648635085.043256,0.000000
178.000000,336.281995,-548.914140,-1742.564349,511.542024,-31119.283273,37479.606268,1409.232784,-18748.285621,0.160000,0.956000,0.200000,192.000000,0.000000,0.000000,0.000000,0.000000,0.000000,0.000000,0.000000,0.000000,0.000000,1648635085.050272,0.000000
179.000000,330.023507,-552.289254,-1751.080364,502.623678,-31126.212314,37476.074693,1409.813930,-18751.213700,0.166000,0.956000,0.200000,192.000000,5.000000,48.000000,29.000000,224.000000,6.000000,64.000000,0.000000,0.000000,0.000000,1648635085.050290,0.000000
180.000000,327.698925,-553.965635,-1753.740222,496.834576,-31129.520372,37476.275858,1410.976220,-18757.852168,0.166000,0.956000,0.200000,192.000000,0.000000,0.000000,0.000000,0.000000,0.000000,0.000000,0.000000,0.000000,0.000000,1648635085.057959,0.000000
181.000000,331.744591,-549.964672,-1745.984166,505.708218,-31124.178305,37477.214632,1411.378552,-18755.371124,0.166000,0.956000,0.200000,192.000000,0.000000,0.000000,0.000000,0.000000,0.000000,0.000000,0.000000,0.000000,0.000000,1648635085.057975,0.000000
182.000000,331.901053,-548.712975,-1746.967643,501.595497,-31123.373642,37476.119396,1410.573889,-18757.896871,0.166000,0.956000,0.200000,192.000000,0.000000,0.000000,0.000000,0.000000,0.000000,0.000000,0.000000,0.000000,0.000000,1648635085.065947,0.000000
183.000000,333.152751,-549.830562,-1749.582797,494.264125,-31129.028634,37471.917268,1405.209470,-18761.137874,0.166000,0.956000,0.200000,192.000000,0.000000,0.000000,0.000000,0.000000,0.000000,0.000000,0.000000,0.000000,0.000000,1648635085.065963,0.000000
184.000000,331.990460,-551.395184,-1750.387460,503.607154,-31123.664215,37477.929888,1399.420369,-18759.416790,0.166000,0.956000,0.200000,192.000000,0.000000,0.000000,0.000000,0.000000,0.000000,0.000000,0.000000,0.000000,0.000000,1648635085.073130,0.000000
185.000000,335.969071,-550.881094,-1745.403021,498.130977,-31120.244398,37486.982344,1401.677895,-18751.861900,0.166000,0.956000,0.200000,192.000000,0.000000,0.000000,0.000000,0.000000,0.000000,0.000000,0.000000,0.000000,0.000000,1648635085.073147,0.000000
186.000000,337.667803,-545.404916,-1739.837437,513.888957,-31113.181247,37494.023144,1405.388284,-18753.650040,0.166000,0.956000,0.200000,192.000000,0.000000,0.000000,0.000000,0.000000,0.000000,0.000000,0.000000,0.000000,0.000000,1648635085.080579,0.000000
187.000000,339.053612,-544.309681,-1735.612957,514.850082,-31110.968424,37492.123245,1395.151185,-18763.395400,0.166000,0.956000,0.200000,192.000000,0.000000,0.000000,0.000000,0.000000,0.000000,0.000000,0.000000,0.000000,0.000000,1648635085.080594,0.000000
188.000000,335.946719,-547.997719,-1737.758724,506.736399,-31111.817790,37490.268050,1394.882964,-18759.729714,0.166000,0.956000,0.200000,192.000000,0.000000,0.000000,0.000000,0.000000,0.000000,0.000000,0.000000,0.000000,0.000000,1648635085.088598,0.000000
189.000000,331.275205,-555.865533,-1742.586701,491.984247,-31113.494171,37496.235966,1408.472825,-18752.733618,0.158000,0.952000,0.210000,192.000000,4.000000,240.000000,29.000000,192.000000,6.000000,144.000000,0.000000,0.000000,0.000000,1648635085.088615,0.000000
190.000000,326.603690,-560.335882,-1748.621672,490.598439,-31120.803192,37488.256393,1404.024828,-18763.060124,0.158000,0.952000,0.210000,192.000000,0.000000,0.000000,0.000000,0.000000,0.000000,0.000000,0.000000,0.000000,0.000000,1648635085.096586,0.000000
191.000000,325.776675,-560.045309,-1749.091059,498.645067,-31120.579674,37483.674286,1401.454377,-18768.357488,0.158000,0.952000,0.210000,192.000000,0.000000,0.000000,0.000000,0.000000,0.000000,0.000000,0.000000,0.000000,0.000000,1648635085.096604,0.000000
192.000000,319.540539,-568.047234,-1757.808239,489.972590,-31130.280331,37481.103835,1402.147281,-18762.993069,0.158000,0.952000,0.210000,192.000000,0.000000,0.000000,0.000000,0.000000,0.000000,0.000000,0.000000,0.000000,0.000000,1648635085.102867,0.000000
193.000000,318.914690,-569.097766,-1759.529324,487.759768,-31135.890619,37480.455635,1427.069476,-18752.755970,0.158000,0.952000,0.210000,192.000000,0.000000,0.000000,0.000000,0.000000,0.000000,0.000000,0.000000,0.000000,0.000000,1648635085.110230,0.000000
194.000000,321.038106,-567.063757,-1755.595416,491.425454,-31133.208410,37489.597498,1433.439724,-18741.691857,0.158000,0.952000,0.210000,192.000000,0.000000,0.000000,0.000000,0.000000,0.000000,0.000000,0.000000,0.000000,0.000000,1648635085.110246,0.000000
195.000000,320.881643,-571.802327,-1760.043414,484.764634,-31136.896448,37485.305963,1410.216261,-18754.208833,0.158000,0.952000,0.210000,192.000000,0.000000,0.000000,0.000000,0.000000,0.000000,0.000000,0.000000,0.000000,0.000000,1648635085.118273,0.000000
196.000000,333.197455,-562.392242,-1743.905454,492.923020,-31129.028634,37483.718989,1425.124875,-18760.959060,0.158000,0.952000,0.210000,192.000000,0.000000,0.000000,0.000000,0.000000,0.000000,0.000000,0.000000,0.000000,0.000000,1648635085.118290,0.000000
197.000000,334.739725,-561.967559,-1743.860751,486.441015,-31128.983930,37486.848234,1428.209415,-18772.380802,0.158000,0.952000,0.210000,192.000000,0.000000,0.000000,0.000000,0.000000,0.000000,0.000000,0.000000,0.000000,0.000000,1648635085.126225,0.000000
198.000000,340.148847,-558.525390,-1741.111486,498.846233,-31122.636035,37489.999830,1422.733238,-18751.303107,0.158000,0.952000,0.210000,192.000000,0.000000,0.000000,0.000000,0.000000,0.000000,0.000000,0.000000,0.000000,0.000000,1648635085.126240,0.000000
199.000000,346.407336,-550.054079,-1736.395268,515.833559,-31110.856665,37498.515844,1410.015095,-18727.543202,0.154000,0.952000,0.210000,192.000000,4.000000,208.000000,29.000000,192.000000,6.000000,144.000000,0.000000,0.000000,0.000000,1648635085.132523,0.000000
200.000000,346.407336,-547.193056,-1739.099829,508.435131,-31114.455296,37491.631507,1397.632229,-18746.542185,0.154000,0.952000,0.210000,192.000000,0.000000,0.000000,0.000000,0.000000,0.000000,0.000000,0.000000,0.000000,0.000000,1648635085.132533,0.000000
201.000000,344.350975,-547.930664,-1739.122181,504.322410,-31115.394070,37492.793798,1405.120063,-18754.097075,0.154000,0.952000,0.210000,192.000000,0.000000,0.000000,0.000000,0.000000,0.000000,0.000000,0.000000,0.000000,0.000000,1648635085.140426,0.000000
202.000000,333.175103,-556.200809,-1745.805352,499.807358,-31122.166648,37490.044533,1397.900450,-18750.587851,0.154000,0.952000,0.210000,192.000000,0.000000,0.000000,0.000000,0.000000,0.000000,0.000000,0.000000,0.000000,0.000000,1648635085.140433,0.000000
203.000000,331.945757,-557.184286,-1739.546864,501.640201,-31120.602026,37490.335106,1408.696343,-18752.577156,0.154000,0.952000,0.210000,192.000000,0.000000,0.000000,0.000000,0.000000,0.000000,0.000000,0.000000,0.000000,0.000000,1648635085.148810,0.000000
204.000000,328.704754,-563.509829,-1746.878236,488.877355,-31127.307549,37487.272917,1409.098674,-18759.081514,0.154000,0.952000,0.210000,192.000000,0.000000,0.000000,0.000000,0.000000,0.000000,0.000000,0.000000,0.000000,0.000000,1648635085.148827,0.000000
205.000000,327.922443,-569.835373,-1751.437992,478.148517,-31132.671968,37482.713161,1396.335828,-18767.619880,0.154000,0.952000,0.210000,192.000000,0.000000,0.000000,0.000000,0.000000,0.000000,0.000000,0.000000,0.000000,0.000000,1648635085.156062,0.000000
206.000000,332.683364,-562.302835,-1743.100791,500.299096,-31124.960616,37484.546004,1398.258078,-18768.044563,0.154000,0.952000,0.210000,192.000000,0.000000,0.000000,0.000000,0.000000,0.000000,0.000000,0.000000,0.000000,0.000000,1648635085.156078,0.000000
207.000000,334.337394,-562.794574,-1740.776210,500.589669,-31123.418346,37489.195167,1404.091883,-18761.316688,0.154000,0.952000,0.210000,192.000000,0.000000,0.000000,0.000000,0.000000,0.000000,0.000000,0.000000,0.000000,0.000000,1648635085.162455,0.000000
208.000000,337.019603,-557.050175,-1737.043469,503.450692,-31121.160820,37492.950260,1405.455340,-18758.701534,0.154000,0.952000,0.210000,192.000000,0.000000,0.000000,0.000000,0.000000,0.000000,0.000000,0.000000,0.000000,0.000000,1648635085.170318,0.000000
209.000000,340.685289,-553.406841,-1735.590605,508.010448,-31117.137506,37490.715085,1398.973334,-18758.835645,0.156000,0.952000,0.210000,192.000000,4.000000,224.000000,29.000000,192.000000,6.000000,144.000000,0.000000,0.000000,0.000000,1648635085.170335,0.000000
210.000000,344.172161,-551.171667,-1734.584777,509.642125,-31110.431982,37494.112551,1393.608915,-18757.248671,0.156000,0.952000,0.210000,192.000000,0.000000,0.000000,0.000000,0.000000,0.000000,0.000000,0.000000,0.000000,0.000000,1648635085.178457,0.000000
211.000000,341.512304,-558.972425,-1731.567291,504.478872,-31112.845971,37491.318582,1386.992799,-18764.088305,0.156000,0.952000,0.210000,192.000000,0.000000,0.000000,0.000000,0.000000,0.000000,0.000000,0.000000,0.000000,0.000000,1648635085.178473,0.000000
212.000000,333.890359,-569.835373,-1740.217416,493.437111,-31123.775974,37482.824920,1374.431118,-18782.550845,0.156000,0.952000,0.210000,192.000000,0.000000,0.000000,0.000000,0.000000,0.000000,0.000000,0.000000,0.000000,0.000000,1648635085.185627,0.000000
213.000000,334.963242,-568.047234,-1744.240730,490.486680,-31128.268674,37475.515899,1363.299950,-18794.151401,0.156000,0.952000,0.210000,192.000000,0.000000,0.000000,0.000000,0.000000,0.000000,0.000000,0.000000,0.000000,0.000000,1648635085.185643,0.000000
214.000000,331.990460,-570.058891,-1751.840323,490.039645,-31128.916875,37476.409969,1383.081243,-18775.733563,0.156000,0.952000,0.210000,192.000000,0.000000,0.000000,0.000000,0.000000,0.000000,0.000000,0.000000,0.000000,0.000000,1648635085.193062,0.000000
215.000000,331.141094,-572.182306,-1745.693594,487.580954,-31126.301721,37479.718027,1393.363046,-18767.642232,0.156000,0.952000,0.210000,192.000000,0.000000,0.000000,0.000000,0.000000,0.000000,0.000000,0.000000,0.000000,0.000000,1648635085.193074,0.000000
216.000000,323.519149,-578.798423,-1755.349547,474.728700,-31135.689454,37474.018332,1379.147336,-18768.558653,0.156000,0.952000,0.210000,192.000000,0.000000,0.000000,0.000000,0.000000,0.000000,0.000000,0.000000,0.000000,0.000000,1648635085.200957,0.000000
217.000000,328.213016,-572.584638,-1753.628463,480.607209,-31134.907143,37478.935716,1411.199738,-18754.700572,0.156000,0.952000,0.210000,192.000000,0.000000,0.000000,0.000000,0.000000,0.000000,0.000000,0.000000,0.000000,0.000000,1648635085.200974,0.000000
218.000000,338.137190,-565.365024,-1739.591567,490.017294,-31123.731270,37492.860853,1419.089904,-18745.223432,0.156000,0.952000,0.210000,192.000000,0.000000,0.000000,0.000000,0.000000,0.000000,0.000000,0.000000,0.000000,0.000000,1648635085.208218,0.000000
219.000000,335.767905,-562.392242,-1741.916149,495.806396,-31123.708919,37495.364248,1415.178348,-18745.670467,0.156000,0.950000,0.212000,192.000000,4.000000,224.000000,29.000000,176.000000,6.000000,160.000000,0.000000,0.000000,0.000000,1648635085.208229,0.000000
220.000000,335.298519,-560.626454,-1743.234902,493.750035,-31124.826506,37492.480873,1414.016058,-18760.310860,0.156000,0.950000,0.212000,192.000000,0.000000,0.000000,0.000000,0.000000,0.000000,0.000000,0.000000,0.000000,0.000000,1648635085.215844,0.000000
221.000000,331.342260,-566.281446,-1752.846152,477.500317,-31134.974198,37484.769521,1401.968467,-18768.692764,0.156000,0.950000,0.212000,192.000000,0.000000,0.000000,0.000000,0.000000,0.000000,0.000000,0.000000,0.000000,0.000000,1648635085.215861,0.000000
222.000000,327.006021,-570.908257,-1760.915132,464.759822,-31145.434814,37478.756902,1397.274601,-18752.577156,0.156000,0.950000,0.212000,192.000000,0.000000,0.000000,0.000000,0.000000,0.000000,0.000000,0.000000,0.000000,0.000000,1648635085.222865,0.000000
223.000000,335.857312,-563.822754,-1744.955986,492.967724,-31128.067509,37491.944431,1417.346468,-18734.986333,0.156000,0.950000,0.212000,192.000000,0.000000,0.000000,0.000000,0.000000,0.000000,0.000000,0.000000,0.000000,0.000000,1648635085.222881,0.000000
224.000000,327.162484,-572.361120,-1753.002614,476.047453,-31133.096651,37494.134902,1414.172520,-18749.425560,0.156000,0.950000,0.212000,192.000000,0.000000,0.000000,0.000000,0.000000,0.000000,0.000000,0.000000,0.000000,0.000000,1648635085.230870,0.000000
225.000000,324.390867,-574.596295,-1755.930693,472.270009,-31141.433852,37483.853100,1406.058837,-18756.511063,0.156000,0.950000,0.212000,192.000000,0.000000,0.000000,0.000000,0.000000,0.000000,0.000000,0.000000,0.000000,0.000000,1648635085.237967,0.000000
226.000000,329.129437,-570.818850,-1750.096887,482.775328,-31133.566038,37488.189338,1404.427159,-18750.766665,0.156000,0.950000,0.212000,192.000000,0.000000,0.000000,0.000000,0.000000,0.000000,0.000000,0.000000,0.000000,0.000000,1648635085.237983,0.000000
227.000000,325.910786,-575.423309,-1754.097850,478.819070,-31135.689454,37488.010524,1399.509776,-18750.118464,0.156000,0.950000,0.212000,192.000000,0.000000,0.000000,0.000000,0.000000,0.000000,0.000000,0.000000,0.000000,0.000000,1648635085.245452,0.000000
228.000000,331.409315,-567.779013,-1747.526437,479.847250,-31134.884791,37487.429379,1402.527261,-18750.364333,0.156000,0.950000,0.212000,192.000000,0.000000,0.000000,0.000000,0.000000,0.000000,0.000000,0.000000,0.000000,0.000000,1648635085.245468,0.000000
229.000000,330.671707,-567.600199,-1753.159076,476.427433,-31136.516468,37484.344838,1401.767302,-18755.773456,0.156000,0.950000,0.212000,192.000000,0.000000,0.000000,0.000000,0.000000,0.000000,0.000000,0.000000,0.000000,0.000000,1648635085.253425,0.000000
230.000000,325.731972,-574.082205,-1757.651777,473.052320,-31138.729291,37484.121321,1392.357217,-18765.451761,0.160000,0.952000,0.208000,192.000000,5.000000,0.000000,29.000000,192.000000,6.000000,128.000000,0.000000,0.000000,0.000000,1648635085.253442,0.000000
231.000000,319.942870,-581.413577,-1763.239713,463.239904,-31146.641808,37476.991114,1379.683778,-18780.136857,0.160000,0.952000,0.208000,192.000000,0.000000,0.000000,0.000000,0.000000,0.000000,0.000000,0.000000,0.000000,0.000000,1648635085.261467,0.000000
232.000000,322.423914,-581.190059,-1756.511838,469.565448,-31142.037349,37471.447882,1363.143487,-18795.112526,0.160000,0.952000,0.208000,192.000000,0.000000,0.000000,0.000000,0.000000,0.000000,0.000000,0.000000,0.000000,0.000000,1648635085.261483,0.000000
233.000000,326.290766,-574.350426,-1752.443821,481.300113,-31135.398881,37476.499376,1379.013226,-18793.324386,0.160000,0.952000,0.208000,192.000000,0.000000,0.000000,0.000000,0.000000,0.000000,0.000000,0.000000,0.000000,0.000000,1648635085.268072,0.000000
234.000000,321.641603,-582.665274,-1764.066728,475.846288,-31138.461070,37484.523652,1388.736235,-18789.077555,0.160000,0.952000,0.208000,192.000000,0.000000,0.000000,0.000000,0.000000,0.000000,0.000000,0.000000,0.000000,0.000000,1648635085.268088,0.000000
235.000000,323.675611,-581.123004,-1756.735355,473.521706,-31136.762337,37478.935716,1365.378662,-18787.110601,0.160000,0.952000,0.208000,192.000000,0.000000,0.000000,0.000000,0.000000,0.000000,0.000000,0.000000,0.000000,0.000000,1648635085.275796,0.000000
236.000000,328.548292,-573.769280,-1746.945291,479.109642,-31128.291026,37471.961972,1338.958900,-18794.106697,0.160000,0.952000,0.208000,192.000000,0.000000,0.000000,0.000000,0.000000,0.000000,0.000000,0.000000,0.000000,0.000000,1648635085.275806,0.000000
237.000000,333.018641,-567.376681,-1739.099829,493.504166,-31117.450430,37481.483815,1375.705168,-18775.442991,0.160000,0.952000,0.208000,192.000000,0.000000,0.000000,0.000000,0.000000,0.000000,0.000000,0.000000,0.000000,0.000000,1648635085.284085,0.000000
238.000000,336.237292,-567.510792,-1735.747067,487.804471,-31115.259959,37488.435207,1411.266793,-18747.615069,0.160000,0.952000,0.208000,192.000000,0.000000,0.000000,0.000000,0.000000,0.000000,0.000000,0.000000,0.000000,0.000000,1648635085.284101,0.000000
239.000000,340.819399,-563.398071,-1731.589643,490.374922,-31111.661328,37491.877376,1440.078192,-18735.925107,0.160000,0.952000,0.208000,192.000000,0.000000,0.000000,0.000000,0.000000,0.000000,0.000000,0.000000,0.000000,0.000000,1648635085.291145,0.000000
240.000000,348.866027,-557.206638,-1726.158169,509.932698,-31104.329956,37497.845292,1461.804087,-18724.235144,0.160000,0.954000,0.208000,192.000000,5.000000,0.000000,29.000000,208.000000,6.000000,128.000000,0.000000,0.000000,0.000000,1648635085.297664,0.000000
241.000000,342.674594,-567.086109,-1733.131913,502.266050,-31112.354232,37490.804492,1444.861465,-18731.119481,0.160000,0.954000,0.208000,192.000000,0.000000,0.000000,0.000000,0.000000,0.000000,0.000000,0.000000,0.000000,0.000000,1648635085.297680,0.000000
242.000000,338.494818,-570.818850,-1734.718887,499.427378,-31117.450430,37480.500338,1432.053916,-18734.136967,0.160000,0.954000,0.208000,192.000000,0.000000,0.000000,0.000000,0.000000,0.000000,0.000000,0.000000,0.000000,0.000000,1648635085.305677,0.000000
243.000000,337.556045,-568.315455,-1734.763591,499.136805,-31119.685605,37478.086350,1432.746820,-18733.131138,0.160000,0.954000,0.208000,192.000000,0.000000,0.000000,0.000000,0.000000,0.000000,0.000000,0.000000,0.000000,0.000000,1648635085.305694,0.000000
244.000000,337.913673,-566.661425,-1734.875349,500.410855,-31121.361985,37473.660704,1422.420314,-18734.695761,0.160000,0.954000,0.208000,192.000000,0.000000,0.000000,0.000000,0.000000,0.000000,0.000000,0.000000,0.000000,0.000000,1648635085.313747,0.000000
245.000000,331.163446,-574.439833,-1739.345698,492.721855,-31125.474706,37474.107739,1409.366895,-18748.620897,0.160000,0.954000,0.208000,192.000000,0.000000,0.000000,0.000000,0.000000,0.000000,0.000000,0.000000,0.000000,0.000000,1648635085.313763,0.000000
246.000000,330.850521,-576.607952,-1739.680974,488.586782,-31132.113174,37467.581030,1404.673029,-18753.314764,0.160000,0.954000,0.208000,192.000000,0.000000,0.000000,0.000000,0.000000,0.000000,0.000000,0.000000,0.000000,0.000000,1648635085.320784,0.000000
247.000000,331.230501,-573.076376,-1735.434143,492.721855,-31131.800250,37464.407082,1406.751741,-18748.397380,0.160000,0.954000,0.208000,192.000000,0.000000,0.000000,0.000000,0.000000,0.000000,0.000000,0.000000,0.000000,0.000000,1648635085.320800,0.000000
248.000000,332.079867,-574.797460,-1732.103733,499.315619,-31126.994625,37467.133995,1407.064665,-18744.776397,0.160000,0.954000,0.208000,192.000000,0.000000,0.000000,0.000000,0.000000,0.000000,0.000000,0.000000,0.000000,0.000000,1648635085.328371,0.000000
249.000000,336.639623,-572.741100,-1726.404038,503.204823,-31126.569942,37466.910478,1405.678857,-18746.564537,0.160000,0.954000,0.208000,192.000000,0.000000,0.000000,0.000000,0.000000,0.000000,0.000000,0.000000,0.000000,0.000000,1648635085.328387,0.000000
250.000000,330.939928,-575.423309,-1735.478846,497.192204,-31132.135526,37466.463443,1403.264869,-18753.091246,0.158000,0.958000,0.206000,192.000000,4.000000,240.000000,29.000000,240.000000,6.000000,112.000000,0.000000,0.000000,0.000000,1648635085.336325,0.000000
251.000000,327.050725,-580.832431,-1739.211588,492.028951,-31140.070395,37463.065977,1401.141453,-18751.034886,0.158000,0.958000,0.206000,192.000000,0.000000,0.000000,0.000000,0.000000,0.000000,0.000000,0.000000,0.000000,0.000000,1648635085.336341,0.000000
252.000000,331.029335,-574.372777,-1734.763591,504.523576,-31132.515506,37468.363341,1394.145357,-18758.120389,0.158000,0.958000,0.206000,192.000000,0.000000,0.000000,0.000000,0.000000,0.000000,0.000000,0.000000,0.000000,0.000000,1648635085.343322,0.000000
253.000000,325.217882,-576.987931,-1743.145495,498.801529,-31137.455241,37463.714178,1376.800403,-18769.787999,0.158000,0.958000,0.206000,192.000000,0.000000,0.000000,0.000000,0.000000,0.000000,0.000000,0.000000,0.000000,0.000000,1648635085.343333,0.000000
254.000000,326.804856,-578.016112,-1744.151323,487.379788,-31141.702073,37457.254524,1350.358290,-18766.368182,0.158000,0.958000,0.206000,192.000000,0.000000,0.000000,0.000000,0.000000,0.000000,0.000000,0.000000,0.000000,0.000000,1648635085.349799,0.000000
255.000000,320.769885,-586.800347,-1751.996786,480.473099,-31148.497003,37454.080576,1350.559455,-18771.531435,0.158000,0.958000,0.206000,192.000000,0.000000,0.000000,0.000000,0.000000,0.000000,0.000000,0.000000,0.000000,0.000000,1648635085.358036,0.000000
0.000000,325.687268,-578.776071,-1742.519646,507.608117,-31135.443584,37472.833690,1430.802218,-18719.049539,0.158000,0.958000,0.206000,192.000000,0.000000,0.000000,0.000000,0.000000,0.000000,0.000000,0.000000,0.000000,0.000000,1648635085.358054,0.000000
1.000000,328.503588,-581.614742,-1740.955024,501.282573,-31137.075262,37472.878393,1440.659337,-18705.951417,0.158000,0.958000,0.206000,192.000000,0.000000,0.000000,0.000000,0.000000,0.000000,0.000000,0.000000,0.000000,0.000000,1648635085.366045,0.000000
2.000000,332.504551,-580.005417,-1736.618785,500.701428,-31137.298779,37471.000847,1416.385343,-18702.799821,0.158000,0.958000,0.206000,192.000000,0.000000,0.000000,0.000000,0.000000,0.000000,0.000000,0.000000,0.000000,0.000000,1648635085.366063,0.000000
3.000000,337.958376,-569.969484,-1730.628518,511.184396,-31130.213276,37475.247678,1410.015095,-18700.631702,0.158000,0.958000,0.206000,192.000000,0.000000,0.000000,0.000000,0.000000,0.000000,0.000000,0.000000,0.000000,0.000000,1648635085.372930,0.000000
4.000000,333.331565,-572.964617,-1734.048335,505.037666,-31133.543686,37481.036780,1413.121988,-18707.448984,0.156000,0.950000,0.208000,192.000000,4.000000,224.000000,29.000000,176.000000,6.000000,128.000000,0.000000,0.000000,0.000000,1648635085.372946,0.000000
5.000000,326.201359,-582.352350,-1743.927806,487.737416,-31147.111195,37473.236021,1413.054933,-18717.216696,0.156000,0.950000,0.208000,192.000000,0.000000,0.000000,0.000000,0.000000,0.000000,0.000000,0.000000,0.000000,0.000000,1648635085.380581,0.000000
6.000000,327.698925,-577.926705,-1742.184370,493.258297,-31147.111195,37472.967800,1421.190968,-18717.708435,0.156000,0.950000,0.208000,192.000000,0.000000,0.000000,0.000000,0.000000,0.000000,0.000000,0.000000,0.000000,0.000000,1648635085.380597,0.000000
7.000000,328.078905,-578.239629,-1742.966681,498.287439,-31146.060663,37473.303076,1428.790561,-18716.769662,0.156000,0.950000,0.208000,192.000000,0.000000,0.000000,0.000000,0.000000,0.000000,0.000000,0.000000,0.000000,0.000000,1648635085.388655,0.000000
8.000000,333.353917,-574.551591,-1737.266986,503.987134,-31138.081090,37477.214632,1421.190968,-18719.362464,0.156000,0.950000,0.208000,192.000000,0.000000,0.000000,0.000000,0.000000,0.000000,0.000000,0.000000,0.000000,0.000000,1648635085.388673,0.000000
9.000000,333.622138,-573.970446,-1739.770381,500.209689,-31136.941151,37478.488681,1409.210433,-18734.271077,0.156000,0.950000,0.208000,192.000000,0.000000,0.000000,0.000000,0.000000,0.000000,0.000000,0.000000,0.000000,0.000000,1648635085.396604,0.000000
10.000000,341.624062,-567.756661,-1736.998765,502.601326,-31135.778861,37467.648085,1397.498119,-18745.625764,0.156000,0.950000,0.208000,192.000000,0.000000,0.000000,0.000000,0.000000,0.000000,0.000000,0.000000,0.000000,0.000000,1648635085.396620,0.000000
11.000000,341.892283,-567.555495,-1741.759687,495.068788,-31142.082052,37456.740434,1383.505927,-18746.519833,0.156000,0.950000,0.208000,192.000000,0.000000,0.000000,0.000000,0.000000,0.000000,0.000000,0.000000,0.000000,0.000000,1648635085.403199,0.000000
12.000000,349.715394,-560.984082,-1722.805407,513.061942,-31127.933398,37462.395425,1374.587581,-18737.713246,0.156000,0.950000,0.208000,192.000000,0.000000,0.000000,0.000000,0.000000,0.000000,0.000000,0.000000,0.000000,0.000000,1648635085.403217,0.000000
13.000000,346.295577,-567.935475,-1726.538149,502.623678,-31127.978102,37461.657818,1360.684795,-18759.416790,0.156000,0.950000,0.208000,192.000000,0.000000,0.000000,0.000000,0.000000,0.000000,0.000000,0.000000,0.000000,0.000000,1648635085.410204,0.000000
14.000000,350.251836,-560.358233,-1724.750009,516.057076,-31123.172477,37464.407082,1383.394168,-18761.763723,0.158000,0.954000,0.212000,192.000000,4.000000,240.000000,29.000000,208.000000,6.000000,160.000000,0.000000,0.000000,0.000000,1648635085.418274,0.000000
15.000000,348.687214,-561.609931,-1725.241748,523.611966,-31119.640901,37467.290457,1397.565174,-18744.709342,0.158000,0.954000,0.212000,192.000000,0.000000,0.000000,0.000000,0.000000,0.000000,0.000000,0.000000,0.000000,0.000000,1648635085.418291,0.000000
16.000000,347.256702,-564.247437,-1728.549806,514.961841,-31123.038366,37469.033893,1391.932534,-18731.901793,0.158000,0.954000,0.212000,192.000000,0.000000,0.000000,0.000000,0.000000,0.000000,0.000000,0.000000,0.000000,0.000000,1648635085.426278,0.000000
17.000000,345.245045,-566.080280,-1728.393343,513.486625,-31122.747794,37474.420664,1420.654526,-18716.613199,0.158000,0.954000,0.212000,192.000000,0.000000,0.000000,0.000000,0.000000,0.000000,0.000000,0.000000,0.000000,0.000000,1648635085.426294,0.000000
18.000000,346.094411,-565.700300,-1728.616861,512.033762,-31122.032538,37475.024161,1425.974241,-18725.285676,0.158000,0.954000,0.212000,192.000000,0.000000,0.000000,0.000000,0.000000,0.000000,0.000000,0.000000,0.000000,0.000000,1648635085.432857,0.000000
19.000000,345.893245,-566.147335,-1734.204797,508.748056,-31124.826506,37469.704446,1406.885851,-18733.578173,0.158000,0.954000,0.212000,192.000000,0.000000,0.000000,0.000000,0.000000,0.000000,0.000000,0.000000,0.000000,0.000000,1648635085.432873,0.000000
20.000000,336.237292,-576.987931,-1735.881178,500.589669,-31129.140392,37466.016408,1385.830508,-18742.362409,0.158000,0.954000,0.212000,192.000000,0.000000,0.000000,0.000000,0.000000,0.000000,0.000000,0.000000,0.000000,0.000000,1648635085.440677,0.000000
21.000000,332.437495,-581.637094,-1737.490503,494.554698,-31134.281294,37461.099024,1390.010284,-18752.040714,0.158000,0.954000,0.212000,192.000000,0.000000,0.000000,0.000000,0.000000,0.000000,0.000000,0.000000,0.000000,0.000000,1648635085.440693,0.000000
22.000000,337.511341,-574.484536,-1731.924919,503.204823,-31130.749718,37469.145652,1412.004401,-18723.966923,0.158000,0.954000,0.212000,192.000000,0.000000,0.000000,0.000000,0.000000,0.000000,0.000000,0.000000,0.000000,0.000000,1648635085.448887,0.000000
23.000000,337.757210,-573.389301,-1731.299070,503.115416,-31129.430965,37476.141748,1423.202625,-18704.923237,0.158000,0.954000,0.212000,192.000000,0.000000,0.000000,0.000000,0.000000,0.000000,0.000000,0.000000,0.000000,0.000000,1648635085.448904,0.000000
24.000000,339.433591,-572.227010,-1729.935614,507.742227,-31128.358081,37478.220460,1417.681744,-18708.521868,0.156000,0.954000,0.214000,192.000000,4.000000,224.000000,29.000000,208.000000,6.000000,176.000000,0.000000,0.000000,0.000000,1648635085.456068,0.000000
25.000000,334.873835,-578.284333,-1739.770381,498.086273,-31138.975160,37474.666533,1403.980124,-18726.582077,0.156000,0.954000,0.214000,192.000000,0.000000,0.000000,0.000000,0.000000,0.000000,0.000000,0.000000,0.000000,0.000000,1648635085.456085,0.000000
26.000000,329.040030,-583.425234,-1745.581835,498.980343,-31142.663198,37475.001809,1396.693456,-18740.060179,0.156000,0.954000,0.214000,192.000000,0.000000,0.000000,0.000000,0.000000,0.000000,0.000000,0.000000,0.000000,0.000000,1648635085.463514,0.000000
27.000000,336.974899,-574.261019,-1732.528416,512.614907,-31130.794422,37477.058169,1391.194927,-18744.821101,0.156000,0.954000,0.214000,192.000000,0.000000,0.000000,0.000000,0.000000,0.000000,0.000000,0.000000,0.000000,0.000000,1648635085.463530,0.000000
28.000000,338.360708,-574.931571,-1732.908396,509.776236,-31129.475669,37476.052341,1381.762490,-18739.501386,0.156000,0.954000,0.214000,192.000000,0.000000,0.000000,0.000000,0.000000,0.000000,0.000000,0.000000,0.000000,0.000000,1648635085.470313,0.000000
29.000000,334.203283,-578.999588,-1736.887006,502.400160,-31133.811907,37472.543117,1382.254229,-18745.648115,0.156000,0.954000,0.214000,192.000000,0.000000,0.000000,0.000000,0.000000,0.000000,0.000000,0.000000,0.000000,0.000000,1648635085.470329,0.000000
30.000000,326.693097,-585.973333,-1743.592530,492.498337,-31141.322093,37465.614076,1391.083168,-18765.764685,0.156000,0.954000,0.214000,192.000000,0.000000,0.000000,0.000000,0.000000,0.000000,0.000000,0.000000,0.000000,0.000000,1648635085.478719,0.000000
31.000000,326.536635,-585.593353,-1743.927806,492.833613,-31144.674855,37459.422643,1393.363046,-18766.368182,0.156000,0.954000,0.214000,192.000000,0.000000,0.000000,0.000000,0.000000,0.000000,0.000000,0.000000,0.000000,0.000000,1648635085.485190,0.000000
32.000000,329.308251,-583.626399,-1741.491466,490.129052,-31144.004303,37458.528573,1371.927723,-18749.760836,0.156000,0.954000,0.214000,192.000000,0.000000,0.000000,0.000000,0.000000,0.000000,0.000000,0.000000,0.000000,0.000000,1648635085.485206,0.000000
33.000000,331.185798,-577.569077,-1742.966681,506.490529,-31137.924628,37465.345855,1351.542932,-18735.209851,0.156000,0.954000,0.214000,192.000000,0.000000,0.000000,0.000000,0.000000,0.000000,0.000000,0.000000,0.000000,0.000000,1648635085.493193,0.000000
34.000000,333.689193,-575.356254,-1739.211588,511.989058,-31133.655445,37472.945449,1391.641962,-18726.872650,0.164000,0.952000,0.212000,192.000000,5.000000,32.000000,29.000000,192.000000,6.000000,160.000000,0.000000,0.000000,0.000000,1648635085.493210,0.000000
35.000000,339.366536,-570.237705,-1731.097905,512.793721,-31127.866343,37471.939620,1401.141453,-18733.242897,0.164000,0.952000,0.212000,192.000000,0.000000,0.000000,0.000000,0.000000,0.000000,0.000000,0.000000,0.000000,0.000000,1648635085.501140,0.000000
36.000000,340.148847,-569.656559,-1731.924919,510.357381,-31127.128735,37471.023198,1408.741046,-18739.300220,0.164000,0.952000,0.212000,192.000000,0.000000,0.000000,0.000000,0.000000,0.000000,0.000000,0.000000,0.000000,0.000000,1648635085.501156,0.000000
37.000000,343.568664,-565.365024,-1723.408904,513.844253,-31123.843029,37478.801606,1437.351279,-18732.304124,0.164000,0.952000,0.212000,192.000000,0.000000,0.000000,0.000000,0.000000,0.000000,0.000000,0.000000,0.000000,0.000000,1648635085.508308,0.000000
38.000000,345.088583,-558.748908,-1719.877329,526.405934,-31114.477648,37483.629582,1416.742971,-18741.602450,0.164000,0.952000,0.212000,192.000000,0.000000,0.000000,0.000000,0.000000,0.000000,0.000000,0.000000,0.000000,0.000000,1648635085.508324,0.000000
39.000000,344.194513,-560.805268,-1727.499274,519.901576,-31118.612721,37475.024161,1393.944191,-18757.896871,0.164000,0.952000,0.212000,192.000000,0.000000,0.000000,0.000000,0.000000,0.000000,0.000000,0.000000,0.000000,0.000000,1648635085.515567,0.000000
40.000000,342.071097,-560.380585,-1730.337945,513.598384,-31123.507753,37471.649047,1385.115252,-18746.966868,0.164000,0.952000,0.212000,192.000000,0.000000,0.000000,0.000000,0.000000,0.000000,0.000000,0.000000,0.000000,0.000000,1648635085.515578,0.000000
41.000000,342.406373,-558.190114,-1728.058067,508.926870,-31123.708919,37468.855079,1393.720674,-18738.808482,0.164000,0.952000,0.212000,192.000000,0.000000,0.000000,0.000000,0.000000,0.000000,0.000000,0.000000,0.000000,0.000000,1648635085.523659,0.000000
42.000000,342.786353,-557.139582,-1723.833588,521.712067,-31115.863456,37478.935716,1407.221127,-18723.989275,0.164000,0.952000,0.212000,192.000000,0.000000,0.000000,0.000000,0.000000,0.000000,0.000000,0.000000,0.000000,0.000000,1648635085.523675,0.000000
43.000000,339.299481,-558.994777,-1728.952137,516.101779,-31120.579674,37477.281687,1409.143377,-18726.872650,0.164000,0.952000,0.212000,192.000000,0.000000,0.000000,0.000000,0.000000,0.000000,0.000000,0.000000,0.000000,0.000000,1648635085.531813,0.000000
44.000000,338.271301,-558.637149,-1733.578948,506.736399,-31123.686567,37474.353608,1404.941249,-18734.651057,0.160000,0.952000,0.212000,192.000000,5.000000,0.000000,29.000000,192.000000,6.000000,160.000000,0.000000,0.000000,0.000000,1648635085.531829,0.000000
45.000000,339.031260,-558.704204,-1733.847169,513.956012,-31117.428078,37479.203937,1398.548651,-18750.006706,0.160000,0.952000,0.212000,192.000000,0.000000,0.000000,0.000000,0.000000,0.000000,0.000000,0.000000,0.000000,0.000000,1648635085.537857,0.000000
46.000000,332.951585,-565.879114,-1742.117315,512.637259,-31123.775974,37470.978495,1380.108461,-18765.049430,0.160000,0.952000,0.212000,192.000000,0.000000,0.000000,0.000000,0.000000,0.000000,0.000000,0.000000,0.000000,0.000000,1648635085.545484,0.000000
47.000000,330.224673,-567.153164,-1739.837437,500.299096,-31127.665177,37467.648085,1377.649770,-18760.288508,0.160000,0.952000,0.212000,192.000000,0.000000,0.000000,0.000000,0.000000,0.000000,0.000000,0.000000,0.000000,0.000000,1648635085.545500,0.000000
48.000000,333.219806,-565.387376,-1737.959890,505.887032,-31125.497058,37471.090254,1395.285296,-18743.770569,0.160000,0.952000,0.212000,192.000000,0.000000,0.000000,0.000000,0.000000,0.000000,0.000000,0.000000,0.000000,0.000000,1648635085.553515,0.000000
49.000000,337.913673,-560.492344,-1732.796637,518.091085,-31118.746831,37474.912402,1400.873232,-18735.656886,0.160000,0.952000,0.212000,192.000000,0.000000,0.000000,0.000000,0.000000,0.000000,0.000000,0.000000,0.000000,0.000000,1648635085.553531,0.000000
50.000000,332.839827,-568.561324,-1736.037640,500.254393,-31124.267712,37475.739417,1409.255136,-18728.817252,0.160000,0.952000,0.212000,192.000000,0.000000,0.000000,0.000000,0.000000,0.000000,0.000000,0.000000,0.000000,0.000000,1648635085.561439,0.000000
51.000000,333.800952,-568.158992,-1733.735410,510.536195,-31123.463049,37473.101911,1406.237651,-18727.051464,0.160000,0.952000,0.212000,192.000000,0.000000,0.000000,0.000000,0.000000,0.000000,0.000000,0.000000,0.000000,0.000000,1648635085.561456,0.000000
52.000000,332.862178,-572.361120,-1738.697498,499.807358,-31131.688491,37462.306018,1390.926706,-18744.284659,0.160000,0.952000,0.212000,192.000000,0.000000,0.000000,0.000000,0.000000,0.000000,0.000000,0.000000,0.000000,0.000000,1648635085.568052,0.000000
53.000000,336.460809,-571.221181,-1737.602262,500.522614,-31127.419308,37467.737492,1400.068569,-18749.179691,0.160000,0.952000,0.212000,192.000000,0.000000,0.000000,0.000000,0.000000,0.000000,0.000000,0.000000,0.000000,0.000000,1648635085.568069,0.000000
54.000000,335.902016,-574.618646,-1739.546864,500.008523,-31128.022805,37470.151480,1411.087979,-18749.894947,0.158000,0.950000,0.212000,192.000000,4.000000,240.000000,29.000000,176.000000,6.000000,160.000000,0.000000,0.000000,0.000000,1648635085.575773,0.000000
55.000000,332.549254,-578.396091,-1744.777172,493.615925,-31131.196753,37468.475100,1395.732331,-18753.761799,0.158000,0.950000,0.212000,192.000000,0.000000,0.000000,0.000000,0.000000,0.000000,0.000000,0.000000,0.000000,0.000000,1648635085.575783,0.000000
56.000000,334.180931,-574.126908,-1742.519646,495.180547,-31132.381395,37464.451786,1366.965636,-18763.551863,0.158000,0.950000,0.212000,192.000000,0.000000,0.000000,0.000000,0.000000,0.000000,0.000000,0.000000,0.000000,0.000000,1648635085.584057,0.000000
57.000000,336.416106,-569.991835,-1740.172713,499.717951,-31129.766241,37467.357512,1374.051139,-18751.258403,0.158000,0.950000,0.212000,192.000000,0.000000,0.000000,0.000000,0.000000,0.000000,0.000000,0.000000,0.000000,0.000000,1648635085.584074,0.000000
58.000000,338.874798,-567.823716,-1738.921015,499.695599,-31125.407651,37474.554774,1407.668162,-18748.576194,0.158000,0.950000,0.212000,192.000000,0.000000,0.000000,0.000000,0.000000,0.000000,0.000000,0.000000,0.000000,0.000000,1648635085.591255,0.000000
59.000000,337.019603,-569.947132,-1740.217416,493.995904,-31129.922703,37468.363341,1412.943174,-18761.495502,0.158000,0.950000,0.212000,192.000000,0.000000,0.000000,0.000000,0.000000,0.000000,0.000000,0.000000,0.000000,0.000000,1648635085.591271,0.000000
60.000000,335.298519,-570.237705,-1742.139666,488.698541,-31135.175363,37469.503280,1415.334811,-18749.470264,0.158000,0.950000,0.212000,192.000000,0.000000,0.000000,0.000000,0.000000,0.000000,0.000000,0.000000,0.000000,0.000000,1648635085.597756,0.000000
61.000000,338.092487,-565.543838,-1738.049297,498.175680,-31132.202581,37474.554774,1422.509721,-18726.917354,0.158000,0.950000,0.212000,192.000000,0.000000,0.000000,0.000000,0.000000,0.000000,0.000000,0.000000,0.000000,0.000000,1648635085.605741,0.000000
62.000000,334.873835,-571.243533,-1741.111486,492.051302,-31134.057776,37473.168966,1402.706075,-18747.123330,0.158000,0.950000,0.212000,192.000000,0.000000,0.000000,0.000000,0.000000,0.000000,0.000000,0.000000,0.000000,0.000000,1648635085.605757,0.000000
63.000000,329.665879,-576.250324,-1752.913207,482.998846,-31142.886715,37458.550925,1377.627418,-18769.519778,0.158000,0.950000,0.212000,192.000000,0.000000,0.000000,0.000000,0.000000,0.000000,0.000000,0.000000,0.000000,0.000000,1648635085.613712,0.000000
64.000000,332.616309,-574.104556,-1749.292225,483.557640,-31139.601009,37457.634504,1376.196906,-18760.132046,0.158000,0.948000,0.210000,192.000000,4.000000,240.000000,29.000000,160.000000,6.000000,144.000000,0.000000,0.000000,0.000000,1648635085.613729,0.000000
65.000000,339.791219,-563.934513,-1733.422486,498.622715,-31125.608817,37469.749149,1400.917935,-18737.735598,0.158000,0.948000,0.210000,192.000000,0.000000,0.000000,0.000000,0.000000,0.000000,0.000000,0.000000,0.000000,0.000000,1648635085.620335,0.000000
66.000000,338.271301,-562.124021,-1736.752896,502.891898,-31127.262846,37471.581992,1416.653564,-18733.421711,0.158000,0.948000,0.210000,192.000000,0.000000,0.000000,0.000000,0.000000,0.000000,0.000000,0.000000,0.000000,0.000000,1648635085.620351,0.000000
67.000000,344.887417,-557.608969,-1726.918128,514.738323,-31116.422250,37478.600440,1418.262889,-18729.286638,0.158000,0.948000,0.210000,192.000000,0.000000,0.000000,0.000000,0.000000,0.000000,0.000000,0.000000,0.000000,0.000000,1648635085.628368,0.000000
68.000000,346.742612,-556.916065,-1725.197044,512.659611,-31117.495134,37473.616001,1397.900450,-18746.810406,0.158000,0.948000,0.210000,192.000000,0.000000,0.000000,0.000000,0.000000,0.000000,0.000000,0.000000,0.000000,0.000000,1648635085.628384,0.000000
69.000000,344.730955,-560.447640,-1727.812198,510.446788,-31122.211352,37471.514937,1393.653619,-18760.422618,0.158000,0.948000,0.210000,192.000000,0.000000,0.000000,0.000000,0.000000,0.000000,0.000000,0.000000,0.000000,0.000000,1648635085.636426,0.000000
70.000000,343.725126,-560.849972,-1732.014326,508.815111,-31124.267712,37478.689847,1402.639020,-18738.741426,0.158000,0.948000,0.210000,192.000000,0.000000,0.000000,0.000000,0.000000,0.000000,0.000000,0.000000,0.000000,0.000000,1648635085.636444,0.000000
71.000000,341.333490,-562.615760,-1734.875349,500.701428,-31127.218142,37479.382751,1400.917935,-18726.783243,0.158000,0.948000,0.210000,192.000000,0.000000,0.000000,0.000000,0.000000,0.000000,0.000000,0.000000,0.000000,0.000000,1648635085.643568,0.000000
72.000000,347.077888,-553.429193,-1727.834550,512.346686,-31120.311453,37479.248640,1396.447587,-18728.996066,0.158000,0.948000,0.210000,192.000000,0.000000,0.000000,0.000000,0.000000,0.000000,0.000000,0.000000,0.000000,0.000000,1648635085.643584,0.000000
73.000000,352.554065,-547.036594,-1725.577024,521.242681,-31113.672985,37477.728722,1395.106482,-18733.421711,0.158000,0.948000,0.210000,192.000000,0.000000,0.000000,0.000000,0.000000,0.000000,0.000000,0.000000,0.000000,0.000000,1648635085.650762,0.000000
74.000000,346.675557,-553.742117,-1733.891873,511.162044,-31118.523314,37476.074693,1399.845052,-18747.525662,0.162000,0.946000,0.208000,192.000000,5.000000,16.000000,29.000000,144.000000,6.000000,128.000000,0.000000,0.000000,0.000000,1648635085.650777,0.000000
75.000000,351.436478,-549.361175,-1727.611032,513.061942,-31116.824581,37471.961972,1388.847993,-18769.139799,0.162000,0.946000,0.208000,192.000000,0.000000,0.000000,0.000000,0.000000,0.000000,0.000000,0.000000,0.000000,0.000000,1648635085.657663,0.000000
76.000000,353.023452,-547.975367,-1725.197044,514.023067,-31114.455296,37470.486757,1385.875211,-18765.518816,0.162000,0.946000,0.208000,192.000000,0.000000,0.000000,0.000000,0.000000,0.000000,0.000000,0.000000,0.000000,0.000000,1648635085.665898,0.000000
77.000000,349.536580,-553.451544,-1727.476922,508.099855,-31116.668119,37473.727760,1384.422348,-18763.350697,0.162000,0.946000,0.208000,192.000000,0.000000,0.000000,0.000000,0.000000,0.000000,0.000000,0.000000,0.000000,0.000000,1648635085.665909,0.000000
78.000000,348.262530,-557.296045,-1730.270890,511.273803,-31119.417384,37471.045550,1372.978255,-18778.192255,0.162000,0.946000,0.208000,192.000000,0.000000,0.000000,0.000000,0.000000,0.000000,0.000000,0.000000,0.000000,0.000000,1648635085.673140,0.000000
79.000000,344.663900,-565.186210,-1735.970585,503.428340,-31125.519410,37466.754015,1358.851952,-18774.928901,0.162000,0.946000,0.208000,192.000000,0.000000,0.000000,0.000000,0.000000,0.000000,0.000000,0.000000,0.000000,0.000000,1648635085.673152,0.000000
80.000000,345.021527,-563.643940,-1738.451629,499.740303,-31130.034462,37472.811338,1377.627418,-18748.844415,0.162000,0.946000,0.208000,192.000000,0.000000,0.000000,0.000000,0.000000,0.000000,0.000000,0.000000,0.000000,0.000000,1648635085.680613,0.000000
81.000000,351.570589,-558.234818,-1730.472056,497.862756,-31123.775974,37480.321524,1409.635116,-18725.464490,0.162000,0.946000,0.208000,192.000000,0.000000,0.000000,0.000000,0.000000,0.000000,0.000000,0.000000,0.000000,0.000000,1648635085.680629,0.000000
82.000000,351.011795,-556.938417,-1730.181483,507.295192,-31116.869285,37490.133940,1434.333793,-18722.469356,0.162000,0.946000,0.208000,192.000000,0.000000,0.000000,0.000000,0.000000,0.000000,0.000000,0.000000,0.000000,0.000000,1648635085.688657,0.000000
83.000000,348.329586,-557.251341,-1733.578948,508.658649,-31120.646730,37482.824920,1434.624366,-18734.762816,0.162000,0.946000,0.208000,192.000000,0.000000,0.000000,0.000000,0.000000,0.000000,0.000000,0.000000,0.000000,0.000000,1648635085.688675,0.000000
84.000000,349.357766,-554.815001,-1723.744181,506.445826,-31115.349366,37483.875452,1425.571910,-18738.562612,0.162000,0.946000,0.208000,192.000000,0.000000,0.000000,0.000000,0.000000,0.000000,0.000000,0.000000,0.000000,0.000000,1648635085.696611,0.000000
85.000000,342.071097,-560.000606,-1730.673221,504.568279,-31118.344500,37485.417722,1421.235671,-18737.825005,0.162000,0.952000,0.200000,192.000000,5.000000,16.000000,29.000000,192.000000,6.000000,64.000000,0.000000,0.000000,0.000000,1648635085.696627,0.000000
86.000000,341.825228,-562.772222,-1732.573120,502.310753,-31120.602026,37481.953202,1421.816817,-18735.835700,0.162000,0.952000,0.200000,192.000000,0.000000,0.000000,0.000000,0.000000,0.000000,0.000000,0.000000,0.000000,0.000000,1648635085.703216,0.000000
87.000000,336.907844,-566.661425,-1738.339870,493.280648,-31124.692395,37476.432321,1400.135624,-18755.661697,0.162000,0.952000,0.200000,192.000000,0.000000,0.000000,0.000000,0.000000,0.000000,0.000000,0.000000,0.000000,0.000000,1648635085.703232,0.000000
88.000000,341.065269,-564.046271,-1733.243672,496.722817,-31121.496096,37482.400236,1406.841148,-18751.236051,0.162000,0.952000,0.200000,192.000000,0.000000,0.000000,0.000000,0.000000,0.000000,0.000000,0.000000,0.000000,0.000000,1648635085.711246,0.000000
89.000000,342.831056,-564.202734,-1733.288376,503.718913,-31118.813887,37490.759789,1418.173482,-18741.468339,0.162000,0.952000,0.200000,192.000000,0.000000,0.000000,0.000000,0.000000,0.000000,0.000000,0.000000,0.000000,0.000000,1648635085.711262,0.000000
90.000000,338.852446,-567.711957,-1738.049297,497.639239,-31124.379471,37484.970687,1408.741046,-18751.057238,0.162000,0.952000,0.200000,192.000000,0.000000,0.000000,0.000000,0.000000,0.000000,0.000000,0.000000,0.000000,0.000000,1648635085.718335,0.000000
91.000000,335.477333,-570.014187,-1741.692631,486.217497,-31130.570904,37478.175757,1404.717732,-18749.246746,0.162000,0.952000,0.200000,192.000000,0.000000,0.000000,0.000000,0.000000,0.000000,0.000000,0.000000,0.000000,0.000000,1648635085.718353,0.000000
92.000000,338.293652,-567.980178,-1739.323347,490.531384,-31132.046119,37474.063036,1391.686665,-18748.710304,0.162000,0.952000,0.200000,192.000000,0.000000,0.000000,0.000000,0.000000,0.000000,0.000000,0.000000,0.000000,0.000000,1648635085.726445,0.000000
93.000000,342.339318,-567.935475,-1735.411791,493.548869,-31125.564113,37482.154367,1390.770243,-18755.952270,0.162000,0.952000,0.200000,192.000000,0.000000,0.000000,0.000000,0.000000,0.000000,0.000000,0.000000,0.000000,0.000000,1648635085.732753,0.000000
94.000000,339.433591,-570.952960,-1741.938501,489.078520,-31128.447488,37486.647068,1393.385398,-18773.945424,0.162000,0.952000,0.200000,192.000000,0.000000,0.000000,0.000000,0.000000,0.000000,0.000000,0.000000,0.000000,0.000000,1648635085.732769,0.000000
95.000000,332.996289,-577.434966,-1749.113411,482.998846,-31137.164669,37480.902670,1389.563249,-18782.617901,0.158000,0.952000,0.204000,192.000000,4.000000,240.000000,29.000000,192.000000,6.000000,96.000000,0.000000,0.000000,0.000000,1648635085.740845,0.000000
96.000000,334.672670,-573.970446,-1744.754820,489.302038,-31132.895486,37486.311792,1404.829491,-18751.727790,0.158000,0.952000,0.204000,192.000000,0.000000,0.000000,0.000000,0.000000,0.000000,0.000000,0.000000,0.000000,0.000000,1648635085.740862,0.000000
97.000000,337.220769,-572.338769,-1739.591567,485.971628,-31128.894523,37487.809359,1409.255136,-18725.576249,0.158000,0.952000,0.204000,192.000000,0.000000,0.000000,0.000000,0.000000,0.000000,0.000000,0.000000,0.000000,0.000000,1648635085.748869,0.000000
98.000000,335.589091,-572.025844,-1741.022079,480.897782,-31130.392090,37485.954164,1405.611802,-18734.919278,0.158000,0.952000,0.204000,192.000000,0.000000,0.000000,0.000000,0.000000,0.000000,0.000000,0.000000,0.000000,0.000000,1648635085.748886,0.000000
99.000000,336.818437,-570.170649,-1743.078440,494.264125,-31128.000453,37483.495472,1395.329999,-18746.810406,0.158000,0.952000,0.204000,192.000000,0.000000,0.000000,0.000000,0.000000,0.000000,0.000000,0.000000,0.000000,0.000000,1648635085.755493,0.000000
100.000000,339.701812,-569.298931,-1738.429277,492.878317,-31126.122907,37480.857966,1392.871307,-18755.795807,0.158000,0.952000,0.204000,192.000000,0.000000,0.000000,0.000000,0.000000,0.000000,0.000000,0.000000,0.000000,0.000000,1648635085.755509,0.000000
101.000000,335.656146,-574.618646,-1740.798562,489.324390,-31127.642826,37482.757864,1391.083168,-18763.887139,0.158000,0.952000,0.204000,192.000000,0.000000,0.000000,0.000000,0.000000,0.000000,0.000000,0.000000,0.000000,0.000000,1648635085.763486,0.000000
102.000000,329.978803,-581.458280,-1748.778134,483.043549,-31134.616570,37479.293344,1373.671159,-18774.325403,0.158000,0.952000,0.204000,192.000000,0.000000,0.000000,0.000000,0.000000,0.000000,0.000000,0.000000,0.000000,0.000000,1648635085.763503,0.000000
103.000000,333.398620,-576.764414,-1749.649852,484.474061,-31134.773032,37474.845347,1361.623569,-18781.254444,0.158000,0.952000,0.204000,192.000000,0.000000,0.000000,0.000000,0.000000,0.000000,0.000000,0.000000,0.000000,0.000000,1648635085.771460,0.000000
104.000000,341.020565,-571.578809,-1737.423448,489.033817,-31126.905218,37485.194204,1404.605973,-18755.035848,0.158000,0.952000,0.204000,192.000000,0.000000,0.000000,0.000000,0.000000,0.000000,0.000000,0.000000,0.000000,0.000000,1648635085.771476,0.000000
105.000000,343.747478,-567.086109,-1734.137742,490.754901,-31123.708919,37494.291364,1434.803180,-18732.415883,0.158000,0.954000,0.206000,192.000000,4.000000,240.000000,29.000000,208.000000,6.000000,112.000000,0.000000,0.000000,0.000000,1648635085.778680,0.000000
106.000000,337.041955,-569.924780,-1744.352489,485.993980,-31130.526201,37485.305963,1399.956810,-18748.106807,0.158000,0.954000,0.206000,192.000000,0.000000,0.000000,0.000000,0.000000,0.000000,0.000000,0.000000,0.000000,0.000000,1648635085.778697,0.000000
107.000000,340.171199,-563.465126,-1744.799524,490.754901,-31129.900352,37479.606268,1373.648807,-18753.426522,0.158000,0.954000,0.206000,192.000000,0.000000,0.000000,0.000000,0.000000,0.000000,0.000000,0.000000,0.000000,0.000000,1648635085.784924,0.000000
108.000000,342.160504,-566.527315,-1739.166884,488.072692,-31122.501924,37499.208748,1411.512662,-18730.493633,0.158000,0.954000,0.206000,192.000000,0.000000,0.000000,0.000000,0.000000,0.000000,0.000000,0.000000,0.000000,0.000000,1648635085.793184,0.000000
109.000000,342.316966,-566.594370,-1741.357355,489.123224,-31125.787631,37500.639260,1418.352296,-18741.200118,0.158000,0.954000,0.206000,192.000000,0.000000,0.000000,0.000000,0.000000,0.000000,0.000000,0.000000,0.000000,0.000000,1648635085.793200,0.000000
110.000000,345.513266,-562.369890,-1741.804390,485.792814,-31128.805116,37488.703428,1416.385343,-18754.164130,0.158000,0.954000,0.206000,192.000000,0.000000,0.000000,0.000000,0.000000,0.000000,0.000000,0.000000,0.000000,0.000000,1648635085.800952,0.000000
111.000000,345.088583,-561.274655,-1740.060954,481.814203,-31129.632131,37483.428417,1418.084075,-18754.454703,0.158000,0.954000,0.206000,192.000000,0.000000,0.000000,0.000000,0.000000,0.000000,0.000000,0.000000,0.000000,0.000000,1648635085.800968,0.000000
112.000000,347.927254,-558.771260,-1730.852035,488.855003,-31122.278407,37491.542100,1408.718694,-18760.020287,0.158000,0.954000,0.206000,192.000000,0.000000,0.000000,0.000000,0.000000,0.000000,0.000000,0.000000,0.000000,0.000000,1648635085.808381,0.000000
113.000000,348.620158,-558.659501,-1732.014326,483.579991,-31120.713785,37496.191263,1398.369837,-18759.841473,0.158000,0.954000,0.206000,192.000000,0.000000,0.000000,0.000000,0.000000,0.000000,0.000000,0.000000,0.000000,0.000000,1648635085.808398,0.000000
114.000000,342.294615,-563.532181,-1740.284472,483.602343,-31123.373642,37496.705353,1402.862537,-18742.630630,0.158000,0.954000,0.206000,192.000000,0.000000,0.000000,0.000000,0.000000,0.000000,0.000000,0.000000,0.000000,0.000000,1648635085.815813,0.000000
115.000000,343.367498,-559.687681,-1734.338908,500.589669,-31117.986872,37500.683963,1406.416465,-18732.304124,0.154000,0.954000,0.210000,192.000000,4.000000,208.000000,29.000000,208.000000,6.000000,144.000000,0.000000,0.000000,0.000000,1648635085.815828,0.000000
116.000000,340.327661,-565.320321,-1739.546864,493.504166,-31122.032538,37497.308850,1400.090921,-18745.335191,0.154000,0.954000,0.210000,192.000000,0.000000,0.000000,0.000000,0.000000,0.000000,0.000000,0.000000,0.000000,0.000000,1648635085.823630,0.000000
117.000000,338.830094,-563.912161,-1740.709155,486.932753,-31127.866343,37491.363286,1400.225031,-18749.470264,0.154000,0.954000,0.210000,192.000000,0.000000,0.000000,0.000000,0.000000,0.000000,0.000000,0.000000,0.000000,0.000000,1648635085.823646,0.000000
118.000000,335.700850,-564.962693,-1736.819951,485.792814,-31124.960616,37496.012449,1399.733293,-18744.239955,0.154000,0.954000,0.210000,192.000000,0.000000,0.000000,0.000000,0.000000,0.000000,0.000000,0.000000,0.000000,0.000000,1648635085.831864,0.000000
119.000000,331.006984,-569.880077,-1742.609053,484.228192,-31125.094727,37495.923042,1397.565174,-18752.599508,0.154000,0.954000,0.210000,192.000000,0.000000,0.000000,0.000000,0.000000,0.000000,0.000000,0.000000,0.000000,0.000000,1648635085.831881,0.000000
120.000000,336.930196,-564.180382,-1739.524512,485.904573,-31124.670044,37486.088274,1392.826604,-18763.417752,0.154000,0.954000,0.210000,192.000000,0.000000,0.000000,0.000000,0.000000,0.000000,0.000000,0.000000,0.000000,0.000000,1648635085.838432,0.000000
121.000000,340.506475,-563.755699,-1740.776210,483.200012,-31123.708919,37485.663591,1383.796499,-18778.862808,0.154000,0.954000,0.210000,192.000000,0.000000,0.000000,0.000000,0.000000,0.000000,0.000000,0.000000,0.000000,0.000000,1648635085.838448,0.000000
122.000000,344.887417,-563.129850,-1739.278643,481.031892,-31124.446526,37485.775350,1391.731369,-18774.750087,0.154000,0.954000,0.210000,192.000000,0.000000,0.000000,0.000000,0.000000,0.000000,0.000000,0.000000,0.000000,0.000000,1648635085.845473,0.000000
123.000000,345.401507,-559.955902,-1737.490503,485.502241,-31118.657424,37491.407989,1398.749816,-18751.303107,0.154000,0.954000,0.210000,192.000000,0.000000,0.000000,0.000000,0.000000,0.000000,0.000000,0.000000,0.000000,0.000000,1648635085.853485,0.000000
124.000000,342.138152,-562.079318,-1742.139666,486.843346,-31119.640901,37489.508091,1393.430101,-18750.990182,0.154000,0.954000,0.210000,192.000000,0.000000,0.000000,0.000000,0.000000,0.000000,0.000000,0.000000,0.000000,0.000000,1648635085.853503,0.000000
125.000000,342.384022,-561.945207,-1738.898663,483.825860,-31117.517485,37489.642202,1394.950020,-18763.328345,0.160000,0.960000,0.216000,192.000000,5.000000,0.000000,30.000000,0.000000,6.000000,192.000000,0.000000,0.000000,0.000000,1648635085.861491,0.000000
126.000000,341.624062,-564.761527,-1743.816047,479.243753,-31121.831372,37481.059132,1382.008360,-18776.493523,0.160000,0.960000,0.216000,192.000000,0.000000,0.000000,0.000000,0.000000,0.000000,0.000000,0.000000,0.000000,0.000000,1648635085.861508,0.000000
127.000000,347.077888,-559.374757,-1728.438047,492.543041,-31112.913026,37482.176719,1385.539935,-18767.396363,0.160000,0.960000,0.216000,192.000000,0.000000,0.000000,0.000000,0.000000,0.000000,0.000000,0.000000,0.000000,0.000000,1648635085.868022,0.000000
128.000000,351.280016,-556.446678,-1725.420561,492.878317,-31109.850837,37484.009562,1385.316418,-18765.250595,0.160000,0.960000,0.216000,192.000000,0.000000,0.000000,0.000000,0.000000,0.000000,0.000000,0.000000,0.000000,0.000000,1648635085.868040,0.000000
129.000000,345.155638,-561.252303,-1734.852998,483.177660,-31114.678814,37482.668457,1378.745005,-18772.760781,0.160000,0.960000,0.216000,192.000000,0.000000,0.000000,0.000000,0.000000,0.000000,0.000000,0.000000,0.000000,0.000000,1648635085.876061,0.000000
130.000000,343.233388,-563.398071,-1736.551730,465.005692,-31126.234666,37469.637390,1362.070604,-18784.249578,0.160000,0.960000,0.216000,192.000000,0.000000,0.000000,0.000000,0.000000,0.000000,0.000000,0.000000,0.000000,0.000000,1648635085.876077,0.000000
131.000000,347.122591,-554.502076,-1726.448742,496.208727,-31111.661328,37481.282649,1388.289200,-18767.306956,0.160000,0.960000,0.216000,192.000000,0.000000,0.000000,0.000000,0.000000,0.000000,0.000000,0.000000,0.000000,0.000000,1648635085.884103,0.000000
132.000000,345.513266,-556.692547,-1726.448742,501.148462,-31108.956767,37486.915289,1398.168671,-18761.428447,0.160000,0.960000,0.216000,192.000000,0.000000,0.000000,0.000000,0.000000,0.000000,0.000000,0.000000,0.000000,0.000000,1648635085.884120,0.000000
133.000000,345.379155,-555.038518,-1727.365163,500.589669,-31106.453372,37499.722838,1431.293956,-18749.582022,0.160000,0.960000,0.216000,192.000000,0.000000,0.000000,0.000000,0.000000,0.000000,0.000000,0.000000,0.000000,0.000000,1648635085.891157,0.000000
134.000000,344.172161,-554.435021,-1731.589643,498.712122,-31109.381450,37510.094048,1446.917826,-18729.733673,0.160000,0.960000,0.216000,192.000000,0.000000,0.000000,0.000000,0.000000,0.000000,0.000000,0.000000,0.000000,0.000000,1648635085.891173,0.000000
135.000000,345.580321,-555.597312,-1734.070687,493.884145,-31112.421288,37505.467237,1433.037392,-18732.527641,0.160000,0.960000,0.212000,192.000000,5.000000,0.000000,30.000000,0.000000,6.000000,160.000000,0.000000,0.000000,0.000000,1648635085.898738,0.000000
136.000000,330.962280,-568.986007,-1748.442858,479.959009,-31126.882866,37490.513920,1410.372723,-18758.992107,0.160000,0.960000,0.212000,192.000000,0.000000,0.000000,0.000000,0.000000,0.000000,0.000000,0.000000,0.000000,0.000000,1648635085.898755,0.000000
137.000000,324.949661,-579.267809,-1750.320405,468.336102,-31133.878962,37483.942507,1392.580735,-18770.212683,0.160000,0.960000,0.212000,192.000000,0.000000,0.000000,0.000000,0.000000,0.000000,0.000000,0.000000,0.000000,0.000000,1648635085.905730,0.000000
138.000000,330.001155,-573.143431,-1744.620710,481.769500,-31127.218142,37488.949298,1398.593354,-18760.310860,0.160000,0.960000,0.212000,192.000000,0.000000,0.000000,0.000000,0.000000,0.000000,0.000000,0.000000,0.000000,0.000000,1648635085.913920,0.000000
139.000000,332.728068,-572.852859,-1744.598358,482.149480,-31123.440698,37495.587766,1418.017020,-18746.989220,0.160000,0.960000,0.212000,192.000000,0.000000,0.000000,0.000000,0.000000,0.000000,0.000000,0.000000,0.000000,0.000000,1648635085.913937,0.000000
140.000000,338.248949,-570.349463,-1738.406925,479.109642,-31121.361985,37493.151425,1414.597203,-18745.312839,0.160000,0.960000,0.212000,192.000000,0.000000,0.000000,0.000000,0.000000,0.000000,0.000000,0.000000,0.000000,0.000000,1648635085.920325,0.000000
141.000000,337.243120,-567.264923,-1735.970585,482.887087,-31114.723517,37507.881225,1415.334811,-18735.701589,0.160000,0.960000,0.212000,192.000000,0.000000,0.000000,0.000000,0.000000,0.000000,0.000000,0.000000,0.000000,0.000000,1648635085.920342,0.000000
142.000000,334.650318,-569.455393,-1742.676108,482.998846,-31122.680738,37501.533330,1420.565119,-18743.211775,0.160000,0.960000,0.212000,192.000000,0.000000,0.000000,0.000000,0.000000,0.000000,0.000000,0.000000,0.000000,0.000000,1648635085.928355,0.000000
143.000000,333.286862,-569.813021,-1747.280568,478.573201,-31124.714747,37495.118379,1411.512662,-18759.908528,0.160000,0.960000,0.212000,192.000000,0.000000,0.000000,0.000000,0.000000,0.000000,0.000000,0.000000,0.000000,0.000000,1648635085.928372,0.000000
144.000000,337.287824,-564.850934,-1740.060954,476.270971,-31123.440698,37493.374943,1400.850880,-18777.387592,0.160000,0.960000,0.212000,192.000000,0.000000,0.000000,0.000000,0.000000,0.000000,0.000000,0.000000,0.000000,0.000000,1648635085.936348,0.000000
145.000000,343.322795,-556.021995,-1733.288376,494.487643,-31117.606892,37491.162120,1393.944191,-18779.287491,0.160000,0.958000,0.214000,192.000000,5.000000,0.000000,29.000000,240.000000,6.000000,176.000000,0.000000,0.000000,0.000000,1648635085.936365,0.000000
146.000000,343.121629,-556.647844,-1738.026945,486.798642,-31122.256055,37481.662629,1378.230915,-18784.137819,0.160000,0.958000,0.214000,192.000000,0.000000,0.000000,0.000000,0.000000,0.000000,0.000000,0.000000,0.000000,0.000000,1648635085.943592,0.000000
147.000000,351.570589,-549.897617,-1730.606166,500.857890,-31112.220122,37482.064960,1370.072528,-18777.834627,0.160000,0.958000,0.214000,192.000000,0.000000,0.000000,0.000000,0.000000,0.000000,0.000000,0.000000,0.000000,0.000000,1648635085.943609,0.000000
148.000000,353.112859,-549.294120,-1730.337945,497.795701,-31110.946072,37487.652896,1381.024883,-18753.761799,0.160000,0.958000,0.214000,192.000000,0.000000,0.000000,0.000000,0.000000,0.000000,0.000000,0.000000,0.000000,0.000000,1648635085.950788,0.000000
149.000000,344.842713,-559.665329,-1735.702364,489.994942,-31116.958692,37488.479911,1393.005418,-18744.195252,0.160000,0.958000,0.214000,192.000000,0.000000,0.000000,0.000000,0.000000,0.000000,0.000000,0.000000,0.000000,0.000000,1648635085.950805,0.000000
150.000000,336.013774,-573.456356,-1747.146457,475.667474,-31127.799288,37484.791873,1402.773130,-18755.929918,0.160000,0.958000,0.214000,192.000000,0.000000,0.000000,0.000000,0.000000,0.000000,0.000000,0.000000,0.000000,0.000000,1648635085.959007,0.000000
151.000000,334.069173,-584.654580,-1749.359280,453.986282,-31139.980989,37476.275858,1393.452453,-18776.359412,0.160000,0.958000,0.214000,192.000000,0.000000,0.000000,0.000000,0.000000,0.000000,0.000000,0.000000,0.000000,0.000000,1648635085.959023,0.000000
152.000000,338.628928,-576.987931,-1746.207684,469.587799,-31135.130660,37478.376922,1385.696398,-18791.893875,0.160000,0.958000,0.214000,192.000000,0.000000,0.000000,0.000000,0.000000,0.000000,0.000000,0.000000,0.000000,0.000000,1648635085.965964,0.000000
153.000000,348.150772,-569.790670,-1736.775248,478.796718,-31125.385299,37482.310829,1391.709017,-18774.951252,0.160000,0.958000,0.214000,192.000000,0.000000,0.000000,0.000000,0.000000,0.000000,0.000000,0.000000,0.000000,0.000000,1648635085.965980,0.000000
154.000000,349.491876,-568.360158,-1738.496332,473.275837,-31125.631169,37481.215594,1384.332941,-18763.015421,0.160000,0.958000,0.214000,192.000000,0.000000,0.000000,0.000000,0.000000,0.000000,0.000000,0.000000,0.000000,0.000000,1648635085.973193,0.000000
155.000000,350.765926,-565.141507,-1732.059030,479.824898,-31119.663253,37480.433283,1387.328075,-18757.136912,0.160000,0.950000,0.212000,192.000000,5.000000,0.000000,29.000000,176.000000,6.000000,160.000000,0.000000,0.000000,0.000000,1648635085.980277,0.000000
156.000000,348.821324,-564.627417,-1732.237844,479.668436,-31115.394070,37484.121321,1389.339732,-18760.601432,0.160000,0.950000,0.212000,192.000000,0.000000,0.000000,0.000000,0.000000,0.000000,0.000000,0.000000,0.000000,0.000000,1648635085.980284,0.000000
157.000000,349.693042,-567.376681,-1735.031812,473.611113,-31118.590369,37481.103835,1400.560308,-18771.307918,0.160000,0.950000,0.212000,192.000000,0.000000,0.000000,0.000000,0.000000,0.000000,0.000000,0.000000,0.000000,0.000000,1648635085.988225,0.000000
158.000000,349.044841,-567.354330,-1732.059030,474.058148,-31115.684642,37485.305963,1408.897508,-18763.484807,0.160000,0.950000,0.212000,192.000000,0.000000,0.000000,0.000000,0.000000,0.000000,0.000000,0.000000,0.000000,0.000000,1648635085.988231,0.000000
159.000000,343.903940,-571.847030,-1736.372916,469.766613,-31118.277445,37489.642202,1422.263851,-18750.274926,0.160000,0.950000,0.212000,192.000000,0.000000,0.000000,0.000000,0.000000,0.000000,0.000000,0.000000,0.000000,0.000000,1648635085.996226,0.000000
160.000000,342.764001,-570.193001,-1738.563387,481.523631,-31118.009224,37493.106722,1417.905261,-18750.453740,0.160000,0.950000,0.212000,192.000000,0.000000,0.000000,0.000000,0.000000,0.000000,0.000000,0.000000,0.000000,0.000000,1648635085.996232,0.000000
161.000000,341.065269,-571.176478,-1741.335004,472.471174,-31123.485401,37488.703428,1409.858633,-18755.594642,0.160000,0.950000,0.212000,192.000000,0.000000,0.000000,0.000000,0.000000,0.000000,0.000000,0.000000,0.000000,0.000000,1648635086.002849,0.000000
162.000000,336.349051,-576.227972,-1745.827704,471.867677,-31125.184134,37491.899728,1411.266793,-18751.817197,0.160000,0.950000,0.212000,192.000000,0.000000,0.000000,0.000000,0.000000,0.000000,0.000000,0.000000,0.000000,0.000000,1648635086.002854,0.000000
163.000000,332.236330,-578.552553,-1747.861713,468.045529,-31127.486363,37492.860853,1417.659392,-18751.280755,0.160000,0.950000,0.212000,192.000000,0.000000,0.000000,0.000000,0.000000,0.000000,0.000000,0.000000,0.000000,0.000000,1648635086.010881,0.000000
164.000000,333.510379,-576.429138,-1745.023041,463.262256,-31126.793459,37493.889033,1414.463093,-18756.868691,0.160000,0.950000,0.212000,192.000000,0.000000,0.000000,0.000000,0.000000,0.000000,0.000000,0.000000,0.000000,0.000000,1648635086.010885,0.000000
165.000000,327.676574,-579.357216,-1751.125068,464.268084,-31129.229799,37493.889033,1405.164767,-18761.026116,0.156000,0.952000,0.210000,192.000000,4.000000,224.000000,29.000000,192.000000,6.000000,144.000000,0.000000,0.000000,0.000000,1648635086.018828,0.000000
166.000000,324.301460,-583.201716,-1756.645948,459.529514,-31135.734157,37483.428417,1395.262944,-18767.128142,0.156000,0.952000,0.210000,192.000000,0.000000,0.000000,0.000000,0.000000,0.000000,0.000000,0.000000,0.000000,0.000000,1648635086.018833,0.000000
167.000000,325.307289,-579.200754,-1756.534190,457.897837,-31136.337654,37478.913364,1390.300857,-18775.375935,0.156000,0.952000,0.210000,192.000000,0.000000,0.000000,0.000000,0.000000,0.000000,0.000000,0.000000,0.000000,0.000000,1648635086.025551,0.000000
