%OpenBCI Raw EEG Data
%Number of channels = 8
%Sample Rate = 256 Hz
%Board = OpenBCI_GUI$BoardCytonSerial
%Channels = Fp1, Fp2, F3, F4, Fz, Pz, O1, O2
%Data recorded at AIMS Lab (http://aimsl.uiu.ac.bd) by Rana Depto (mail@ranadepto.com)
%Brainwaves were obtained via the Ultracortex Mark IV Headset using the OpenBCI Cyton Board
%Recording Application = ConcentrateToday (https://concentrate.today)
%Data type = RAW data with noise
%Day No = 10
%Subject ID = 8
%Session ID = 7
%Record starting timestamp (UTC+6) = 2022-03-30T15:17:51.158490
%Record ending timestamp (UTC+6)   = 2022-03-30T15:18:17.043857
%Recorded durations = ~25 seconds
Sample Index, EXG Channel 0, EXG Channel 1, EXG Channel 2, EXG Channel 3, EXG Channel 4, EXG Channel 5, EXG Channel 6, EXG Channel 7, Accel Channel 0, Accel Channel 1, Accel Channel 2, Other, Other, Other, Other, Other, Other, Other, Analog Channel 0, Analog Channel 1, Analog Channel 2, Timestamp, Timestamp (Formatted)
219.000000,16614.118709,11725.389865,30633.803384,43199.216509,41969.937619,65214.567210,12158.432562,21035.427873,-0.116000,0.988000,0.036000,192.000000,0.000000,0.000000,0.000000,0.000000,0.000000,0.000000,0.000000,0.000000,0.000000,1648631871.158273,0.000000
220.000000,16606.630874,11746.713429,30615.251436,43167.007645,41948.278779,65169.774314,12136.349039,21005.901218,-0.116000,0.988000,0.036000,192.000000,0.000000,0.000000,0.000000,0.000000,0.000000,0.000000,0.000000,0.000000,0.000000,1648631871.158325,0.000000
221.000000,16608.776642,11743.852406,30629.176572,43220.249500,41978.744206,65213.136698,12148.240167,21035.003189,-0.116000,0.988000,0.036000,192.000000,0.000000,0.000000,0.000000,0.000000,0.000000,0.000000,0.000000,0.000000,0.000000,1648631871.166092,0.000000
222.000000,16614.163412,11744.366496,30639.793651,43221.769419,42000.984192,65258.778961,12160.667737,21059.232480,-0.116000,0.988000,0.036000,192.000000,0.000000,0.000000,0.000000,0.000000,0.000000,0.000000,0.000000,0.000000,0.000000,1648631871.166099,0.000000
223.000000,16610.520078,11733.905880,30637.714939,43225.703326,42008.628489,65267.429086,12165.853341,21077.650318,-0.104000,0.970000,0.038000,192.000000,252.000000,192.000000,30.000000,80.000000,1.000000,48.000000,0.000000,0.000000,0.000000,1648631871.174065,0.000000
224.000000,16610.162450,11739.069133,30628.170744,43219.288375,42003.286422,65249.145359,12149.134236,21062.808760,-0.104000,0.970000,0.038000,192.000000,0.000000,0.000000,0.000000,0.000000,0.000000,0.000000,0.000000,0.000000,0.000000,1648631871.174070,0.000000
225.000000,16620.444253,11747.585147,30639.346616,43240.768402,42013.747038,65258.108408,12157.449085,21063.769885,-0.104000,0.970000,0.038000,192.000000,0.000000,0.000000,0.000000,0.000000,0.000000,0.000000,0.000000,0.000000,0.000000,1648631871.181116,0.000000
226.000000,16612.911715,11755.184740,30630.405918,43213.521625,42004.135788,65241.948097,12155.124504,21060.394771,-0.104000,0.970000,0.038000,192.000000,0.000000,0.000000,0.000000,0.000000,0.000000,0.000000,0.000000,0.000000,0.000000,1648631871.181120,0.000000
227.000000,16611.905886,11745.282918,30628.304854,43209.520663,42007.913233,65248.161882,12149.737734,21058.204300,-0.104000,0.970000,0.038000,192.000000,0.000000,0.000000,0.000000,0.000000,0.000000,0.000000,0.000000,0.000000,0.000000,1648631871.188696,0.000000
228.000000,16621.494785,11754.916520,30639.033692,43236.789791,42023.760620,65273.039374,12157.896120,21064.418085,-0.104000,0.970000,0.038000,192.000000,0.000000,0.000000,0.000000,0.000000,0.000000,0.000000,0.000000,0.000000,0.000000,1648631871.188700,0.000000
229.000000,16621.852412,11761.778505,30634.719805,43243.808239,42027.582768,65265.708001,12151.548225,21064.596899,-0.104000,0.970000,0.038000,192.000000,0.000000,0.000000,0.000000,0.000000,0.000000,0.000000,0.000000,0.000000,0.000000,1648631871.195702,0.000000
230.000000,16618.253782,11763.723107,30631.121174,43232.878236,42023.224178,65268.636080,12147.122579,21056.013829,-0.104000,0.970000,0.038000,192.000000,0.000000,0.000000,0.000000,0.000000,0.000000,0.000000,0.000000,0.000000,0.000000,1648631871.203737,0.000000
231.000000,16621.450081,11764.930101,30631.747023,43231.313614,42025.660518,65265.506836,12146.809655,21055.745608,-0.104000,0.970000,0.038000,192.000000,0.000000,0.000000,0.000000,0.000000,0.000000,0.000000,0.000000,0.000000,0.000000,1648631871.203742,0.000000
232.000000,16629.586116,11770.518037,30638.519602,43232.274739,42027.493361,65274.536940,12150.542396,21057.556100,-0.104000,0.970000,0.038000,192.000000,0.000000,0.000000,0.000000,0.000000,0.000000,0.000000,0.000000,0.000000,0.000000,1648631871.210820,0.000000
233.000000,16624.534622,11760.459752,30632.551686,43215.734448,42027.672175,65272.234711,12144.350963,21052.616364,-0.112000,0.976000,0.036000,192.000000,252.000000,128.000000,30.000000,128.000000,1.000000,32.000000,0.000000,0.000000,0.000000,1648631871.210825,0.000000
234.000000,16629.340247,11766.092392,30635.055081,43211.286451,42033.036594,65281.197760,12154.051620,21062.071152,-0.112000,0.976000,0.036000,192.000000,0.000000,0.000000,0.000000,0.000000,0.000000,0.000000,0.000000,0.000000,0.000000,1648631871.218274,0.000000
235.000000,16635.710494,11772.887322,30634.853916,43207.061971,42032.544855,65277.777943,12164.154609,21065.781542,-0.112000,0.976000,0.036000,192.000000,0.000000,0.000000,0.000000,0.000000,0.000000,0.000000,0.000000,0.000000,0.000000,1648631871.218285,0.000000
236.000000,16628.803805,11756.436438,30623.186305,43189.448796,42020.497265,65266.557368,12156.666774,21056.818492,-0.112000,0.976000,0.036000,192.000000,0.000000,0.000000,0.000000,0.000000,0.000000,0.000000,0.000000,0.000000,0.000000,1648631871.226369,0.000000
237.000000,16622.008875,11739.382057,30618.045404,43201.138759,42019.893768,65265.216263,12157.426734,21049.755341,-0.112000,0.976000,0.036000,192.000000,0.000000,0.000000,0.000000,0.000000,0.000000,0.000000,0.000000,0.000000,0.000000,1648631871.226373,0.000000
238.000000,16623.506442,11744.053572,30619.788840,43205.095018,42025.615814,65271.675917,12166.970929,21051.677591,-0.112000,0.976000,0.036000,192.000000,0.000000,0.000000,0.000000,0.000000,0.000000,0.000000,0.000000,0.000000,0.000000,1648631871.233376,0.000000
239.000000,16615.415110,11739.315002,30613.083316,43198.881233,42027.269843,65268.680783,12156.376202,21050.895280,-0.112000,0.976000,0.036000,192.000000,0.000000,0.000000,0.000000,0.000000,0.000000,0.000000,0.000000,0.000000,0.000000,1648631871.233380,0.000000
240.000000,16604.686273,11724.361685,30602.957976,43181.849203,42014.059963,65264.746876,12139.254765,21033.550326,-0.112000,0.976000,0.036000,192.000000,0.000000,0.000000,0.000000,0.000000,0.000000,0.000000,0.000000,0.000000,0.000000,1648631871.240855,0.000000
241.000000,16599.902999,11725.322810,30594.643127,43163.900753,41997.720837,65250.285298,12131.968097,21016.138317,-0.112000,0.976000,0.036000,192.000000,0.000000,0.000000,0.000000,0.000000,0.000000,0.000000,0.000000,0.000000,0.000000,1648631871.240860,0.000000
242.000000,16630.122558,11770.383927,30626.919046,43205.720866,42025.727573,65279.767249,12158.052583,21041.619306,-0.112000,0.976000,0.036000,192.000000,0.000000,0.000000,0.000000,0.000000,0.000000,0.000000,0.000000,0.000000,0.000000,1648631871.248996,0.000000
243.000000,16633.944706,11774.608406,30635.658578,43219.914224,42043.452506,65290.451382,12165.316899,21060.215957,-0.110000,1.006000,0.044000,192.000000,252.000000,144.000000,31.000000,112.000000,1.000000,96.000000,0.000000,0.000000,0.000000,1648631871.248999,0.000000
244.000000,16610.229505,11731.335429,30608.702375,43185.961924,42026.889864,65256.275565,12136.952536,21031.829242,-0.110000,1.006000,0.044000,192.000000,0.000000,0.000000,0.000000,0.000000,0.000000,0.000000,0.000000,0.000000,0.000000,1648631871.256033,0.000000
245.000000,16596.594941,11711.509432,30590.195130,43172.595581,42025.146428,65237.388341,12111.896230,21004.783631,-0.110000,1.006000,0.044000,192.000000,0.000000,0.000000,0.000000,0.000000,0.000000,0.000000,0.000000,0.000000,0.000000,1648631871.263154,0.000000
246.000000,16620.131328,11736.856310,30610.825790,43193.628573,42050.917989,65263.763400,12134.851472,21019.960465,-0.110000,1.006000,0.044000,192.000000,0.000000,0.000000,0.000000,0.000000,0.000000,0.000000,0.000000,0.000000,0.000000,1648631871.263158,0.000000
247.000000,16622.500613,11747.227519,30618.380680,43193.695628,42073.672065,65274.603996,12148.530739,21035.360817,-0.110000,1.006000,0.044000,192.000000,0.000000,0.000000,0.000000,0.000000,0.000000,0.000000,0.000000,0.000000,0.000000,1648631871.270527,0.000000
248.000000,16626.970962,11755.564720,30621.062889,43196.221375,42078.701207,65279.230807,12154.811580,21039.942925,-0.110000,1.006000,0.044000,192.000000,0.000000,0.000000,0.000000,0.000000,0.000000,0.000000,0.000000,0.000000,0.000000,1648631871.270531,0.000000
249.000000,16637.431578,11769.199284,30631.858782,43199.842358,42087.060760,65283.678804,12164.244016,21047.453111,-0.110000,1.006000,0.044000,192.000000,0.000000,0.000000,0.000000,0.000000,0.000000,0.000000,0.000000,0.000000,0.000000,1648631871.278551,0.000000
250.000000,16632.670657,11767.277034,30631.434099,43197.853052,42091.888737,65280.303690,12164.132257,21045.463806,-0.110000,1.006000,0.044000,192.000000,0.000000,0.000000,0.000000,0.000000,0.000000,0.000000,0.000000,0.000000,0.000000,1648631871.278555,0.000000
251.000000,16620.556011,11759.498627,30624.102726,43189.582907,42093.989801,65268.121990,12157.583196,21045.150881,-0.110000,1.006000,0.044000,192.000000,0.000000,0.000000,0.000000,0.000000,0.000000,0.000000,0.000000,0.000000,0.000000,1648631871.286587,0.000000
252.000000,16615.370407,11760.705621,30616.525485,43181.625686,42085.138510,65259.136588,12145.446199,21029.705826,-0.110000,1.006000,0.044000,192.000000,0.000000,0.000000,0.000000,0.000000,0.000000,0.000000,0.000000,0.000000,0.000000,1648631871.286591,0.000000
253.000000,16613.694026,11749.485046,30615.653767,43178.518793,42076.622495,65261.014135,12145.423847,21027.381245,-0.126000,0.998000,0.040000,192.000000,252.000000,16.000000,31.000000,48.000000,1.000000,64.000000,0.000000,0.000000,0.000000,1648631871.293224,0.000000
254.000000,16606.027377,11733.615307,30614.044441,43181.022189,42076.778957,65264.433952,12149.424809,21024.855497,-0.126000,0.998000,0.040000,192.000000,0.000000,0.000000,0.000000,0.000000,0.000000,0.000000,0.000000,0.000000,0.000000,1648631871.293229,0.000000
255.000000,16599.321854,11724.026409,30606.646014,43172.416767,42074.387321,65255.560309,12143.278079,21010.796250,-0.126000,0.998000,0.040000,192.000000,0.000000,0.000000,0.000000,0.000000,0.000000,0.000000,0.000000,0.000000,0.000000,1648631871.301154,0.000000
0.000000,16603.456927,11729.033199,30609.395279,43171.008607,42068.911143,65258.443684,12142.138140,21013.634922,-0.126000,0.998000,0.040000,192.000000,0.000000,0.000000,0.000000,0.000000,0.000000,0.000000,0.000000,0.000000,0.000000,1648631871.301158,0.000000
1.000000,16601.355863,11736.677496,30612.345709,43170.002779,42070.520469,65266.669126,12147.837835,21036.210184,-0.126000,0.998000,0.040000,192.000000,0.000000,0.000000,0.000000,0.000000,0.000000,0.000000,0.000000,0.000000,0.000000,1648631871.309231,0.000000
2.000000,16604.172183,11752.077848,30618.671253,43172.483822,42073.426196,65274.648699,12147.904891,21034.176175,-0.126000,0.998000,0.040000,192.000000,0.000000,0.000000,0.000000,0.000000,0.000000,0.000000,0.000000,0.000000,0.000000,1648631871.309234,0.000000
3.000000,16604.842735,11758.112819,30620.280578,43175.255439,42067.413577,65271.273586,12130.492882,21004.291893,-0.126000,0.998000,0.040000,192.000000,0.000000,0.000000,0.000000,0.000000,0.000000,0.000000,0.000000,0.000000,0.000000,1648631871.316258,0.000000
4.000000,16595.075023,11736.655144,30610.848142,43167.164107,42065.223106,65259.762437,12117.640629,20991.238474,-0.126000,0.998000,0.040000,192.000000,0.000000,0.000000,0.000000,0.000000,0.000000,0.000000,0.000000,0.000000,0.000000,1648631871.322912,0.000000
5.000000,16589.062403,11736.476330,30597.168874,43151.540238,42048.235780,65249.033600,12115.159585,21010.550381,-0.126000,0.998000,0.040000,192.000000,0.000000,0.000000,0.000000,0.000000,0.000000,0.000000,0.000000,0.000000,0.000000,1648631871.322915,0.000000
6.000000,16605.379177,11766.204150,30610.848142,43186.364256,42055.209524,65267.294975,12120.881631,21021.703901,-0.126000,0.998000,0.040000,192.000000,0.000000,0.000000,0.000000,0.000000,0.000000,0.000000,0.000000,0.000000,0.000000,1648631871.330831,0.000000
7.000000,16603.099299,11760.906787,30618.894770,43190.052294,42064.105518,65278.962586,12130.068198,21033.058588,-0.124000,0.990000,0.040000,192.000000,252.000000,32.000000,30.000000,240.000000,1.000000,64.000000,0.000000,0.000000,0.000000,1648631871.330835,0.000000
8.000000,16579.339394,11739.180891,30604.142619,43166.426500,42049.062794,65267.987879,12128.436521,21028.387073,-0.124000,0.990000,0.040000,192.000000,0.000000,0.000000,0.000000,0.000000,0.000000,0.000000,0.000000,0.000000,0.000000,1648631871.339031,0.000000
9.000000,16590.381156,11746.512264,30604.813171,43159.877439,42039.160972,65258.331926,12128.190652,21021.793308,-0.124000,0.990000,0.040000,192.000000,0.000000,0.000000,0.000000,0.000000,0.000000,0.000000,0.000000,0.000000,0.000000,1648631871.339035,0.000000
10.000000,16591.655206,11744.545310,30603.874398,43162.626703,42037.305777,65251.805216,12124.726132,21019.111099,-0.124000,0.990000,0.040000,192.000000,0.000000,0.000000,0.000000,0.000000,0.000000,0.000000,0.000000,0.000000,0.000000,1648631871.345957,0.000000
11.000000,16582.848618,11741.952508,30598.711145,43156.658787,42034.332995,65244.719713,12122.446254,21016.451242,-0.124000,0.990000,0.040000,192.000000,0.000000,0.000000,0.000000,0.000000,0.000000,0.000000,0.000000,0.000000,0.000000,1648631871.345961,0.000000
12.000000,16576.388964,11738.666801,30590.955089,43139.045613,42027.761582,65231.845108,12110.376312,21004.895390,-0.124000,0.990000,0.040000,192.000000,0.000000,0.000000,0.000000,0.000000,0.000000,0.000000,0.000000,0.000000,0.000000,1648631871.353404,0.000000
13.000000,16575.137267,11723.892298,30589.099895,43135.603444,42023.201826,65230.414597,12108.655227,20999.441564,-0.124000,0.990000,0.040000,192.000000,0.000000,0.000000,0.000000,0.000000,0.000000,0.000000,0.000000,0.000000,0.000000,1648631871.353408,0.000000
14.000000,16581.753383,11729.659048,30594.799589,43150.154430,42042.692547,65237.611859,12118.087663,21012.204410,-0.124000,0.990000,0.040000,192.000000,0.000000,0.000000,0.000000,0.000000,0.000000,0.000000,0.000000,0.000000,0.000000,1648631871.361534,0.000000
15.000000,16579.004118,11734.308211,30596.297156,43149.260360,42042.804306,65245.300859,12121.552184,21019.379320,-0.124000,0.990000,0.040000,192.000000,0.000000,0.000000,0.000000,0.000000,0.000000,0.000000,0.000000,0.000000,0.000000,1648631871.361538,0.000000
16.000000,16574.466714,11724.249926,30591.625642,43141.750174,42044.726556,65245.144396,12120.591059,21019.334617,-0.124000,0.990000,0.040000,192.000000,0.000000,0.000000,0.000000,0.000000,0.000000,0.000000,0.000000,0.000000,0.000000,1648631871.369557,0.000000
17.000000,16575.025508,11721.187737,30588.988136,43133.860008,42043.206637,65239.779978,12108.051730,21009.812773,-0.144000,0.968000,0.048000,192.000000,251.000000,128.000000,30.000000,64.000000,1.000000,128.000000,0.000000,0.000000,0.000000,1648631871.369560,0.000000
18.000000,16586.983691,11741.840749,30599.962842,43147.472220,42052.549666,65251.112312,12117.104187,21017.501774,-0.144000,0.968000,0.048000,192.000000,0.000000,0.000000,0.000000,0.000000,0.000000,0.000000,0.000000,0.000000,0.000000,1648631871.375706,0.000000
19.000000,16585.843752,11738.040952,30598.532331,43148.835677,42059.568114,65250.262946,12124.882594,21021.703901,-0.144000,0.968000,0.048000,192.000000,0.000000,0.000000,0.000000,0.000000,0.000000,0.000000,0.000000,0.000000,0.000000,1648631871.375709,0.000000
20.000000,16571.225711,11718.639638,30583.511959,43122.639432,42044.592445,65234.952001,12115.338399,21009.924532,-0.144000,0.968000,0.048000,192.000000,0.000000,0.000000,0.000000,0.000000,0.000000,0.000000,0.000000,0.000000,0.000000,1648631871.383111,0.000000
21.000000,16574.913749,11721.545365,30583.310793,43105.428589,42042.245512,65233.521489,12112.924410,21005.208314,-0.144000,0.968000,0.048000,192.000000,0.000000,0.000000,0.000000,0.000000,0.000000,0.000000,0.000000,0.000000,0.000000,1648631871.391279,0.000000
22.000000,16578.713546,11736.096351,30588.541101,43131.736592,42045.262998,65241.344600,12101.770890,21004.336596,-0.144000,0.968000,0.048000,192.000000,0.000000,0.000000,0.000000,0.000000,0.000000,0.000000,0.000000,0.000000,0.000000,1648631871.391314,0.000000
23.000000,16579.942892,11743.830054,30596.587729,43138.285653,42052.817887,65247.357219,12104.788375,21010.885657,-0.144000,0.968000,0.048000,192.000000,0.000000,0.000000,0.000000,0.000000,0.000000,0.000000,0.000000,0.000000,0.000000,1648631871.398294,0.000000
24.000000,16581.641624,11746.288746,30595.648956,43141.616063,42056.841201,65249.860615,12116.903021,21028.163556,-0.144000,0.968000,0.048000,192.000000,0.000000,0.000000,0.000000,0.000000,0.000000,0.000000,0.000000,0.000000,0.000000,1648631871.398298,0.000000
25.000000,16561.480351,11721.455958,30571.732589,43108.758999,42039.764469,65224.871364,12086.616407,21004.135430,-0.144000,0.968000,0.048000,192.000000,0.000000,0.000000,0.000000,0.000000,0.000000,0.000000,0.000000,0.000000,0.000000,1648631871.405730,0.000000
26.000000,16563.402601,11713.699903,30574.615964,43110.480083,42038.691585,65227.151242,12078.078041,20988.869189,-0.144000,0.968000,0.048000,192.000000,0.000000,0.000000,0.000000,0.000000,0.000000,0.000000,0.000000,0.000000,0.000000,1648631871.405734,0.000000
27.000000,16576.120743,11728.832034,30588.496398,43126.148656,42041.038518,65242.909222,12112.835003,21011.735023,-0.150000,0.960000,0.044000,192.000000,251.000000,80.000000,30.000000,0.000000,1.000000,96.000000,0.000000,0.000000,0.000000,1648631871.413830,0.000000
28.000000,16583.161543,11734.934060,30600.074601,43141.057270,42043.206637,65253.638059,12130.515233,21029.437605,-0.150000,0.960000,0.044000,192.000000,0.000000,0.000000,0.000000,0.000000,0.000000,0.000000,0.000000,0.000000,0.000000,1648631871.413833,0.000000
29.000000,16578.691194,11727.312115,30595.760715,43123.891130,42038.244550,65245.926707,12115.159585,21025.950733,-0.150000,0.960000,0.044000,192.000000,0.000000,0.000000,0.000000,0.000000,0.000000,0.000000,0.000000,0.000000,0.000000,1648631871.421789,0.000000
30.000000,16570.353993,11720.695999,30588.496398,43120.448961,42027.225140,65237.388341,12108.029378,21020.452204,-0.150000,0.960000,0.044000,192.000000,0.000000,0.000000,0.000000,0.000000,0.000000,0.000000,0.000000,0.000000,0.000000,1648631871.421794,0.000000
31.000000,16578.601787,11734.576432,30598.957014,43136.609273,42038.512771,65249.905318,12118.981733,21029.549364,-0.150000,0.960000,0.044000,192.000000,0.000000,0.000000,0.000000,0.000000,0.000000,0.000000,0.000000,0.000000,0.000000,1648631871.428440,0.000000
32.000000,16581.708679,11738.823264,30605.863703,43132.273034,42037.797515,65262.802275,12127.497748,21028.767053,-0.150000,0.960000,0.044000,192.000000,0.000000,0.000000,0.000000,0.000000,0.000000,0.000000,0.000000,0.000000,0.000000,1648631871.428443,0.000000
33.000000,16575.070211,11738.644450,30598.711145,43134.597616,42034.288291,65249.502987,12110.577477,21018.194678,-0.150000,0.960000,0.044000,192.000000,0.000000,0.000000,0.000000,0.000000,0.000000,0.000000,0.000000,0.000000,0.000000,1648631871.436411,0.000000
34.000000,16574.958453,11740.700810,30594.531369,43125.522807,42035.830562,65240.897565,12107.850564,21015.087785,-0.150000,0.960000,0.044000,192.000000,0.000000,0.000000,0.000000,0.000000,0.000000,0.000000,0.000000,0.000000,0.000000,1648631871.436414,0.000000
35.000000,16582.200418,11745.372325,30603.136790,43127.199188,42032.298986,65249.167710,12124.994352,21016.183021,-0.150000,0.960000,0.044000,192.000000,0.000000,0.000000,0.000000,0.000000,0.000000,0.000000,0.000000,0.000000,0.000000,1648631871.443310,0.000000
36.000000,16576.835999,11730.977801,30603.181494,43126.550988,42035.383527,65248.005420,12126.022533,21018.149974,-0.150000,0.960000,0.044000,192.000000,0.000000,0.000000,0.000000,0.000000,0.000000,0.000000,0.000000,0.000000,0.000000,1648631871.451442,0.000000
37.000000,16577.260682,11729.882566,30598.934662,43133.055345,42044.033652,65238.796501,12120.881631,21017.077090,-0.162000,0.956000,0.054000,192.000000,250.000000,240.000000,29.000000,224.000000,1.000000,176.000000,0.000000,0.000000,0.000000,1648631871.451446,0.000000
38.000000,16579.920540,11735.962240,30599.895787,43137.257473,42043.586617,65237.790673,12123.988524,21022.687378,-0.162000,0.956000,0.054000,192.000000,0.000000,0.000000,0.000000,0.000000,0.000000,0.000000,0.000000,0.000000,0.000000,1648631871.458113,0.000000
39.000000,16563.156732,11721.835938,30585.769485,43120.426610,42030.309681,65223.351446,12114.734902,21014.730157,-0.162000,0.956000,0.054000,192.000000,0.000000,0.000000,0.000000,0.000000,0.000000,0.000000,0.000000,0.000000,0.000000,1648631871.458117,0.000000
40.000000,16564.564891,11720.718350,30585.367153,43110.547139,42018.709125,65219.350483,12113.483204,21010.371567,-0.162000,0.956000,0.054000,192.000000,0.000000,0.000000,0.000000,0.000000,0.000000,0.000000,0.000000,0.000000,0.000000,1648631871.466159,0.000000
41.000000,16576.768944,11730.441359,30595.805418,43122.192397,42024.721745,65231.509832,12123.765007,21025.861326,-0.162000,0.956000,0.054000,192.000000,0.000000,0.000000,0.000000,0.000000,0.000000,0.000000,0.000000,0.000000,0.000000,1648631871.466162,0.000000
42.000000,16572.946796,11739.560871,30592.296194,43127.154485,42026.152256,65218.679931,12111.091567,21014.193715,-0.162000,0.956000,0.054000,192.000000,0.000000,0.000000,0.000000,0.000000,0.000000,0.000000,0.000000,0.000000,0.000000,1648631871.474032,0.000000
43.000000,16569.951662,11742.243080,30589.882206,43112.067057,42014.506997,65223.954943,12110.510422,21008.583427,-0.162000,0.956000,0.054000,192.000000,0.000000,0.000000,0.000000,0.000000,0.000000,0.000000,0.000000,0.000000,0.000000,1648631871.474041,0.000000
44.000000,16562.128551,11742.466598,30585.881243,43118.750229,42017.882111,65219.708111,12109.348131,21013.746680,-0.162000,0.956000,0.054000,192.000000,0.000000,0.000000,0.000000,0.000000,0.000000,0.000000,0.000000,0.000000,0.000000,1648631871.481186,0.000000
45.000000,16572.030374,11750.267357,30594.419610,43120.538368,42016.563358,65230.034617,12115.874841,21028.007093,-0.162000,0.956000,0.054000,192.000000,0.000000,0.000000,0.000000,0.000000,0.000000,0.000000,0.000000,0.000000,0.000000,1648631871.481190,0.000000
46.000000,16570.622214,11744.165330,30594.553720,43118.146732,42009.254337,65230.816928,12119.741693,21022.530916,-0.162000,0.956000,0.054000,192.000000,0.000000,0.000000,0.000000,0.000000,0.000000,0.000000,0.000000,0.000000,0.000000,1648631871.488737,0.000000
47.000000,16560.787447,11730.888394,30586.328278,43100.891185,41999.352515,65219.171669,12109.929277,21002.883733,-0.142000,0.952000,0.064000,192.000000,251.000000,144.000000,29.000000,192.000000,2.000000,0.000000,0.000000,0.000000,0.000000,1648631871.488741,0.000000
48.000000,16565.324851,11736.006944,30588.518749,43114.481046,41996.245622,65210.275675,12105.257762,20992.356061,-0.142000,0.952000,0.064000,192.000000,0.000000,0.000000,0.000000,0.000000,0.000000,0.000000,0.000000,0.000000,0.000000,1648631871.497158,0.000000
49.000000,16566.956528,11734.308211,30584.294270,43107.909633,41984.823881,65205.447698,12100.966227,20979.280291,-0.142000,0.952000,0.064000,192.000000,0.000000,0.000000,0.000000,0.000000,0.000000,0.000000,0.000000,0.000000,0.000000,1648631871.497162,0.000000
50.000000,16561.502702,11737.839787,30581.053267,43119.554892,41985.516785,65200.776184,12095.601809,20969.847854,-0.142000,0.952000,0.064000,192.000000,0.000000,0.000000,0.000000,0.000000,0.000000,0.000000,0.000000,0.000000,0.000000,1648631871.503784,0.000000
51.000000,16565.660127,11743.919461,30583.467255,43104.758037,41983.750997,65207.705224,12105.235410,20982.275424,-0.142000,0.952000,0.064000,192.000000,0.000000,0.000000,0.000000,0.000000,0.000000,0.000000,0.000000,0.000000,0.000000,1648631871.510935,0.000000
52.000000,16569.191703,11748.814493,30586.820017,43102.321697,41980.778215,65213.315512,12110.778643,21007.979930,-0.142000,0.952000,0.064000,192.000000,0.000000,0.000000,0.000000,0.000000,0.000000,0.000000,0.000000,0.000000,0.000000,1648631871.510938,0.000000
53.000000,16557.926423,11731.603650,30579.443941,43096.443188,41970.183488,65205.693567,12101.457966,21007.868172,-0.142000,0.952000,0.064000,192.000000,0.000000,0.000000,0.000000,0.000000,0.000000,0.000000,0.000000,0.000000,0.000000,1648631871.518337,0.000000
54.000000,16564.520188,11737.169234,30582.193206,43104.512168,41957.890029,65198.205733,12097.725224,20996.960520,-0.142000,0.952000,0.064000,192.000000,0.000000,0.000000,0.000000,0.000000,0.000000,0.000000,0.000000,0.000000,0.000000,1648631871.518340,0.000000
55.000000,16572.678575,11747.294575,30588.116418,43116.202130,41945.551866,65203.570152,12096.451175,20978.073296,-0.142000,0.952000,0.064000,192.000000,0.000000,0.000000,0.000000,0.000000,0.000000,0.000000,0.000000,0.000000,0.000000,1648631871.526568,0.000000
56.000000,16566.733011,11737.303345,30587.267052,43101.002944,41942.132049,65201.960826,12102.173221,20986.365794,-0.142000,0.952000,0.064000,192.000000,0.000000,0.000000,0.000000,0.000000,0.000000,0.000000,0.000000,0.000000,0.000000,1648631871.526572,0.000000
57.000000,16567.560025,11733.682362,30584.584842,43091.794025,41939.874523,65195.367062,12099.960399,20994.948863,-0.142000,0.952000,0.064000,192.000000,0.000000,0.000000,0.000000,0.000000,0.000000,0.000000,0.000000,0.000000,0.000000,1648631871.534407,0.000000
58.000000,16572.723278,11742.086618,30589.166950,43107.060266,41939.159267,65200.843239,12110.286905,21005.811811,-0.144000,0.954000,0.070000,192.000000,251.000000,128.000000,29.000000,208.000000,2.000000,48.000000,0.000000,0.000000,0.000000,1648631871.534411,0.000000
59.000000,16580.278168,11757.554025,30598.286462,43128.227368,41945.037776,65207.325245,12121.440425,21016.652407,-0.144000,0.954000,0.070000,192.000000,0.000000,0.000000,0.000000,0.000000,0.000000,0.000000,0.000000,0.000000,0.000000,1648631871.541152,0.000000
60.000000,16575.807819,11746.378153,30594.129037,43129.277900,41949.642235,65201.759660,12115.561916,21009.253980,-0.144000,0.954000,0.070000,192.000000,0.000000,0.000000,0.000000,0.000000,0.000000,0.000000,0.000000,0.000000,0.000000,1648631871.541156,0.000000
61.000000,16569.258758,11735.805778,30588.585805,43115.598633,41944.344872,65200.463259,12109.683408,21005.476535,-0.144000,0.954000,0.070000,192.000000,0.000000,0.000000,0.000000,0.000000,0.000000,0.000000,0.000000,0.000000,0.000000,1648631871.548963,0.000000
62.000000,16571.806857,11733.727066,30587.714086,43107.373191,41947.272950,65198.339844,12102.754367,20997.988701,-0.144000,0.954000,0.070000,192.000000,0.000000,0.000000,0.000000,0.000000,0.000000,0.000000,0.000000,0.000000,0.000000,1648631871.548966,0.000000
63.000000,16575.159618,11721.858289,30585.076581,43099.348915,41941.394441,65193.310701,12099.803936,20994.770049,-0.144000,0.954000,0.070000,192.000000,0.000000,0.000000,0.000000,0.000000,0.000000,0.000000,0.000000,0.000000,0.000000,1648631871.557032,0.000000
64.000000,16574.623176,11721.791234,30588.898729,43098.410141,41937.818162,65197.155201,12110.868050,21008.583427,-0.144000,0.954000,0.070000,192.000000,0.000000,0.000000,0.000000,0.000000,0.000000,0.000000,0.000000,0.000000,0.000000,1648631871.557036,0.000000
65.000000,16567.202397,11727.915612,30586.484741,43086.429606,41937.840514,65196.618759,12112.477376,21019.647541,-0.144000,0.954000,0.070000,192.000000,0.000000,0.000000,0.000000,0.000000,0.000000,0.000000,0.000000,0.000000,0.000000,1648631871.563271,0.000000
66.000000,16563.939043,11728.094426,30588.116418,43130.261377,41956.101889,65196.998739,12103.559030,21026.241306,-0.144000,0.954000,0.070000,192.000000,0.000000,0.000000,0.000000,0.000000,0.000000,0.000000,0.000000,0.000000,0.000000,1648631871.570611,0.000000
67.000000,16563.492008,11720.807757,30581.165025,43104.534519,41954.403157,65186.158143,12092.807840,21019.781651,-0.144000,0.954000,0.070000,192.000000,0.000000,0.000000,0.000000,0.000000,0.000000,0.000000,0.000000,0.000000,0.000000,1648631871.570615,0.000000
68.000000,16573.796162,11732.900051,30586.104761,43110.793008,41946.065956,65193.936550,12100.474489,21023.469689,-0.164000,0.968000,0.064000,192.000000,250.000000,224.000000,30.000000,64.000000,2.000000,0.000000,0.000000,0.000000,0.000000,1648631871.578673,0.000000
69.000000,16565.861293,11719.354894,30580.181549,43091.570507,41937.348776,65194.204771,12096.182954,21019.111099,-0.164000,0.968000,0.064000,192.000000,0.000000,0.000000,0.000000,0.000000,0.000000,0.000000,0.000000,0.000000,0.000000,1648631871.578677,0.000000
70.000000,16563.894339,11728.027371,30575.152406,43075.633714,41930.643252,65184.146486,12088.784526,21015.132489,-0.164000,0.968000,0.064000,192.000000,0.000000,0.000000,0.000000,0.000000,0.000000,0.000000,0.000000,0.000000,0.000000,1648631871.586640,0.000000
71.000000,16573.840865,11735.023467,30591.849159,43123.421743,41941.729717,65200.910294,12098.485184,21020.161631,-0.164000,0.968000,0.064000,192.000000,0.000000,0.000000,0.000000,0.000000,0.000000,0.000000,0.000000,0.000000,0.000000,1648631871.586644,0.000000
72.000000,16572.790333,11726.127473,30590.172778,43112.335278,41943.964892,65196.283483,12098.574591,21025.816622,-0.164000,0.968000,0.064000,192.000000,0.000000,0.000000,0.000000,0.000000,0.000000,0.000000,0.000000,0.000000,0.000000,1648631871.593216,0.000000
73.000000,16577.797124,11734.621136,30588.965784,43076.192507,41929.615072,65199.502134,12098.976922,21024.788442,-0.164000,0.968000,0.064000,192.000000,0.000000,0.000000,0.000000,0.000000,0.000000,0.000000,0.000000,0.000000,0.000000,1648631871.593220,0.000000
74.000000,16590.291749,11759.006889,30599.493456,43134.999947,41949.843401,65202.966655,12102.463794,21035.606687,-0.164000,0.968000,0.064000,192.000000,0.000000,0.000000,0.000000,0.000000,0.000000,0.000000,0.000000,0.000000,0.000000,1648631871.601214,0.000000
75.000000,16586.693118,11743.539482,30597.079467,43149.841505,41960.862811,65203.972483,12101.748538,21039.428835,-0.164000,0.968000,0.064000,192.000000,0.000000,0.000000,0.000000,0.000000,0.000000,0.000000,0.000000,0.000000,0.000000,1648631871.601218,0.000000
76.000000,16572.633871,11721.120682,30581.120322,43115.710391,41949.910456,65183.878265,12087.041090,21024.743739,-0.164000,0.968000,0.064000,192.000000,0.000000,0.000000,0.000000,0.000000,0.000000,0.000000,0.000000,0.000000,0.000000,1648631871.609241,0.000000
77.000000,16574.332604,11711.956467,30578.527520,43087.860118,41942.847305,65188.996814,12094.774794,21032.566849,-0.164000,0.968000,0.064000,192.000000,0.000000,0.000000,0.000000,0.000000,0.000000,0.000000,0.000000,0.000000,0.000000,1648631871.609244,0.000000
78.000000,16577.193627,11724.316981,30577.164063,43111.821188,41943.696671,65184.079431,12100.161564,21031.359855,-0.156000,0.990000,0.078000,192.000000,251.000000,32.000000,30.000000,240.000000,2.000000,112.000000,0.000000,0.000000,0.000000,1648631871.616328,0.000000
79.000000,16578.378269,11715.488042,30575.532386,43076.796004,41945.618921,65179.251454,12102.150870,21038.020675,-0.156000,0.990000,0.078000,192.000000,0.000000,0.000000,0.000000,0.000000,0.000000,0.000000,0.000000,0.000000,0.000000,1648631871.616332,0.000000
80.000000,16588.190685,11723.177042,30591.268014,43151.227313,41977.201936,65193.422460,12107.582344,21051.521129,-0.156000,0.990000,0.078000,192.000000,0.000000,0.000000,0.000000,0.000000,0.000000,0.000000,0.000000,0.000000,0.000000,1648631871.622792,0.000000
81.000000,16604.909790,11739.292650,30601.818037,43156.211752,41985.673247,65205.201829,12119.294658,21055.790312,-0.156000,0.990000,0.078000,192.000000,0.000000,0.000000,0.000000,0.000000,0.000000,0.000000,0.000000,0.000000,0.000000,1648631871.622796,0.000000
82.000000,16602.272284,11730.396656,30596.543026,43136.676328,41987.528442,65190.852009,12116.590097,21061.244137,-0.156000,0.990000,0.078000,192.000000,0.000000,0.000000,0.000000,0.000000,0.000000,0.000000,0.000000,0.000000,0.000000,1648631871.630967,0.000000
83.000000,16604.440404,11746.758133,30603.181494,43159.005720,42003.398180,65195.277655,12115.226640,21071.280071,-0.156000,0.990000,0.078000,192.000000,0.000000,0.000000,0.000000,0.000000,0.000000,0.000000,0.000000,0.000000,0.000000,1648631871.639107,0.000000
84.000000,16596.237313,11726.440397,30592.139732,43124.002889,41992.110549,65183.878265,12107.671751,21072.174140,-0.156000,0.990000,0.078000,192.000000,0.000000,0.000000,0.000000,0.000000,0.000000,0.000000,0.000000,0.000000,0.000000,1648631871.639114,0.000000
85.000000,16602.562857,11727.736798,30594.196092,43128.607348,41997.899651,65181.285463,12102.329684,21072.688231,-0.156000,0.990000,0.078000,192.000000,0.000000,0.000000,0.000000,0.000000,0.000000,0.000000,0.000000,0.000000,0.000000,1648631871.646353,0.000000
86.000000,16605.423880,11733.078865,30594.799589,43133.792953,42005.543948,65179.117343,12098.351073,21066.161521,-0.156000,0.990000,0.078000,192.000000,0.000000,0.000000,0.000000,0.000000,0.000000,0.000000,0.000000,0.000000,0.000000,1648631871.646388,0.000000
87.000000,16616.286828,11745.528787,30602.041555,43141.191380,42013.992907,65192.170762,12113.416149,21074.588129,-0.156000,0.990000,0.078000,192.000000,0.000000,0.000000,0.000000,0.000000,0.000000,0.000000,0.000000,0.000000,0.000000,1648631871.653940,0.000000
88.000000,16609.156622,11744.902938,30601.572168,43163.140793,42035.539989,65197.311663,12117.953553,21084.869931,-0.138000,0.978000,0.068000,192.000000,251.000000,176.000000,30.000000,144.000000,2.000000,32.000000,0.000000,0.000000,0.000000,1648631871.653956,0.000000
89.000000,16607.413186,11748.300403,30594.799589,43149.908561,42029.862646,65198.384547,12111.560954,21076.555082,-0.138000,0.978000,0.068000,192.000000,0.000000,0.000000,0.000000,0.000000,0.000000,0.000000,0.000000,0.000000,0.000000,1648631871.661953,0.000000
90.000000,16598.964226,11746.065229,30587.378810,43150.087374,42028.052155,65197.490477,12104.877782,21075.750420,-0.138000,0.978000,0.068000,192.000000,0.000000,0.000000,0.000000,0.000000,0.000000,0.000000,0.000000,0.000000,0.000000,1648631871.661970,0.000000
91.000000,16595.924389,11746.959298,30582.573185,43146.511095,42016.205730,65191.343748,12094.998311,21063.166387,-0.138000,0.978000,0.068000,192.000000,0.000000,0.000000,0.000000,0.000000,0.000000,0.000000,0.000000,0.000000,0.000000,1648631871.669985,0.000000
92.000000,16599.120688,11745.886415,30586.328278,43143.292444,42024.587634,65187.968634,12092.584323,21075.303385,-0.138000,0.978000,0.068000,192.000000,0.000000,0.000000,0.000000,0.000000,0.000000,0.000000,0.000000,0.000000,0.000000,1648631871.670002,0.000000
93.000000,16605.602694,11752.390772,30593.525540,43157.329340,42028.678003,65193.131887,12098.574591,21085.585187,-0.138000,0.978000,0.068000,192.000000,0.000000,0.000000,0.000000,0.000000,0.000000,0.000000,0.000000,0.000000,0.000000,1648631871.676502,0.000000
94.000000,16604.798031,11756.034107,30594.218444,43153.015453,42032.991890,65190.092050,12099.736881,21082.970033,-0.138000,0.978000,0.068000,192.000000,0.000000,0.000000,0.000000,0.000000,0.000000,0.000000,0.000000,0.000000,0.000000,1648631871.676517,0.000000
95.000000,16599.008930,11751.317889,30592.922043,43141.414898,42028.767410,65188.192152,12098.686349,21079.259643,-0.138000,0.978000,0.068000,192.000000,0.000000,0.000000,0.000000,0.000000,0.000000,0.000000,0.000000,0.000000,0.000000,1648631871.684593,0.000000
96.000000,16597.489011,11756.794066,30590.329241,43139.380889,42021.212521,65185.241721,12097.524059,21080.734859,-0.138000,0.978000,0.068000,192.000000,0.000000,0.000000,0.000000,0.000000,0.000000,0.000000,0.000000,0.000000,0.000000,1648631871.684610,0.000000
97.000000,16606.586171,11766.919406,30598.264110,43146.153467,42022.531274,65189.197980,12102.732015,21087.060402,-0.138000,0.978000,0.068000,192.000000,0.000000,0.000000,0.000000,0.000000,0.000000,0.000000,0.000000,0.000000,0.000000,1648631871.691626,0.000000
98.000000,16609.894229,11761.666746,30601.549816,43149.461526,42021.905425,65186.381660,12100.720358,21092.625987,-0.116000,0.946000,0.058000,192.000000,252.000000,96.000000,29.000000,144.000000,1.000000,208.000000,0.000000,0.000000,0.000000,1648631871.698652,0.000000
99.000000,16617.493822,11767.165275,30607.271863,43157.262284,42017.323317,65187.633358,12096.697044,21089.787315,-0.116000,0.946000,0.058000,192.000000,0.000000,0.000000,0.000000,0.000000,0.000000,0.000000,0.000000,0.000000,0.000000,1648631871.698669,0.000000
100.000000,16629.161433,11776.776526,30619.475915,43167.320569,42020.631375,65197.758698,12102.284980,21095.554065,-0.116000,0.946000,0.058000,192.000000,0.000000,0.000000,0.000000,0.000000,0.000000,0.000000,0.000000,0.000000,0.000000,1648631871.706087,0.000000
101.000000,16628.155604,11768.349918,30618.447735,43163.386662,42023.313585,65192.930721,12099.647474,21097.342205,-0.116000,0.946000,0.058000,192.000000,0.000000,0.000000,0.000000,0.000000,0.000000,0.000000,0.000000,0.000000,0.000000,1648631871.706104,0.000000
102.000000,16615.728034,11753.396601,30604.589654,43149.372119,42020.229044,65182.201884,12093.433689,21100.002062,-0.116000,0.946000,0.058000,192.000000,0.000000,0.000000,0.000000,0.000000,0.000000,0.000000,0.000000,0.000000,0.000000,1648631871.714216,0.000000
103.000000,16609.626008,11741.058438,30594.911348,43141.034918,42015.065791,65175.541064,12099.602771,21107.668711,-0.116000,0.946000,0.058000,192.000000,0.000000,0.000000,0.000000,0.000000,0.000000,0.000000,0.000000,0.000000,0.000000,1648631871.714232,0.000000
104.000000,16611.861183,11741.214900,30600.521636,43149.930912,42009.611965,65185.711108,12120.300486,21128.142909,-0.116000,0.946000,0.058000,192.000000,0.000000,0.000000,0.000000,0.000000,0.000000,0.000000,0.000000,0.000000,0.000000,1648631871.722251,0.000000
105.000000,16609.558953,11745.014697,30597.437095,43149.662691,42005.611003,65179.586730,12120.434597,21136.681275,-0.116000,0.946000,0.058000,192.000000,0.000000,0.000000,0.000000,0.000000,0.000000,0.000000,0.000000,0.000000,0.000000,1648631871.722268,0.000000
106.000000,16621.897116,11758.157522,30603.315604,43154.624779,42011.064829,65172.054192,12119.920506,21143.900888,-0.116000,0.946000,0.058000,192.000000,0.000000,0.000000,0.000000,0.000000,0.000000,0.000000,0.000000,0.000000,0.000000,1648631871.728781,0.000000
107.000000,16609.313084,11735.068170,30591.022145,43134.530560,42007.399143,65151.892919,12110.890402,21143.230336,-0.116000,0.946000,0.058000,192.000000,0.000000,0.000000,0.000000,0.000000,0.000000,0.000000,0.000000,0.000000,0.000000,1648631871.728816,0.000000
108.000000,16585.307310,11706.234420,30581.142674,43123.399392,42007.577957,65146.729666,12111.538602,21150.852281,-0.116000,0.966000,0.058000,192.000000,252.000000,96.000000,30.000000,48.000000,1.000000,208.000000,0.000000,0.000000,0.000000,1648631871.736437,0.000000
109.000000,16603.568685,11727.826205,30595.470142,43147.092241,42023.157123,65159.716029,12128.794149,21166.789075,-0.116000,0.966000,0.058000,192.000000,0.000000,0.000000,0.000000,0.000000,0.000000,0.000000,0.000000,0.000000,0.000000,1648631871.736447,0.000000
110.000000,16621.248915,11737.705676,30604.187322,43153.261322,42042.938416,65160.699506,12133.756236,21177.562616,-0.116000,0.966000,0.058000,192.000000,0.000000,0.000000,0.000000,0.000000,0.000000,0.000000,0.000000,0.000000,0.000000,1648631871.745376,0.000000
111.000000,16615.996255,11724.428740,30599.381697,43143.158334,42043.251341,65149.277764,12123.094454,21175.506255,-0.116000,0.966000,0.058000,192.000000,0.000000,0.000000,0.000000,0.000000,0.000000,0.000000,0.000000,0.000000,0.000000,1648631871.745392,0.000000
112.000000,16603.523982,11711.800004,30588.049363,43126.886264,42034.668271,65131.642238,12110.935105,21168.443104,-0.116000,0.966000,0.058000,192.000000,0.000000,0.000000,0.000000,0.000000,0.000000,0.000000,0.000000,0.000000,0.000000,1648631871.751994,0.000000
113.000000,16608.463718,11715.197470,30598.487627,43130.954281,42037.596349,65140.940564,12125.843719,21176.109752,-0.116000,0.966000,0.058000,192.000000,0.000000,0.000000,0.000000,0.000000,0.000000,0.000000,0.000000,0.000000,0.000000,1648631871.758455,0.000000
114.000000,16616.577401,11722.461787,30603.516770,43127.266243,42046.291178,65145.410913,12137.488978,21185.966871,-0.116000,0.966000,0.058000,192.000000,0.000000,0.000000,0.000000,0.000000,0.000000,0.000000,0.000000,0.000000,0.000000,1648631871.758472,0.000000
115.000000,16606.854392,11712.403502,30595.716011,43130.127267,42046.335882,65128.647104,12125.866070,21171.661755,-0.116000,0.966000,0.058000,192.000000,0.000000,0.000000,0.000000,0.000000,0.000000,0.000000,0.000000,0.000000,0.000000,1648631871.766479,0.000000
116.000000,16614.543392,11719.265487,30605.751944,43143.091278,42052.393204,65134.458558,12131.521062,21163.928051,-0.116000,0.966000,0.058000,192.000000,0.000000,0.000000,0.000000,0.000000,0.000000,0.000000,0.000000,0.000000,0.000000,1648631871.766495,0.000000
117.000000,16615.057482,11714.303400,30605.215502,43143.180685,42059.724576,65136.023180,12134.225623,21161.290546,-0.116000,0.966000,0.058000,192.000000,0.000000,0.000000,0.000000,0.000000,0.000000,0.000000,0.000000,0.000000,0.000000,1648631871.774542,0.000000
118.000000,16616.666808,11711.464728,30604.544950,43142.174857,42065.871306,65135.866718,12130.001143,21159.077723,-0.134000,0.998000,0.072000,192.000000,251.000000,208.000000,31.000000,48.000000,2.000000,64.000000,0.000000,0.000000,0.000000,1648631871.774560,0.000000
119.000000,16617.784395,11716.605630,30608.009470,43145.706433,42071.213373,65141.409950,12125.106111,21155.099112,-0.134000,0.998000,0.072000,192.000000,0.000000,0.000000,0.000000,0.000000,0.000000,0.000000,0.000000,0.000000,0.000000,1648631871.782793,0.000000
120.000000,16606.072081,11703.105176,30601.169837,43130.753116,42064.619608,65139.644163,12114.712550,21145.443159,-0.134000,0.998000,0.072000,192.000000,0.000000,0.000000,0.000000,0.000000,0.000000,0.000000,0.000000,0.000000,0.000000,1648631871.782809,0.000000
121.000000,16596.080851,11690.118812,30592.430305,43104.780388,42056.885905,65142.058151,12111.806823,21147.745388,-0.134000,0.998000,0.072000,192.000000,0.000000,0.000000,0.000000,0.000000,0.000000,0.000000,0.000000,0.000000,0.000000,1648631871.789142,0.000000
122.000000,16602.629912,11703.731025,30593.793761,43122.237101,42063.926704,65147.936660,12110.733939,21145.934897,-0.134000,0.998000,0.072000,192.000000,0.000000,0.000000,0.000000,0.000000,0.000000,0.000000,0.000000,0.000000,0.000000,1648631871.789158,0.000000
123.000000,16589.822363,11703.306342,30584.853063,43131.736592,42055.902428,65145.723837,12101.860297,21134.177880,-0.134000,0.998000,0.072000,192.000000,0.000000,0.000000,0.000000,0.000000,0.000000,0.000000,0.000000,0.000000,0.000000,1648631871.797113,0.000000
124.000000,16591.409336,11709.542478,30589.144598,43133.256511,42053.421385,65158.173759,12105.190707,21159.234185,-0.134000,0.998000,0.072000,192.000000,0.000000,0.000000,0.000000,0.000000,0.000000,0.000000,0.000000,0.000000,0.000000,1648631871.797129,0.000000
125.000000,16600.618255,11715.868022,30594.754886,43139.962034,42065.044292,65169.081410,12100.854468,21159.658868,-0.134000,0.998000,0.072000,192.000000,0.000000,0.000000,0.000000,0.000000,0.000000,0.000000,0.000000,0.000000,0.000000,1648631871.805174,0.000000
126.000000,16596.639645,11711.934115,30592.206787,43141.638415,42061.937399,65171.741268,12098.172259,21158.451874,-0.134000,0.998000,0.072000,192.000000,0.000000,0.000000,0.000000,0.000000,0.000000,0.000000,0.000000,0.000000,0.000000,1648631871.805189,0.000000
127.000000,16584.636758,11696.377301,30580.472121,43116.649165,42045.173591,65159.604270,12075.865218,21129.059330,-0.134000,0.998000,0.072000,192.000000,0.000000,0.000000,0.000000,0.000000,0.000000,0.000000,0.000000,0.000000,0.000000,1648631871.811196,0.000000
128.000000,16582.379232,11692.845725,30581.500302,43112.000002,42037.372832,65168.343802,12088.739823,21129.282848,-0.132000,1.002000,0.070000,192.000000,251.000000,224.000000,31.000000,80.000000,2.000000,48.000000,0.000000,0.000000,0.000000,1648631871.818765,0.000000
129.000000,16604.172183,11722.953525,30604.924930,43139.067964,42045.799440,65190.829657,12110.421015,21155.367333,-0.132000,1.002000,0.070000,192.000000,0.000000,0.000000,0.000000,0.000000,0.000000,0.000000,0.000000,0.000000,0.000000,1648631871.818799,0.000000
130.000000,16601.601732,11721.657124,30607.942415,43138.732688,42050.090975,65192.796611,12115.941896,21152.260441,-0.132000,1.002000,0.070000,192.000000,0.000000,0.000000,0.000000,0.000000,0.000000,0.000000,0.000000,0.000000,0.000000,1648631871.826831,0.000000
131.000000,16590.269398,11707.821394,30598.375869,43126.238063,42042.603140,65185.129963,12112.812652,21137.575345,-0.132000,1.002000,0.070000,192.000000,0.000000,0.000000,0.000000,0.000000,0.000000,0.000000,0.000000,0.000000,0.000000,1648631871.826847,0.000000
132.000000,16590.112935,11713.230516,30596.230101,43126.975671,42031.091992,65184.168838,12105.347169,21119.604542,-0.132000,1.002000,0.070000,192.000000,0.000000,0.000000,0.000000,0.000000,0.000000,0.000000,0.000000,0.000000,0.000000,1648631871.834778,0.000000
133.000000,16594.873857,11720.941868,30604.768468,43139.671462,42031.494323,65192.014300,12113.147928,21122.532621,-0.132000,1.002000,0.070000,192.000000,0.000000,0.000000,0.000000,0.000000,0.000000,0.000000,0.000000,0.000000,0.000000,1648631871.834794,0.000000
134.000000,16593.465697,11725.680438,30603.203845,43134.798781,42036.121134,65192.550742,12112.320913,21124.767795,-0.132000,1.002000,0.070000,192.000000,0.000000,0.000000,0.000000,0.000000,0.000000,0.000000,0.000000,0.000000,0.000000,1648631871.841150,0.000000
135.000000,16588.905941,11723.557022,30596.185398,43127.154485,42024.945262,65187.834524,12098.999274,21111.624969,-0.132000,1.002000,0.070000,192.000000,0.000000,0.000000,0.000000,0.000000,0.000000,0.000000,0.000000,0.000000,0.000000,1648631871.841166,0.000000
136.000000,16595.186781,11726.082769,30603.516770,43134.150581,42026.532236,65191.142582,12094.059538,21112.586094,-0.132000,1.002000,0.070000,192.000000,0.000000,0.000000,0.000000,0.000000,0.000000,0.000000,0.000000,0.000000,0.000000,1648631871.849457,0.000000
137.000000,16595.298540,11720.248964,30602.287424,43129.121438,42020.519617,65189.734422,12090.550314,21101.901961,-0.132000,1.002000,0.070000,192.000000,0.000000,0.000000,0.000000,0.000000,0.000000,0.000000,0.000000,0.000000,0.000000,1648631871.849472,0.000000
138.000000,16589.420031,11718.125548,30599.113476,43124.338165,42012.763561,65184.817038,12085.677634,21086.211036,-0.130000,0.986000,0.086000,192.000000,251.000000,240.000000,30.000000,208.000000,2.000000,176.000000,0.000000,0.000000,0.000000,1648631871.857478,0.000000
139.000000,16592.616331,11719.779577,30603.650880,43127.087429,42006.505073,65192.282521,12105.369521,21086.143981,-0.130000,0.986000,0.086000,192.000000,0.000000,0.000000,0.000000,0.000000,0.000000,0.000000,0.000000,0.000000,0.000000,1648631871.857494,0.000000
140.000000,16569.303461,11695.170307,30586.238871,43110.949470,41989.316581,65179.072640,12102.039111,21071.749457,-0.130000,0.986000,0.086000,192.000000,0.000000,0.000000,0.000000,0.000000,0.000000,0.000000,0.000000,0.000000,0.000000,1648631871.864048,0.000000
141.000000,16570.801028,11697.763109,30587.758790,43111.843540,41988.020180,65176.591596,12099.222791,21065.915652,-0.130000,0.986000,0.086000,192.000000,0.000000,0.000000,0.000000,0.000000,0.000000,0.000000,0.000000,0.000000,0.000000,1648631871.864064,0.000000
142.000000,16598.919523,11728.049723,30611.004604,43131.021336,42009.142579,65197.713995,12116.455986,21091.016661,-0.130000,0.986000,0.086000,192.000000,0.000000,0.000000,0.000000,0.000000,0.000000,0.000000,0.000000,0.000000,0.000000,1648631871.871042,0.000000
143.000000,16572.611519,11703.753376,30589.345764,43114.034011,41994.993924,65181.665442,12107.112957,21090.949606,-0.130000,0.986000,0.086000,192.000000,0.000000,0.000000,0.000000,0.000000,0.000000,0.000000,0.000000,0.000000,0.000000,1648631871.871057,0.000000
144.000000,16562.642641,11692.711615,30579.108665,43105.987383,41977.648971,65172.389468,12092.047881,21073.358783,-0.130000,0.986000,0.086000,192.000000,0.000000,0.000000,0.000000,0.000000,0.000000,0.000000,0.000000,0.000000,0.000000,1648631871.879163,0.000000
145.000000,16599.925351,11741.885452,30618.783011,43146.756965,42005.387486,65207.481707,12120.568707,21092.268359,-0.130000,0.986000,0.086000,192.000000,0.000000,0.000000,0.000000,0.000000,0.000000,0.000000,0.000000,0.000000,0.000000,1648631871.887087,0.000000
146.000000,16577.908883,11720.450130,30599.068773,43126.774505,41998.413741,65192.953073,12112.253858,21080.757210,-0.130000,0.986000,0.086000,192.000000,0.000000,0.000000,0.000000,0.000000,0.000000,0.000000,0.000000,0.000000,0.000000,1648631871.887103,0.000000
147.000000,16564.028450,11698.523068,30580.114493,43106.814397,41979.459462,65174.535236,12097.948742,21068.776675,-0.130000,0.986000,0.086000,192.000000,0.000000,0.000000,0.000000,0.000000,0.000000,0.000000,0.000000,0.000000,0.000000,1648631871.893672,0.000000
148.000000,16571.113953,11708.827222,30586.596499,43114.034011,41979.325352,65183.341823,12112.164451,21073.917577,-0.126000,0.966000,0.106000,192.000000,252.000000,16.000000,30.000000,48.000000,3.000000,80.000000,0.000000,0.000000,0.000000,1648631871.893688,0.000000
149.000000,16582.155714,11724.294630,30600.879264,43127.065078,41986.433206,65190.963768,12122.133329,21068.553158,-0.126000,0.966000,0.106000,192.000000,0.000000,0.000000,0.000000,0.000000,0.000000,0.000000,0.000000,0.000000,0.000000,1648631871.901723,0.000000
150.000000,16578.087697,11719.712522,30599.761677,43124.315813,41990.054189,65184.817038,12118.087663,21063.412257,-0.126000,0.966000,0.106000,192.000000,0.000000,0.000000,0.000000,0.000000,0.000000,0.000000,0.000000,0.000000,0.000000,1648631871.901758,0.000000
151.000000,16567.627080,11706.793214,30595.268976,43112.447037,41987.617849,65174.043497,12106.844736,21051.677591,-0.126000,0.966000,0.106000,192.000000,0.000000,0.000000,0.000000,0.000000,0.000000,0.000000,0.000000,0.000000,0.000000,1648631871.909664,0.000000
152.000000,16565.235444,11706.346179,30596.341860,43112.827016,41986.634372,65174.401125,12106.844736,21053.018695,-0.126000,0.966000,0.106000,192.000000,0.000000,0.000000,0.000000,0.000000,0.000000,0.000000,0.000000,0.000000,0.000000,1648631871.909681,0.000000
153.000000,16546.392923,11693.382167,30579.220424,43098.968935,41969.937619,65159.201939,12096.182954,21043.407445,-0.126000,0.966000,0.106000,192.000000,0.000000,0.000000,0.000000,0.000000,0.000000,0.000000,0.000000,0.000000,0.000000,1648631871.916692,0.000000
154.000000,16551.757342,11690.655254,30578.706333,43095.996153,41954.246694,65156.027991,12094.238352,21036.903088,-0.126000,0.966000,0.106000,192.000000,0.000000,0.000000,0.000000,0.000000,0.000000,0.000000,0.000000,0.000000,0.000000,1648631871.916708,0.000000
155.000000,16574.220845,11711.040045,30600.454581,43118.057325,41966.294285,65171.048364,12111.717416,21046.916669,-0.126000,0.966000,0.106000,192.000000,0.000000,0.000000,0.000000,0.000000,0.000000,0.000000,0.000000,0.000000,0.000000,1648631871.924130,0.000000
156.000000,16563.380249,11704.692150,30592.586767,43104.243947,41952.793831,65160.565395,12108.588172,21041.909878,-0.126000,0.966000,0.106000,192.000000,0.000000,0.000000,0.000000,0.000000,0.000000,0.000000,0.000000,0.000000,0.000000,1648631871.924147,0.000000
157.000000,16573.662051,11717.209127,30602.756811,43107.820226,41946.580046,65167.382677,12114.220812,21044.748550,-0.126000,0.966000,0.106000,192.000000,0.000000,0.000000,0.000000,0.000000,0.000000,0.000000,0.000000,0.000000,0.000000,1648631871.932364,0.000000
158.000000,16569.079944,11714.951600,30601.058078,43114.481046,41949.172848,65161.392410,12110.599829,21042.066341,-0.120000,0.966000,0.132000,192.000000,252.000000,64.000000,30.000000,48.000000,4.000000,32.000000,0.000000,0.000000,0.000000,1648631871.932381,0.000000
159.000000,16560.966261,11700.780594,30590.418648,43103.416932,41932.699613,65149.769503,12099.066329,21030.175213,-0.120000,0.966000,0.132000,192.000000,0.000000,0.000000,0.000000,0.000000,0.000000,0.000000,0.000000,0.000000,0.000000,1648631871.939361,0.000000
160.000000,16566.330679,11702.948714,30595.872473,43106.993211,41932.833723,65150.484759,12100.340378,21036.858384,-0.120000,0.966000,0.132000,192.000000,0.000000,0.000000,0.000000,0.000000,0.000000,0.000000,0.000000,0.000000,0.000000,1648631871.946476,0.000000
161.000000,16567.045935,11706.793214,30594.866645,43108.781351,41929.548017,65151.937622,12099.446309,21023.000303,-0.120000,0.966000,0.132000,192.000000,0.000000,0.000000,0.000000,0.000000,0.000000,0.000000,0.000000,0.000000,0.000000,1648631871.946492,0.000000
162.000000,16559.044011,11695.527934,30590.396296,43102.075827,41924.384764,65146.237927,12092.629026,21010.662140,-0.120000,0.966000,0.132000,192.000000,0.000000,0.000000,0.000000,0.000000,0.000000,0.000000,0.000000,0.000000,0.000000,1648631871.954000,0.000000
163.000000,16571.829208,11709.453071,30603.069735,43105.339182,41924.787095,65151.557642,12105.905963,21012.338521,-0.120000,0.966000,0.132000,192.000000,0.000000,0.000000,0.000000,0.000000,0.000000,0.000000,0.000000,0.000000,0.000000,1648631871.954016,0.000000
164.000000,16575.874874,11721.455958,30610.959901,43110.435380,41933.683089,65152.339953,12107.492937,21015.803041,-0.120000,0.966000,0.132000,192.000000,0.000000,0.000000,0.000000,0.000000,0.000000,0.000000,0.000000,0.000000,0.000000,1648631871.962484,0.000000
165.000000,16563.536711,11711.710597,30602.198017,43104.422761,41929.480961,65141.298192,12092.293750,20995.909988,-0.120000,0.966000,0.132000,192.000000,0.000000,0.000000,0.000000,0.000000,0.000000,0.000000,0.000000,0.000000,0.000000,1648631871.962500,0.000000
166.000000,16562.508531,11699.193621,30597.727668,43098.164272,41915.578176,65133.340971,12091.846715,20980.196712,-0.120000,0.966000,0.132000,192.000000,0.000000,0.000000,0.000000,0.000000,0.000000,0.000000,0.000000,0.000000,0.000000,1648631871.969855,0.000000
167.000000,16557.948775,11688.777708,30594.933700,43096.376133,41907.509197,65121.718064,12088.538657,20971.658346,-0.120000,0.966000,0.132000,192.000000,0.000000,0.000000,0.000000,0.000000,0.000000,0.000000,0.000000,0.000000,0.000000,1648631871.969871,0.000000
168.000000,16582.401583,11707.307304,30618.157162,43112.894072,41916.405191,65135.754959,12106.509460,20985.918759,-0.120000,0.966000,0.132000,192.000000,0.000000,0.000000,0.000000,0.000000,0.000000,0.000000,0.000000,0.000000,0.000000,1648631871.976469,0.000000
169.000000,16563.290842,11689.939998,30601.750982,43095.012676,41905.028153,65111.480965,12088.069271,20972.373601,-0.128000,0.968000,0.148000,192.000000,252.000000,0.000000,30.000000,64.000000,4.000000,160.000000,0.000000,0.000000,0.000000,1648631871.976480,0.000000
170.000000,16556.607670,11684.352062,30597.593558,43093.515109,41896.400380,65102.920246,12084.917675,20968.752619,-0.128000,0.968000,0.148000,192.000000,0.000000,0.000000,0.000000,0.000000,0.000000,0.000000,0.000000,0.000000,0.000000,1648631871.984621,0.000000
171.000000,16559.088714,11682.250998,30599.336994,43096.912574,41891.684162,65105.915380,12091.623198,20979.637918,-0.128000,0.968000,0.148000,192.000000,0.000000,0.000000,0.000000,0.000000,0.000000,0.000000,0.000000,0.000000,0.000000,1648631871.984654,0.000000
172.000000,16556.853540,11678.540609,30598.509979,43092.151653,41889.806615,65102.808488,12095.467698,20970.451351,-0.128000,0.968000,0.148000,192.000000,0.000000,0.000000,0.000000,0.000000,0.000000,0.000000,0.000000,0.000000,0.000000,1648631871.992352,0.000000
173.000000,16575.249025,11697.964275,30615.072622,43107.976688,41895.483958,65111.346854,12105.816556,20978.296814,-0.128000,0.968000,0.148000,192.000000,0.000000,0.000000,0.000000,0.000000,0.000000,0.000000,0.000000,0.000000,0.000000,1648631871.992368,0.000000
174.000000,16560.362763,11684.463821,30599.605215,43093.090426,41875.054464,65089.240979,12091.578494,20966.740962,-0.128000,0.968000,0.148000,192.000000,0.000000,0.000000,0.000000,0.000000,0.000000,0.000000,0.000000,0.000000,0.000000,1648631871.998666,0.000000
175.000000,16555.110104,11684.888504,30599.336994,43091.972839,41871.679350,65082.267235,12088.717471,20959.454293,-0.128000,0.968000,0.148000,192.000000,0.000000,0.000000,0.000000,0.000000,0.000000,0.000000,0.000000,0.000000,0.000000,1648631872.005935,0.000000
176.000000,16563.044973,11693.851554,30603.695584,43094.811510,41860.995216,65080.255578,12086.795221,20957.397933,-0.128000,0.968000,0.148000,192.000000,0.000000,0.000000,0.000000,0.000000,0.000000,0.000000,0.000000,0.000000,0.000000,1648631872.005945,0.000000
177.000000,16565.347202,11689.872943,30615.363194,43097.918403,41855.519039,65087.698708,12097.032320,20960.124846,-0.128000,0.968000,0.148000,192.000000,0.000000,0.000000,0.000000,0.000000,0.000000,0.000000,0.000000,0.000000,0.000000,1648631872.013908,0.000000
178.000000,16551.422066,11674.785516,30614.245607,43090.698789,41849.394661,65082.691918,12099.423957,20966.271575,-0.128000,0.968000,0.148000,192.000000,0.000000,0.000000,0.000000,0.000000,0.000000,0.000000,0.000000,0.000000,0.000000,1648631872.013920,0.000000
179.000000,16559.558101,11679.479382,30620.481744,43093.716275,41839.984577,65086.581121,12099.468660,20969.870206,-0.130000,0.972000,0.152000,192.000000,251.000000,240.000000,30.000000,96.000000,4.000000,192.000000,0.000000,0.000000,0.000000,1648631872.022163,0.000000
180.000000,16548.628098,11673.220894,30611.764564,43085.960220,41836.229484,65072.097191,12088.002215,20964.841064,-0.130000,0.972000,0.152000,192.000000,0.000000,0.000000,0.000000,0.000000,0.000000,0.000000,0.000000,0.000000,0.000000,1648631872.022180,0.000000
181.000000,16532.423083,11649.326879,30599.627566,43071.431586,41814.838864,65051.980621,12080.514381,20953.687543,-0.130000,0.972000,0.152000,192.000000,0.000000,0.000000,0.000000,0.000000,0.000000,0.000000,0.000000,0.000000,0.000000,1648631872.028831,0.000000
182.000000,16547.309345,11663.788457,30616.212561,43084.216784,41814.324774,65062.038906,12092.696082,20963.321145,-0.130000,0.972000,0.152000,192.000000,0.000000,0.000000,0.000000,0.000000,0.000000,0.000000,0.000000,0.000000,0.000000,1648631872.028847,0.000000
183.000000,16561.435647,11682.787440,30631.299988,43099.795949,41825.366536,65073.974737,12107.515288,20972.775933,-0.130000,0.972000,0.152000,192.000000,0.000000,0.000000,0.000000,0.000000,0.000000,0.000000,0.000000,0.000000,0.000000,1648631872.036897,0.000000
184.000000,16560.675688,11678.294740,30630.025939,43096.689057,41816.984632,65069.035002,12113.147928,20976.128695,-0.130000,0.972000,0.152000,192.000000,0.000000,0.000000,0.000000,0.000000,0.000000,0.000000,0.000000,0.000000,0.000000,1648631872.036913,0.000000
185.000000,16559.066362,11671.320995,30624.482706,43086.586068,41811.240233,65055.109865,12101.994407,20965.109285,-0.130000,0.972000,0.152000,192.000000,0.000000,0.000000,0.000000,0.000000,0.000000,0.000000,0.000000,0.000000,0.000000,1648631872.044635,0.000000
186.000000,16556.875891,11676.238379,30622.046366,43089.201223,41807.753361,65051.824159,12096.786451,20956.414456,-0.130000,0.972000,0.152000,192.000000,0.000000,0.000000,0.000000,0.000000,0.000000,0.000000,0.000000,0.000000,0.000000,1648631872.044651,0.000000
187.000000,16552.740819,11680.887542,30618.738308,43086.206089,41801.807797,65046.593850,12094.260704,20956.056828,-0.130000,0.972000,0.152000,192.000000,0.000000,0.000000,0.000000,0.000000,0.000000,0.000000,0.000000,0.000000,0.000000,1648631872.051984,0.000000
188.000000,16568.275281,11692.108118,30631.076471,43098.208976,41802.992440,65054.998106,12101.882649,20968.082067,-0.130000,0.972000,0.152000,192.000000,0.000000,0.000000,0.000000,0.000000,0.000000,0.000000,0.000000,0.000000,0.000000,1648631872.052000,0.000000
189.000000,16563.268490,11686.274312,30626.874343,43098.030162,41798.231518,65052.807635,12100.630951,20956.950898,-0.124000,0.974000,0.164000,192.000000,252.000000,32.000000,30.000000,112.000000,5.000000,32.000000,0.000000,0.000000,0.000000,1648631872.058329,0.000000
190.000000,16563.737877,11676.953635,30626.673177,43095.593821,41799.170291,65053.992278,12108.431710,20949.820691,-0.124000,0.974000,0.164000,192.000000,0.000000,0.000000,0.000000,0.000000,0.000000,0.000000,0.000000,0.000000,0.000000,1648631872.066441,0.000000
191.000000,16558.172292,11663.542588,30620.593503,43084.417949,41789.335524,65046.772664,12103.939009,20943.450444,-0.124000,0.974000,0.164000,192.000000,0.000000,0.000000,0.000000,0.000000,0.000000,0.000000,0.000000,0.000000,0.000000,1648631872.066458,0.000000
192.000000,16568.990537,11675.523123,30629.064814,43093.202185,41796.555137,65048.426693,12105.369521,20945.327991,-0.124000,0.974000,0.164000,192.000000,0.000000,0.000000,0.000000,0.000000,0.000000,0.000000,0.000000,0.000000,0.000000,1648631872.074508,0.000000
193.000000,16571.493932,11682.116888,30631.188229,43097.091388,41798.902070,65052.047676,12106.911791,20945.909136,-0.124000,0.974000,0.164000,192.000000,0.000000,0.000000,0.000000,0.000000,0.000000,0.000000,0.000000,0.000000,0.000000,1648631872.074542,0.000000
194.000000,16571.203360,11682.139240,30631.076471,43098.588955,41799.907899,65050.572461,12103.000236,20936.990790,-0.124000,0.974000,0.164000,192.000000,0.000000,0.000000,0.000000,0.000000,0.000000,0.000000,0.000000,0.000000,0.000000,1648631872.081576,0.000000
195.000000,16557.099409,11668.303510,30619.162991,43088.418912,41796.242213,65033.965115,12087.935160,20921.210458,-0.124000,0.974000,0.164000,192.000000,0.000000,0.000000,0.000000,0.000000,0.000000,0.000000,0.000000,0.000000,0.000000,1648631872.081592,0.000000
196.000000,16558.999307,11672.930321,30627.209619,43094.967973,41791.950678,65042.525833,12095.601809,20918.014159,-0.124000,0.974000,0.164000,192.000000,0.000000,0.000000,0.000000,0.000000,0.000000,0.000000,0.000000,0.000000,0.000000,1648631872.089171,0.000000
197.000000,16553.947813,11662.983795,30621.532276,43085.535536,41786.072169,65037.519042,12094.953608,20923.423281,-0.124000,0.974000,0.164000,192.000000,0.000000,0.000000,0.000000,0.000000,0.000000,0.000000,0.000000,0.000000,0.000000,1648631872.089187,0.000000
198.000000,16563.246138,11669.488152,30629.645959,43092.106949,41785.401617,65038.927202,12099.423957,20929.234735,-0.124000,0.974000,0.164000,192.000000,0.000000,0.000000,0.000000,0.000000,0.000000,0.000000,0.000000,0.000000,0.000000,1648631872.096979,0.000000
199.000000,16564.743705,11672.550341,30629.377738,43095.794987,41784.664009,65034.859185,12099.870992,20928.452424,-0.124000,0.972000,0.170000,192.000000,252.000000,32.000000,30.000000,96.000000,5.000000,80.000000,0.000000,0.000000,0.000000,1648631872.096995,0.000000
200.000000,16560.742743,11671.768030,30624.549761,43088.553022,41771.968218,65025.985542,12087.778698,20917.522421,-0.124000,0.972000,0.170000,192.000000,0.000000,0.000000,0.000000,0.000000,0.000000,0.000000,0.000000,0.000000,0.000000,1648631872.105041,0.000000
201.000000,16553.925461,11667.945882,30619.542971,43083.300362,41762.915762,65018.453004,12077.541599,20910.258104,-0.124000,0.972000,0.170000,192.000000,0.000000,0.000000,0.000000,0.000000,0.000000,0.000000,0.000000,0.000000,0.000000,1648631872.105056,0.000000
202.000000,16561.457999,11673.623225,30627.231971,43095.258545,41773.599896,65030.321780,12093.210172,20919.869354,-0.124000,0.972000,0.170000,192.000000,0.000000,0.000000,0.000000,0.000000,0.000000,0.000000,0.000000,0.000000,0.000000,1648631872.111724,0.000000
203.000000,16563.737877,11672.550341,30628.349558,43096.666705,41779.366646,65029.584173,12099.848640,20921.523383,-0.124000,0.972000,0.170000,192.000000,0.000000,0.000000,0.000000,0.000000,0.000000,0.000000,0.000000,0.000000,0.000000,1648631872.111739,0.000000
204.000000,16566.755362,11668.795248,30630.383567,43094.811510,41776.662085,65027.728978,12108.677579,20922.484508,-0.124000,0.972000,0.170000,192.000000,0.000000,0.000000,0.000000,0.000000,0.000000,0.000000,0.000000,0.000000,0.000000,1648631872.118848,0.000000
205.000000,16560.966261,11655.965347,30622.225180,43087.256621,41773.868117,65018.117728,12107.559992,20921.411624,-0.124000,0.972000,0.170000,192.000000,0.000000,0.000000,0.000000,0.000000,0.000000,0.000000,0.000000,0.000000,0.000000,1648631872.118864,0.000000
206.000000,16554.663069,11649.662155,30612.971558,43076.572487,41755.249113,65008.394719,12099.423957,20905.474830,-0.124000,0.972000,0.170000,192.000000,0.000000,0.000000,0.000000,0.000000,0.000000,0.000000,0.000000,0.000000,0.000000,1648631872.126853,0.000000
207.000000,16549.164539,11648.678678,30608.747078,43073.845574,41746.867209,65002.985597,12105.838907,20901.026833,-0.124000,0.972000,0.170000,192.000000,0.000000,0.000000,0.000000,0.000000,0.000000,0.000000,0.000000,0.000000,0.000000,1648631872.134762,0.000000
208.000000,16553.411371,11656.412382,30618.671253,43087.793063,41754.690320,65011.278094,12120.769873,20910.794546,-0.124000,0.972000,0.170000,192.000000,0.000000,0.000000,0.000000,0.000000,0.000000,0.000000,0.000000,0.000000,0.000000,1648631872.134778,0.000000
209.000000,16560.563929,11663.900216,30625.823811,43099.594784,41755.204410,65014.429690,12118.042960,20910.459269,-0.114000,0.964000,0.174000,192.000000,252.000000,112.000000,30.000000,32.000000,5.000000,112.000000,0.000000,0.000000,0.000000,1648631872.141399,0.000000
210.000000,16565.458961,11660.145123,30629.400090,43094.833862,41758.043082,65009.087623,12110.510422,20908.939351,-0.114000,0.964000,0.174000,192.000000,0.000000,0.000000,0.000000,0.000000,0.000000,0.000000,0.000000,0.000000,0.000000,1648631872.141415,0.000000
211.000000,16563.313194,11658.133466,30628.617779,43089.581202,41756.254942,65008.797051,12109.035207,20909.676958,-0.114000,0.964000,0.174000,192.000000,0.000000,0.000000,0.000000,0.000000,0.000000,0.000000,0.000000,0.000000,0.000000,1648631872.149466,0.000000
212.000000,16554.193682,11655.630071,30621.711090,43090.430569,41755.517334,64996.056556,12100.854468,20906.815935,-0.114000,0.964000,0.174000,192.000000,0.000000,0.000000,0.000000,0.000000,0.000000,0.000000,0.000000,0.000000,0.000000,1648631872.149482,0.000000
213.000000,16551.265603,11654.624242,30617.710128,43084.440301,41747.873038,64979.672728,12088.024567,20893.293130,-0.114000,0.964000,0.174000,192.000000,0.000000,0.000000,0.000000,0.000000,0.000000,0.000000,0.000000,0.000000,0.000000,1648631872.157500,0.000000
214.000000,16565.302499,11673.846742,30632.305817,43099.103045,41752.589256,64988.658129,12094.216000,20893.695461,-0.114000,0.964000,0.174000,192.000000,0.000000,0.000000,0.000000,0.000000,0.000000,0.000000,0.000000,0.000000,0.000000,1648631872.157535,0.000000
215.000000,16573.013851,11676.707766,30641.157107,43112.134112,41763.787480,64995.251893,12098.462832,20900.065708,-0.114000,0.964000,0.174000,192.000000,0.000000,0.000000,0.000000,0.000000,0.000000,0.000000,0.000000,0.000000,0.000000,1648631872.164109,0.000000
216.000000,16568.029412,11672.505638,30637.714939,43110.815359,41758.154840,64993.150829,12098.932218,20902.658511,-0.114000,0.964000,0.174000,192.000000,0.000000,0.000000,0.000000,0.000000,0.000000,0.000000,0.000000,0.000000,0.000000,1648631872.164125,0.000000
217.000000,16560.474522,11662.246187,30631.076471,43100.846481,41741.949826,64987.115858,12097.702872,20900.646854,-0.114000,0.964000,0.174000,192.000000,0.000000,0.000000,0.000000,0.000000,0.000000,0.000000,0.000000,0.000000,0.000000,1648631872.172048,0.000000
218.000000,16563.559063,11656.099457,30628.349558,43092.956316,41733.858494,64975.917634,12095.065367,20904.424298,-0.114000,0.964000,0.174000,192.000000,0.000000,0.000000,0.000000,0.000000,0.000000,0.000000,0.000000,0.000000,0.000000,1648631872.172064,0.000000
219.000000,16550.818569,11649.617451,30622.247532,43087.860118,41722.056773,64968.496855,12089.231561,20900.177467,-0.104000,0.974000,0.184000,192.000000,252.000000,192.000000,30.000000,112.000000,5.000000,192.000000,0.000000,0.000000,0.000000,1648631872.180084,0.000000
220.000000,16546.459978,11651.249129,30619.386508,43083.948563,41720.246282,64966.798123,12090.460907,20897.249388,-0.104000,0.974000,0.184000,192.000000,0.000000,0.000000,0.000000,0.000000,0.000000,0.000000,0.000000,0.000000,0.000000,1648631872.180099,0.000000
221.000000,16562.039144,11666.068335,30630.294160,43093.582164,41727.801171,64975.045916,12107.582344,20903.485525,-0.104000,0.974000,0.184000,192.000000,0.000000,0.000000,0.000000,0.000000,0.000000,0.000000,0.000000,0.000000,0.000000,1648631872.187117,0.000000
222.000000,16557.322926,11658.468742,30626.203790,43088.865946,41723.017898,64970.173236,12106.352998,20902.725566,-0.104000,0.974000,0.184000,192.000000,0.000000,0.000000,0.000000,0.000000,0.000000,0.000000,0.000000,0.000000,0.000000,1648631872.193669,0.000000
223.000000,16551.600880,11647.002297,30618.514790,43077.578315,41715.977098,64957.946832,12097.591114,20900.870371,-0.104000,0.974000,0.184000,192.000000,0.000000,0.000000,0.000000,0.000000,0.000000,0.000000,0.000000,0.000000,0.000000,1648631872.193684,0.000000
224.000000,16557.747609,11656.479437,30623.409822,43089.268278,41712.065543,64959.600861,12093.031358,20894.500124,-0.104000,0.974000,0.184000,192.000000,0.000000,0.000000,0.000000,0.000000,0.000000,0.000000,0.000000,0.000000,0.000000,1648631872.201739,0.000000
225.000000,16554.171330,11656.814713,30627.164915,43095.213842,41713.786628,64961.076076,12093.634855,20894.254255,-0.104000,0.974000,0.184000,192.000000,0.000000,0.000000,0.000000,0.000000,0.000000,0.000000,0.000000,0.000000,0.000000,1648631872.201754,0.000000
226.000000,16558.686383,11659.183998,30633.468107,43105.897976,41721.229758,64961.836035,12104.274285,20899.685729,-0.104000,0.974000,0.184000,192.000000,0.000000,0.000000,0.000000,0.000000,0.000000,0.000000,0.000000,0.000000,0.000000,1648631872.209710,0.000000
227.000000,16559.982784,11661.083896,30632.931666,43104.892147,41722.414401,64951.844806,12104.967189,20902.412641,-0.104000,0.974000,0.184000,192.000000,0.000000,0.000000,0.000000,0.000000,0.000000,0.000000,0.000000,0.000000,0.000000,1648631872.209726,0.000000
228.000000,16554.998345,11655.697126,30629.891828,43100.354743,41715.351250,64938.098483,12094.238352,20891.236769,-0.104000,0.974000,0.184000,192.000000,0.000000,0.000000,0.000000,0.000000,0.000000,0.000000,0.000000,0.000000,0.000000,1648631872.216932,0.000000
229.000000,16557.457037,11651.897329,30630.875305,43096.979630,41711.283232,64931.303553,12080.916712,20876.439914,-0.106000,0.982000,0.196000,192.000000,252.000000,176.000000,30.000000,176.000000,6.000000,32.000000,0.000000,0.000000,0.000000,1648631872.216949,0.000000
230.000000,16554.886586,11647.337573,30626.181439,43097.896051,41712.490226,64921.289971,12082.414279,20866.940423,-0.106000,0.982000,0.196000,192.000000,0.000000,0.000000,0.000000,0.000000,0.000000,0.000000,0.000000,0.000000,0.000000,1648631872.224393,0.000000
231.000000,16557.188816,11644.901233,30625.779107,43096.622002,41713.004316,64912.550439,12087.756346,20861.643059,-0.106000,0.982000,0.196000,192.000000,0.000000,0.000000,0.000000,0.000000,0.000000,0.000000,0.000000,0.000000,0.000000,1648631872.224410,0.000000
232.000000,16554.148978,11641.436713,30614.580883,43083.680342,41698.743903,64897.910046,12081.810782,20860.637231,-0.106000,0.982000,0.196000,192.000000,0.000000,0.000000,0.000000,0.000000,0.000000,0.000000,0.000000,0.000000,0.000000,1648631872.232392,0.000000
233.000000,16556.987650,11647.024649,30623.275712,43093.448054,41692.306601,64909.957637,12101.189745,20888.912188,-0.106000,0.982000,0.196000,192.000000,0.000000,0.000000,0.000000,0.000000,0.000000,0.000000,0.000000,0.000000,0.000000,1648631872.232409,0.000000
234.000000,16570.376345,11665.733059,30647.929686,43113.519921,41699.347401,64925.402692,12124.614373,20915.086080,-0.106000,0.982000,0.196000,192.000000,0.000000,0.000000,0.000000,0.000000,0.000000,0.000000,0.000000,0.000000,0.000000,1648631872.240396,0.000000
235.000000,16566.442438,11652.143199,30640.732424,43104.489816,41692.194842,64907.923628,12113.796128,20901.540923,-0.106000,0.982000,0.196000,192.000000,0.000000,0.000000,0.000000,0.000000,0.000000,0.000000,0.000000,0.000000,0.000000,1648631872.240430,0.000000
236.000000,16562.955566,11645.616489,30640.307741,43098.924231,41690.227889,64897.418308,12110.219849,20902.434993,-0.106000,0.982000,0.196000,192.000000,0.000000,0.000000,0.000000,0.000000,0.000000,0.000000,0.000000,0.000000,0.000000,1648631872.246529,0.000000
237.000000,16563.871987,11655.384201,30641.335921,43103.238118,41688.350342,64891.092764,12111.896230,20906.190086,-0.106000,0.982000,0.196000,192.000000,0.000000,0.000000,0.000000,0.000000,0.000000,0.000000,0.000000,0.000000,0.000000,1648631872.253804,0.000000
238.000000,16550.863272,11643.381315,30627.455488,43095.079731,41675.587496,64874.686584,12105.794204,20893.114316,-0.106000,0.982000,0.196000,192.000000,0.000000,0.000000,0.000000,0.000000,0.000000,0.000000,0.000000,0.000000,0.000000,1648631872.253815,0.000000
239.000000,16552.114970,11642.308431,30621.241703,43087.793063,41659.471888,64858.190996,12100.072157,20878.384516,-0.106000,0.978000,0.204000,192.000000,252.000000,176.000000,30.000000,144.000000,6.000000,96.000000,0.000000,0.000000,0.000000,1648631872.261874,0.000000
240.000000,16567.962357,11656.300623,30639.816003,43096.912574,41670.468947,64852.267784,12105.458928,20889.515685,-0.106000,0.978000,0.204000,192.000000,0.000000,0.000000,0.000000,0.000000,0.000000,0.000000,0.000000,0.000000,0.000000,1648631872.261884,0.000000
241.000000,16556.115932,11643.381315,30634.697453,43095.660877,41660.745938,64838.856737,12102.150870,20883.838342,-0.106000,0.978000,0.204000,192.000000,0.000000,0.000000,0.000000,0.000000,0.000000,0.000000,0.000000,0.000000,0.000000,1648631872.269889,0.000000
242.000000,16550.460941,11632.719533,30632.931666,43089.938830,41650.844115,64826.965609,12107.470585,20882.944272,-0.106000,0.978000,0.204000,192.000000,0.000000,0.000000,0.000000,0.000000,0.000000,0.000000,0.000000,0.000000,0.000000,1648631872.269900,0.000000
243.000000,16559.111066,11642.599004,30641.514735,43094.923269,41655.560333,64818.159022,12109.862221,20887.548731,-0.106000,0.978000,0.204000,192.000000,0.000000,0.000000,0.000000,0.000000,0.000000,0.000000,0.000000,0.000000,0.000000,1648631872.276613,0.000000
244.000000,16552.718467,11637.569861,30632.194058,43085.714350,41638.930635,64788.386498,12091.802012,20877.825722,-0.106000,0.978000,0.204000,192.000000,0.000000,0.000000,0.000000,0.000000,0.000000,0.000000,0.000000,0.000000,0.000000,1648631872.276629,0.000000
245.000000,16556.004173,11642.420190,30634.138660,43092.375170,41626.413658,64777.680013,12101.860297,20875.881121,-0.106000,0.978000,0.204000,192.000000,0.000000,0.000000,0.000000,0.000000,0.000000,0.000000,0.000000,0.000000,0.000000,1648631872.284666,0.000000
246.000000,16558.753438,11642.084914,30643.928724,43093.336295,41626.726583,64761.989088,12110.555126,20881.111429,-0.106000,0.978000,0.204000,192.000000,0.000000,0.000000,0.000000,0.000000,0.000000,0.000000,0.000000,0.000000,0.000000,1648631872.284682,0.000000
247.000000,16550.863272,11641.973155,30637.938456,43090.117644,41618.344679,64739.279716,12108.387006,20876.328156,-0.106000,0.978000,0.204000,192.000000,0.000000,0.000000,0.000000,0.000000,0.000000,0.000000,0.000000,0.000000,0.000000,1648631872.292483,0.000000
248.000000,16568.454095,11662.626167,30649.740177,43100.779426,41624.379650,64732.305972,12112.902059,20876.328156,-0.106000,0.978000,0.204000,192.000000,0.000000,0.000000,0.000000,0.000000,0.000000,0.000000,0.000000,0.000000,0.000000,1648631872.292498,0.000000
249.000000,16563.983746,11653.596062,30639.279561,43095.906746,41621.496275,64701.058233,12098.619294,20867.700382,-0.104000,0.972000,0.196000,192.000000,252.000000,192.000000,30.000000,96.000000,6.000000,32.000000,0.000000,0.000000,0.000000,1648631872.299749,0.000000
250.000000,16568.521150,11651.897329,30639.503078,43096.867871,41618.612900,64684.003852,12092.584323,20863.766475,-0.104000,0.972000,0.196000,192.000000,0.000000,0.000000,0.000000,0.000000,0.000000,0.000000,0.000000,0.000000,0.000000,1648631872.299765,0.000000
251.000000,16567.560025,11654.668946,30637.960808,43097.717237,41627.084211,64656.399447,12090.796183,20868.795618,-0.104000,0.972000,0.196000,192.000000,0.000000,0.000000,0.000000,0.000000,0.000000,0.000000,0.000000,0.000000,0.000000,1648631872.306171,0.000000
252.000000,16566.285976,11656.457085,30641.022997,43099.706542,41628.693536,64661.093314,12098.932218,20870.360240,-0.104000,0.972000,0.196000,192.000000,0.000000,0.000000,0.000000,0.000000,0.000000,0.000000,0.000000,0.000000,0.000000,1648631872.314205,0.000000
253.000000,16564.386077,11655.697126,30643.101709,43099.326563,41628.917054,64680.405221,12106.241239,20874.584719,-0.104000,0.972000,0.196000,192.000000,0.000000,0.000000,0.000000,0.000000,0.000000,0.000000,0.000000,0.000000,0.000000,1648631872.314221,0.000000
254.000000,16564.296670,11656.032402,30639.704244,43101.718199,41618.925824,64689.167105,12105.503631,20873.265967,-0.104000,0.972000,0.196000,192.000000,0.000000,0.000000,0.000000,0.000000,0.000000,0.000000,0.000000,0.000000,0.000000,1648631872.322373,0.000000
255.000000,16551.042086,11626.908079,30617.933645,43081.311057,41613.650812,64682.305119,12095.557105,20870.471999,-0.104000,0.972000,0.196000,192.000000,0.000000,0.000000,0.000000,0.000000,0.000000,0.000000,0.000000,0.000000,0.000000,1648631872.322389,0.000000
0.000000,16560.385115,11633.278326,30645.046311,43087.949525,41621.719792,64696.096146,12105.771852,20880.999670,-0.104000,0.972000,0.196000,192.000000,0.000000,0.000000,0.000000,0.000000,0.000000,0.000000,0.000000,0.000000,0.000000,1648631872.328924,0.000000
1.000000,16562.396772,11638.687448,30643.928724,43092.442226,41619.261100,64700.745308,12110.599829,20879.345641,-0.104000,0.972000,0.196000,192.000000,0.000000,0.000000,0.000000,0.000000,0.000000,0.000000,0.000000,0.000000,0.000000,1648631872.328959,0.000000
2.000000,16566.218920,11645.638841,30649.159032,43106.188548,41628.537074,64706.132079,12115.159585,20870.449647,-0.104000,0.972000,0.196000,192.000000,0.000000,0.000000,0.000000,0.000000,0.000000,0.000000,0.000000,0.000000,0.000000,1648631872.336954,0.000000
3.000000,16561.055668,11641.414361,30643.436985,43106.702638,41627.643004,64706.422652,12119.160547,20874.919996,-0.098000,0.964000,0.208000,192.000000,252.000000,240.000000,30.000000,32.000000,6.000000,128.000000,0.000000,0.000000,0.000000,1648631872.336969,0.000000
4.000000,16555.646545,11628.517405,30630.808250,43093.805682,41620.557501,64697.549009,12111.762120,20878.160999,-0.098000,0.964000,0.208000,192.000000,0.000000,0.000000,0.000000,0.000000,0.000000,0.000000,0.000000,0.000000,0.000000,1648631872.344963,0.000000
5.000000,16550.684458,11622.705951,30630.763546,43084.730874,41618.299975,64702.488745,12114.891364,20881.022022,-0.098000,0.964000,0.208000,192.000000,0.000000,0.000000,0.000000,0.000000,0.000000,0.000000,0.000000,0.000000,0.000000,1648631872.344979,0.000000
6.000000,16551.757342,11630.998448,30626.293197,43085.267316,41608.062876,64696.654939,12102.933181,20867.029830,-0.098000,0.964000,0.208000,192.000000,0.000000,0.000000,0.000000,0.000000,0.000000,0.000000,0.000000,0.000000,0.000000,1648631872.352104,0.000000
7.000000,16572.946796,11648.723382,30655.663390,43106.590880,41618.009403,64714.290466,12119.317009,20876.842246,-0.098000,0.964000,0.208000,192.000000,0.000000,0.000000,0.000000,0.000000,0.000000,0.000000,0.000000,0.000000,0.000000,1648631872.352120,0.000000
8.000000,16567.917653,11645.549434,30651.841241,43096.867871,41614.455475,64708.411957,12117.350056,20879.613862,-0.098000,0.964000,0.208000,192.000000,0.000000,0.000000,0.000000,0.000000,0.000000,0.000000,0.000000,0.000000,0.000000,1648631872.359368,0.000000
9.000000,16568.118819,11653.193730,30650.924820,43100.198281,41615.394248,64702.533448,12110.823346,20878.429220,-0.098000,0.964000,0.208000,192.000000,0.000000,0.000000,0.000000,0.000000,0.000000,0.000000,0.000000,0.000000,0.000000,1648631872.359382,0.000000
10.000000,16568.878778,11656.099457,30650.746006,43106.143845,41617.696478,64702.153468,12113.192631,20882.787810,-0.098000,0.964000,0.208000,192.000000,0.000000,0.000000,0.000000,0.000000,0.000000,0.000000,0.000000,0.000000,0.000000,1648631872.366582,0.000000
11.000000,16566.397734,11651.830274,30651.774186,43101.852310,41622.926786,64693.503343,12107.850564,20880.977318,-0.098000,0.964000,0.208000,192.000000,0.000000,0.000000,0.000000,0.000000,0.000000,0.000000,0.000000,0.000000,0.000000,1648631872.366598,0.000000
12.000000,16560.005136,11643.895405,30644.219296,43089.670609,41615.282490,64683.690927,12098.731053,20873.802408,-0.098000,0.964000,0.208000,192.000000,0.000000,0.000000,0.000000,0.000000,0.000000,0.000000,0.000000,0.000000,0.000000,1648631872.374654,0.000000
13.000000,16550.192720,11629.702047,30632.574038,43082.160423,41604.888929,64677.141866,12093.478393,20873.265967,-0.098000,0.964000,0.208000,192.000000,0.000000,0.000000,0.000000,0.000000,0.000000,0.000000,0.000000,0.000000,0.000000,1648631872.381635,0.000000
14.000000,16552.941984,11635.938184,30634.138660,43091.458749,41612.242652,64672.626814,12092.494916,20875.836417,-0.090000,0.954000,0.210000,192.000000,253.000000,48.000000,29.000000,208.000000,6.000000,144.000000,0.000000,0.000000,0.000000,1648631872.381651,0.000000
15.000000,16560.072191,11645.728248,30635.457413,43094.856214,41606.855882,64670.481046,12090.662073,20867.298051,-0.090000,0.954000,0.210000,192.000000,0.000000,0.000000,0.000000,0.000000,0.000000,0.000000,0.000000,0.000000,0.000000,1648631872.389090,0.000000
16.000000,16557.948775,11639.916794,30639.279561,43096.577298,41600.217414,64672.671517,12092.092585,20862.000687,-0.090000,0.954000,0.210000,192.000000,0.000000,0.000000,0.000000,0.000000,0.000000,0.000000,0.000000,0.000000,0.000000,1648631872.389106,0.000000
17.000000,16559.423990,11638.016896,30644.264000,43094.744455,41604.665411,64676.650128,12101.256800,20868.505045,-0.090000,0.954000,0.210000,192.000000,0.000000,0.000000,0.000000,0.000000,0.000000,0.000000,0.000000,0.000000,0.000000,1648631872.397138,0.000000
18.000000,16565.123685,11644.074219,30645.783919,43099.103045,41606.565309,64676.426611,12106.665922,20877.959833,-0.090000,0.954000,0.210000,192.000000,0.000000,0.000000,0.000000,0.000000,0.000000,0.000000,0.000000,0.000000,0.000000,1648631872.397154,0.000000
19.000000,16554.506606,11639.067428,30634.473936,43090.765845,41598.451626,64669.341108,12099.647474,20869.957908,-0.090000,0.954000,0.210000,192.000000,0.000000,0.000000,0.000000,0.000000,0.000000,0.000000,0.000000,0.000000,0.000000,1648631872.405210,0.000000
20.000000,16558.216996,11639.737980,30636.731462,43091.503452,41592.148434,64666.725953,12095.445346,20866.627498,-0.090000,0.954000,0.210000,192.000000,0.000000,0.000000,0.000000,0.000000,0.000000,0.000000,0.000000,0.000000,0.000000,1648631872.405225,0.000000
21.000000,16569.057592,11643.940108,30659.686704,43103.193415,41605.380667,64685.300253,12113.572611,20877.266929,-0.090000,0.954000,0.210000,192.000000,0.000000,0.000000,0.000000,0.000000,0.000000,0.000000,0.000000,0.000000,0.000000,1648631872.411778,0.000000
22.000000,16565.056630,11633.568899,30654.188175,43103.394580,41603.458417,64678.751192,12106.442405,20871.276661,-0.090000,0.954000,0.210000,192.000000,0.000000,0.000000,0.000000,0.000000,0.000000,0.000000,0.000000,0.000000,0.000000,1648631872.411812,0.000000
23.000000,16556.898243,11626.371637,30639.391320,43092.621039,41598.809254,64662.166198,12091.265570,20860.413714,-0.090000,0.954000,0.210000,192.000000,0.000000,0.000000,0.000000,0.000000,0.000000,0.000000,0.000000,0.000000,0.000000,1648631872.419856,0.000000
24.000000,16560.183949,11629.925565,30635.368006,43090.609382,41596.462321,64663.954337,12091.757308,20857.440931,-0.084000,0.968000,0.208000,192.000000,253.000000,96.000000,30.000000,64.000000,6.000000,128.000000,0.000000,0.000000,0.000000,1648631872.419872,0.000000
25.000000,16572.723278,11635.960536,30655.842204,43098.499548,41613.896682,64671.665689,12101.614428,20869.242653,-0.084000,0.968000,0.208000,192.000000,0.000000,0.000000,0.000000,0.000000,0.000000,0.000000,0.000000,0.000000,0.000000,1648631872.427641,0.000000
26.000000,16559.848673,11615.821614,30647.147375,43093.291592,41611.996783,64660.556872,12091.310274,20864.414676,-0.084000,0.968000,0.208000,192.000000,0.000000,0.000000,0.000000,0.000000,0.000000,0.000000,0.000000,0.000000,0.000000,1648631872.427658,0.000000
27.000000,16555.914766,11607.327951,30635.904448,43081.333409,41600.195062,64652.376133,12088.829230,20856.859786,-0.084000,0.968000,0.208000,192.000000,0.000000,0.000000,0.000000,0.000000,0.000000,0.000000,0.000000,0.000000,0.000000,1648631872.434928,0.000000
28.000000,16564.073153,11621.387198,30643.369930,43087.547193,41599.122178,64655.505378,12096.674692,20860.503120,-0.084000,0.968000,0.208000,192.000000,0.000000,0.000000,0.000000,0.000000,0.000000,0.000000,0.000000,0.000000,0.000000,1648631872.441546,0.000000
29.000000,16572.186836,11632.473663,30653.092939,43099.125397,41606.207681,64670.816323,12102.732015,20863.855882,-0.084000,0.968000,0.208000,192.000000,0.000000,0.000000,0.000000,0.000000,0.000000,0.000000,0.000000,0.000000,0.000000,1648631872.441563,0.000000
30.000000,16573.282072,11633.233623,30654.255230,43099.348915,41615.573062,64678.952358,12109.415187,20868.214472,-0.084000,0.968000,0.208000,192.000000,0.000000,0.000000,0.000000,0.000000,0.000000,0.000000,0.000000,0.000000,0.000000,1648631872.449413,0.000000
31.000000,16573.215017,11632.183091,30653.137643,43097.605478,41609.180463,64682.059250,12105.503631,20864.705248,-0.084000,0.968000,0.208000,192.000000,0.000000,0.000000,0.000000,0.000000,0.000000,0.000000,0.000000,0.000000,0.000000,1648631872.449428,0.000000
32.000000,16565.146037,11625.388160,30647.884983,43091.615211,41611.437990,64673.163256,12090.013872,20860.123141,-0.084000,0.968000,0.208000,192.000000,0.000000,0.000000,0.000000,0.000000,0.000000,0.000000,0.000000,0.000000,0.000000,1648631872.457504,0.000000
33.000000,16562.687345,11628.517405,30649.024922,43092.084598,41603.234899,64674.884340,12087.242256,20853.261155,-0.084000,0.968000,0.208000,192.000000,0.000000,0.000000,0.000000,0.000000,0.000000,0.000000,0.000000,0.000000,0.000000,1648631872.457520,0.000000
34.000000,16570.890435,11631.847815,30652.422387,43091.548156,41607.794655,64677.566549,12089.343320,20856.055123,-0.096000,0.978000,0.206000,192.000000,253.000000,0.000000,30.000000,144.000000,6.000000,112.000000,0.000000,0.000000,0.000000,1648631872.464083,0.000000
35.000000,16565.123685,11624.270573,30646.856802,43080.774615,41608.331097,64666.569491,12079.396794,20852.232975,-0.096000,0.978000,0.206000,192.000000,0.000000,0.000000,0.000000,0.000000,0.000000,0.000000,0.000000,0.000000,0.000000,1648631872.464099,0.000000
36.000000,16566.129514,11628.584460,30650.634247,43092.688095,41612.779094,64670.838674,12080.357919,20856.368048,-0.096000,0.978000,0.206000,192.000000,0.000000,0.000000,0.000000,0.000000,0.000000,0.000000,0.000000,0.000000,0.000000,1648631872.472114,0.000000
37.000000,16566.755362,11634.082989,30652.936477,43093.962144,41617.092981,64676.985404,12089.745651,20860.771341,-0.096000,0.978000,0.206000,192.000000,0.000000,0.000000,0.000000,0.000000,0.000000,0.000000,0.000000,0.000000,0.000000,1648631872.472129,0.000000
38.000000,16568.141171,11630.909041,30654.746968,43096.845519,41607.951118,64677.991233,12089.119803,20855.943365,-0.096000,0.978000,0.206000,192.000000,0.000000,0.000000,0.000000,0.000000,0.000000,0.000000,0.000000,0.000000,0.000000,1648631872.480146,0.000000
39.000000,16573.013851,11628.763274,30659.731407,43098.924231,41604.330135,64680.494628,12090.706776,20855.652792,-0.096000,0.978000,0.206000,192.000000,0.000000,0.000000,0.000000,0.000000,0.000000,0.000000,0.000000,0.000000,0.000000,1648631872.480162,0.000000
40.000000,16575.561950,11632.920698,30661.005457,43102.075827,41614.164902,64678.885302,12092.137288,20860.570176,-0.096000,0.978000,0.206000,192.000000,0.000000,0.000000,0.000000,0.000000,0.000000,0.000000,0.000000,0.000000,0.000000,1648631872.487224,0.000000
41.000000,16571.940967,11633.814768,30658.300895,43095.504414,41614.053144,64679.421744,12095.445346,20865.085228,-0.096000,0.978000,0.206000,192.000000,0.000000,0.000000,0.000000,0.000000,0.000000,0.000000,0.000000,0.000000,0.000000,1648631872.487240,0.000000
42.000000,16571.717450,11638.575690,30654.590506,43090.542327,41611.817969,64679.712317,12096.607637,20860.100789,-0.096000,0.978000,0.206000,192.000000,0.000000,0.000000,0.000000,0.000000,0.000000,0.000000,0.000000,0.000000,0.000000,1648631872.493740,0.000000
43.000000,16564.788409,11620.157852,30650.813061,43075.924286,41608.509911,64675.286672,12090.595018,20855.049295,-0.096000,0.978000,0.206000,192.000000,0.000000,0.000000,0.000000,0.000000,0.000000,0.000000,0.000000,0.000000,0.000000,1648631872.501702,0.000000
44.000000,16560.988612,11618.056788,30648.220259,43082.272182,41601.692629,64675.197265,12085.007082,20850.422484,-0.102000,0.976000,0.196000,192.000000,252.000000,208.000000,30.000000,128.000000,6.000000,32.000000,0.000000,0.000000,0.000000,1648631872.501718,0.000000
45.000000,16570.666918,11632.697181,30659.150262,43097.828996,41618.389382,64686.619006,12091.824364,20861.643059,-0.102000,0.976000,0.196000,192.000000,0.000000,0.000000,0.000000,0.000000,0.000000,0.000000,0.000000,0.000000,0.000000,1648631872.509700,0.000000
46.000000,16575.673708,11638.419227,30665.542861,43104.802740,41620.401039,64694.352710,12092.718433,20866.739257,-0.102000,0.976000,0.196000,192.000000,0.000000,0.000000,0.000000,0.000000,0.000000,0.000000,0.000000,0.000000,0.000000,1648631872.509716,0.000000
47.000000,16575.517246,11635.960536,30659.954925,43100.332391,41620.445743,64691.692852,12088.695119,20863.900586,-0.102000,0.976000,0.196000,192.000000,0.000000,0.000000,0.000000,0.000000,0.000000,0.000000,0.000000,0.000000,0.000000,1648631872.516569,0.000000
48.000000,16572.633871,11637.636916,30654.992837,43099.281859,41615.237786,64684.137962,12080.290864,20851.808292,-0.102000,0.976000,0.196000,192.000000,0.000000,0.000000,0.000000,0.000000,0.000000,0.000000,0.000000,0.000000,0.000000,1648631872.516580,0.000000
49.000000,16569.661089,11630.126730,30658.882041,43091.481100,41620.937481,64683.333300,12081.184933,20848.813158,-0.102000,0.976000,0.196000,192.000000,0.000000,0.000000,0.000000,0.000000,0.000000,0.000000,0.000000,0.000000,0.000000,1648631872.524374,0.000000
50.000000,16559.379287,11618.280306,30657.898564,43090.028237,41620.356336,64686.484896,12081.967244,20844.767492,-0.102000,0.976000,0.196000,192.000000,0.000000,0.000000,0.000000,0.000000,0.000000,0.000000,0.000000,0.000000,0.000000,1648631872.524389,0.000000
51.000000,16565.905996,11628.070370,30663.598259,43092.196356,41619.261100,64687.803648,12081.989596,20846.510928,-0.102000,0.976000,0.196000,192.000000,0.000000,0.000000,0.000000,0.000000,0.000000,0.000000,0.000000,0.000000,0.000000,1648631872.532439,0.000000
52.000000,16567.135342,11626.416341,30658.345599,43085.848461,41618.523493,64678.527674,12075.284073,20842.934649,-0.102000,0.976000,0.196000,192.000000,0.000000,0.000000,0.000000,0.000000,0.000000,0.000000,0.000000,0.000000,0.000000,1648631872.532455,0.000000
53.000000,16562.597938,11620.224907,30659.083207,43082.607458,41619.819894,64678.706488,12076.915750,20844.722789,-0.102000,0.976000,0.196000,192.000000,0.000000,0.000000,0.000000,0.000000,0.000000,0.000000,0.000000,0.000000,0.000000,1648631872.540422,0.000000
54.000000,16561.927386,11618.481471,30659.709055,43080.998132,41616.422429,64679.377041,12076.401660,20839.984219,-0.106000,0.964000,0.194000,192.000000,252.000000,176.000000,30.000000,32.000000,6.000000,16.000000,0.000000,0.000000,0.000000,1648631872.540438,0.000000
55.000000,16557.233519,11617.520346,30656.557459,43081.512222,41608.509911,64680.494628,12077.698061,20838.129024,-0.106000,0.964000,0.194000,192.000000,0.000000,0.000000,0.000000,0.000000,0.000000,0.000000,0.000000,0.000000,0.000000,1648631872.547012,0.000000
56.000000,16556.317098,11618.950858,30657.049198,43077.779481,41600.150359,64682.796858,12078.301558,20841.615896,-0.106000,0.964000,0.194000,192.000000,0.000000,0.000000,0.000000,0.000000,0.000000,0.000000,0.000000,0.000000,0.000000,1648631872.547028,0.000000
57.000000,16570.041069,11633.300678,30673.276564,43087.547193,41607.057048,64693.838619,12087.890457,20851.093036,-0.106000,0.964000,0.194000,192.000000,0.000000,0.000000,0.000000,0.000000,0.000000,0.000000,0.000000,0.000000,0.000000,1648631872.553973,0.000000
58.000000,16570.935139,11636.675791,30676.249346,43104.311002,41621.004536,64699.739480,12090.416204,20860.972507,-0.106000,0.964000,0.194000,192.000000,0.000000,0.000000,0.000000,0.000000,0.000000,0.000000,0.000000,0.000000,0.000000,1648631872.562052,0.000000
59.000000,16576.791296,11635.044114,30677.478692,43097.426665,41624.893740,64694.576227,12083.867143,20859.162016,-0.106000,0.964000,0.194000,192.000000,0.000000,0.000000,0.000000,0.000000,0.000000,0.000000,0.000000,0.000000,0.000000,1648631872.562068,0.000000
60.000000,16575.226674,11631.020800,30674.170634,43084.328542,41622.122123,64683.802686,12075.172314,20852.903527,-0.106000,0.964000,0.194000,192.000000,0.000000,0.000000,0.000000,0.000000,0.000000,0.000000,0.000000,0.000000,0.000000,1648631872.570090,0.000000
61.000000,16566.397734,11618.839099,30667.353352,43080.595801,41613.494350,64679.667613,12074.054727,20853.372914,-0.106000,0.964000,0.194000,192.000000,0.000000,0.000000,0.000000,0.000000,0.000000,0.000000,0.000000,0.000000,0.000000,1648631872.570106,0.000000
62.000000,16560.586281,11617.676809,30666.258117,43082.741568,41609.582795,64679.824076,12078.748593,20852.568251,-0.106000,0.964000,0.194000,192.000000,0.000000,0.000000,0.000000,0.000000,0.000000,0.000000,0.000000,0.000000,0.000000,1648631872.576654,0.000000
63.000000,16570.577511,11638.978021,30679.132721,43096.644353,41622.256234,64690.597617,12088.963340,20857.329173,-0.106000,0.964000,0.194000,192.000000,0.000000,0.000000,0.000000,0.000000,0.000000,0.000000,0.000000,0.000000,0.000000,1648631872.576669,0.000000
64.000000,16572.566816,11638.106303,30677.188120,43093.649220,41624.558464,64689.882361,12086.437593,20853.685838,-0.098000,0.958000,0.190000,192.000000,252.000000,240.000000,29.000000,240.000000,5.000000,240.000000,0.000000,0.000000,0.000000,1648631872.584662,0.000000
65.000000,16561.279185,11624.203518,30666.347523,43078.315923,41617.696478,64675.309023,12074.568817,20843.426388,-0.098000,0.958000,0.190000,192.000000,0.000000,0.000000,0.000000,0.000000,0.000000,0.000000,0.000000,0.000000,0.000000,1648631872.584697,0.000000
66.000000,16567.157694,11633.613602,30674.237689,43088.195394,41625.519589,64679.041765,12076.044032,20845.147472,-0.098000,0.958000,0.190000,192.000000,0.000000,0.000000,0.000000,0.000000,0.000000,0.000000,0.000000,0.000000,0.000000,1648631872.592664,0.000000
67.000000,16557.300574,11623.085931,30668.470939,43080.349932,41618.411734,64674.303195,12072.825381,20844.163995,-0.098000,0.958000,0.190000,192.000000,0.000000,0.000000,0.000000,0.000000,0.000000,0.000000,0.000000,0.000000,0.000000,1648631872.592680,0.000000
68.000000,16556.004173,11619.844928,30671.980163,43082.406292,41613.784923,64675.264320,12072.579512,20844.163995,-0.098000,0.958000,0.190000,192.000000,0.000000,0.000000,0.000000,0.000000,0.000000,0.000000,0.000000,0.000000,0.000000,1648631872.599613,0.000000
69.000000,16556.272394,11622.013047,30674.058875,43081.914554,41616.623594,64677.655956,12075.038204,20847.762626,-0.098000,0.958000,0.190000,192.000000,0.000000,0.000000,0.000000,0.000000,0.000000,0.000000,0.000000,0.000000,0.000000,1648631872.599628,0.000000
70.000000,16563.089676,11628.226832,30683.759532,43085.088502,41623.060897,64679.555855,12080.402622,20855.071647,-0.098000,0.958000,0.190000,192.000000,0.000000,0.000000,0.000000,0.000000,0.000000,0.000000,0.000000,0.000000,0.000000,1648631872.607327,0.000000
71.000000,16562.061496,11624.538794,30682.731352,43083.166252,41624.178484,64670.995137,12074.457058,20853.261155,-0.098000,0.958000,0.190000,192.000000,0.000000,0.000000,0.000000,0.000000,0.000000,0.000000,0.000000,0.000000,0.000000,1648631872.607343,0.000000
72.000000,16564.162560,11623.510614,30686.061762,43084.283839,41630.302862,64673.029145,12076.893398,20859.050257,-0.098000,0.958000,0.190000,192.000000,0.000000,0.000000,0.000000,0.000000,0.000000,0.000000,0.000000,0.000000,0.000000,1648631872.614340,0.000000
73.000000,16557.345278,11612.714721,30679.959736,43076.036045,41625.988975,64670.324584,12076.334605,20857.865615,-0.098000,0.958000,0.190000,192.000000,0.000000,0.000000,0.000000,0.000000,0.000000,0.000000,0.000000,0.000000,0.000000,1648631872.614356,0.000000
74.000000,16567.023583,11624.605849,30696.656489,43088.955353,41637.187199,64674.861988,12079.597959,20858.044429,-0.086000,0.954000,0.190000,192.000000,253.000000,80.000000,29.000000,208.000000,5.000000,240.000000,0.000000,0.000000,0.000000,1648631872.622489,0.000000
75.000000,16569.526979,11627.377466,30707.005347,43094.722103,41647.960740,64681.835733,12080.044994,20858.826740,-0.086000,0.954000,0.190000,192.000000,0.000000,0.000000,0.000000,0.000000,0.000000,0.000000,0.000000,0.000000,0.000000,1648631872.628937,0.000000
76.000000,16565.123685,11620.895460,30697.371745,43085.513185,41635.019080,64672.380945,12075.529942,20845.639210,-0.086000,0.954000,0.190000,192.000000,0.000000,0.000000,0.000000,0.000000,0.000000,0.000000,0.000000,0.000000,0.000000,1648631872.628953,0.000000
77.000000,16563.939043,11617.319181,30701.328004,43084.529708,41635.108487,64669.139942,12076.826343,20838.441949,-0.086000,0.954000,0.190000,192.000000,0.000000,0.000000,0.000000,0.000000,0.000000,0.000000,0.000000,0.000000,0.000000,1648631872.636940,0.000000
78.000000,16560.563929,11611.351265,30702.155018,43078.204164,41635.309653,64666.949471,12073.875913,20834.508042,-0.086000,0.954000,0.190000,192.000000,0.000000,0.000000,0.000000,0.000000,0.000000,0.000000,0.000000,0.000000,0.000000,1648631872.636957,0.000000
79.000000,16565.526016,11618.190899,30704.390193,43089.000057,41634.817914,64669.654032,12078.010986,20835.290353,-0.086000,0.954000,0.190000,192.000000,0.000000,0.000000,0.000000,0.000000,0.000000,0.000000,0.000000,0.000000,0.000000,1648631872.644947,0.000000
80.000000,16563.492008,11615.396931,30708.838190,43081.221650,41629.229978,64663.127323,12075.552294,20834.351579,-0.086000,0.954000,0.190000,192.000000,0.000000,0.000000,0.000000,0.000000,0.000000,0.000000,0.000000,0.000000,0.000000,1648631872.644962,0.000000
81.000000,16566.464790,11617.185070,30715.454306,43087.435435,41633.812086,64663.976689,12080.760250,20842.129987,-0.086000,0.954000,0.190000,192.000000,0.000000,0.000000,0.000000,0.000000,0.000000,0.000000,0.000000,0.000000,0.000000,1648631872.652038,0.000000
82.000000,16560.653336,11613.340570,30716.549542,43092.509281,41641.523438,64661.607404,12077.832172,20845.125120,-0.086000,0.954000,0.190000,192.000000,0.000000,0.000000,0.000000,0.000000,0.000000,0.000000,0.000000,0.000000,0.000000,1648631872.652054,0.000000
83.000000,16562.374420,11616.291000,30715.275492,43094.051551,41637.254254,64667.262395,12082.280169,20844.588678,-0.086000,0.954000,0.190000,192.000000,0.000000,0.000000,0.000000,0.000000,0.000000,0.000000,0.000000,0.000000,0.000000,1648631872.659576,0.000000
84.000000,16562.642641,11613.586439,30718.024757,43085.379074,41641.814010,64667.620023,12084.872971,20847.784978,-0.080000,0.952000,0.178000,192.000000,253.000000,128.000000,29.000000,192.000000,5.000000,144.000000,0.000000,0.000000,0.000000,1648631872.659592,0.000000
85.000000,16559.781618,11610.479547,30721.712795,43085.289667,41645.546752,64664.848407,12082.973073,20846.779149,-0.080000,0.952000,0.178000,192.000000,0.000000,0.000000,0.000000,0.000000,0.000000,0.000000,0.000000,0.000000,0.000000,1648631872.667430,0.000000
86.000000,16557.591147,11615.933372,30722.964492,43084.909688,41643.132763,64666.301270,12080.201457,20845.594507,-0.080000,0.952000,0.178000,192.000000,0.000000,0.000000,0.000000,0.000000,0.000000,0.000000,0.000000,0.000000,0.000000,1648631872.667464,0.000000
87.000000,16560.049839,11617.095663,30726.406661,43082.003961,41637.902455,64669.586977,12080.782602,20844.141644,-0.080000,0.952000,0.178000,192.000000,0.000000,0.000000,0.000000,0.000000,0.000000,0.000000,0.000000,0.000000,0.000000,1648631872.675443,0.000000
88.000000,16557.032354,11609.764291,30727.948931,43087.480138,41643.713909,64668.312927,12080.000291,20852.367086,-0.080000,0.952000,0.178000,192.000000,0.000000,0.000000,0.000000,0.000000,0.000000,0.000000,0.000000,0.000000,0.000000,1648631872.675460,0.000000
89.000000,16555.043048,11603.997541,30724.171486,43089.312981,41641.232865,64669.385811,12074.613520,20847.337943,-0.080000,0.952000,0.178000,192.000000,0.000000,0.000000,0.000000,0.000000,0.000000,0.000000,0.000000,0.000000,0.000000,1648631872.681793,0.000000
90.000000,16552.293784,11600.957704,30725.847867,43087.256621,41643.557446,64669.542273,12074.322948,20844.476920,-0.080000,0.952000,0.178000,192.000000,0.000000,0.000000,0.000000,0.000000,0.000000,0.000000,0.000000,0.000000,0.000000,1648631872.689202,0.000000
91.000000,16555.847711,11605.897439,30731.569914,43087.278973,41638.863580,64673.565587,12081.207285,20847.472053,-0.080000,0.952000,0.178000,192.000000,0.000000,0.000000,0.000000,0.000000,0.000000,0.000000,0.000000,0.000000,0.000000,1648631872.689218,0.000000
92.000000,16552.249080,11612.602963,30728.574780,43084.954391,41638.863580,64670.011660,12081.117878,20859.452588,-0.080000,0.952000,0.178000,192.000000,0.000000,0.000000,0.000000,0.000000,0.000000,0.000000,0.000000,0.000000,0.000000,1648631872.697115,0.000000
93.000000,16550.371534,11607.417358,30727.568952,43080.349932,41638.930635,64667.240044,12074.725279,20857.887966,-0.080000,0.952000,0.178000,192.000000,0.000000,0.000000,0.000000,0.000000,0.000000,0.000000,0.000000,0.000000,0.000000,1648631872.697132,0.000000
94.000000,16552.673763,11605.293942,30730.988768,43089.022409,41638.908284,64667.195340,12070.254930,20852.680010,-0.088000,0.950000,0.164000,192.000000,253.000000,64.000000,29.000000,176.000000,5.000000,32.000000,0.000000,0.000000,0.000000,1648631872.704966,0.000000
95.000000,16555.691249,11608.602000,30731.033472,43083.009789,41643.378632,64671.263358,12075.619349,20856.122179,-0.088000,0.950000,0.164000,192.000000,0.000000,0.000000,0.000000,0.000000,0.000000,0.000000,0.000000,0.000000,0.000000,1648631872.704975,0.000000
96.000000,16553.478426,11609.004332,30728.418318,43079.768786,41641.098755,64667.083581,12076.848695,20859.206719,-0.088000,0.950000,0.164000,192.000000,0.000000,0.000000,0.000000,0.000000,0.000000,0.000000,0.000000,0.000000,0.000000,1648631872.711532,0.000000
97.000000,16557.859368,11611.127747,30736.554353,43081.042836,41642.305749,64670.212826,12078.435669,20862.671240,-0.088000,0.950000,0.164000,192.000000,0.000000,0.000000,0.000000,0.000000,0.000000,0.000000,0.000000,0.000000,0.000000,1648631872.711540,0.000000
98.000000,16542.056685,11597.783756,30713.375594,43066.022464,41630.861656,64657.852311,12063.236483,20849.930745,-0.088000,0.950000,0.164000,192.000000,0.000000,0.000000,0.000000,0.000000,0.000000,0.000000,0.000000,0.000000,0.000000,1648631872.719677,0.000000
99.000000,16551.556176,11604.891611,30721.981015,43072.884449,41634.706156,64666.681250,12065.695174,20852.277679,-0.088000,0.950000,0.164000,192.000000,0.000000,0.000000,0.000000,0.000000,0.000000,0.000000,0.000000,0.000000,0.000000,1648631872.719686,0.000000
100.000000,16558.596976,11613.139404,30743.192821,43082.607458,41649.212438,64679.600558,12070.634910,20859.720809,-0.088000,0.950000,0.164000,192.000000,0.000000,0.000000,0.000000,0.000000,0.000000,0.000000,0.000000,0.000000,0.000000,1648631872.727484,0.000000
101.000000,16562.597938,11621.074274,30753.899307,43092.196356,41650.195915,64688.250683,12075.149962,20863.654716,-0.088000,0.950000,0.164000,192.000000,0.000000,0.000000,0.000000,0.000000,0.000000,0.000000,0.000000,0.000000,0.000000,1648631872.727492,0.000000
102.000000,16559.356935,11619.330838,30750.233620,43085.356723,41646.194952,64684.137962,12073.697099,20863.945289,-0.088000,0.950000,0.164000,192.000000,0.000000,0.000000,0.000000,0.000000,0.000000,0.000000,0.000000,0.000000,0.000000,1648631872.734805,0.000000
103.000000,16546.728199,11601.427090,30741.941123,43069.017597,41642.909246,64672.872683,12067.662128,20861.464245,-0.088000,0.950000,0.164000,192.000000,0.000000,0.000000,0.000000,0.000000,0.000000,0.000000,0.000000,0.000000,0.000000,1648631872.734814,0.000000
104.000000,16547.197586,11606.255067,30737.493126,43076.416025,41637.366013,64668.581148,12058.855541,20852.970583,-0.094000,0.954000,0.164000,192.000000,253.000000,16.000000,29.000000,208.000000,5.000000,32.000000,0.000000,0.000000,0.000000,1648631872.741814,0.000000
105.000000,16561.614461,11618.369713,30753.966362,43084.552060,41645.569103,64678.058288,12068.578549,20859.564347,-0.094000,0.954000,0.164000,192.000000,0.000000,0.000000,0.000000,0.000000,0.000000,0.000000,0.000000,0.000000,0.000000,1648631872.749038,0.000000
106.000000,16569.258758,11622.773006,30766.013952,43091.324638,41652.542848,64683.221541,12077.832172,20868.393286,-0.094000,0.954000,0.164000,192.000000,0.000000,0.000000,0.000000,0.000000,0.000000,0.000000,0.000000,0.000000,0.000000,1648631872.749046,0.000000
107.000000,16566.375383,11622.884765,30762.616487,43093.895089,41646.686691,64678.706488,12076.848695,20871.120199,-0.094000,0.954000,0.164000,192.000000,0.000000,0.000000,0.000000,0.000000,0.000000,0.000000,0.000000,0.000000,0.000000,1648631872.756507,0.000000
108.000000,16557.300574,11608.289076,30754.703969,43078.427682,41633.677975,64663.641413,12066.969224,20863.028868,-0.094000,0.954000,0.164000,192.000000,0.000000,0.000000,0.000000,0.000000,0.000000,0.000000,0.000000,0.000000,0.000000,1648631872.756514,0.000000
109.000000,16562.955566,11611.306561,30758.682580,43086.630772,41627.665356,64660.668631,12063.191779,20858.022077,-0.094000,0.954000,0.164000,192.000000,0.000000,0.000000,0.000000,0.000000,0.000000,0.000000,0.000000,0.000000,0.000000,1648631872.764455,0.000000
110.000000,16558.239348,11604.154003,30754.279286,43075.544307,41617.361202,64653.605479,12058.788485,20851.607126,-0.094000,0.954000,0.164000,192.000000,0.000000,0.000000,0.000000,0.000000,0.000000,0.000000,0.000000,0.000000,0.000000,1648631872.764463,0.000000
111.000000,16548.717505,11597.917866,30754.726321,43069.621094,41616.467132,64647.749322,12057.894416,20848.902565,-0.094000,0.954000,0.164000,192.000000,0.000000,0.000000,0.000000,0.000000,0.000000,0.000000,0.000000,0.000000,0.000000,1648631872.772473,0.000000
112.000000,16559.133418,11617.788567,30766.393932,43082.383941,41623.597339,64656.466503,12072.087773,20856.993897,-0.094000,0.954000,0.164000,192.000000,0.000000,0.000000,0.000000,0.000000,0.000000,0.000000,0.000000,0.000000,0.000000,1648631872.772481,0.000000
113.000000,16558.976955,11621.074274,30767.198594,43077.354798,41621.049240,64653.918404,12066.008099,20856.055123,-0.094000,0.954000,0.164000,192.000000,0.000000,0.000000,0.000000,0.000000,0.000000,0.000000,0.000000,0.000000,0.000000,1648631872.779149,0.000000
114.000000,16555.154807,11615.933372,30769.232603,43073.398539,41619.529321,64653.270203,12061.403639,20856.390400,-0.096000,0.948000,0.162000,192.000000,253.000000,0.000000,29.000000,160.000000,5.000000,16.000000,0.000000,0.000000,0.000000,1648631872.779157,0.000000
115.000000,16549.678630,11608.825518,30769.143196,43082.339237,41625.653699,64653.650183,12066.321023,20857.843263,-0.096000,0.948000,0.162000,192.000000,0.000000,0.000000,0.000000,0.000000,0.000000,0.000000,0.000000,0.000000,0.000000,1648631872.787504,0.000000
116.000000,16543.934231,11606.277419,30758.280248,43072.035083,41615.774228,64641.602593,12057.849712,20851.584774,-0.096000,0.948000,0.162000,192.000000,0.000000,0.000000,0.000000,0.000000,0.000000,0.000000,0.000000,0.000000,0.000000,1648631872.787521,0.000000
117.000000,16548.471635,11613.631143,30762.325914,43077.086577,41609.247519,64646.095293,12060.822494,20849.371952,-0.096000,0.948000,0.162000,192.000000,0.000000,0.000000,0.000000,0.000000,0.000000,0.000000,0.000000,0.000000,0.000000,1648631872.795526,0.000000
118.000000,16542.660182,11602.567029,30761.431844,43066.201278,41607.906414,64638.741569,12057.782657,20850.489539,-0.096000,0.948000,0.162000,192.000000,0.000000,0.000000,0.000000,0.000000,0.000000,0.000000,0.000000,0.000000,0.000000,1648631872.795543,0.000000
119.000000,16542.906051,11600.108337,30765.455158,43073.644408,41604.821873,64634.897069,12052.373535,20849.550766,-0.096000,0.948000,0.162000,192.000000,0.000000,0.000000,0.000000,0.000000,0.000000,0.000000,0.000000,0.000000,0.000000,1648631872.802565,0.000000
120.000000,16543.666010,11596.733224,30768.852624,43072.727987,41598.541033,64631.544308,12056.150980,20845.818024,-0.096000,0.948000,0.162000,192.000000,0.000000,0.000000,0.000000,0.000000,0.000000,0.000000,0.000000,0.000000,0.000000,1648631872.808880,0.000000
121.000000,16549.432760,11599.750710,30774.462911,43073.957333,41605.671240,64634.181814,12065.762230,20850.981277,-0.096000,0.948000,0.162000,192.000000,0.000000,0.000000,0.000000,0.000000,0.000000,0.000000,0.000000,0.000000,0.000000,1648631872.808897,0.000000
122.000000,16549.164539,11602.745843,30776.116941,43070.671626,41607.280565,64639.233308,12069.919654,20863.185330,-0.096000,0.948000,0.162000,192.000000,0.000000,0.000000,0.000000,0.000000,0.000000,0.000000,0.000000,0.000000,0.000000,1648631872.817014,0.000000
123.000000,16542.593127,11593.536925,30769.769045,43061.418004,41600.060952,64627.923325,12061.314233,20858.223243,-0.096000,0.948000,0.162000,192.000000,0.000000,0.000000,0.000000,0.000000,0.000000,0.000000,0.000000,0.000000,0.000000,1648631872.817030,0.000000
124.000000,16548.248118,11596.062672,30772.942993,43069.442280,41593.668353,64622.760072,12056.218035,20846.577984,-0.096000,0.948000,0.162000,192.000000,0.000000,0.000000,0.000000,0.000000,0.000000,0.000000,0.000000,0.000000,0.000000,1648631872.825124,0.000000
125.000000,16559.535749,11614.100529,30775.021705,43073.577353,41601.156187,64618.021502,12052.775866,20844.320457,-0.088000,0.940000,0.158000,192.000000,253.000000,64.000000,29.000000,96.000000,4.000000,240.000000,0.000000,0.000000,0.000000,1648631872.825142,0.000000
126.000000,16563.514359,11623.376503,30791.047906,43077.354798,41615.796580,64629.845575,12066.790410,20859.899623,-0.088000,0.940000,0.158000,192.000000,0.000000,0.000000,0.000000,0.000000,0.000000,0.000000,0.000000,0.000000,0.000000,1648631872.832208,0.000000
127.000000,16539.821510,11597.381425,30785.102342,43067.810603,41608.241690,64629.085616,12065.046974,20861.576004,-0.088000,0.940000,0.158000,192.000000,0.000000,0.000000,0.000000,0.000000,0.000000,0.000000,0.000000,0.000000,0.000000,1648631872.832225,0.000000
128.000000,16532.870118,11584.260951,30786.376391,43071.409234,41610.432161,64634.025351,12068.958529,20869.890853,-0.088000,0.940000,0.158000,192.000000,0.000000,0.000000,0.000000,0.000000,0.000000,0.000000,0.000000,0.000000,0.000000,1648631872.839758,0.000000
129.000000,16522.767129,11567.988881,30780.855510,43066.201278,41602.072609,64624.481156,12056.285090,20861.911280,-0.088000,0.940000,0.158000,192.000000,0.000000,0.000000,0.000000,0.000000,0.000000,0.000000,0.000000,0.000000,0.000000,1648631872.839792,0.000000
130.000000,16542.503720,11588.843058,30796.166455,43091.548156,41614.231958,64633.220688,12067.125686,20871.634289,-0.088000,0.940000,0.158000,192.000000,0.000000,0.000000,0.000000,0.000000,0.000000,0.000000,0.000000,0.000000,0.000000,1648631872.847641,0.000000
131.000000,16540.939098,11586.317311,30800.167418,43093.023371,41618.523493,64637.959258,12075.060555,20879.747972,-0.088000,0.940000,0.158000,192.000000,0.000000,0.000000,0.000000,0.000000,0.000000,0.000000,0.000000,0.000000,0.000000,1648631872.847656,0.000000
132.000000,16531.171385,11581.534038,30793.752467,43090.318810,41615.774228,64630.247906,12070.791372,20879.300938,-0.088000,0.940000,0.158000,192.000000,0.000000,0.000000,0.000000,0.000000,0.000000,0.000000,0.000000,0.000000,0.000000,1648631872.854795,0.000000
133.000000,16526.723388,11574.135610,30791.807865,43093.895089,41614.276661,64630.337313,12071.014890,20878.451571,-0.088000,0.940000,0.158000,192.000000,0.000000,0.000000,0.000000,0.000000,0.000000,0.000000,0.000000,0.000000,0.000000,1648631872.854810,0.000000
134.000000,16528.511528,11575.476715,30801.016784,43102.366400,41622.502103,64641.893165,12079.843829,20887.816952,-0.088000,0.940000,0.158000,192.000000,0.000000,0.000000,0.000000,0.000000,0.000000,0.000000,0.000000,0.000000,0.000000,1648631872.861400,0.000000
135.000000,16533.272449,11580.371747,30800.659156,43106.322659,41624.267891,64641.937869,12077.720413,20884.754763,-0.080000,0.948000,0.158000,192.000000,253.000000,128.000000,29.000000,160.000000,4.000000,240.000000,0.000000,0.000000,0.000000,1648631872.861416,0.000000
136.000000,16534.814720,11577.801296,30801.955557,43110.658897,41623.820856,64646.341162,12084.224771,20893.248426,-0.080000,0.948000,0.158000,192.000000,0.000000,0.000000,0.000000,0.000000,0.000000,0.000000,0.000000,0.000000,0.000000,1648631872.869431,0.000000
137.000000,16536.714618,11582.361052,30799.005127,43109.407200,41626.234844,64642.876642,12078.078041,20892.488467,-0.080000,0.948000,0.158000,192.000000,0.000000,0.000000,0.000000,0.000000,0.000000,0.000000,0.000000,0.000000,0.000000,1648631872.877365,0.000000
138.000000,16548.628098,11595.950913,30811.365642,43118.593767,41629.520551,64655.103046,12084.269474,20899.909246,-0.080000,0.948000,0.158000,192.000000,0.000000,0.000000,0.000000,0.000000,0.000000,0.000000,0.000000,0.000000,0.000000,1648631872.877381,0.000000
139.000000,16551.064438,11606.344474,30817.668833,43128.316775,41637.969510,64657.561738,12088.583361,20909.118165,-0.080000,0.948000,0.158000,192.000000,0.000000,0.000000,0.000000,0.000000,0.000000,0.000000,0.000000,0.000000,0.000000,1648631872.884571,0.000000
140.000000,16554.260737,11603.863430,30811.902083,43122.818246,41638.975339,64651.705581,12083.934198,20901.473868,-0.080000,0.948000,0.158000,192.000000,0.000000,0.000000,0.000000,0.000000,0.000000,0.000000,0.000000,0.000000,0.000000,1648631872.884586,0.000000
141.000000,16551.578528,11596.576762,30811.678566,43118.191435,41638.684766,64646.721142,12081.028471,20889.739202,-0.080000,0.948000,0.158000,192.000000,0.000000,0.000000,0.000000,0.000000,0.000000,0.000000,0.000000,0.000000,0.000000,1648631872.892014,0.000000
142.000000,16556.719429,11608.579649,30825.223723,43126.886264,41646.306711,64652.353782,12084.984730,20895.349490,-0.080000,0.948000,0.158000,192.000000,0.000000,0.000000,0.000000,0.000000,0.000000,0.000000,0.000000,0.000000,0.000000,1648631872.892032,0.000000
143.000000,16558.641679,11606.992675,30821.625092,43117.051496,41639.377670,64644.038933,12076.446364,20884.911225,-0.080000,0.948000,0.158000,192.000000,0.000000,0.000000,0.000000,0.000000,0.000000,0.000000,0.000000,0.000000,0.000000,1648631872.899986,0.000000
144.000000,16561.279185,11610.703064,30825.648406,43133.122400,41643.512743,64649.559814,12080.067346,20881.871388,-0.080000,0.948000,0.158000,192.000000,0.000000,0.000000,0.000000,0.000000,0.000000,0.000000,0.000000,0.000000,0.000000,1648631872.900001,0.000000
145.000000,16569.191703,11623.309448,30833.158592,43142.644244,41657.817859,64656.712372,12086.951683,20886.386441,-0.076000,0.970000,0.154000,192.000000,253.000000,160.000000,30.000000,80.000000,4.000000,208.000000,0.000000,0.000000,0.000000,1648631872.908043,0.000000
146.000000,16565.235444,11612.424149,30829.694072,43127.534464,41657.907266,64651.727933,12083.554218,20884.553598,-0.076000,0.970000,0.154000,192.000000,0.000000,0.000000,0.000000,0.000000,0.000000,0.000000,0.000000,0.000000,0.000000,1648631872.908060,0.000000
147.000000,16559.289880,11604.444576,30821.088650,43111.061229,41651.268798,64643.994229,12069.562026,20878.295109,-0.076000,0.970000,0.154000,192.000000,0.000000,0.000000,0.000000,0.000000,0.000000,0.000000,0.000000,0.000000,0.000000,1648631872.914657,0.000000
148.000000,16579.227636,11627.466873,30841.115813,43132.585959,41663.450499,64663.753171,12083.755384,20884.263025,-0.076000,0.970000,0.154000,192.000000,0.000000,0.000000,0.000000,0.000000,0.000000,0.000000,0.000000,0.000000,0.000000,1648631872.914673,0.000000
149.000000,16582.334528,11628.249184,30847.016674,43139.716165,41678.090892,64672.090372,12089.566837,20884.106563,-0.076000,0.970000,0.154000,192.000000,0.000000,0.000000,0.000000,0.000000,0.000000,0.000000,0.000000,0.000000,0.000000,1648631872.922680,0.000000
150.000000,16579.473505,11625.254050,30845.764976,43134.061174,41690.406703,64669.966956,12091.645550,20887.995766,-0.076000,0.970000,0.154000,192.000000,0.000000,0.000000,0.000000,0.000000,0.000000,0.000000,0.000000,0.000000,0.000000,1648631872.922715,0.000000
151.000000,16569.415220,11616.000428,30836.936037,43121.119514,41690.339648,64655.527729,12082.168410,20881.647871,-0.076000,0.970000,0.154000,192.000000,0.000000,0.000000,0.000000,0.000000,0.000000,0.000000,0.000000,0.000000,0.000000,1648631872.929718,0.000000
152.000000,16571.113953,11615.285172,30834.767918,43121.812418,41683.164738,64656.399447,12079.061518,20876.998708,-0.076000,0.970000,0.154000,192.000000,0.000000,0.000000,0.000000,0.000000,0.000000,0.000000,0.000000,0.000000,0.000000,1648631872.937689,0.000000
153.000000,16574.623176,11616.581573,30837.897162,43129.702584,41687.746845,64657.740552,12084.291826,20881.334946,-0.076000,0.970000,0.154000,192.000000,0.000000,0.000000,0.000000,0.000000,0.000000,0.000000,0.000000,0.000000,0.000000,1648631872.937704,0.000000
154.000000,16576.478371,11616.693332,30840.221744,43122.415915,41697.492206,64654.767770,12084.113012,20881.871388,-0.076000,0.970000,0.154000,192.000000,0.000000,0.000000,0.000000,0.000000,0.000000,0.000000,0.000000,0.000000,0.000000,1648631872.944285,0.000000
155.000000,16576.500723,11617.632105,30839.797060,43124.941662,41705.024744,64653.560776,12083.442460,20877.937481,-0.092000,0.986000,0.150000,192.000000,253.000000,32.000000,30.000000,208.000000,4.000000,176.000000,0.000000,0.000000,0.000000,1648631872.944301,0.000000
156.000000,16576.903054,11617.185070,30842.166345,43120.717182,41703.840101,64651.772636,12083.598922,20872.170731,-0.092000,0.986000,0.150000,192.000000,0.000000,0.000000,0.000000,0.000000,0.000000,0.000000,0.000000,0.000000,0.000000,1648631872.952298,0.000000
157.000000,16576.590130,11615.933372,30847.441357,43119.197264,41700.442636,64655.348915,12085.431765,20869.354411,-0.092000,0.986000,0.150000,192.000000,0.000000,0.000000,0.000000,0.000000,0.000000,0.000000,0.000000,0.000000,0.000000,1648631872.952314,0.000000
158.000000,16572.231540,11608.579649,30843.574505,43114.570453,41701.359058,64647.503453,12075.596997,20865.375801,-0.092000,0.986000,0.150000,192.000000,0.000000,0.000000,0.000000,0.000000,0.000000,0.000000,0.000000,0.000000,0.000000,1648631872.960326,0.000000
159.000000,16572.812685,11610.636009,30847.128433,43118.593767,41701.962555,64651.616174,12074.904093,20869.913205,-0.092000,0.986000,0.150000,192.000000,0.000000,0.000000,0.000000,0.000000,0.000000,0.000000,0.000000,0.000000,0.000000,1648631872.960343,0.000000
