%OpenBCI Raw EEG Data
%Number of channels = 8
%Sample Rate = 256 Hz
%Board = OpenBCI_GUI$BoardCytonSerial
%Channels = Fp1, Fp2, F3, F4, Fz, Pz, O1, O2
%Data recorded at AIMS Lab (http://aimsl.uiu.ac.bd) by Rana Depto (mail@ranadepto.com)
%Brainwaves were obtained via the Ultracortex Mark IV Headset using the OpenBCI Cyton Board
%Recording Application = ConcentrateToday (https://concentrate.today)
%Data type = RAW data with noise
%Day No = 1
%Subject ID = 8
%Session ID = 7
%Record starting timestamp (UTC+6) = 2022-03-15T12:46:40.102840
%Record ending timestamp (UTC+6)   = 2022-03-15T12:47:00.989033
%Recorded durations = ~20 seconds
Sample Index, EXG Channel 0, EXG Channel 1, EXG Channel 2, EXG Channel 3, EXG Channel 4, EXG Channel 5, EXG Channel 6, EXG Channel 7, Accel Channel 0, Accel Channel 1, Accel Channel 2, Other, Other, Other, Other, Other, Other, Other, Analog Channel 0, Analog Channel 1, Analog Channel 2, Timestamp, Timestamp (Formatted)
219.000000,26888.455676,35358.828051,29984.731076,27014.005424,14559.009917,36067.601868,50379.356787,48094.561469,-0.002000,0.978000,0.066000,192.000000,0.000000,0.000000,0.000000,0.000000,0.000000,0.000000,0.000000,0.000000,0.000000,1647326800.108861,0.000000
220.000000,26891.026126,35358.269257,29986.005126,27011.882009,14558.071143,36057.029493,50375.579342,48094.025027,-0.002000,0.978000,0.066000,192.000000,0.000000,0.000000,0.000000,0.000000,0.000000,0.000000,0.000000,0.000000,0.000000,1647326800.108868,0.000000
221.000000,26897.754001,35363.231345,29991.235434,27017.335834,14562.139161,36047.306484,50370.237275,48097.578954,-0.002000,0.978000,0.066000,192.000000,0.000000,0.000000,0.000000,0.000000,0.000000,0.000000,0.000000,0.000000,0.000000,1647326800.116027,0.000000
222.000000,26889.059173,35351.966065,29984.194634,27010.026814,14552.974946,36053.140289,50373.210057,48090.918135,-0.002000,0.978000,0.066000,192.000000,0.000000,0.000000,30.000000,128.000000,2.000000,32.000000,0.000000,0.000000,0.000000,1647326800.116033,0.000000
223.000000,26892.188417,35354.022426,29983.881710,27008.305729,14551.298565,36059.644647,50370.684310,48087.833594,-0.002000,0.978000,0.066000,192.000000,0.000000,0.000000,0.000000,0.000000,0.000000,0.000000,0.000000,0.000000,0.000000,1647326800.122484,0.000000
224.000000,26894.580054,35363.499566,29991.369544,27014.675977,14556.551225,36065.903135,50376.451060,48091.476928,-0.002000,0.978000,0.066000,192.000000,0.000000,0.000000,0.000000,0.000000,0.000000,0.000000,0.000000,0.000000,0.000000,1647326800.130471,0.000000
225.000000,26888.098048,35362.493737,29993.247091,27014.899494,14556.126542,36080.431769,50388.409244,48089.465271,-0.002000,0.978000,0.066000,192.000000,0.000000,0.000000,0.000000,0.000000,0.000000,0.000000,0.000000,0.000000,0.000000,1647326800.130476,0.000000
226.000000,26884.320603,35358.626885,29995.325803,27014.340700,14557.534702,36084.812711,50391.337322,48088.079463,-0.002000,0.978000,0.066000,192.000000,0.000000,0.000000,0.000000,0.000000,0.000000,0.000000,0.000000,0.000000,0.000000,1647326800.138507,0.000000
227.000000,26881.660745,35355.229420,29988.933204,27005.064726,14550.985640,36081.281135,50382.642494,48081.865678,-0.002000,0.978000,0.066000,192.000000,0.000000,0.000000,0.000000,0.000000,0.000000,0.000000,0.000000,0.000000,0.000000,1647326800.138512,0.000000
228.000000,26884.655879,35363.186641,29990.609585,27006.785811,14554.070181,36066.573687,50365.386947,48081.977437,-0.002000,0.978000,0.066000,192.000000,0.000000,0.000000,0.000000,0.000000,0.000000,0.000000,0.000000,0.000000,0.000000,1647326800.145653,0.000000
229.000000,26896.256434,35372.484967,29995.325803,27013.826610,14559.009917,36044.177239,50351.394755,48086.358379,-0.002000,0.978000,0.066000,192.000000,0.000000,0.000000,0.000000,0.000000,0.000000,0.000000,0.000000,0.000000,0.000000,1647326800.145659,0.000000
230.000000,26901.844371,35373.781368,30001.807809,27020.152154,14564.016707,36042.277341,50362.928255,48089.912306,-0.002000,0.978000,0.066000,192.000000,0.000000,0.000000,0.000000,0.000000,0.000000,0.000000,0.000000,0.000000,0.000000,1647326800.153097,0.000000
231.000000,26900.771487,35368.707522,30000.667870,27013.983073,14558.875806,36055.286056,50376.004025,48089.018236,-0.002000,0.978000,0.066000,192.000000,0.000000,0.000000,0.000000,0.000000,0.000000,0.000000,0.000000,0.000000,0.000000,1647326800.153103,0.000000
232.000000,26893.507170,35361.554964,29993.984699,27004.215360,14550.538606,36063.869126,50379.066214,48086.291323,-0.002000,0.978000,0.066000,192.000000,0.000000,0.000000,30.000000,112.000000,2.000000,48.000000,0.000000,0.000000,0.000000,1647326800.161129,0.000000
233.000000,26896.904635,35368.193432,29993.492960,27003.924788,14548.973983,36055.777795,50371.846601,48092.795681,-0.002000,0.978000,0.066000,192.000000,0.000000,0.000000,0.000000,0.000000,0.000000,0.000000,0.000000,0.000000,0.000000,1647326800.161134,0.000000
234.000000,26891.339051,35367.634638,29992.934167,27006.875218,14551.410324,36057.521231,50378.395662,48091.991018,-0.002000,0.978000,0.066000,192.000000,0.000000,0.000000,0.000000,0.000000,0.000000,0.000000,0.000000,0.000000,0.000000,1647326800.168286,0.000000
235.000000,26897.977519,35371.702656,29992.710649,27012.105526,14556.260652,36053.341455,50373.701796,48094.248544,-0.002000,0.978000,0.066000,192.000000,0.000000,0.000000,0.000000,0.000000,0.000000,0.000000,0.000000,0.000000,0.000000,1647326800.168295,0.000000
236.000000,26903.297234,35373.267278,29993.515312,27014.631273,14555.433638,36055.286056,50373.277113,48094.315600,-0.002000,0.978000,0.066000,192.000000,0.000000,0.000000,0.000000,0.000000,0.000000,0.000000,0.000000,0.000000,0.000000,1647326800.175798,0.000000
237.000000,26900.860894,35371.345028,29989.581405,27013.111354,14548.146969,36051.374501,50364.358767,48089.755844,-0.002000,0.978000,0.066000,192.000000,0.000000,0.000000,0.000000,0.000000,0.000000,0.000000,0.000000,0.000000,0.000000,1647326800.175804,0.000000
238.000000,26891.830789,35364.997132,29991.905986,27007.478715,14547.364658,36054.906077,50370.751366,48087.475966,-0.002000,0.978000,0.066000,192.000000,0.000000,0.000000,0.000000,0.000000,0.000000,0.000000,0.000000,0.000000,0.000000,1647326800.182903,0.000000
239.000000,26888.545083,35367.724045,29987.748562,27005.578817,14551.097399,36049.318141,50367.353900,48087.833594,-0.002000,0.978000,0.066000,192.000000,0.000000,0.000000,0.000000,0.000000,0.000000,0.000000,0.000000,0.000000,0.000000,1647326800.190760,0.000000
240.000000,26892.344879,35372.104987,29989.246129,27008.797468,14555.254824,36043.953722,50369.477316,48091.543983,-0.002000,0.978000,0.066000,192.000000,0.000000,0.000000,0.000000,0.000000,0.000000,0.000000,0.000000,0.000000,0.000000,1647326800.190764,0.000000
241.000000,26890.780257,35367.165252,29992.040097,27008.037508,14552.192635,36055.621333,50381.211982,48090.873431,-0.002000,0.978000,0.066000,192.000000,0.000000,0.000000,0.000000,0.000000,0.000000,0.000000,0.000000,0.000000,0.000000,1647326800.198097,0.000000
242.000000,26890.333222,35367.746397,29989.223777,27008.015157,14550.225681,36069.367655,50384.184764,48083.653818,-0.002000,0.978000,0.066000,192.000000,0.000000,0.000000,30.000000,144.000000,2.000000,32.000000,0.000000,0.000000,0.000000,1647326800.198106,0.000000
243.000000,26897.821057,35373.490795,29990.698992,27018.475773,14556.819446,36054.995484,50373.970017,48089.241754,-0.002000,0.978000,0.066000,192.000000,0.000000,0.000000,0.000000,0.000000,0.000000,0.000000,0.000000,0.000000,0.000000,1647326800.205361,0.000000
244.000000,26890.355574,35372.864946,29992.420076,27016.955855,14558.942861,36055.867202,50379.245028,48091.365169,-0.002000,0.978000,0.066000,192.000000,0.000000,0.000000,0.000000,0.000000,0.000000,0.000000,0.000000,0.000000,0.000000,1647326800.205368,0.000000
245.000000,26888.142751,35375.927135,29995.705783,27016.732337,14559.054620,36050.860411,50374.528810,48090.068768,-0.002000,0.978000,0.066000,192.000000,0.000000,0.000000,0.000000,0.000000,0.000000,0.000000,0.000000,0.000000,0.000000,1647326800.213420,0.000000
246.000000,26888.880359,35378.117606,29998.499751,27020.755651,14561.781533,36058.862336,50383.380101,48090.515803,-0.002000,0.978000,0.066000,192.000000,0.000000,0.000000,0.000000,0.000000,0.000000,0.000000,0.000000,0.000000,0.000000,1647326800.213427,0.000000
247.000000,26883.270071,35371.501490,29988.955556,27013.781907,14556.528873,36065.210231,50383.469508,48087.945353,-0.002000,0.978000,0.066000,192.000000,0.000000,0.000000,0.000000,0.000000,0.000000,0.000000,0.000000,0.000000,0.000000,1647326800.221313,0.000000
248.000000,26893.596577,35374.630734,29991.749524,27016.285302,14561.066277,36056.090719,50375.333473,48095.120263,-0.002000,0.978000,0.066000,192.000000,0.000000,0.000000,0.000000,0.000000,0.000000,0.000000,0.000000,0.000000,0.000000,1647326800.221319,0.000000
249.000000,26900.078583,35379.637525,30000.757277,27021.292093,14565.201350,36053.229696,50382.262514,48098.964763,-0.002000,0.978000,0.066000,192.000000,0.000000,0.000000,0.000000,0.000000,0.000000,0.000000,0.000000,0.000000,0.000000,1647326800.227953,0.000000
250.000000,26894.848275,35373.490795,29996.286928,27015.190067,14560.015745,36067.601868,50396.455872,48091.141652,-0.002000,0.978000,0.066000,192.000000,0.000000,0.000000,0.000000,0.000000,0.000000,0.000000,0.000000,0.000000,0.000000,1647326800.227958,0.000000
251.000000,26892.970728,35368.528708,29989.223777,27008.104564,14554.427809,36073.122749,50398.244011,48085.933696,-0.002000,0.978000,0.066000,192.000000,0.000000,0.000000,0.000000,0.000000,0.000000,0.000000,0.000000,0.000000,0.000000,1647326800.236053,0.000000
252.000000,26891.674327,35372.999057,29991.391896,27009.311558,14554.204292,36060.382254,50381.659017,48090.560507,-0.002000,0.978000,0.064000,192.000000,255.000000,240.000000,30.000000,144.000000,2.000000,0.000000,0.000000,0.000000,0.000000,1647326800.236062,0.000000
253.000000,26892.009603,35373.155519,29993.828236,27012.217285,14557.825274,36055.531926,50380.586133,48093.935620,-0.002000,0.978000,0.064000,192.000000,0.000000,0.000000,0.000000,0.000000,0.000000,0.000000,0.000000,0.000000,0.000000,1647326800.242982,0.000000
254.000000,26891.160237,35367.254659,29992.755353,27007.322253,14557.735867,36069.546469,50390.934991,48090.649914,-0.002000,0.978000,0.064000,192.000000,0.000000,0.000000,0.000000,0.000000,0.000000,0.000000,0.000000,0.000000,0.000000,1647326800.242988,0.000000
255.000000,26891.562568,35374.049589,29995.884597,27012.373747,14562.787361,36066.573687,50391.516136,48098.361265,-0.002000,0.978000,0.064000,192.000000,0.000000,0.000000,0.000000,0.000000,0.000000,0.000000,0.000000,0.000000,0.000000,1647326800.251159,0.000000
0.000000,26900.391507,35379.503415,29999.617338,27012.887837,14564.843722,36061.835118,50390.175031,48099.680018,-0.002000,0.978000,0.064000,192.000000,0.000000,0.000000,0.000000,0.000000,0.000000,0.000000,0.000000,0.000000,0.000000,1647326800.257707,0.000000
1.000000,26905.107725,35377.111778,29999.639690,27017.201724,14564.307280,36063.377388,50392.857241,48099.054170,-0.002000,0.978000,0.064000,192.000000,0.000000,0.000000,0.000000,0.000000,0.000000,0.000000,0.000000,0.000000,0.000000,1647326800.257717,0.000000
2.000000,26897.374022,35375.055417,29990.877806,27013.312520,14559.658117,36057.811804,50386.531697,48086.850117,-0.002000,0.978000,0.064000,192.000000,0.000000,0.000000,0.000000,0.000000,0.000000,0.000000,0.000000,0.000000,0.000000,1647326800.265573,0.000000
3.000000,26899.564493,35378.542290,29994.051754,27014.608921,14563.614376,36053.073234,50385.950552,48091.029893,-0.002000,0.978000,0.064000,192.000000,0.000000,0.000000,0.000000,0.000000,0.000000,0.000000,0.000000,0.000000,0.000000,1647326800.265598,0.000000
4.000000,26903.498400,35377.670572,29995.214044,27011.993767,14564.597853,36056.917734,50390.465604,48093.890917,-0.002000,0.978000,0.064000,192.000000,0.000000,0.000000,0.000000,0.000000,0.000000,0.000000,0.000000,0.000000,0.000000,1647326800.273608,0.000000
5.000000,26901.933778,35378.095255,29990.698992,27010.429145,14563.033231,36054.749615,50386.911677,48095.790815,-0.002000,0.978000,0.064000,192.000000,0.000000,0.000000,0.000000,0.000000,0.000000,0.000000,0.000000,0.000000,0.000000,1647326800.273611,0.000000
6.000000,26901.665557,35378.475234,29989.961385,27012.597264,14563.860245,36041.964417,50372.472450,48093.041550,-0.002000,0.986000,0.062000,192.000000,255.000000,240.000000,30.000000,208.000000,1.000000,240.000000,0.000000,0.000000,0.000000,1647326800.280762,0.000000
7.000000,26904.526580,35376.061246,29995.996356,27017.872276,14569.895216,36043.685501,50376.227543,48093.309771,-0.002000,0.986000,0.062000,192.000000,0.000000,0.000000,0.000000,0.000000,0.000000,0.000000,0.000000,0.000000,0.000000,1647326800.280766,0.000000
8.000000,26893.574225,35365.108891,29994.275271,27014.363052,14566.743620,36063.377388,50394.555973,48090.985190,-0.002000,0.986000,0.062000,192.000000,0.000000,0.000000,0.000000,0.000000,0.000000,0.000000,0.000000,0.000000,0.000000,1647326800.288263,0.000000
9.000000,26900.615025,35367.589935,29993.180036,27011.949064,14565.357812,36059.599943,50387.626933,48085.665475,-0.002000,0.986000,0.062000,192.000000,0.000000,0.000000,0.000000,0.000000,0.000000,0.000000,0.000000,0.000000,0.000000,1647326800.288267,0.000000
10.000000,26913.981368,35375.010714,30001.472533,27019.950988,14573.091516,36052.447385,50380.742595,48090.784024,-0.002000,0.986000,0.062000,192.000000,0.000000,0.000000,0.000000,0.000000,0.000000,0.000000,0.000000,0.000000,0.000000,1647326800.296298,0.000000
11.000000,26903.453696,35368.953391,30004.624129,27017.358186,14572.711536,36054.280228,50381.904886,48093.108606,-0.002000,0.986000,0.062000,192.000000,0.000000,0.000000,0.000000,0.000000,0.000000,0.000000,0.000000,0.000000,0.000000,1647326800.296302,0.000000
12.000000,26904.861856,35366.271182,30005.115867,27016.709985,14571.973928,36051.598019,50379.893229,48097.891879,-0.002000,0.986000,0.062000,192.000000,0.000000,0.000000,0.000000,0.000000,0.000000,0.000000,0.000000,0.000000,0.000000,1647326800.304449,0.000000
13.000000,26908.549894,35369.936868,30012.581350,27025.293055,14577.695975,36053.721434,50388.744520,48101.512861,-0.002000,0.986000,0.062000,192.000000,0.000000,0.000000,0.000000,0.000000,0.000000,0.000000,0.000000,0.000000,0.000000,1647326800.304479,0.000000
14.000000,26902.693737,35362.001999,30007.105173,27021.761480,14571.236321,36066.014894,50401.909697,48095.455539,-0.002000,0.986000,0.062000,192.000000,0.000000,0.000000,0.000000,0.000000,0.000000,0.000000,0.000000,0.000000,0.000000,1647326800.310536,0.000000
15.000000,26901.039708,35357.576353,29999.460876,27015.681805,14563.323803,36079.090664,50407.028247,48090.180527,-0.002000,0.986000,0.062000,192.000000,0.000000,0.000000,0.000000,0.000000,0.000000,0.000000,0.000000,0.000000,0.000000,1647326800.318723,0.000000
16.000000,26896.882283,35358.135147,29992.420076,27010.697366,14558.898158,36061.544545,50385.078834,48091.923963,-0.002000,0.986000,0.068000,192.000000,255.000000,240.000000,30.000000,208.000000,2.000000,32.000000,0.000000,0.000000,0.000000,1647326800.318729,0.000000
17.000000,26904.213655,35360.347970,29997.516274,27015.257122,14565.178998,36045.898324,50375.132307,48100.484681,-0.002000,0.986000,0.068000,192.000000,0.000000,0.000000,0.000000,0.000000,0.000000,0.000000,0.000000,0.000000,0.000000,1647326800.325133,0.000000
18.000000,26902.179647,35356.905801,29997.583329,27017.514648,14566.542455,36051.933295,50385.011778,48097.623658,-0.002000,0.986000,0.068000,192.000000,0.000000,0.000000,0.000000,0.000000,0.000000,0.000000,0.000000,0.000000,0.000000,1647326800.325138,0.000000
19.000000,26903.207827,35355.050606,29999.147952,27018.878105,14565.804847,36056.291885,50393.684255,48093.555640,-0.002000,0.986000,0.068000,192.000000,0.000000,0.000000,0.000000,0.000000,0.000000,0.000000,0.000000,0.000000,0.000000,1647326800.333319,0.000000
20.000000,26912.640263,35364.460691,29999.952614,27020.442727,14565.894254,36049.586362,50390.040921,48093.175661,-0.002000,0.986000,0.068000,192.000000,0.000000,0.000000,0.000000,0.000000,0.000000,0.000000,0.000000,0.000000,0.000000,1647326800.333325,0.000000
21.000000,26910.226275,35366.718217,29994.901120,27016.978206,14561.155684,36044.981902,50387.761043,48090.046417,-0.002000,0.986000,0.068000,192.000000,0.000000,0.000000,0.000000,0.000000,0.000000,0.000000,0.000000,0.000000,0.000000,1647326800.341868,0.000000
22.000000,26909.734536,35361.331446,30004.825295,27019.883933,14567.101248,36048.200553,50389.303313,48096.506071,-0.002000,0.986000,0.068000,192.000000,0.000000,0.000000,0.000000,0.000000,0.000000,0.000000,0.000000,0.000000,0.000000,1647326800.341900,0.000000
23.000000,26897.262263,35348.121565,30005.048812,27015.950026,14564.329632,36057.498879,50396.612334,48098.182452,-0.002000,0.986000,0.068000,192.000000,0.000000,0.000000,0.000000,0.000000,0.000000,0.000000,0.000000,0.000000,0.000000,1647326800.348271,0.000000
24.000000,26893.797743,35348.412138,30002.344251,27011.993767,14560.239263,36061.164565,50397.551107,48095.276725,-0.002000,0.986000,0.068000,192.000000,0.000000,0.000000,0.000000,0.000000,0.000000,0.000000,0.000000,0.000000,0.000000,1647326800.348276,0.000000
25.000000,26892.031955,35346.467536,29999.818504,27009.043337,14559.054620,36062.215097,50396.008837,48093.890917,-0.002000,0.986000,0.068000,192.000000,0.000000,0.000000,0.000000,0.000000,0.000000,0.000000,0.000000,0.000000,0.000000,1647326800.355829,0.000000
26.000000,26888.768600,35344.835859,29992.509483,27015.123011,14558.652289,36059.689350,50385.145889,48089.398216,-0.002000,0.982000,0.066000,192.000000,255.000000,240.000000,30.000000,176.000000,2.000000,16.000000,0.000000,0.000000,0.000000,1647326800.355833,0.000000
27.000000,26893.328356,35343.986493,29998.589158,27015.882971,14561.736829,36057.990618,50384.363578,48089.800547,-0.002000,0.982000,0.066000,192.000000,0.000000,0.000000,0.000000,0.000000,0.000000,0.000000,0.000000,0.000000,0.000000,1647326800.364003,0.000000
28.000000,26896.368193,35341.527801,29991.503655,27011.054994,14557.601757,36048.446423,50380.340264,48087.833594,-0.002000,0.982000,0.066000,192.000000,0.000000,0.000000,0.000000,0.000000,0.000000,0.000000,0.000000,0.000000,0.000000,1647326800.364008,0.000000
29.000000,26899.050403,35344.567638,30004.042984,27013.379575,14561.781533,36055.196649,50386.889325,48094.114434,-0.002000,0.982000,0.066000,192.000000,0.000000,0.000000,0.000000,0.000000,0.000000,0.000000,0.000000,0.000000,0.000000,1647326800.370991,0.000000
30.000000,26897.508132,35339.136164,30001.941920,27011.077346,14559.300489,36054.280228,50386.151717,48096.014332,-0.002000,0.982000,0.066000,192.000000,0.000000,0.000000,0.000000,0.000000,0.000000,0.000000,0.000000,0.000000,0.000000,1647326800.378021,0.000000
31.000000,26898.737478,35337.996225,29999.460876,27011.032642,14554.539568,36055.643684,50385.190592,48093.332123,-0.002000,0.982000,0.066000,192.000000,0.000000,0.000000,0.000000,0.000000,0.000000,0.000000,0.000000,0.000000,0.000000,1647326800.378026,0.000000
32.000000,26905.420650,35345.752280,29999.416172,27014.899494,14557.534702,36053.050882,50380.452023,48094.963800,-0.002000,0.982000,0.066000,192.000000,0.000000,0.000000,0.000000,0.000000,0.000000,0.000000,0.000000,0.000000,0.000000,1647326800.385573,0.000000
33.000000,26899.363327,35343.114775,29997.851550,27012.597264,14560.887463,36055.107242,50381.457851,48092.460405,-0.002000,0.982000,0.066000,192.000000,0.000000,0.000000,0.000000,0.000000,0.000000,0.000000,0.000000,0.000000,0.000000,1647326800.385577,0.000000
34.000000,26898.379850,35342.220705,29998.343289,27014.430107,14560.954518,36060.002275,50384.050653,48087.923001,-0.002000,0.982000,0.066000,192.000000,0.000000,0.000000,0.000000,0.000000,0.000000,0.000000,0.000000,0.000000,0.000000,1647326800.393494,0.000000
35.000000,26898.625719,35341.706615,29995.348155,27015.190067,14559.501655,36060.806937,50384.698854,48083.318541,-0.002000,0.982000,0.066000,192.000000,0.000000,0.000000,0.000000,0.000000,0.000000,0.000000,0.000000,0.000000,0.000000,1647326800.393498,0.000000
36.000000,26902.805496,35346.132260,29992.196559,27017.402889,14558.652289,36044.825440,50373.053595,48082.446823,-0.002000,0.980000,0.068000,192.000000,255.000000,240.000000,30.000000,160.000000,2.000000,32.000000,0.000000,0.000000,0.000000,1647326800.401623,0.000000
37.000000,26893.261301,35340.969007,29993.492960,27011.770250,14554.874844,36049.318141,50382.240162,48078.132937,-0.002000,0.980000,0.068000,192.000000,0.000000,0.000000,0.000000,0.000000,0.000000,0.000000,0.000000,0.000000,0.000000,1647326800.401627,0.000000
38.000000,26889.282690,35335.314016,29998.589158,27008.283378,14554.204292,36063.153870,50393.036055,48076.747129,-0.002000,0.980000,0.068000,192.000000,0.000000,0.000000,0.000000,0.000000,0.000000,0.000000,0.000000,0.000000,0.000000,1647326800.408120,0.000000
39.000000,26896.457600,35336.744527,30000.198483,27008.462192,14557.177074,36050.905115,50381.256685,48076.054224,-0.002000,0.980000,0.068000,192.000000,0.000000,0.000000,0.000000,0.000000,0.000000,0.000000,0.000000,0.000000,0.000000,1647326800.408125,0.000000
40.000000,26901.889074,35345.908743,30007.663966,27018.632235,14567.324766,36040.042167,50375.109956,48083.095024,-0.002000,0.980000,0.068000,192.000000,0.000000,0.000000,0.000000,0.000000,0.000000,0.000000,0.000000,0.000000,0.000000,1647326800.416265,0.000000
41.000000,26900.682080,35341.885429,30001.830161,27014.720680,14562.854417,36041.785603,50377.188668,48085.777233,-0.002000,0.980000,0.068000,192.000000,0.000000,0.000000,0.000000,0.000000,0.000000,0.000000,0.000000,0.000000,0.000000,1647326800.416270,0.000000
42.000000,26889.215635,35330.754260,29992.621242,27004.885913,14555.321879,36041.964417,50379.826174,48092.169832,-0.002000,0.980000,0.068000,192.000000,0.000000,0.000000,0.000000,0.000000,0.000000,0.000000,0.000000,0.000000,0.000000,1647326800.424184,0.000000
43.000000,26894.647109,35334.509353,29995.549321,27004.327119,14557.445295,36042.277341,50377.903924,48093.153309,-0.002000,0.980000,0.068000,192.000000,0.000000,0.000000,0.000000,0.000000,0.000000,0.000000,0.000000,0.000000,0.000000,1647326800.424194,0.000000
44.000000,26896.457600,35338.689129,29997.963309,27006.405831,14558.540530,36045.451289,50380.832002,48093.823861,-0.002000,0.980000,0.068000,192.000000,0.000000,0.000000,0.000000,0.000000,0.000000,0.000000,0.000000,0.000000,0.000000,1647326800.431226,0.000000
45.000000,26879.313812,35328.004995,29986.899196,26996.973395,14546.247071,36048.871106,50385.570572,48084.547887,-0.002000,0.980000,0.068000,192.000000,0.000000,0.000000,0.000000,0.000000,0.000000,0.000000,0.000000,0.000000,0.000000,1647326800.437847,0.000000
46.000000,26871.356591,35315.443315,29984.529911,26986.401020,14538.312201,36041.740899,50379.580305,48078.289399,0.004000,0.978000,0.066000,192.000000,0.000000,32.000000,30.000000,144.000000,2.000000,16.000000,0.000000,0.000000,0.000000,1647326800.437851,0.000000
47.000000,26881.526635,35321.902969,29987.770914,26991.877197,14541.776722,36031.682614,50373.835906,48076.210687,0.004000,0.978000,0.066000,192.000000,0.000000,0.000000,0.000000,0.000000,0.000000,0.000000,0.000000,0.000000,0.000000,1647326800.445928,0.000000
48.000000,26888.232158,35327.401498,29995.772838,27004.103601,14552.684373,36041.003292,50383.760081,48077.551791,0.004000,0.978000,0.066000,192.000000,0.000000,0.000000,0.000000,0.000000,0.000000,0.000000,0.000000,0.000000,0.000000,1647326800.445931,0.000000
49.000000,26887.785123,35325.345138,29994.878768,26997.912168,14554.204292,36052.268571,50390.353845,48072.947332,0.004000,0.978000,0.066000,192.000000,0.000000,0.000000,0.000000,0.000000,0.000000,0.000000,0.000000,0.000000,0.000000,1647326800.453798,0.000000
50.000000,26889.059173,35330.016652,29993.045925,26998.359203,14553.913719,36044.423109,50383.380101,48073.215553,0.004000,0.978000,0.066000,192.000000,0.000000,0.000000,0.000000,0.000000,0.000000,0.000000,0.000000,0.000000,0.000000,1647326800.453802,0.000000
51.000000,26887.092219,35330.463687,29992.241262,27001.086116,14555.433638,36035.482411,50372.852429,48072.142669,0.004000,0.978000,0.066000,192.000000,0.000000,0.000000,0.000000,0.000000,0.000000,0.000000,0.000000,0.000000,0.000000,1647326800.460985,0.000000
52.000000,26890.847312,35329.815487,29997.739792,27004.036546,14558.473475,36031.928483,50371.980711,48074.713120,0.004000,0.978000,0.066000,192.000000,0.000000,0.000000,0.000000,0.000000,0.000000,0.000000,0.000000,0.000000,0.000000,1647326800.460989,0.000000
53.000000,26886.868702,35326.239208,29998.879731,27006.405831,14557.378239,36044.758385,50382.709549,48070.980379,0.004000,0.978000,0.066000,192.000000,0.000000,0.000000,0.000000,0.000000,0.000000,0.000000,0.000000,0.000000,0.000000,1647326800.468366,0.000000
54.000000,26885.907577,35326.395670,30001.763106,27004.572988,14557.847626,36052.045053,50388.588058,48071.181544,0.004000,0.978000,0.066000,192.000000,0.000000,0.000000,0.000000,0.000000,0.000000,0.000000,0.000000,0.000000,0.000000,1647326800.468370,0.000000
55.000000,26889.617966,35330.329577,30005.004109,27009.557427,14560.753353,36059.331722,50391.314970,48074.623713,0.004000,0.978000,0.066000,192.000000,0.000000,0.000000,0.000000,0.000000,0.000000,0.000000,0.000000,0.000000,0.000000,1647326800.476493,0.000000
56.000000,26897.597539,35338.018577,30004.624129,27013.491334,14564.687260,36039.841001,50369.924351,48078.132937,0.004000,0.982000,0.066000,192.000000,0.000000,32.000000,30.000000,176.000000,2.000000,16.000000,0.000000,0.000000,0.000000,1647326800.476497,0.000000
57.000000,26904.437173,35336.342196,30006.769896,27015.502991,14565.871902,36036.287074,50372.606560,48083.184431,0.004000,0.982000,0.066000,192.000000,0.000000,0.000000,0.000000,0.000000,0.000000,0.000000,0.000000,0.000000,0.000000,1647326800.484477,0.000000
58.000000,26890.735554,35327.513257,30001.025498,27009.780945,14559.680469,36044.221943,50381.971941,48077.507088,0.004000,0.982000,0.066000,192.000000,0.000000,0.000000,0.000000,0.000000,0.000000,0.000000,0.000000,0.000000,0.000000,1647326800.484482,0.000000
59.000000,26878.956184,35323.556998,29993.291794,27006.495238,14555.455989,36055.397815,50388.409244,48072.857925,0.004000,0.982000,0.066000,192.000000,0.000000,0.000000,0.000000,0.000000,0.000000,0.000000,0.000000,0.000000,0.000000,1647326800.490671,0.000000
60.000000,26881.303117,35325.009862,29990.319012,27005.265892,14553.421981,36043.283170,50370.840772,48070.712158,0.004000,0.982000,0.066000,192.000000,0.000000,0.000000,0.000000,0.000000,0.000000,0.000000,0.000000,0.000000,0.000000,1647326800.490675,0.000000
61.000000,26881.303117,35328.027347,29994.588196,27007.769288,14558.339364,36041.115050,50371.712491,48075.406024,0.004000,0.982000,0.066000,192.000000,0.000000,0.000000,0.000000,0.000000,0.000000,0.000000,0.000000,0.000000,0.000000,1647326800.498028,0.000000
62.000000,26885.102914,35326.775649,29992.576539,27001.734317,14554.114885,36038.008158,50374.573514,48069.460460,0.004000,0.982000,0.066000,192.000000,0.000000,0.000000,0.000000,0.000000,0.000000,0.000000,0.000000,0.000000,0.000000,1647326800.506119,0.000000
63.000000,26890.802609,35329.614321,29993.649422,27002.561331,14553.801960,36030.945007,50374.797031,48070.287474,0.004000,0.982000,0.066000,192.000000,0.000000,0.000000,0.000000,0.000000,0.000000,0.000000,0.000000,0.000000,0.000000,1647326800.506123,0.000000
64.000000,26893.708336,35334.621112,29992.777704,27006.517590,14556.662983,36028.508667,50372.114822,48067.337044,0.004000,0.982000,0.066000,192.000000,0.000000,0.000000,0.000000,0.000000,0.000000,0.000000,0.000000,0.000000,0.000000,1647326800.514101,0.000000
65.000000,26889.685022,35335.224609,29998.008013,27009.400965,14561.267443,36021.803143,50368.069156,48066.957065,0.004000,0.982000,0.066000,192.000000,0.000000,0.000000,0.000000,0.000000,0.000000,0.000000,0.000000,0.000000,0.000000,1647326800.514111,0.000000
66.000000,26888.165103,35332.251827,29996.219873,27008.998634,14560.418077,36023.390117,50369.700834,48067.962893,0.004000,0.982000,0.066000,192.000000,0.000000,0.000000,0.000000,0.000000,0.000000,0.000000,0.000000,0.000000,0.000000,1647326800.520719,0.000000
67.000000,26892.031955,35336.342196,29998.253882,27014.094831,14563.860245,36036.801164,50374.931142,48063.403137,-0.002000,0.984000,0.058000,192.000000,255.000000,240.000000,30.000000,192.000000,1.000000,208.000000,0.000000,0.000000,0.000000,1647326800.520723,0.000000
68.000000,26901.173818,35339.762013,29995.884597,27014.541866,14562.273271,36035.460059,50368.337377,48065.727719,-0.002000,0.984000,0.058000,192.000000,0.000000,0.000000,0.000000,0.000000,0.000000,0.000000,0.000000,0.000000,0.000000,1647326800.528787,0.000000
69.000000,26887.896882,35333.749394,29987.882672,27009.982110,14552.684373,36035.191838,50367.063328,48066.487678,-0.002000,0.984000,0.058000,192.000000,0.000000,0.000000,0.000000,0.000000,0.000000,0.000000,0.000000,0.000000,0.000000,1647326800.528793,0.000000
70.000000,26882.443056,35336.722176,29994.364678,27014.452459,14555.768914,36039.796298,50371.019586,48069.460460,-0.002000,0.984000,0.058000,192.000000,0.000000,0.000000,0.000000,0.000000,0.000000,0.000000,0.000000,0.000000,0.000000,1647326800.536677,0.000000
71.000000,26889.953243,35339.762013,29999.170303,27018.811049,14559.926338,36036.041204,50365.141078,48070.734509,-0.002000,0.984000,0.058000,192.000000,0.000000,0.000000,0.000000,0.000000,0.000000,0.000000,0.000000,0.000000,0.000000,1647326800.536682,0.000000
72.000000,26893.842446,35337.213914,30002.031327,27012.038471,14558.093495,36035.951797,50361.184819,48071.852097,-0.002000,0.984000,0.058000,192.000000,0.000000,0.000000,0.000000,0.000000,0.000000,0.000000,0.000000,0.000000,0.000000,1647326800.543298,0.000000
73.000000,26896.278786,35338.867943,30004.490018,27013.781907,14558.719344,36036.220018,50362.280054,48075.607190,-0.002000,0.984000,0.058000,192.000000,0.000000,0.000000,0.000000,0.000000,0.000000,0.000000,0.000000,0.000000,0.000000,1647326800.543302,0.000000
74.000000,26891.674327,35335.604588,29998.030364,27010.473849,14552.282042,36045.943027,50377.076909,48076.188335,-0.002000,0.984000,0.058000,192.000000,0.000000,0.000000,0.000000,0.000000,0.000000,0.000000,0.000000,0.000000,0.000000,1647326800.551395,0.000000
75.000000,26887.896882,35333.905856,29989.782571,27005.645872,14544.235414,36034.253065,50365.431650,48070.689806,-0.002000,0.984000,0.058000,192.000000,0.000000,0.000000,0.000000,0.000000,0.000000,0.000000,0.000000,0.000000,0.000000,1647326800.551399,0.000000
76.000000,26881.303117,35326.105097,29985.021649,26997.286319,14539.362733,36021.646681,50354.725165,48069.683977,-0.002000,0.984000,0.058000,192.000000,0.000000,0.000000,0.000000,0.000000,0.000000,0.000000,0.000000,0.000000,0.000000,1647326800.558444,0.000000
77.000000,26885.773466,35326.775649,29992.487132,26995.297014,14545.084780,36028.262797,50362.235351,48068.141707,-0.002000,0.984000,0.056000,192.000000,255.000000,240.000000,30.000000,192.000000,1.000000,192.000000,0.000000,0.000000,0.000000,1647326800.566356,0.000000
78.000000,26886.980461,35326.350966,29994.007050,27000.907302,14548.348135,36040.355091,50372.941836,48063.894876,-0.002000,0.984000,0.056000,192.000000,0.000000,0.000000,0.000000,0.000000,0.000000,0.000000,0.000000,0.000000,0.000000,1647326800.566360,0.000000
79.000000,26881.750152,35317.365565,29990.833103,26998.158037,14544.749504,36049.094623,50376.853392,48058.150477,-0.002000,0.984000,0.056000,192.000000,0.000000,0.000000,0.000000,0.000000,0.000000,0.000000,0.000000,0.000000,0.000000,1647326800.572973,0.000000
80.000000,26887.516902,35323.914626,29994.230568,27001.779020,14547.677582,36036.331777,50360.916598,48062.687881,-0.002000,0.984000,0.056000,192.000000,0.000000,0.000000,0.000000,0.000000,0.000000,0.000000,0.000000,0.000000,0.000000,1647326800.572977,0.000000
81.000000,26886.041687,35324.316958,29991.771876,26997.733354,14546.269422,36032.755498,50358.994348,48061.056204,-0.002000,0.984000,0.056000,192.000000,0.000000,0.000000,0.000000,0.000000,0.000000,0.000000,0.000000,0.000000,0.000000,1647326800.581028,0.000000
82.000000,26892.613100,35331.648330,29994.945824,26999.052107,14549.465722,36025.602940,50353.093487,48061.525591,-0.002000,0.984000,0.056000,192.000000,0.000000,0.000000,0.000000,0.000000,0.000000,0.000000,0.000000,0.000000,0.000000,1647326800.581033,0.000000
83.000000,26894.133019,35333.659987,30003.931225,27003.947139,14553.533739,36025.804105,50354.568703,48058.776326,-0.002000,0.984000,0.056000,192.000000,0.000000,0.000000,0.000000,0.000000,0.000000,0.000000,0.000000,0.000000,0.000000,1647326800.588976,0.000000
84.000000,26891.182588,35332.587103,30001.383126,27009.266854,14553.310222,36033.113126,50362.145944,48062.151439,-0.002000,0.984000,0.056000,192.000000,0.000000,0.000000,0.000000,0.000000,0.000000,0.000000,0.000000,0.000000,0.000000,1647326800.588980,0.000000
85.000000,26894.714164,35337.504487,29998.767972,27012.820782,14556.327707,36027.636949,50359.083755,48068.499335,-0.002000,0.984000,0.056000,192.000000,0.000000,0.000000,0.000000,0.000000,0.000000,0.000000,0.000000,0.000000,0.000000,1647326800.595974,0.000000
86.000000,26897.463429,35337.079804,29999.706745,27013.491334,14557.557053,36026.854637,50357.899112,48064.788945,-0.002000,0.984000,0.056000,192.000000,0.000000,0.000000,0.000000,0.000000,0.000000,0.000000,0.000000,0.000000,0.000000,1647326800.595983,0.000000
87.000000,26891.584920,35331.424812,29998.477399,27008.998634,14556.662983,36038.276379,50369.343206,48057.569332,-0.004000,0.980000,0.056000,192.000000,255.000000,224.000000,30.000000,160.000000,1.000000,192.000000,0.000000,0.000000,0.000000,1647326800.603601,0.000000
88.000000,26888.187455,35337.035100,29997.493922,27008.886875,14557.020611,36038.343434,50369.790241,48060.296245,-0.004000,0.980000,0.056000,192.000000,0.000000,0.000000,0.000000,0.000000,0.000000,0.000000,0.000000,0.000000,0.000000,1647326800.603605,0.000000
89.000000,26889.863836,35337.280969,30004.668832,27009.825648,14557.087667,36039.483373,50371.265456,48068.052300,-0.004000,0.980000,0.056000,192.000000,0.000000,0.000000,0.000000,0.000000,0.000000,0.000000,0.000000,0.000000,0.000000,1647326800.611523,0.000000
90.000000,26891.517865,35335.984568,29996.555149,27008.484543,14553.086704,36042.612617,50370.550200,48064.185448,-0.004000,0.980000,0.056000,192.000000,0.000000,0.000000,0.000000,0.000000,0.000000,0.000000,0.000000,0.000000,0.000000,1647326800.611527,0.000000
91.000000,26889.685022,35334.710519,29990.006088,27004.952968,14549.041039,36035.393004,50363.464697,48064.878352,-0.004000,0.980000,0.056000,192.000000,0.000000,0.000000,0.000000,0.000000,0.000000,0.000000,0.000000,0.000000,0.000000,1647326800.618819,0.000000
92.000000,26885.862873,35331.201295,29990.073143,27002.494276,14546.604698,36030.766193,50359.799011,48066.890009,-0.004000,0.980000,0.056000,192.000000,0.000000,0.000000,0.000000,0.000000,0.000000,0.000000,0.000000,0.000000,0.000000,1647326800.626240,0.000000
93.000000,26888.321565,35333.011786,29990.251957,27001.533151,14547.297603,36037.024681,50365.297540,48062.687881,-0.004000,0.980000,0.056000,192.000000,0.000000,0.000000,0.000000,0.000000,0.000000,0.000000,0.000000,0.000000,0.000000,1647326800.626257,0.000000
94.000000,26893.462466,35339.449089,29994.901120,27005.757631,14552.930242,36036.220018,50362.190647,48062.911399,-0.004000,0.980000,0.056000,192.000000,0.000000,0.000000,0.000000,0.000000,0.000000,0.000000,0.000000,0.000000,0.000000,1647326800.633523,0.000000
95.000000,26893.708336,35338.845591,29998.343289,27008.976282,14555.143065,36033.001367,50356.490953,48063.984282,-0.004000,0.980000,0.056000,192.000000,0.000000,0.000000,0.000000,0.000000,0.000000,0.000000,0.000000,0.000000,0.000000,1647326800.633534,0.000000
96.000000,26887.002812,35330.553094,29993.895292,27004.505933,14550.672716,36036.465888,50359.597845,48064.051338,-0.004000,0.980000,0.056000,192.000000,0.000000,0.000000,0.000000,0.000000,0.000000,0.000000,0.000000,0.000000,0.000000,1647326800.641651,0.000000
97.000000,26887.874530,35330.240170,29992.755353,27001.533151,14549.219853,36037.337606,50354.367537,48057.323463,-0.004000,0.982000,0.062000,192.000000,255.000000,224.000000,30.000000,176.000000,1.000000,240.000000,0.000000,0.000000,0.000000,1647326800.641669,0.000000
98.000000,26902.917254,35347.965103,30003.372431,27017.179372,14559.278138,36020.797315,50340.285938,48064.386614,-0.004000,0.982000,0.062000,192.000000,0.000000,0.000000,0.000000,0.000000,0.000000,0.000000,0.000000,0.000000,0.000000,1647326800.649468,0.000000
99.000000,26898.625719,35346.221667,30002.210140,27014.944198,14556.886501,36027.279321,50347.840827,48059.201009,-0.004000,0.982000,0.062000,192.000000,0.000000,0.000000,0.000000,0.000000,0.000000,0.000000,0.000000,0.000000,0.000000,1647326800.649485,0.000000
100.000000,26891.897844,35336.297493,29997.560978,27008.529247,14551.007992,36029.849771,50347.036165,48055.647082,-0.004000,0.982000,0.062000,192.000000,0.000000,0.000000,0.000000,0.000000,0.000000,0.000000,0.000000,0.000000,0.000000,1647326800.656320,0.000000
101.000000,26888.500379,35335.291664,29991.168379,27007.568122,14545.934146,36033.426050,50341.783505,48049.410945,-0.004000,0.982000,0.062000,192.000000,0.000000,0.000000,0.000000,0.000000,0.000000,0.000000,0.000000,0.000000,0.000000,1647326800.656336,0.000000
102.000000,26890.109705,35337.817411,29990.609585,27010.138572,14545.598870,36027.905169,50336.776714,48057.770498,-0.004000,0.982000,0.062000,192.000000,0.000000,0.000000,0.000000,0.000000,0.000000,0.000000,0.000000,0.000000,0.000000,1647326800.664261,0.000000
103.000000,26895.384716,35339.918475,29993.582367,27013.021948,14549.778646,36033.269588,50345.136266,48064.476021,-0.004000,0.982000,0.062000,192.000000,0.000000,0.000000,0.000000,0.000000,0.000000,0.000000,0.000000,0.000000,0.000000,1647326800.664278,0.000000
104.000000,26890.690850,35339.627902,29988.709687,27011.658491,14550.717419,36026.407603,50343.638699,48066.666492,-0.004000,0.982000,0.062000,192.000000,0.000000,0.000000,0.000000,0.000000,0.000000,0.000000,0.000000,0.000000,0.000000,1647326800.672267,0.000000
105.000000,26881.861911,35328.027347,29979.903100,27001.846075,14541.776722,36036.778812,50353.853447,48061.257370,-0.004000,0.982000,0.062000,192.000000,0.000000,0.000000,0.000000,0.000000,0.000000,0.000000,0.000000,0.000000,0.000000,1647326800.672283,0.000000
106.000000,26884.141789,35332.341234,29981.020687,27000.214398,14540.726190,36035.124783,50347.662013,48058.105774,-0.004000,0.982000,0.062000,192.000000,0.000000,0.000000,0.000000,0.000000,0.000000,0.000000,0.000000,0.000000,0.000000,1647326800.679285,0.000000
107.000000,26881.347821,35332.765917,29983.568786,26998.359203,14540.748541,36027.815762,50342.230540,48063.023157,-0.004000,0.982000,0.062000,192.000000,0.000000,0.000000,30.000000,176.000000,2.000000,32.000000,0.000000,0.000000,0.000000,1647326800.685983,0.000000
108.000000,26877.391562,35330.731908,29977.042076,26994.492351,14534.646515,36018.785658,50337.246101,48060.519762,-0.004000,0.982000,0.062000,192.000000,0.000000,0.000000,0.000000,0.000000,0.000000,0.000000,0.000000,0.000000,0.000000,1647326800.686000,0.000000
109.000000,26875.379905,35324.853399,29970.247146,26990.357279,14529.393855,36032.040242,50350.612444,48055.915303,-0.004000,0.982000,0.062000,192.000000,0.000000,0.000000,0.000000,0.000000,0.000000,0.000000,0.000000,0.000000,0.000000,1647326800.694020,0.000000
110.000000,26879.179702,35326.462725,29974.628088,26990.647851,14533.305411,36029.626254,50343.929272,48057.569332,-0.004000,0.982000,0.062000,192.000000,0.000000,0.000000,0.000000,0.000000,0.000000,0.000000,0.000000,0.000000,0.000000,1647326800.694036,0.000000
111.000000,26887.494551,35336.185734,29983.322916,26997.420430,14543.743675,36003.608823,50327.590147,48064.856001,-0.004000,0.982000,0.062000,192.000000,0.000000,0.000000,0.000000,0.000000,0.000000,0.000000,0.000000,0.000000,0.000000,1647326800.701932,0.000000
112.000000,26880.274937,35336.610417,29977.399704,26997.934520,14543.721323,36008.414448,50339.883606,48057.457573,-0.004000,0.982000,0.062000,192.000000,0.000000,0.000000,0.000000,0.000000,0.000000,0.000000,0.000000,0.000000,0.000000,1647326800.701948,0.000000
113.000000,26881.303117,35336.275141,29981.132445,26998.314500,14545.397704,36020.685556,50348.220807,48049.969739,-0.004000,0.982000,0.062000,192.000000,0.000000,0.000000,0.000000,0.000000,0.000000,0.000000,0.000000,0.000000,0.000000,1647326800.709033,0.000000
114.000000,26888.723897,35341.572504,29983.881710,27005.623520,14550.739771,36019.210341,50341.403525,48059.424527,-0.004000,0.982000,0.062000,192.000000,0.000000,0.000000,0.000000,0.000000,0.000000,0.000000,0.000000,0.000000,0.000000,1647326800.709049,0.000000
115.000000,26889.059173,35340.969007,29989.849626,27008.328081,14555.679507,36029.894475,50348.533732,48062.821992,-0.004000,0.982000,0.062000,192.000000,0.000000,0.000000,0.000000,0.000000,0.000000,0.000000,0.000000,0.000000,0.000000,1647326800.716408,0.000000
116.000000,26882.711277,35337.191562,29987.793265,27003.477753,14554.830140,36038.119917,50352.914673,48057.569332,-0.004000,0.982000,0.062000,192.000000,0.000000,0.000000,0.000000,0.000000,0.000000,0.000000,0.000000,0.000000,0.000000,1647326800.716424,0.000000
117.000000,26889.796780,35345.953446,29994.096457,27010.071517,14560.932167,36028.463963,50344.465714,48061.123259,-0.004000,0.982000,0.062000,192.000000,0.000000,0.000000,30.000000,176.000000,2.000000,0.000000,0.000000,0.000000,0.000000,1647326800.724338,0.000000
118.000000,26887.315737,35342.198353,29993.604719,27007.702232,14558.227606,36030.073289,50346.924406,48063.805469,-0.004000,0.982000,0.062000,192.000000,0.000000,0.000000,0.000000,0.000000,0.000000,0.000000,0.000000,0.000000,0.000000,1647326800.724355,0.000000
119.000000,26887.941586,35343.740623,29989.916681,27007.143439,14553.489036,36031.660263,50344.488066,48061.458535,-0.004000,0.982000,0.062000,192.000000,0.000000,0.000000,0.000000,0.000000,0.000000,0.000000,0.000000,0.000000,0.000000,1647326800.732470,0.000000
120.000000,26891.808437,35354.894144,29991.704821,27009.468020,14553.712553,36037.359957,50343.638699,48060.989149,-0.004000,0.982000,0.062000,192.000000,0.000000,0.000000,0.000000,0.000000,0.000000,0.000000,0.000000,0.000000,0.000000,1647326800.732481,0.000000
121.000000,26895.250606,35355.184717,29997.002184,27014.564218,14557.199425,36035.393004,50339.593034,48063.492544,-0.004000,0.982000,0.062000,192.000000,0.000000,0.000000,0.000000,0.000000,0.000000,0.000000,0.000000,0.000000,0.000000,1647326800.738718,0.000000
122.000000,26884.722934,35340.141993,30000.310242,27011.189104,14559.747524,36038.902228,50347.036165,48064.476021,-0.004000,0.982000,0.062000,192.000000,0.000000,0.000000,0.000000,0.000000,0.000000,0.000000,0.000000,0.000000,0.000000,1647326800.738735,0.000000
123.000000,26880.833731,35335.738699,29993.761181,27004.461229,14554.897196,36043.618446,50351.573569,48061.637349,-0.004000,0.982000,0.062000,192.000000,0.000000,0.000000,0.000000,0.000000,0.000000,0.000000,0.000000,0.000000,0.000000,1647326800.746170,0.000000
124.000000,26883.672402,35343.047719,29993.336498,27004.125953,14556.551225,36044.736033,50352.020604,48064.967759,-0.004000,0.982000,0.062000,192.000000,0.000000,0.000000,0.000000,0.000000,0.000000,0.000000,0.000000,0.000000,0.000000,1647326800.755627,0.000000
125.000000,26887.561606,35350.714368,29995.281100,27009.557427,14559.948690,36044.154888,50353.093487,48070.801565,-0.004000,0.982000,0.062000,192.000000,0.000000,0.000000,0.000000,0.000000,0.000000,0.000000,0.000000,0.000000,0.000000,1647326800.755644,0.000000
126.000000,26885.438190,35342.488926,29995.169341,27007.255197,14558.249957,36031.146172,50347.885531,48071.963855,-0.004000,0.982000,0.062000,192.000000,0.000000,0.000000,0.000000,0.000000,0.000000,0.000000,0.000000,0.000000,0.000000,1647326800.761725,0.000000
127.000000,26889.886187,35344.612341,29997.806847,27010.250331,14556.797094,36035.325949,50358.659072,48067.381748,-0.004000,0.974000,0.058000,192.000000,255.000000,224.000000,30.000000,112.000000,1.000000,208.000000,0.000000,0.000000,0.000000,1647326800.761741,0.000000
128.000000,26895.183551,35352.502507,30000.578463,27017.246427,14557.266481,36038.946931,50361.810668,48061.279721,-0.004000,0.974000,0.058000,192.000000,0.000000,0.000000,0.000000,0.000000,0.000000,0.000000,0.000000,0.000000,0.000000,1647326800.768957,0.000000
129.000000,26896.055269,35353.284818,29999.907911,27021.560314,14557.422943,36032.643739,50354.479296,48064.364262,-0.004000,0.974000,0.058000,192.000000,0.000000,0.000000,0.000000,0.000000,0.000000,0.000000,0.000000,0.000000,0.000000,1647326800.768992,0.000000
130.000000,26896.055269,35352.144879,29997.628033,27016.352357,14554.450161,36037.672882,50356.535656,48064.990111,-0.004000,0.974000,0.058000,192.000000,0.000000,0.000000,0.000000,0.000000,0.000000,0.000000,0.000000,0.000000,0.000000,1647326800.776896,0.000000
131.000000,26896.770525,35351.094347,29992.129504,27008.506895,14552.058524,36036.287074,50350.590092,48064.721890,-0.004000,0.974000,0.058000,192.000000,0.000000,0.000000,0.000000,0.000000,0.000000,0.000000,0.000000,0.000000,0.000000,1647326800.776912,0.000000
132.000000,26892.255472,35349.887353,29992.777704,27009.088040,14551.142103,36043.059652,50352.914673,48061.257370,-0.004000,0.974000,0.058000,192.000000,0.000000,0.000000,0.000000,0.000000,0.000000,0.000000,0.000000,0.000000,0.000000,1647326800.784806,0.000000
133.000000,26890.646147,35347.786289,29994.431733,27009.870352,14550.024515,36055.956609,50361.631854,48056.004710,-0.004000,0.974000,0.058000,192.000000,0.000000,0.000000,0.000000,0.000000,0.000000,0.000000,0.000000,0.000000,0.000000,1647326800.784822,0.000000
134.000000,26896.770525,35352.949542,29996.376335,27011.479677,14552.416152,36045.920676,50348.667842,48057.323463,-0.004000,0.974000,0.058000,192.000000,0.000000,0.000000,0.000000,0.000000,0.000000,0.000000,0.000000,0.000000,0.000000,1647326800.791538,0.000000
135.000000,26897.150504,35354.648275,29995.392858,27007.121087,14551.499731,36041.204457,50344.845694,48051.176733,-0.004000,0.974000,0.058000,192.000000,0.000000,0.000000,0.000000,0.000000,0.000000,0.000000,0.000000,0.000000,0.000000,1647326800.791555,0.000000
136.000000,26902.000833,35356.212897,29998.499751,27009.423317,14554.383106,36035.728280,50335.279147,48053.009576,-0.004000,0.974000,0.058000,192.000000,0.000000,0.000000,0.000000,0.000000,0.000000,0.000000,0.000000,0.000000,0.000000,1647326800.799321,0.000000
137.000000,26897.731650,35357.084615,29999.974966,27008.641006,14554.494864,36030.363861,50330.406467,48054.775364,-0.004000,0.976000,0.068000,192.000000,255.000000,224.000000,30.000000,128.000000,2.000000,32.000000,0.000000,0.000000,0.000000,1647326800.799339,0.000000
138.000000,26898.268091,35358.649237,30003.730059,27010.384442,14553.824312,36028.910998,50333.289842,48057.323463,-0.004000,0.976000,0.068000,192.000000,0.000000,0.000000,0.000000,0.000000,0.000000,0.000000,0.000000,0.000000,0.000000,1647326800.806518,0.000000
139.000000,26889.081525,35353.374225,29998.812675,27005.355299,14549.443370,36043.506687,50345.516246,48054.864771,-0.004000,0.976000,0.068000,192.000000,0.000000,0.000000,0.000000,0.000000,0.000000,0.000000,0.000000,0.000000,0.000000,1647326800.814477,0.000000
140.000000,26884.208844,35346.445185,29989.491998,26998.985052,14546.157664,36044.445460,50343.772810,48050.327367,-0.004000,0.976000,0.068000,192.000000,0.000000,0.000000,0.000000,0.000000,0.000000,0.000000,0.000000,0.000000,0.000000,1647326800.814493,0.000000
141.000000,26889.550911,35346.959275,29987.390934,26997.174561,14544.078951,36027.167562,50330.205301,48050.953215,-0.004000,0.976000,0.068000,192.000000,0.000000,0.000000,0.000000,0.000000,0.000000,0.000000,0.000000,0.000000,0.000000,1647326800.821111,0.000000
142.000000,26885.751115,35344.299417,29991.905986,26993.821799,14545.017725,36028.463963,50337.693135,48050.215608,-0.004000,0.976000,0.068000,192.000000,0.000000,0.000000,0.000000,0.000000,0.000000,0.000000,0.000000,0.000000,0.000000,1647326800.821127,0.000000
143.000000,26888.589786,35346.623998,29993.448257,26993.039488,14547.163492,36029.358033,50336.217920,48052.361375,-0.004000,0.976000,0.068000,192.000000,0.000000,0.000000,0.000000,0.000000,0.000000,0.000000,0.000000,0.000000,0.000000,1647326800.829603,0.000000
144.000000,26897.374022,35357.285781,29997.605681,27006.048203,14553.354925,36017.735126,50323.566833,48054.797716,-0.004000,0.976000,0.068000,192.000000,0.000000,0.000000,0.000000,0.000000,0.000000,0.000000,0.000000,0.000000,0.000000,1647326800.829619,0.000000
145.000000,26902.246702,35361.443205,30007.351042,27014.117183,14561.066277,36016.572835,50325.623193,48060.475059,-0.004000,0.976000,0.068000,192.000000,0.000000,0.000000,0.000000,0.000000,0.000000,0.000000,0.000000,0.000000,0.000000,1647326800.837135,0.000000
146.000000,26898.513961,35360.929115,30008.222760,27011.993767,14558.965213,36027.905169,50334.250967,48057.882256,-0.004000,0.976000,0.068000,192.000000,0.000000,0.000000,0.000000,0.000000,0.000000,0.000000,0.000000,0.000000,0.000000,1647326800.837146,0.000000
147.000000,26898.379850,35359.140975,30006.591082,27010.920884,14556.662983,36033.537809,50332.351069,48052.741355,-0.002000,0.974000,0.064000,192.000000,255.000000,240.000000,30.000000,112.000000,2.000000,0.000000,0.000000,0.000000,0.000000,1647326800.844003,0.000000
148.000000,26895.474123,35362.091406,30007.239283,27015.838267,14560.976870,36031.436745,50329.601804,48054.641253,-0.002000,0.974000,0.064000,192.000000,0.000000,0.000000,0.000000,0.000000,0.000000,0.000000,0.000000,0.000000,0.000000,1647326800.844015,0.000000
149.000000,26893.194245,35362.292571,30002.076030,27014.899494,14560.663946,36034.498934,50328.595975,48061.547942,-0.002000,0.974000,0.064000,192.000000,0.000000,0.000000,0.000000,0.000000,0.000000,0.000000,0.000000,0.000000,0.000000,1647326800.851833,0.000000
150.000000,26896.435248,35358.537478,29999.371469,27015.838267,14559.792228,36039.058690,50328.014830,48068.052300,-0.002000,0.974000,0.064000,192.000000,0.000000,0.000000,0.000000,0.000000,0.000000,0.000000,0.000000,0.000000,0.000000,1647326800.851867,0.000000
151.000000,26892.009603,35355.207068,29999.684393,27014.675977,14558.428771,36042.947893,50328.931252,48063.246675,-0.002000,0.974000,0.064000,192.000000,0.000000,0.000000,0.000000,0.000000,0.000000,0.000000,0.000000,0.000000,0.000000,1647326800.859844,0.000000
152.000000,26897.441077,35363.320752,30004.914702,27018.967512,14564.240225,36039.304559,50323.879757,48060.698576,-0.002000,0.974000,0.064000,192.000000,0.000000,0.000000,0.000000,0.000000,0.000000,0.000000,0.000000,0.000000,0.000000,1647326800.859861,0.000000
153.000000,26900.793839,35360.549135,30010.413231,27021.113279,14568.330594,36042.031472,50325.869063,48064.274855,-0.002000,0.974000,0.064000,192.000000,0.000000,0.000000,0.000000,0.000000,0.000000,0.000000,0.000000,0.000000,0.000000,1647326800.866810,0.000000
154.000000,26904.392469,35360.929115,30007.954539,27018.252256,14565.536626,36034.074251,50317.710676,48062.978454,-0.002000,0.974000,0.064000,192.000000,0.000000,0.000000,0.000000,0.000000,0.000000,0.000000,0.000000,0.000000,0.000000,1647326800.873933,0.000000
155.000000,26900.972653,35357.129318,30011.530818,27019.638064,14567.168303,36041.360920,50324.147978,48060.430355,-0.002000,0.974000,0.064000,192.000000,0.000000,0.000000,0.000000,0.000000,0.000000,0.000000,0.000000,0.000000,0.000000,1647326800.873950,0.000000
156.000000,26896.144676,35353.329522,30007.552207,27017.738166,14563.457914,36041.338568,50319.342353,48052.093154,-0.002000,0.974000,0.064000,192.000000,0.000000,0.000000,0.000000,0.000000,0.000000,0.000000,0.000000,0.000000,0.000000,1647326800.881386,0.000000
157.000000,26902.649033,35365.131243,30014.168324,27027.058843,14572.376260,36033.135478,50311.094560,48050.640291,0.004000,0.978000,0.062000,192.000000,0.000000,32.000000,30.000000,144.000000,1.000000,240.000000,0.000000,0.000000,0.000000,1647326800.881403,0.000000
158.000000,26904.258359,35369.243964,30013.341309,27023.817840,14572.264501,36031.772021,50313.620307,48050.908512,0.004000,0.978000,0.062000,192.000000,0.000000,0.000000,0.000000,0.000000,0.000000,0.000000,0.000000,0.000000,0.000000,1647326800.889522,0.000000
159.000000,26897.418725,35359.096272,30002.143085,27016.106488,14563.703783,36030.408565,50316.302516,48051.847285,0.004000,0.978000,0.062000,192.000000,0.000000,0.000000,0.000000,0.000000,0.000000,0.000000,0.000000,0.000000,0.000000,1647326800.889539,0.000000
160.000000,26898.201036,35363.074882,30003.171266,27015.637102,14561.289795,36035.750632,50315.699019,48045.879369,0.004000,0.978000,0.062000,192.000000,0.000000,0.000000,0.000000,0.000000,0.000000,0.000000,0.000000,0.000000,0.000000,1647326800.897887,0.000000
161.000000,26901.307929,35367.142900,30009.295643,27020.643892,14563.346155,36036.667053,50312.010981,48054.529495,0.004000,0.978000,0.062000,192.000000,0.000000,0.000000,0.000000,0.000000,0.000000,0.000000,0.000000,0.000000,0.000000,1647326800.897903,0.000000
162.000000,26895.563530,35362.024350,30001.204312,27015.301825,14555.478341,36043.238466,50317.934193,48052.026099,0.004000,0.978000,0.062000,192.000000,0.000000,0.000000,0.000000,0.000000,0.000000,0.000000,0.000000,0.000000,0.000000,1647326800.904123,0.000000
163.000000,26904.504228,35367.500528,29997.471571,27015.033605,14555.076010,36027.078155,50309.552289,48055.982358,0.004000,0.978000,0.062000,192.000000,0.000000,0.000000,0.000000,0.000000,0.000000,0.000000,0.000000,0.000000,0.000000,1647326800.904140,0.000000
164.000000,26905.085374,35367.075845,30000.779629,27015.726509,14557.378239,36029.358033,50315.989592,48059.022195,0.004000,0.978000,0.062000,192.000000,0.000000,0.000000,0.000000,0.000000,0.000000,0.000000,0.000000,0.000000,0.000000,1647326800.912051,0.000000
165.000000,26901.196170,35370.160385,30004.668832,27017.067613,14562.385030,36036.063556,50319.029429,48062.352605,0.004000,0.978000,0.062000,192.000000,0.000000,0.000000,0.000000,0.000000,0.000000,0.000000,0.000000,0.000000,0.000000,1647326800.912067,0.000000
166.000000,26897.418725,35368.863984,30001.584292,27011.546732,14558.115847,36034.074251,50311.787464,48055.445916,0.004000,0.978000,0.062000,192.000000,0.000000,0.000000,0.000000,0.000000,0.000000,0.000000,0.000000,0.000000,0.000000,1647326800.919873,0.000000
167.000000,26898.044574,35368.819281,30002.098382,27009.155096,14557.042963,36023.278358,50309.060551,48057.301111,0.004000,0.984000,0.066000,192.000000,0.000000,32.000000,30.000000,192.000000,2.000000,16.000000,0.000000,0.000000,0.000000,1647326800.919889,0.000000
168.000000,26895.004737,35365.690036,30004.825295,27014.944198,14560.105152,36036.801164,50324.460903,48061.480887,0.004000,0.984000,0.066000,192.000000,0.000000,0.000000,0.000000,0.000000,0.000000,0.000000,0.000000,0.000000,0.000000,1647326800.927251,0.000000
169.000000,26893.104839,35362.381978,30003.908873,27015.860619,14557.311184,36049.519306,50328.685382,48057.614035,0.004000,0.984000,0.066000,192.000000,0.000000,0.000000,0.000000,0.000000,0.000000,0.000000,0.000000,0.000000,0.000000,1647326800.933493,0.000000
170.000000,26895.787048,35366.405292,29994.878768,27008.953930,14551.164454,36042.120879,50317.442455,48048.271006,0.004000,0.984000,0.066000,192.000000,0.000000,0.000000,0.000000,0.000000,0.000000,0.000000,0.000000,0.000000,0.000000,1647326800.933503,0.000000
171.000000,26901.196170,35367.277010,29990.319012,27009.400965,14550.940937,36025.334719,50306.713618,48045.141762,0.004000,0.984000,0.066000,192.000000,0.000000,0.000000,0.000000,0.000000,0.000000,0.000000,0.000000,0.000000,0.000000,1647326800.941734,0.000000
172.000000,26898.245740,35362.605496,29988.441466,27005.265892,14545.353001,36029.067460,50316.034295,48042.392497,0.004000,0.984000,0.066000,192.000000,0.000000,0.000000,0.000000,0.000000,0.000000,0.000000,0.000000,0.000000,0.000000,1647326800.941751,0.000000
173.000000,26898.849237,35367.835804,29994.431733,27004.751802,14548.884576,36022.741917,50317.665972,48046.996957,0.004000,0.984000,0.066000,192.000000,0.000000,0.000000,0.000000,0.000000,0.000000,0.000000,0.000000,0.000000,0.000000,1647326800.949377,0.000000
174.000000,26895.429420,35362.761958,29991.213082,27000.303805,14549.488074,36021.534922,50319.610574,48047.958082,0.004000,0.984000,0.066000,192.000000,0.000000,0.000000,0.000000,0.000000,0.000000,0.000000,0.000000,0.000000,0.000000,1647326800.949388,0.000000
175.000000,26897.843408,35363.164289,29982.741771,26999.990880,14549.935108,36018.897416,50313.374437,48046.080535,0.004000,0.984000,0.066000,192.000000,0.000000,0.000000,0.000000,0.000000,0.000000,0.000000,0.000000,0.000000,0.000000,1647326800.956835,0.000000
176.000000,26897.731650,35364.460691,29985.491036,27004.304767,14554.092533,36018.852713,50317.285993,48051.512009,0.004000,0.984000,0.066000,192.000000,0.000000,0.000000,0.000000,0.000000,0.000000,0.000000,0.000000,0.000000,0.000000,1647326800.956852,0.000000
177.000000,26895.585882,35360.392673,29987.234472,27002.807200,14553.958422,36020.394983,50321.577528,48058.396346,0.002000,0.984000,0.066000,192.000000,0.000000,16.000000,30.000000,192.000000,2.000000,16.000000,0.000000,0.000000,0.000000,1647326800.964344,0.000000
178.000000,26895.764696,35359.096272,29989.156722,27002.002537,14553.421981,36023.524228,50327.411333,48059.580989,0.002000,0.984000,0.066000,192.000000,0.000000,0.000000,0.000000,0.000000,0.000000,0.000000,0.000000,0.000000,0.000000,1647326800.964361,0.000000
179.000000,26894.557702,35358.068092,29982.607661,26994.805276,14545.308297,36028.173390,50330.473522,48047.555750,0.002000,0.984000,0.066000,192.000000,0.000000,0.000000,0.000000,0.000000,0.000000,0.000000,0.000000,0.000000,0.000000,1647326800.972342,0.000000
180.000000,26906.270016,35367.075845,29982.965289,26996.973395,14546.224719,36008.593262,50309.418179,48041.900759,0.002000,0.984000,0.066000,192.000000,0.000000,0.000000,0.000000,0.000000,0.000000,0.000000,0.000000,0.000000,0.000000,1647326800.972360,0.000000
181.000000,26905.532408,35359.811528,30000.869036,27005.176485,14560.283966,36004.391134,50312.145092,48057.234056,0.002000,0.984000,0.066000,192.000000,0.000000,0.000000,0.000000,0.000000,0.000000,0.000000,0.000000,0.000000,0.000000,1647326800.979425,0.000000
182.000000,26895.027089,35351.541382,30003.931225,27009.669186,14562.675603,36019.970300,50328.461865,48057.167000,0.002000,0.984000,0.066000,192.000000,0.000000,0.000000,0.000000,0.000000,0.000000,0.000000,0.000000,0.000000,0.000000,1647326800.979443,0.000000
183.000000,26905.644167,35359.632714,30007.462800,27013.111354,14564.910777,36021.445515,50325.779656,48055.065936,0.002000,0.984000,0.066000,192.000000,0.000000,0.000000,0.000000,0.000000,0.000000,0.000000,0.000000,0.000000,0.000000,1647326800.987452,0.000000
184.000000,26906.538237,35353.821260,30011.888446,27012.329043,14564.955481,36025.290015,50330.786446,48052.897817,0.002000,0.984000,0.066000,192.000000,0.000000,0.000000,0.000000,0.000000,0.000000,0.000000,0.000000,0.000000,0.000000,1647326800.987468,0.000000
185.000000,26908.728708,35352.569563,30007.641614,27006.875218,14561.625071,36017.511608,50322.382191,48049.701518,0.002000,0.984000,0.066000,192.000000,0.000000,0.000000,0.000000,0.000000,0.000000,0.000000,0.000000,0.000000,0.000000,1647326800.993763,0.000000
186.000000,26903.811324,35349.350911,30005.071164,27003.522456,14560.574539,36012.236597,50319.096484,48050.260311,0.002000,0.984000,0.066000,192.000000,0.000000,0.000000,0.000000,0.000000,0.000000,0.000000,0.000000,0.000000,0.000000,1647326801.001788,0.000000
187.000000,26903.096068,35347.518068,30003.126562,27003.321290,14562.005050,36018.740954,50329.668859,48050.729698,0.002000,0.984000,0.066000,192.000000,0.000000,0.000000,0.000000,0.000000,0.000000,0.000000,0.000000,0.000000,0.000000,1647326801.001806,0.000000
188.000000,26904.750097,35345.394653,30002.433658,27001.488447,14560.351021,36025.357071,50338.564853,48050.483829,0.002000,0.984000,0.066000,192.000000,0.000000,0.000000,30.000000,144.000000,2.000000,64.000000,0.000000,0.000000,0.000000,1647326801.009126,0.000000
189.000000,26905.063022,35344.522934,30008.379222,27007.635177,14564.821370,36036.510591,50346.723240,48054.015404,0.002000,0.984000,0.066000,192.000000,0.000000,0.000000,0.000000,0.000000,0.000000,0.000000,0.000000,0.000000,0.000000,1647326801.009143,0.000000
190.000000,26909.086336,35350.826126,30008.982719,27013.983073,14572.353908,36030.475620,50337.156694,48056.608207,0.002000,0.984000,0.066000,192.000000,0.000000,0.000000,0.000000,0.000000,0.000000,0.000000,0.000000,0.000000,0.000000,1647326801.016345,0.000000
191.000000,26908.058156,35349.887353,30007.909835,27018.073442,14573.918530,36030.967358,50337.648432,48054.238922,0.002000,0.984000,0.066000,192.000000,0.000000,0.000000,0.000000,0.000000,0.000000,0.000000,0.000000,0.000000,0.000000,1647326801.016356,0.000000
192.000000,26907.387603,35348.322731,30009.429754,27019.526305,14574.119696,36033.291940,50338.631909,48057.748146,0.002000,0.984000,0.066000,192.000000,0.000000,0.000000,0.000000,0.000000,0.000000,0.000000,0.000000,0.000000,0.000000,1647326801.024623,0.000000
193.000000,26911.545028,35349.417967,30010.703803,27019.034567,14572.800943,36035.102431,50342.476409,48057.457573,0.002000,0.984000,0.066000,192.000000,0.000000,0.000000,0.000000,0.000000,0.000000,0.000000,0.000000,0.000000,0.000000,1647326801.024658,0.000000
194.000000,26912.930836,35345.305246,30012.760164,27014.497163,14570.498713,36033.716623,50339.816551,48054.238922,0.002000,0.984000,0.066000,192.000000,0.000000,0.000000,0.000000,0.000000,0.000000,0.000000,0.000000,0.000000,0.000000,1647326801.032532,0.000000
195.000000,26912.260284,35346.892219,30014.235379,27017.179372,14572.756240,36033.873085,50341.336470,48051.780230,0.002000,0.984000,0.066000,192.000000,0.000000,0.000000,0.000000,0.000000,0.000000,0.000000,0.000000,0.000000,0.000000,1647326801.032549,0.000000
196.000000,26915.277769,35352.368397,30015.621187,27018.945160,14576.511333,36014.583530,50330.495874,48055.311806,0.002000,0.984000,0.066000,192.000000,0.000000,0.000000,0.000000,0.000000,0.000000,0.000000,0.000000,0.000000,0.000000,1647326801.039128,0.000000
197.000000,26915.814211,35353.173060,30019.085708,27018.408718,14580.288777,35996.724486,50323.075095,48062.017329,0.002000,0.984000,0.066000,192.000000,0.000000,0.000000,0.000000,0.000000,0.000000,0.000000,0.000000,0.000000,0.000000,1647326801.039144,0.000000
198.000000,26909.667481,35344.657045,30018.459859,27014.184238,14577.003071,36006.447495,50337.447266,48058.329291,-0.004000,0.982000,0.070000,192.000000,255.000000,224.000000,30.000000,176.000000,2.000000,48.000000,0.000000,0.000000,0.000000,1647326801.047077,0.000000
199.000000,26908.281673,35342.198353,30017.856362,27010.786773,14572.711536,36010.448457,50339.190702,48054.194218,-0.004000,0.982000,0.070000,192.000000,0.000000,0.000000,0.000000,0.000000,0.000000,0.000000,0.000000,0.000000,0.000000,1647326801.047094,0.000000
200.000000,26904.392469,35334.710519,30013.587178,27009.132744,14568.755277,36018.696251,50342.766981,48053.434259,-0.004000,0.982000,0.070000,192.000000,0.000000,0.000000,0.000000,0.000000,0.000000,0.000000,0.000000,0.000000,0.000000,1647326801.054184,0.000000
201.000000,26893.820094,35326.507428,30006.524027,27003.768325,14561.580367,36030.252103,50346.253854,48052.629596,-0.004000,0.982000,0.070000,192.000000,0.000000,0.000000,0.000000,0.000000,0.000000,0.000000,0.000000,0.000000,0.000000,1647326801.062049,0.000000
202.000000,26892.568397,35321.970024,29996.197521,26997.554540,14553.667850,36024.999443,50339.615385,48048.628634,-0.004000,0.982000,0.070000,192.000000,0.000000,0.000000,0.000000,0.000000,0.000000,0.000000,0.000000,0.000000,0.000000,1647326801.062060,0.000000
203.000000,26901.509094,35326.105097,29998.455047,26998.180389,14557.244129,36020.350280,50338.766019,48050.305015,-0.004000,0.982000,0.070000,192.000000,0.000000,0.000000,0.000000,0.000000,0.000000,0.000000,0.000000,0.000000,0.000000,1647326801.068872,0.000000
204.000000,26909.220446,35332.251827,30003.797114,27002.695442,14561.066277,36020.260873,50340.509455,48054.462439,-0.004000,0.982000,0.070000,192.000000,0.000000,0.000000,0.000000,0.000000,0.000000,0.000000,0.000000,0.000000,0.000000,1647326801.068889,0.000000
205.000000,26907.097031,35328.250865,30006.635786,26999.454439,14559.188731,36016.103448,50332.127551,48048.829800,-0.004000,0.982000,0.070000,192.000000,0.000000,0.000000,0.000000,0.000000,0.000000,0.000000,0.000000,0.000000,0.000000,1647326801.076791,0.000000
206.000000,26901.687908,35324.227551,30005.831123,26997.241616,14558.227606,36015.790524,50329.847673,48050.103849,-0.004000,0.982000,0.070000,192.000000,0.000000,0.000000,0.000000,0.000000,0.000000,0.000000,0.000000,0.000000,0.000000,1647326801.076808,0.000000
207.000000,26903.878379,35329.055527,30007.954539,27001.086116,14559.881635,36017.601015,50330.495874,48052.271968,-0.004000,0.982000,0.070000,192.000000,0.000000,0.000000,0.000000,0.000000,0.000000,0.000000,0.000000,0.000000,0.000000,1647326801.084901,0.000000
208.000000,26906.135906,35327.803830,30013.877751,27007.545770,14564.620205,36034.565989,50344.443362,48055.557675,-0.006000,0.980000,0.076000,192.000000,255.000000,208.000000,30.000000,160.000000,2.000000,96.000000,0.000000,0.000000,0.000000,1647326801.084918,0.000000
209.000000,26906.448830,35330.687205,30017.588141,27008.752764,14566.028364,36033.850734,50338.833074,48053.523666,-0.006000,0.980000,0.076000,192.000000,0.000000,0.000000,0.000000,0.000000,0.000000,0.000000,0.000000,0.000000,0.000000,1647326801.091904,0.000000
210.000000,26909.511019,35328.809658,30016.336443,27005.511761,14564.597853,36028.888646,50333.155731,48055.937654,-0.006000,0.980000,0.076000,192.000000,0.000000,0.000000,0.000000,0.000000,0.000000,0.000000,0.000000,0.000000,0.000000,1647326801.091920,0.000000
211.000000,26911.120345,35324.093440,30016.694071,27002.337814,14563.681431,36028.195742,50335.122685,48056.138820,-0.006000,0.980000,0.076000,192.000000,0.000000,0.000000,0.000000,0.000000,0.000000,0.000000,0.000000,0.000000,0.000000,1647326801.099279,0.000000
212.000000,26907.678176,35326.418021,30015.040042,27005.511761,14565.022536,36029.022757,50337.782542,48054.842419,-0.006000,0.980000,0.076000,192.000000,0.000000,0.000000,0.000000,0.000000,0.000000,0.000000,0.000000,0.000000,0.000000,1647326801.099295,0.000000
213.000000,26908.460487,35327.937940,30013.743641,27005.243540,14565.871902,36037.561123,50346.834999,48051.802582,-0.006000,0.980000,0.076000,192.000000,0.000000,0.000000,0.000000,0.000000,0.000000,0.000000,0.000000,0.000000,0.000000,1647326801.107566,0.000000
214.000000,26905.375946,35324.987510,30014.615359,27005.131782,14565.223702,36032.666091,50344.309252,48054.149515,-0.006000,0.980000,0.076000,192.000000,0.000000,0.000000,0.000000,0.000000,0.000000,0.000000,0.000000,0.000000,0.000000,1647326801.107601,0.000000
215.000000,26904.548932,35323.177019,30014.011862,27006.092907,14564.754315,36039.461021,50342.185836,48052.026099,-0.006000,0.980000,0.076000,192.000000,0.000000,0.000000,0.000000,0.000000,0.000000,0.000000,0.000000,0.000000,0.000000,1647326801.114489,0.000000
216.000000,26900.771487,35321.075955,30007.395745,26999.297976,14558.406420,36035.862391,50337.000231,48047.846323,-0.006000,0.980000,0.076000,192.000000,0.000000,0.000000,0.000000,0.000000,0.000000,0.000000,0.000000,0.000000,0.000000,1647326801.121531,0.000000
217.000000,26901.374984,35319.377222,30004.557074,27000.974357,14558.942861,36029.402736,50342.275243,48051.914340,-0.006000,0.980000,0.076000,192.000000,0.000000,0.000000,0.000000,0.000000,0.000000,0.000000,0.000000,0.000000,0.000000,1647326801.121547,0.000000
218.000000,26898.581016,35316.359736,30007.619263,26999.074459,14560.820408,36024.910036,50346.589130,48058.619864,-0.008000,0.984000,0.068000,192.000000,255.000000,192.000000,30.000000,192.000000,2.000000,32.000000,0.000000,0.000000,0.000000,1647326801.129176,0.000000
219.000000,26900.793839,35319.667795,30008.021594,27000.929654,14559.032268,36016.796352,50342.342298,48060.787983,-0.008000,0.984000,0.068000,192.000000,0.000000,0.000000,0.000000,0.000000,0.000000,0.000000,0.000000,0.000000,0.000000,1647326801.129192,0.000000
220.000000,26904.101897,35321.478286,30010.413231,27008.372785,14561.602719,36026.787582,50346.767944,48062.039681,-0.008000,0.984000,0.068000,192.000000,0.000000,0.000000,0.000000,0.000000,0.000000,0.000000,0.000000,0.000000,0.000000,1647326801.137145,0.000000
221.000000,26899.676251,35316.918530,30006.479324,27002.673090,14557.780571,36025.379422,50342.498761,48056.764669,-0.008000,0.984000,0.068000,192.000000,0.000000,0.000000,0.000000,0.000000,0.000000,0.000000,0.000000,0.000000,0.000000,1647326801.137156,0.000000
222.000000,26895.921158,35315.912702,30003.931225,26999.745011,14556.081838,36014.784695,50333.803932,48053.702480,-0.008000,0.984000,0.068000,192.000000,0.000000,0.000000,0.000000,0.000000,0.000000,0.000000,0.000000,0.000000,0.000000,1647326801.145112,0.000000
223.000000,26897.910464,35312.716402,30016.761126,27001.399040,14562.832065,36019.076230,50340.509455,48059.111602,-0.008000,0.984000,0.068000,192.000000,0.000000,0.000000,0.000000,0.000000,0.000000,0.000000,0.000000,0.000000,0.000000,1647326801.145129,0.000000
224.000000,26894.088315,35314.258673,30013.430716,26999.990880,14559.211082,36018.383326,50334.429781,48060.564466,-0.008000,0.984000,0.068000,192.000000,0.000000,0.000000,0.000000,0.000000,0.000000,0.000000,0.000000,0.000000,0.000000,1647326801.151760,0.000000
225.000000,26889.819132,35313.565768,30002.210140,26996.436953,14550.940937,36018.897416,50330.786446,48054.440088,-0.008000,0.984000,0.068000,192.000000,0.000000,0.000000,0.000000,0.000000,0.000000,0.000000,0.000000,0.000000,0.000000,1647326801.151777,0.000000
226.000000,26892.590748,35306.726135,29999.483228,26991.608976,14548.281079,36025.066498,50334.854464,48048.829800,-0.008000,0.984000,0.068000,192.000000,0.000000,0.000000,0.000000,0.000000,0.000000,0.000000,0.000000,0.000000,0.000000,1647326801.159654,0.000000
227.000000,26899.005699,35306.837893,30004.624129,26991.832494,14550.605661,36024.485353,50334.049801,48052.897817,-0.008000,0.984000,0.068000,192.000000,0.000000,0.000000,0.000000,0.000000,0.000000,0.000000,0.000000,0.000000,0.000000,1647326801.159673,0.000000
228.000000,26899.028051,35312.068202,30008.401574,26994.335889,14555.165417,36014.136495,50327.858368,48058.061070,-0.006000,0.982000,0.062000,192.000000,255.000000,208.000000,30.000000,176.000000,1.000000,240.000000,0.000000,0.000000,0.000000,1647326801.167721,0.000000
229.000000,26894.490647,35311.397649,30005.562902,26994.917034,14556.730039,36015.142323,50327.567795,48059.402175,-0.006000,0.982000,0.062000,192.000000,0.000000,0.000000,0.000000,0.000000,0.000000,0.000000,0.000000,0.000000,0.000000,1647326801.167737,0.000000
230.000000,26898.424554,35309.855379,30012.447239,26996.459305,14562.630899,36027.167562,50335.994403,48059.044547,-0.006000,0.982000,0.062000,192.000000,0.000000,0.000000,0.000000,0.000000,0.000000,0.000000,0.000000,0.000000,0.000000,1647326801.174734,0.000000
231.000000,26906.828810,35310.615338,30015.285911,26999.856770,14565.670737,36033.537809,50344.577473,48062.665530,-0.006000,0.982000,0.062000,192.000000,0.000000,0.000000,0.000000,0.000000,0.000000,0.000000,0.000000,0.000000,0.000000,1647326801.181212,0.000000
232.000000,26910.919179,35314.705707,30015.285911,27001.510799,14567.101248,36020.752611,50335.077981,48064.028986,-0.006000,0.982000,0.062000,192.000000,0.000000,0.000000,0.000000,0.000000,0.000000,0.000000,0.000000,0.000000,0.000000,1647326801.181229,0.000000
233.000000,26905.174781,35316.851475,30017.074051,27009.333910,14568.084725,36028.128687,50344.756287,48064.990111,-0.006000,0.982000,0.062000,192.000000,0.000000,0.000000,0.000000,0.000000,0.000000,0.000000,0.000000,0.000000,0.000000,1647326801.189519,0.000000
234.000000,26901.330280,35314.482190,30016.671719,27008.976282,14562.675603,36032.420222,50344.957452,48063.179620,-0.006000,0.982000,0.062000,192.000000,0.000000,0.000000,0.000000,0.000000,0.000000,0.000000,0.000000,0.000000,0.000000,1647326801.189535,0.000000
235.000000,26899.899769,35312.649347,30015.911760,27004.036546,14559.903986,36026.966396,50338.050763,48060.408003,-0.006000,0.982000,0.062000,192.000000,0.000000,0.000000,0.000000,0.000000,0.000000,0.000000,0.000000,0.000000,0.000000,1647326801.197438,0.000000
236.000000,26896.189379,35307.642556,30011.687280,26997.219264,14557.601757,36029.738013,50340.554159,48056.094117,-0.006000,0.982000,0.062000,192.000000,0.000000,0.000000,0.000000,0.000000,0.000000,0.000000,0.000000,0.000000,0.000000,1647326801.197453,0.000000
237.000000,26899.318623,35311.129428,30010.234417,26996.548712,14555.813617,36025.379422,50336.888473,48049.276835,-0.006000,0.982000,0.062000,192.000000,0.000000,0.000000,0.000000,0.000000,0.000000,0.000000,0.000000,0.000000,0.000000,1647326801.204406,0.000000
238.000000,26895.272958,35310.347117,30008.066298,26998.336851,14555.724210,36029.425088,50341.805856,48050.126201,-0.008000,0.980000,0.062000,192.000000,255.000000,192.000000,30.000000,160.000000,1.000000,240.000000,0.000000,0.000000,0.000000,1647326801.204417,0.000000
239.000000,26894.535350,35308.782495,30008.178056,26998.470962,14555.813617,36030.788545,50335.972051,48046.259349,-0.008000,0.980000,0.062000,192.000000,0.000000,0.000000,0.000000,0.000000,0.000000,0.000000,0.000000,0.000000,0.000000,1647326801.212033,0.000000
240.000000,26896.994042,35309.073068,30008.915664,27000.974357,14557.422943,36028.151039,50328.953603,48044.806486,-0.008000,0.980000,0.062000,192.000000,0.000000,0.000000,0.000000,0.000000,0.000000,0.000000,0.000000,0.000000,0.000000,1647326801.212050,0.000000
241.000000,26901.822019,35312.559940,30011.866094,27006.361128,14559.814579,36017.802181,50321.018734,48043.241864,-0.008000,0.980000,0.062000,192.000000,0.000000,0.000000,0.000000,0.000000,0.000000,0.000000,0.000000,0.000000,0.000000,1647326801.220017,0.000000
242.000000,26895.809400,35307.173170,30015.062394,27006.629349,14559.948690,36023.568931,50332.641641,48043.510085,-0.008000,0.980000,0.062000,192.000000,0.000000,0.000000,0.000000,0.000000,0.000000,0.000000,0.000000,0.000000,0.000000,1647326801.220028,0.000000
243.000000,26893.149542,35310.816504,30012.827219,27006.115258,14559.546359,36016.461076,50330.562929,48044.493561,-0.008000,0.980000,0.062000,192.000000,0.000000,0.000000,0.000000,0.000000,0.000000,0.000000,0.000000,0.000000,0.000000,1647326801.227873,0.000000
244.000000,26901.173818,35319.757202,30013.318957,27005.690575,14558.451123,36008.570911,50326.807836,48044.806486,-0.008000,0.980000,0.062000,192.000000,0.000000,0.000000,0.000000,0.000000,0.000000,0.000000,0.000000,0.000000,0.000000,1647326801.227889,0.000000
245.000000,26899.162161,35313.364603,30009.541513,27002.002537,14553.690201,35997.529149,50315.989592,48047.399288,-0.008000,0.980000,0.062000,192.000000,0.000000,0.000000,0.000000,0.000000,0.000000,0.000000,0.000000,0.000000,0.000000,1647326801.234209,0.000000
246.000000,26883.113609,35299.059486,30003.975928,26997.599244,14547.275251,36017.869236,50330.786446,48049.768573,-0.008000,0.980000,0.062000,192.000000,0.000000,0.000000,0.000000,0.000000,0.000000,0.000000,0.000000,0.000000,0.000000,1647326801.234227,0.000000
247.000000,26889.193283,35299.327707,30006.412268,26992.100715,14547.610527,36022.116068,50329.400638,48044.940596,-0.008000,0.980000,0.062000,192.000000,0.000000,0.000000,0.000000,0.000000,0.000000,0.000000,0.000000,0.000000,0.000000,1647326801.241832,0.000000
248.000000,26901.240873,35311.375297,30011.106135,27001.622558,14554.517216,36012.616576,50319.655278,48049.813277,-0.006000,0.980000,0.058000,192.000000,255.000000,208.000000,30.000000,160.000000,1.000000,208.000000,0.000000,0.000000,0.000000,1647326801.249523,0.000000
249.000000,26904.101897,35313.744582,30011.776687,27003.723622,14556.774742,36008.325041,50317.956545,48056.988186,-0.006000,0.980000,0.058000,192.000000,0.000000,0.000000,0.000000,0.000000,0.000000,0.000000,0.000000,0.000000,0.000000,1647326801.249539,0.000000
250.000000,26902.537275,35310.570635,30011.486114,27001.466096,14559.076972,36011.543693,50320.728161,48057.435221,-0.006000,0.980000,0.058000,192.000000,0.000000,0.000000,0.000000,0.000000,0.000000,0.000000,0.000000,0.000000,0.000000,1647326801.256430,0.000000
251.000000,26897.105801,35304.379201,30009.630920,26999.208569,14558.093495,36021.110239,50327.277223,48055.267102,-0.006000,0.980000,0.058000,192.000000,0.000000,0.000000,0.000000,0.000000,0.000000,0.000000,0.000000,0.000000,0.000000,1647326801.256441,0.000000
252.000000,26895.272958,35304.066277,30007.909835,26997.867465,14554.539568,36016.908111,50323.656240,48052.070803,-0.006000,0.980000,0.058000,192.000000,0.000000,0.000000,0.000000,0.000000,0.000000,0.000000,0.000000,0.000000,0.000000,1647326801.264492,0.000000
253.000000,26896.167027,35304.558015,30008.580388,26999.297976,14554.181940,36015.231730,50323.365667,48053.098983,-0.006000,0.980000,0.058000,192.000000,0.000000,0.000000,0.000000,0.000000,0.000000,0.000000,0.000000,0.000000,0.000000,1647326801.264508,0.000000
254.000000,26895.764696,35306.279100,30006.300510,26996.124029,14551.097399,36016.729297,50320.079961,48045.208817,-0.006000,0.980000,0.058000,192.000000,0.000000,0.000000,0.000000,0.000000,0.000000,0.000000,0.000000,0.000000,0.000000,1647326801.272448,0.000000
255.000000,26889.170931,35301.786399,30000.578463,26993.330061,14548.951632,36023.457172,50326.092580,48040.202026,-0.006000,0.980000,0.058000,192.000000,0.000000,0.000000,0.000000,0.000000,0.000000,0.000000,0.000000,0.000000,0.000000,1647326801.272464,0.000000
0.000000,26887.695716,35301.071143,29994.856417,26993.128895,14549.599832,36016.304614,50324.885586,48040.246730,-0.006000,0.980000,0.058000,192.000000,0.000000,0.000000,0.000000,0.000000,0.000000,0.000000,0.000000,0.000000,0.000000,1647326801.280335,0.000000
1.000000,26896.301138,35308.469571,29999.371469,26996.101677,14555.858321,36011.968376,50328.931252,48046.684032,-0.006000,0.980000,0.058000,192.000000,0.000000,0.000000,0.000000,0.000000,0.000000,0.000000,0.000000,0.000000,0.000000,1647326801.280370,0.000000
2.000000,26897.731650,35307.910777,30005.495847,27001.197875,14560.351021,36018.025698,50331.658164,48043.152457,-0.006000,0.976000,0.058000,192.000000,255.000000,208.000000,30.000000,128.000000,1.000000,208.000000,0.000000,0.000000,0.000000,1647326801.286957,0.000000
3.000000,26899.206865,35309.408344,30007.283986,26999.253273,14559.278138,36010.984899,50317.196586,48034.882311,-0.006000,0.976000,0.058000,192.000000,0.000000,0.000000,0.000000,0.000000,0.000000,0.000000,0.000000,0.000000,0.000000,1647326801.286974,0.000000
4.000000,26899.497437,35313.096382,30008.893312,27006.361128,14560.440428,36002.535940,50303.785539,48030.724887,-0.006000,0.976000,0.058000,192.000000,0.000000,0.000000,0.000000,0.000000,0.000000,0.000000,0.000000,0.000000,0.000000,1647326801.295013,0.000000
5.000000,26902.090240,35313.655175,30002.120734,27010.138572,14558.652289,36010.336698,50309.172310,48029.406134,-0.006000,0.976000,0.058000,192.000000,0.000000,0.000000,0.000000,0.000000,0.000000,0.000000,0.000000,0.000000,0.000000,1647326801.295030,0.000000
6.000000,26898.893940,35312.179960,30000.913739,27005.847038,14558.786399,36020.551446,50317.710676,48033.764724,-0.006000,0.976000,0.058000,192.000000,0.000000,0.000000,0.000000,0.000000,0.000000,0.000000,0.000000,0.000000,0.000000,1647326801.302024,0.000000
7.000000,26893.283652,35311.129428,30002.366603,27003.209532,14553.399629,36019.143286,50314.983763,48040.358489,-0.006000,0.976000,0.058000,192.000000,0.000000,0.000000,0.000000,0.000000,0.000000,0.000000,0.000000,0.000000,0.000000,1647326801.309948,0.000000
8.000000,26895.451772,35312.537588,30001.919568,27002.986014,14548.839873,36015.119972,50315.162577,48048.047489,-0.006000,0.976000,0.058000,192.000000,0.000000,0.000000,0.000000,0.000000,0.000000,0.000000,0.000000,0.000000,0.000000,1647326801.309964,0.000000
9.000000,26890.892016,35317.522027,29997.426867,26996.034622,14546.649402,36015.209379,50317.665972,48050.260311,-0.006000,0.976000,0.058000,192.000000,0.000000,0.000000,0.000000,0.000000,0.000000,0.000000,0.000000,0.000000,0.000000,1647326801.316442,0.000000
10.000000,26889.819132,35317.522027,29997.471571,26995.028793,14548.504597,36006.223977,50318.425932,48050.841457,-0.006000,0.976000,0.058000,192.000000,0.000000,0.000000,0.000000,0.000000,0.000000,0.000000,0.000000,0.000000,0.000000,1647326801.316458,0.000000
11.000000,26886.086391,35310.369469,29991.771876,26989.329098,14543.229585,36009.621443,50325.511435,48043.755954,-0.006000,0.976000,0.058000,192.000000,0.000000,0.000000,0.000000,0.000000,0.000000,0.000000,0.000000,0.000000,0.000000,1647326801.324650,0.000000
12.000000,26893.574225,35318.281987,29993.604719,26988.412677,14543.609565,35999.563158,50311.251022,48040.291433,-0.004000,0.980000,0.058000,192.000000,255.000000,224.000000,30.000000,160.000000,1.000000,208.000000,0.000000,0.000000,0.000000,1647326801.324666,0.000000
13.000000,26894.691812,35315.063335,29996.890425,26992.145418,14545.934146,36000.747800,50312.100388,48037.542169,-0.004000,0.980000,0.058000,192.000000,0.000000,0.000000,0.000000,0.000000,0.000000,0.000000,0.000000,0.000000,0.000000,1647326801.332568,0.000000
14.000000,26894.825923,35311.129428,29993.917643,26990.200816,14546.358829,36002.379477,50308.814682,48035.329346,-0.004000,0.980000,0.058000,192.000000,0.000000,0.000000,0.000000,0.000000,0.000000,0.000000,0.000000,0.000000,0.000000,1647326801.332584,0.000000
15.000000,26891.182588,35304.513312,29991.213082,26983.361183,14542.134350,36000.658393,50309.038199,48033.317689,-0.004000,0.980000,0.058000,192.000000,0.000000,0.000000,0.000000,0.000000,0.000000,0.000000,0.000000,0.000000,0.000000,1647326801.339695,0.000000
16.000000,26894.647109,35304.334498,29995.906949,26992.614805,14545.129483,36000.725448,50311.318077,48029.786113,-0.004000,0.980000,0.058000,192.000000,0.000000,0.000000,0.000000,0.000000,0.000000,0.000000,0.000000,0.000000,0.000000,1647326801.339712,0.000000
17.000000,26899.475086,35312.872864,30004.288853,27002.963663,14549.912757,36001.843035,50308.971144,48034.390573,-0.004000,0.980000,0.058000,192.000000,0.000000,0.000000,0.000000,0.000000,0.000000,0.000000,0.000000,0.000000,0.000000,1647326801.347089,0.000000
18.000000,26892.411934,35312.269367,30006.680489,27002.270758,14547.476417,36000.345469,50305.528975,48033.652965,-0.004000,0.980000,0.058000,192.000000,0.000000,0.000000,0.000000,0.000000,0.000000,0.000000,0.000000,0.000000,0.000000,1647326801.347105,0.000000
19.000000,26889.215635,35309.050716,30001.606643,27000.929654,14548.437542,36000.457227,50301.796234,48030.233148,-0.004000,0.980000,0.058000,192.000000,0.000000,0.000000,0.000000,0.000000,0.000000,0.000000,0.000000,0.000000,0.000000,1647326801.355292,0.000000
20.000000,26891.204940,35311.352946,30001.450181,27005.511761,14552.617318,36004.547597,50305.551327,48033.362393,-0.004000,0.980000,0.058000,192.000000,0.000000,0.000000,0.000000,0.000000,0.000000,0.000000,0.000000,0.000000,0.000000,1647326801.355308,0.000000
21.000000,26890.266167,35311.196484,30002.858341,27003.947139,14554.472513,36006.089867,50307.875908,48033.362393,-0.004000,0.980000,0.058000,192.000000,0.000000,0.000000,0.000000,0.000000,0.000000,0.000000,0.000000,0.000000,0.000000,1647326801.361940,0.000000
22.000000,26884.767638,35307.284928,30003.439486,26999.901474,14555.344231,36013.980033,50311.407484,48026.500407,0.004000,0.982000,0.062000,192.000000,0.000000,32.000000,30.000000,176.000000,1.000000,240.000000,0.000000,0.000000,0.000000,1647326801.369232,0.000000
23.000000,26884.633527,35308.737792,29996.130466,26995.766401,14550.449199,36002.893567,50299.918687,48027.707401,0.004000,0.982000,0.062000,192.000000,0.000000,0.000000,0.000000,0.000000,0.000000,0.000000,0.000000,0.000000,0.000000,1647326801.369244,0.000000
24.000000,26892.836618,35310.592986,29999.706745,26996.369898,14550.963289,36007.185102,50307.808853,48029.786113,0.004000,0.982000,0.062000,192.000000,0.000000,0.000000,0.000000,0.000000,0.000000,0.000000,0.000000,0.000000,0.000000,1647326801.376757,0.000000
25.000000,26908.125211,35318.192580,30009.407402,27006.182314,14560.686297,36006.089867,50311.675705,48038.860922,0.004000,0.982000,0.062000,192.000000,0.000000,0.000000,0.000000,0.000000,0.000000,0.000000,0.000000,0.000000,0.000000,1647326801.376774,0.000000
26.000000,26904.772449,35318.550207,30014.458896,27010.295035,14567.794152,36011.878969,50318.984725,48041.856055,0.004000,0.982000,0.062000,192.000000,0.000000,0.000000,0.000000,0.000000,0.000000,0.000000,0.000000,0.000000,0.000000,1647326801.384912,0.000000
27.000000,26901.754964,35323.691109,30018.683376,27009.088040,14566.497751,36010.403754,50315.609612,48043.487733,0.004000,0.982000,0.062000,192.000000,0.000000,0.000000,0.000000,0.000000,0.000000,0.000000,0.000000,0.000000,0.000000,1647326801.384929,0.000000
28.000000,26892.188417,35326.060394,30014.905931,27010.272683,14560.306318,36001.105428,50306.355990,48047.622806,0.004000,0.982000,0.062000,192.000000,0.000000,0.000000,0.000000,0.000000,0.000000,0.000000,0.000000,0.000000,0.000000,1647326801.392929,0.000000
29.000000,26889.841484,35323.221722,30009.295643,27008.261026,14554.874844,35995.875120,50300.544536,48042.236035,0.004000,0.982000,0.062000,192.000000,0.000000,0.000000,0.000000,0.000000,0.000000,0.000000,0.000000,0.000000,0.000000,1647326801.392945,0.000000
30.000000,26888.835655,35316.851475,30008.401574,27004.528285,14554.651326,36006.916881,50308.881737,48027.126256,0.004000,0.982000,0.062000,192.000000,0.000000,0.000000,0.000000,0.000000,0.000000,0.000000,0.000000,0.000000,0.000000,1647326801.399413,0.000000
31.000000,26894.602405,35318.058469,30010.748507,27006.539942,14559.032268,36002.468884,50307.227708,48023.795846,0.004000,0.982000,0.062000,192.000000,0.000000,0.000000,0.000000,0.000000,0.000000,0.000000,0.000000,0.000000,0.000000,1647326801.399430,0.000000
32.000000,26903.185475,35323.311129,30017.252865,27007.813991,14564.709612,36006.335736,50306.244231,48028.221491,0.006000,0.986000,0.066000,192.000000,0.000000,48.000000,30.000000,208.000000,2.000000,16.000000,0.000000,0.000000,0.000000,1647326801.407484,0.000000
33.000000,26902.984310,35321.075955,30017.789306,27006.584645,14563.815542,36006.939233,50306.937135,48032.535378,0.006000,0.986000,0.066000,192.000000,0.000000,0.000000,0.000000,0.000000,0.000000,0.000000,0.000000,0.000000,0.000000,1647326801.407501,0.000000
34.000000,26896.278786,35316.069164,30014.168324,27003.611863,14556.774742,36009.420277,50311.049856,48030.970756,0.006000,0.986000,0.066000,192.000000,0.000000,0.000000,0.000000,0.000000,0.000000,0.000000,0.000000,0.000000,0.000000,1647326801.415519,0.000000
35.000000,26895.496475,35319.310167,30014.615359,27006.763459,14559.322841,36013.153018,50312.726237,48030.389611,0.006000,0.986000,0.066000,192.000000,0.000000,0.000000,0.000000,0.000000,0.000000,0.000000,0.000000,0.000000,0.000000,1647326801.415534,0.000000
36.000000,26895.004737,35318.639614,30009.787382,27005.824686,14559.389896,36019.858541,50314.916708,48031.507198,0.006000,0.986000,0.066000,192.000000,0.000000,0.000000,0.000000,0.000000,0.000000,0.000000,0.000000,0.000000,0.000000,1647326801.422643,0.000000
37.000000,26896.949339,35323.825219,30015.241208,27010.496200,14565.044888,36028.128687,50318.336525,48039.576178,0.006000,0.986000,0.066000,192.000000,0.000000,0.000000,0.000000,0.000000,0.000000,0.000000,0.000000,0.000000,0.000000,1647326801.429129,0.000000
38.000000,26892.478990,35318.840780,30009.966196,27008.171619,14561.155684,36034.096603,50316.816606,48038.279776,0.006000,0.986000,0.066000,192.000000,0.000000,0.000000,0.000000,0.000000,0.000000,0.000000,0.000000,0.000000,0.000000,1647326801.429145,0.000000
39.000000,26889.215635,35315.622129,30004.065335,27005.064726,14555.165417,36045.138364,50315.699019,48035.262291,0.006000,0.986000,0.066000,192.000000,0.000000,0.000000,0.000000,0.000000,0.000000,0.000000,0.000000,0.000000,0.000000,1647326801.436939,0.000000
40.000000,26888.969766,35321.478286,30003.171266,27004.438878,14556.014783,36032.308463,50301.840937,48037.720983,0.006000,0.986000,0.066000,192.000000,0.000000,0.000000,0.000000,0.000000,0.000000,0.000000,0.000000,0.000000,0.000000,1647326801.436956,0.000000
41.000000,26892.076658,35323.668757,30006.166399,27004.081250,14558.652289,36031.548504,50305.014885,48042.012518,0.006000,0.986000,0.066000,192.000000,0.000000,0.000000,0.000000,0.000000,0.000000,0.000000,0.000000,0.000000,0.000000,1647326801.445005,0.000000
42.000000,26895.049440,35324.495771,30005.115867,27003.902436,14559.456952,36027.145210,50302.109158,48043.934768,0.002000,0.978000,0.068000,192.000000,0.000000,16.000000,30.000000,144.000000,2.000000,32.000000,0.000000,0.000000,0.000000,1647326801.445020,0.000000
43.000000,26895.541179,35324.294606,30007.708670,27003.723622,14557.802922,36019.187989,50291.313266,48041.051393,0.002000,0.978000,0.068000,192.000000,0.000000,0.000000,0.000000,0.000000,0.000000,0.000000,0.000000,0.000000,0.000000,1647326801.452173,0.000000
44.000000,26895.809400,35325.568655,30012.111963,27009.199799,14561.312146,36013.845922,50285.971199,48039.553826,0.002000,0.978000,0.068000,192.000000,0.000000,0.000000,0.000000,0.000000,0.000000,0.000000,0.000000,0.000000,0.000000,1647326801.452185,0.000000
45.000000,26896.323490,35327.334443,30015.822353,27014.005424,14566.900082,36014.985861,50289.659237,48041.118448,0.002000,0.978000,0.068000,192.000000,0.000000,0.000000,0.000000,0.000000,0.000000,0.000000,0.000000,0.000000,0.000000,1647326801.459481,0.000000
46.000000,26892.702507,35324.629882,30008.446277,27008.685709,14562.295623,36019.165637,50291.425024,48034.390573,0.002000,0.978000,0.068000,192.000000,0.000000,0.000000,0.000000,0.000000,0.000000,0.000000,0.000000,0.000000,0.000000,1647326801.459494,0.000000
47.000000,26907.521714,35331.603626,30009.988548,27012.373747,14563.212045,36001.485408,50274.549457,48031.171922,0.002000,0.978000,0.068000,192.000000,0.000000,0.000000,0.000000,0.000000,0.000000,0.000000,0.000000,0.000000,0.000000,1647326801.467404,0.000000
48.000000,26908.728708,35337.862115,30017.029347,27014.363052,14566.430696,35998.534977,50278.058681,48030.635480,0.002000,0.978000,0.068000,192.000000,0.000000,0.000000,0.000000,0.000000,0.000000,0.000000,0.000000,0.000000,0.000000,1647326801.467412,0.000000
49.000000,26911.567379,35344.634693,30010.815562,27009.848000,14560.999222,36001.194835,50283.624266,48032.915358,0.002000,0.978000,0.068000,192.000000,0.000000,0.000000,0.000000,0.000000,0.000000,0.000000,0.000000,0.000000,0.000000,1647326801.475613,0.000000
50.000000,26908.505190,35335.068147,30007.775725,27004.952968,14555.277175,36003.161788,50289.726292,48037.676279,0.002000,0.978000,0.068000,192.000000,0.000000,0.000000,0.000000,0.000000,0.000000,0.000000,0.000000,0.000000,0.000000,1647326801.475625,0.000000
51.000000,26895.138847,35319.176056,30006.255806,27003.388346,14556.886501,36002.066553,50293.526088,48041.341965,0.002000,0.978000,0.068000,192.000000,0.000000,0.000000,0.000000,0.000000,0.000000,0.000000,0.000000,0.000000,0.000000,1647326801.481574,0.000000
52.000000,26893.820094,35321.746507,30011.307300,27006.517590,14562.072106,36006.603957,50300.477481,48042.750125,0.002000,0.978000,0.068000,192.000000,0.000000,0.000000,0.000000,0.000000,0.000000,0.000000,0.000000,0.000000,0.000000,1647326801.481587,0.000000
53.000000,26898.849237,35320.271292,30012.402536,27005.668224,14562.027402,36015.701117,50301.215089,48039.330308,0.006000,0.986000,0.068000,192.000000,0.000000,48.000000,30.000000,208.000000,2.000000,32.000000,0.000000,0.000000,0.000000,1647326801.489188,0.000000
54.000000,26895.250606,35323.869923,30013.028385,27005.779982,14564.620205,36027.078155,50303.897298,48031.753067,0.006000,0.986000,0.068000,192.000000,0.000000,0.000000,0.000000,0.000000,0.000000,0.000000,0.000000,0.000000,0.000000,1647326801.497275,0.000000
55.000000,26899.631548,35331.178943,30021.499696,27014.564218,14570.923396,36031.749670,50301.706827,48032.200102,0.006000,0.986000,0.068000,192.000000,0.000000,0.000000,0.000000,0.000000,0.000000,0.000000,0.000000,0.000000,0.000000,1647326801.497288,0.000000
56.000000,26899.095106,35328.519085,30023.243132,27015.972378,14571.459838,36041.584437,50303.338504,48031.417791,0.006000,0.986000,0.068000,192.000000,0.000000,0.000000,0.000000,0.000000,0.000000,0.000000,0.000000,0.000000,0.000000,1647326801.505288,0.000000
57.000000,26902.514923,35331.849495,30017.565789,27013.670148,14569.403478,36034.118954,50290.329789,48030.456666,0.006000,0.986000,0.068000,192.000000,0.000000,0.000000,0.000000,0.000000,0.000000,0.000000,0.000000,0.000000,0.000000,1647326801.505300,0.000000
58.000000,26908.952225,35337.996225,30017.565789,27017.805221,14568.844684,36016.125800,50271.934303,48034.479980,0.006000,0.986000,0.068000,192.000000,0.000000,0.000000,0.000000,0.000000,0.000000,0.000000,0.000000,0.000000,0.000000,1647326801.511845,0.000000
59.000000,26912.260284,35340.253751,30023.489001,27020.219209,14571.862170,36007.341565,50266.748699,48037.966852,0.006000,0.986000,0.068000,192.000000,0.000000,0.000000,0.000000,0.000000,0.000000,0.000000,0.000000,0.000000,0.000000,1647326801.511858,0.000000
60.000000,26911.925007,35338.219743,30018.348100,27019.861581,14569.202312,35999.831378,50261.831315,48035.552864,0.006000,0.986000,0.068000,192.000000,0.000000,0.000000,0.000000,0.000000,0.000000,0.000000,0.000000,0.000000,0.000000,1647326801.519764,0.000000
61.000000,26905.308891,35333.391766,30018.661024,27020.979169,14568.375298,36009.643794,50273.118946,48036.782209,0.006000,0.986000,0.068000,192.000000,0.000000,0.000000,0.000000,0.000000,0.000000,0.000000,0.000000,0.000000,0.000000,1647326801.519776,0.000000
62.000000,26903.878379,35335.917513,30017.699899,27021.046224,14568.464705,36019.031527,50276.427004,48031.171922,0.006000,0.986000,0.068000,192.000000,0.000000,0.000000,0.000000,0.000000,0.000000,0.000000,0.000000,0.000000,0.000000,1647326801.527883,0.000000
63.000000,26910.293330,35341.147821,30017.342271,27024.019006,14568.442353,36014.114143,50266.569885,48033.317689,0.010000,0.984000,0.066000,192.000000,0.000000,80.000000,30.000000,192.000000,2.000000,16.000000,0.000000,0.000000,0.000000,1647326801.527896,0.000000
64.000000,26906.448830,35340.454917,30014.503600,27020.263913,14564.419039,36014.002384,50263.440640,48031.618957,0.010000,0.984000,0.066000,192.000000,0.000000,0.000000,0.000000,0.000000,0.000000,0.000000,0.000000,0.000000,0.000000,1647326801.534394,0.000000
65.000000,26899.162161,35336.185734,30013.944806,27019.034567,14562.899120,36022.719565,50269.810888,48028.847340,0.010000,0.984000,0.066000,192.000000,0.000000,0.000000,0.000000,0.000000,0.000000,0.000000,0.000000,0.000000,0.000000,1647326801.534413,0.000000
66.000000,26897.396373,35333.659987,30008.580388,27013.401927,14559.412248,36023.390117,50271.151992,48022.365334,0.010000,0.984000,0.066000,192.000000,0.000000,0.000000,0.000000,0.000000,0.000000,0.000000,0.000000,0.000000,0.000000,1647326801.542231,0.000000
67.000000,26907.365251,35345.305246,30015.911760,27022.163811,14568.308242,36005.933405,50267.128678,48035.821084,0.010000,0.984000,0.066000,192.000000,0.000000,0.000000,0.000000,0.000000,0.000000,0.000000,0.000000,0.000000,0.000000,1647326801.542237,0.000000
68.000000,26908.169914,35345.908743,30020.136240,27026.723567,14570.588120,36007.855655,50274.169478,48047.779268,0.010000,0.984000,0.066000,192.000000,0.000000,0.000000,0.000000,0.000000,0.000000,0.000000,0.000000,0.000000,0.000000,1647326801.549333,0.000000
69.000000,26904.101897,35339.069109,30017.409327,27024.466041,14567.034193,36020.037355,50280.875001,48043.197160,0.010000,0.984000,0.066000,192.000000,0.000000,0.000000,0.000000,0.000000,0.000000,0.000000,0.000000,0.000000,0.000000,1647326801.557559,0.000000
70.000000,26904.817153,35337.236266,30019.353928,27021.225038,14564.351984,36026.586417,50285.591219,48039.777343,0.010000,0.984000,0.066000,192.000000,0.000000,0.000000,0.000000,0.000000,0.000000,0.000000,0.000000,0.000000,0.000000,1647326801.557570,0.000000
71.000000,26908.236969,35338.733833,30022.013786,27021.135631,14565.491923,36034.409527,50293.906068,48043.577140,0.010000,0.984000,0.066000,192.000000,0.000000,0.000000,0.000000,0.000000,0.000000,0.000000,0.000000,0.000000,0.000000,1647326801.564460,0.000000
72.000000,26906.448830,35337.169211,30016.716423,27015.190067,14561.669774,36032.442574,50286.485289,48039.687936,0.010000,0.984000,0.066000,192.000000,0.000000,0.000000,0.000000,0.000000,0.000000,0.000000,0.000000,0.000000,0.000000,1647326801.564477,0.000000
73.000000,26908.281673,35341.147821,30018.437507,27012.351395,14565.357812,36020.015004,50270.660254,48039.419715,0.004000,0.984000,0.066000,192.000000,0.000000,32.000000,30.000000,192.000000,2.000000,16.000000,0.000000,0.000000,0.000000,1647326801.572258,0.000000
74.000000,26899.475086,35338.733833,30013.788344,27010.652663,14563.480266,36023.703042,50271.844896,48034.658794,0.004000,0.984000,0.066000,192.000000,0.000000,0.000000,0.000000,0.000000,0.000000,0.000000,0.000000,0.000000,0.000000,1647326801.572275,0.000000
75.000000,26895.921158,35333.771745,30007.932187,27007.545770,14558.652289,36022.026661,50271.599027,48029.942576,0.004000,0.984000,0.066000,192.000000,0.000000,0.000000,0.000000,0.000000,0.000000,0.000000,0.000000,0.000000,0.000000,1647326801.580320,0.000000
76.000000,26894.200074,35333.637635,30012.760164,27006.964625,14558.406420,36021.937254,50273.364815,48031.574253,0.004000,0.984000,0.066000,192.000000,0.000000,0.000000,0.000000,0.000000,0.000000,0.000000,0.000000,0.000000,0.000000,1647326801.580332,0.000000
77.000000,26895.228254,35334.017615,30017.141106,27006.562293,14558.004088,36028.910998,50275.130603,48029.964927,0.004000,0.984000,0.066000,192.000000,0.000000,0.000000,0.000000,0.000000,0.000000,0.000000,0.000000,0.000000,0.000000,1647326801.587542,0.000000
78.000000,26899.564493,35339.292626,30015.218856,27011.099697,14559.345193,36014.717640,50258.702071,48028.802637,0.004000,0.984000,0.066000,192.000000,0.000000,0.000000,0.000000,0.000000,0.000000,0.000000,0.000000,0.000000,0.000000,1647326801.587559,0.000000
79.000000,26901.039708,35341.036062,30015.844705,27014.608921,14560.574539,36008.123876,50258.210332,48024.734619,0.004000,0.984000,0.066000,192.000000,0.000000,0.000000,0.000000,0.000000,0.000000,0.000000,0.000000,0.000000,0.000000,1647326801.594675,0.000000
80.000000,26900.972653,35337.102155,30014.660062,27015.391232,14561.133332,36016.438725,50273.051890,48022.946480,0.004000,0.984000,0.066000,192.000000,0.000000,0.000000,0.000000,0.000000,0.000000,0.000000,0.000000,0.000000,0.000000,1647326801.594686,0.000000
81.000000,26903.878379,35332.922379,30015.017690,27010.473849,14558.831103,36036.465888,50289.547478,48019.772532,0.004000,0.984000,0.066000,192.000000,0.000000,0.000000,0.000000,0.000000,0.000000,0.000000,0.000000,0.000000,0.000000,1647326801.602900,0.000000
82.000000,26899.408030,35336.275141,30009.563864,27003.678918,14551.902062,36031.481449,50282.819603,48022.700610,0.004000,0.984000,0.066000,192.000000,0.000000,0.000000,0.000000,0.000000,0.000000,0.000000,0.000000,0.000000,0.000000,1647326801.602911,0.000000
83.000000,26896.144676,35342.667740,30008.826257,27009.199799,14554.696030,36015.343489,50271.420213,48027.170959,0.006000,0.978000,0.066000,192.000000,0.000000,48.000000,30.000000,144.000000,2.000000,16.000000,0.000000,0.000000,0.000000,1647326801.610069,0.000000
84.000000,26906.381775,35353.821260,30023.399594,27023.549619,14570.342251,36015.544655,50272.113117,48032.870654,0.006000,0.978000,0.066000,192.000000,0.000000,0.000000,0.000000,0.000000,0.000000,0.000000,0.000000,0.000000,0.000000,1647326801.617083,0.000000
85.000000,26909.734536,35353.173060,30025.232437,27025.337759,14573.717365,36010.403754,50271.151992,48034.211759,0.006000,0.978000,0.066000,192.000000,0.000000,0.000000,0.000000,0.000000,0.000000,0.000000,0.000000,0.000000,0.000000,1647326801.617099,0.000000
86.000000,26906.582940,35354.715330,30023.980740,27021.806183,14571.146914,36017.846884,50284.026597,48036.536340,0.006000,0.978000,0.066000,192.000000,0.000000,0.000000,0.000000,0.000000,0.000000,0.000000,0.000000,0.000000,0.000000,1647326801.624609,0.000000
87.000000,26905.890036,35356.749339,30021.656158,27024.421337,14569.872864,36013.532998,50283.221934,48038.168018,0.006000,0.978000,0.066000,192.000000,0.000000,0.000000,0.000000,0.000000,0.000000,0.000000,0.000000,0.000000,0.000000,1647326801.624625,0.000000
88.000000,26902.179647,35348.881525,30015.084745,27023.393157,14566.475399,36022.339585,50295.403635,48033.697669,0.006000,0.978000,0.066000,192.000000,0.000000,0.000000,0.000000,0.000000,0.000000,0.000000,0.000000,0.000000,0.000000,1647326801.632595,0.000000
89.000000,26898.603368,35343.338292,30010.346175,27017.291131,14559.993393,36032.487277,50298.957562,48028.333250,0.006000,0.978000,0.066000,192.000000,0.000000,0.000000,0.000000,0.000000,0.000000,0.000000,0.000000,0.000000,0.000000,1647326801.632612,0.000000
90.000000,26902.492571,35346.400481,30007.663966,27016.017081,14558.160550,36023.993614,50285.792385,48032.915358,0.006000,0.978000,0.066000,192.000000,0.000000,0.000000,0.000000,0.000000,0.000000,0.000000,0.000000,0.000000,0.000000,1647326801.640650,0.000000
91.000000,26911.254455,35352.033121,30018.929245,27020.889762,14567.525931,36015.097620,50278.885696,48038.011555,0.006000,0.978000,0.066000,192.000000,0.000000,0.000000,0.000000,0.000000,0.000000,0.000000,0.000000,0.000000,0.000000,1647326801.640666,0.000000
92.000000,26911.299158,35353.620094,30022.550228,27020.867410,14568.934091,36005.173445,50273.521277,48040.649061,0.006000,0.978000,0.066000,192.000000,0.000000,0.000000,0.000000,0.000000,0.000000,0.000000,0.000000,0.000000,0.000000,1647326801.647056,0.000000
93.000000,26912.372042,35354.044778,30021.656158,27021.381500,14570.006975,36009.844960,50277.075205,48036.782209,0.006000,0.986000,0.070000,192.000000,0.000000,48.000000,30.000000,208.000000,2.000000,48.000000,0.000000,0.000000,0.000000,1647326801.647073,0.000000
94.000000,26919.122269,35355.117661,30026.573542,27026.544753,14570.945748,36002.334774,50271.397861,48039.240901,0.006000,0.986000,0.070000,192.000000,0.000000,0.000000,0.000000,0.000000,0.000000,0.000000,0.000000,0.000000,0.000000,1647326801.655351,0.000000
95.000000,26908.281673,35340.723138,30027.132336,27017.760517,14565.000184,36022.183123,50291.670894,48034.927015,0.006000,0.986000,0.070000,192.000000,0.000000,0.000000,0.000000,0.000000,0.000000,0.000000,0.000000,0.000000,0.000000,1647326801.655368,0.000000
96.000000,26901.285577,35337.705652,30021.477344,27011.144401,14560.954518,36025.804105,50292.475556,48030.881349,0.006000,0.986000,0.070000,192.000000,0.000000,0.000000,0.000000,0.000000,0.000000,0.000000,0.000000,0.000000,0.000000,1647326801.663316,0.000000
97.000000,26900.637376,35334.218780,30012.827219,27008.886875,14558.182902,36023.233655,50288.809870,48029.182616,0.006000,0.986000,0.070000,192.000000,0.000000,0.000000,0.000000,0.000000,0.000000,0.000000,0.000000,0.000000,0.000000,1647326801.663333,0.000000
98.000000,26909.533371,35338.689129,30016.291739,27012.261988,14558.540530,36018.673899,50286.395882,48034.256462,0.006000,0.986000,0.070000,192.000000,0.000000,0.000000,0.000000,0.000000,0.000000,0.000000,0.000000,0.000000,0.000000,1647326801.670483,0.000000
99.000000,26907.946397,35338.242094,30017.051699,27010.496200,14558.071143,36011.297823,50285.770033,48033.429448,0.006000,0.986000,0.070000,192.000000,0.000000,0.000000,0.000000,0.000000,0.000000,0.000000,0.000000,0.000000,0.000000,1647326801.676918,0.000000
100.000000,26906.717051,35335.559885,30015.531780,27010.116221,14559.211082,36016.885759,50296.923554,48035.217587,0.006000,0.986000,0.070000,192.000000,0.000000,0.000000,0.000000,0.000000,0.000000,0.000000,0.000000,0.000000,0.000000,1647326801.676935,0.000000
101.000000,26907.320548,35331.827144,30018.124583,27011.904360,14560.596891,36020.886722,50303.696132,48038.346832,0.006000,0.986000,0.070000,192.000000,0.000000,0.000000,0.000000,0.000000,0.000000,0.000000,0.000000,0.000000,0.000000,1647326801.684744,0.000000
102.000000,26904.168952,35326.172152,30020.873847,27010.160924,14558.026440,36025.155905,50308.121778,48038.235073,0.006000,0.986000,0.070000,192.000000,0.000000,0.000000,0.000000,0.000000,0.000000,0.000000,0.000000,0.000000,0.000000,1647326801.684755,0.000000
103.000000,26899.296272,35318.572559,30014.771821,26998.985052,14550.270385,36022.920730,50303.450263,48033.295337,0.006000,0.986000,0.070000,192.000000,0.000000,0.000000,30.000000,208.000000,2.000000,16.000000,0.000000,0.000000,0.000000,1647326801.692997,0.000000
104.000000,26911.790897,35326.552132,30024.383071,27007.456363,14559.278138,36012.482466,50294.755434,48042.146628,0.006000,0.986000,0.070000,192.000000,0.000000,0.000000,0.000000,0.000000,0.000000,0.000000,0.000000,0.000000,0.000000,1647326801.693014,0.000000
105.000000,26910.896827,35325.143972,30026.640597,27014.497163,14561.200388,36014.628233,50302.556193,48043.085401,0.006000,0.986000,0.070000,192.000000,0.000000,0.000000,0.000000,0.000000,0.000000,0.000000,0.000000,0.000000,0.000000,1647326801.699835,0.000000
106.000000,26909.511019,35316.292681,30021.365585,27008.953930,14557.110018,36022.786620,50307.205356,48035.530512,0.006000,0.986000,0.070000,192.000000,0.000000,0.000000,0.000000,0.000000,0.000000,0.000000,0.000000,0.000000,0.000000,1647326801.699846,0.000000
107.000000,26912.662615,35323.825219,30021.209123,27010.317386,14560.239263,36003.608823,50289.323960,48033.652965,0.006000,0.986000,0.070000,192.000000,0.000000,0.000000,0.000000,0.000000,0.000000,0.000000,0.000000,0.000000,0.000000,1647326801.707591,0.000000
108.000000,26907.432307,35322.260597,30019.644501,27011.502029,14557.937033,36019.210341,50301.505661,48026.478055,0.006000,0.986000,0.070000,192.000000,0.000000,0.000000,0.000000,0.000000,0.000000,0.000000,0.000000,0.000000,0.000000,1647326801.707608,0.000000
109.000000,26915.568342,35330.039004,30018.683376,27011.949064,14559.993393,36012.035431,50288.876926,48023.818198,0.006000,0.986000,0.070000,192.000000,0.000000,0.000000,0.000000,0.000000,0.000000,0.000000,0.000000,0.000000,0.000000,1647326801.715497,0.000000
110.000000,26911.969711,35319.846609,30019.532742,27013.111354,14563.390859,36005.374611,50288.742815,48030.389611,0.006000,0.986000,0.070000,192.000000,0.000000,0.000000,0.000000,0.000000,0.000000,0.000000,0.000000,0.000000,0.000000,1647326801.715513,0.000000
111.000000,26899.944472,35305.496789,30015.956463,27005.109430,14557.825274,36011.856617,50298.912859,48034.167055,0.006000,0.986000,0.070000,192.000000,0.000000,0.000000,0.000000,0.000000,0.000000,0.000000,0.000000,0.000000,0.000000,1647326801.723696,0.000000
112.000000,26897.843408,35305.005050,30015.084745,27000.102639,14556.081838,36004.815817,50289.435719,48032.200102,0.006000,0.986000,0.070000,192.000000,0.000000,0.000000,0.000000,0.000000,0.000000,0.000000,0.000000,0.000000,0.000000,1647326801.723713,0.000000
113.000000,26899.944472,35308.894254,30010.100306,27002.114296,14553.712553,35992.231785,50280.450318,48033.720020,0.002000,0.986000,0.066000,192.000000,0.000000,16.000000,30.000000,208.000000,2.000000,16.000000,0.000000,0.000000,0.000000,1647326801.729670,0.000000
114.000000,26903.096068,35314.482190,30013.453068,27007.836343,14555.813617,35995.204567,50290.620362,48038.972680,0.002000,0.986000,0.066000,192.000000,0.000000,0.000000,0.000000,0.000000,0.000000,0.000000,0.000000,0.000000,0.000000,1647326801.729687,0.000000
115.000000,26902.559626,35312.604643,30019.912722,27013.021948,14561.110981,36006.380440,50306.691266,48048.092192,0.002000,0.986000,0.066000,192.000000,0.000000,0.000000,0.000000,0.000000,0.000000,0.000000,0.000000,0.000000,0.000000,1647326801.736958,0.000000
116.000000,26900.235045,35307.977832,30018.415155,27007.970453,14560.082800,36022.943082,50318.492987,48041.498428,0.002000,0.986000,0.066000,192.000000,0.000000,0.000000,0.000000,0.000000,0.000000,0.000000,0.000000,0.000000,0.000000,1647326801.744922,0.000000
117.000000,26905.308891,35309.900082,30021.052661,27009.065689,14566.631862,36015.388193,50307.607687,48043.510085,0.002000,0.986000,0.066000,192.000000,0.000000,0.000000,0.000000,0.000000,0.000000,0.000000,0.000000,0.000000,0.000000,1647326801.744930,0.000000
118.000000,26894.043612,35301.182902,30013.721289,27002.606035,14561.245091,36024.999443,50309.664048,48032.691840,0.002000,0.986000,0.066000,192.000000,0.000000,0.000000,0.000000,0.000000,0.000000,0.000000,0.000000,0.000000,0.000000,1647326801.753288,0.000000
119.000000,26899.720955,35304.781533,30018.057527,27002.784849,14562.519141,36015.879931,50294.844841,48036.201064,0.002000,0.986000,0.066000,192.000000,0.000000,0.000000,0.000000,0.000000,0.000000,0.000000,0.000000,0.000000,0.000000,1647326801.753305,0.000000
120.000000,26897.619891,35298.791265,30017.565789,27002.315462,14560.283966,36012.773038,50295.694208,48036.983375,0.002000,0.986000,0.066000,192.000000,0.000000,0.000000,0.000000,0.000000,0.000000,0.000000,0.000000,0.000000,0.000000,1647326801.759856,0.000000
121.000000,26899.519789,35302.076972,30019.443335,27003.544808,14561.893292,36016.058745,50297.772920,48034.748201,0.002000,0.986000,0.066000,192.000000,0.000000,0.000000,0.000000,0.000000,0.000000,0.000000,0.000000,0.000000,0.000000,1647326801.759873,0.000000
122.000000,26900.905597,35303.261614,30024.561885,27009.713889,14563.770838,36018.070402,50297.504699,48034.927015,0.002000,0.986000,0.066000,192.000000,0.000000,0.000000,0.000000,0.000000,0.000000,0.000000,0.000000,0.000000,0.000000,1647326801.767764,0.000000
123.000000,26899.519789,35301.719344,30021.365585,27006.316424,14560.328670,36011.387230,50291.067397,48029.897872,0.002000,0.986000,0.066000,192.000000,0.000000,0.000000,30.000000,192.000000,1.000000,240.000000,0.000000,0.000000,0.000000,1647326801.767775,0.000000
124.000000,26897.664594,35299.908853,30019.152763,27004.215360,14559.501655,36007.721544,50290.396844,48028.377954,0.002000,0.986000,0.066000,192.000000,0.000000,0.000000,0.000000,0.000000,0.000000,0.000000,0.000000,0.000000,0.000000,1647326801.775836,0.000000
125.000000,26897.239911,35298.411286,30016.872885,26997.018098,14554.204292,36006.156922,50288.027559,48026.321593,0.002000,0.986000,0.066000,192.000000,0.000000,0.000000,0.000000,0.000000,0.000000,0.000000,0.000000,0.000000,0.000000,1647326801.775852,0.000000
126.000000,26896.614062,35291.191672,30011.195542,26991.385459,14551.522082,36004.860521,50289.547478,48025.204006,0.002000,0.986000,0.066000,192.000000,0.000000,0.000000,0.000000,0.000000,0.000000,0.000000,0.000000,0.000000,0.000000,1647326801.782458,0.000000
127.000000,26892.031955,35286.050771,30008.982719,26987.853883,14548.929280,36011.990727,50297.772920,48022.700610,0.002000,0.986000,0.066000,192.000000,0.000000,0.000000,0.000000,0.000000,0.000000,0.000000,0.000000,0.000000,0.000000,1647326801.782476,0.000000
128.000000,26889.170931,35289.112960,30010.457934,26984.657584,14550.516254,35995.673954,50285.546516,48025.315765,0.002000,0.986000,0.066000,192.000000,0.000000,0.000000,0.000000,0.000000,0.000000,0.000000,0.000000,0.000000,0.000000,1647326801.790228,0.000000
129.000000,26893.127190,35293.136274,30020.091536,26990.714907,14556.305356,35991.047143,50289.502774,48029.204968,0.002000,0.986000,0.066000,192.000000,0.000000,0.000000,0.000000,0.000000,0.000000,0.000000,0.000000,0.000000,0.000000,1647326801.790262,0.000000
130.000000,26894.781219,35295.706725,30023.868981,26998.538017,14559.099324,35999.071419,50302.735007,48030.054334,0.002000,0.986000,0.066000,192.000000,0.000000,0.000000,0.000000,0.000000,0.000000,0.000000,0.000000,0.000000,0.000000,1647326801.797422,0.000000
131.000000,26898.379850,35298.120713,30025.411251,27001.779020,14559.322841,36006.246329,50311.273374,48031.127218,0.002000,0.986000,0.066000,192.000000,0.000000,0.000000,0.000000,0.000000,0.000000,0.000000,0.000000,0.000000,0.000000,1647326801.805367,0.000000
132.000000,26903.274882,35301.093495,30026.730004,27002.404869,14563.703783,35994.981050,50306.199528,48033.988241,0.002000,0.986000,0.066000,192.000000,0.000000,0.000000,0.000000,0.000000,0.000000,0.000000,0.000000,0.000000,0.000000,1647326801.805384,0.000000
133.000000,26897.306966,35295.907890,30022.058490,26997.241616,14561.222739,35986.979125,50300.946868,48032.535378,0.002000,0.984000,0.060000,192.000000,0.000000,16.000000,30.000000,192.000000,1.000000,224.000000,0.000000,0.000000,0.000000,1647326801.812147,0.000000
134.000000,26891.428458,35290.230547,30021.946731,26993.195950,14557.445295,35995.830416,50305.506623,48029.115561,0.002000,0.984000,0.060000,192.000000,0.000000,0.000000,0.000000,0.000000,0.000000,0.000000,0.000000,0.000000,0.000000,1647326801.812164,0.000000
135.000000,26891.026126,35288.956498,30019.599798,26993.844151,14555.746562,36005.039335,50312.279202,48026.656869,0.002000,0.984000,0.060000,192.000000,0.000000,0.000000,0.000000,0.000000,0.000000,0.000000,0.000000,0.000000,0.000000,1647326801.820019,0.000000
136.000000,26891.920196,35287.637745,30020.359757,26988.882063,14555.478341,36008.503855,50312.905051,48021.158340,0.002000,0.984000,0.060000,192.000000,0.000000,0.000000,0.000000,0.000000,0.000000,0.000000,0.000000,0.000000,0.000000,1647326801.820036,0.000000
137.000000,26888.500379,35288.688277,30017.610492,26991.541921,14555.791265,36008.637966,50306.646562,48022.745314,0.002000,0.984000,0.060000,192.000000,0.000000,0.000000,0.000000,0.000000,0.000000,0.000000,0.000000,0.000000,0.000000,1647326801.828113,0.000000
138.000000,26900.391507,35297.628975,30023.980740,26999.163866,14559.971042,35986.509739,50286.284123,48031.395439,0.002000,0.984000,0.060000,192.000000,0.000000,0.000000,0.000000,0.000000,0.000000,0.000000,0.000000,0.000000,0.000000,1647326801.828129,0.000000
139.000000,26900.749135,35292.979812,30025.523010,26996.168732,14559.792228,35988.990782,50292.028522,48030.121390,0.002000,0.984000,0.060000,192.000000,0.000000,0.000000,0.000000,0.000000,0.000000,0.000000,0.000000,0.000000,0.000000,1647326801.835154,0.000000
140.000000,26895.988214,35288.129483,30022.170248,26995.811104,14562.228568,35999.630213,50301.460958,48028.333250,0.002000,0.984000,0.060000,192.000000,0.000000,0.000000,0.000000,0.000000,0.000000,0.000000,0.000000,0.000000,0.000000,1647326801.835171,0.000000
141.000000,26897.552836,35289.917623,30024.405423,26998.538017,14565.827199,36006.000460,50304.344333,48033.407096,0.002000,0.984000,0.060000,192.000000,0.000000,0.000000,0.000000,0.000000,0.000000,0.000000,0.000000,0.000000,0.000000,1647326801.842778,0.000000
142.000000,26895.183551,35288.174187,30022.237304,26998.895645,14560.529835,36012.236597,50307.853557,48036.491637,0.002000,0.984000,0.060000,192.000000,0.000000,0.000000,0.000000,0.000000,0.000000,0.000000,0.000000,0.000000,0.000000,1647326801.842794,0.000000
143.000000,26900.190341,35290.252899,30021.834972,26997.219264,14555.590100,36000.613689,50296.543574,48037.050430,0.002000,0.986000,0.064000,192.000000,0.000000,16.000000,30.000000,208.000000,2.000000,0.000000,0.000000,0.000000,0.000000,1647326801.850673,0.000000
144.000000,26902.738440,35290.565823,30024.651292,27001.354337,14557.020611,35994.645774,50299.762225,48043.934768,0.002000,0.986000,0.064000,192.000000,0.000000,0.000000,0.000000,0.000000,0.000000,0.000000,0.000000,0.000000,0.000000,1647326801.850689,0.000000
145.000000,26902.872551,35287.525986,30025.075975,27001.376689,14558.942861,36003.497065,50310.178138,48046.013480,0.002000,0.986000,0.064000,192.000000,0.000000,0.000000,0.000000,0.000000,0.000000,0.000000,0.000000,0.000000,0.000000,1647326801.857715,0.000000
146.000000,26898.111629,35286.967193,30020.873847,26998.515665,14556.014783,36002.334774,50310.826339,48043.845361,0.002000,0.986000,0.064000,192.000000,0.000000,0.000000,0.000000,0.000000,0.000000,0.000000,0.000000,0.000000,0.000000,1647326801.864748,0.000000
147.000000,26893.171894,35288.911794,30021.164420,27004.371822,14557.199425,36003.497065,50313.910879,48049.343890,0.002000,0.986000,0.064000,192.000000,0.000000,0.000000,0.000000,0.000000,0.000000,0.000000,0.000000,0.000000,0.000000,1647326801.864764,0.000000
148.000000,26895.451772,35289.582347,30019.644501,27003.589511,14557.288832,36006.849826,50314.693190,48050.729698,0.002000,0.986000,0.064000,192.000000,0.000000,0.000000,0.000000,0.000000,0.000000,0.000000,0.000000,0.000000,0.000000,1647326801.872423,0.000000
149.000000,26893.462466,35287.548338,30020.203295,27007.076383,14556.864149,36011.543693,50314.693190,48051.355547,0.002000,0.986000,0.064000,192.000000,0.000000,0.000000,0.000000,0.000000,0.000000,0.000000,0.000000,0.000000,0.000000,1647326801.872440,0.000000
150.000000,26896.055269,35291.906928,30025.232437,27009.892703,14563.457914,36019.053879,50318.828263,48050.327367,0.002000,0.986000,0.064000,192.000000,0.000000,0.000000,0.000000,0.000000,0.000000,0.000000,0.000000,0.000000,0.000000,1647326801.880120,0.000000
151.000000,26893.641280,35289.023553,30023.489001,27007.970453,14565.760143,36033.090774,50328.618327,48044.270044,0.002000,0.986000,0.064000,192.000000,0.000000,0.000000,0.000000,0.000000,0.000000,0.000000,0.000000,0.000000,0.000000,1647326801.880136,0.000000
152.000000,26895.317661,35289.738809,30018.437507,27006.025851,14564.799018,36028.285149,50318.694153,48043.532436,0.002000,0.986000,0.064000,192.000000,0.000000,0.000000,0.000000,0.000000,0.000000,0.000000,0.000000,0.000000,0.000000,1647326801.888443,0.000000
153.000000,26895.675289,35293.404495,30016.135277,27004.595340,14563.390859,36011.163713,50298.711693,48044.784134,0.002000,0.986000,0.064000,192.000000,0.000000,0.000000,30.000000,160.000000,2.000000,0.000000,0.000000,0.000000,0.000000,1647326801.888460,0.000000
154.000000,26896.122324,35291.415190,30019.353928,27003.656567,14563.189693,36003.921748,50297.817623,48045.164114,0.002000,0.986000,0.064000,192.000000,0.000000,0.000000,0.000000,0.000000,0.000000,0.000000,0.000000,0.000000,0.000000,1647326801.895045,0.000000
155.000000,26883.873568,35278.182957,30010.301472,26992.994784,14550.963289,36019.210341,50312.703885,48032.893006,0.002000,0.986000,0.064000,192.000000,0.000000,0.000000,0.000000,0.000000,0.000000,0.000000,0.000000,0.000000,0.000000,1647326801.895061,0.000000
156.000000,26886.220501,35280.082855,30010.524989,26993.151247,14554.092533,36012.638928,50303.092635,48033.921186,0.002000,0.986000,0.064000,192.000000,0.000000,0.000000,0.000000,0.000000,0.000000,0.000000,0.000000,0.000000,0.000000,1647326801.902969,0.000000
157.000000,26882.420705,35280.462835,30008.647443,26994.000613,14552.505559,36000.412524,50293.593144,48032.803599,0.002000,0.986000,0.064000,192.000000,0.000000,0.000000,0.000000,0.000000,0.000000,0.000000,0.000000,0.000000,0.000000,1647326801.902985,0.000000
158.000000,26884.164141,35281.692181,30011.352004,26997.532189,14553.556091,35993.327021,50290.955638,48033.541207,0.002000,0.986000,0.064000,192.000000,0.000000,0.000000,0.000000,0.000000,0.000000,0.000000,0.000000,0.000000,0.000000,1647326801.911060,0.000000
159.000000,26889.729725,35282.340381,30011.709632,27003.969491,14557.758219,35991.203605,50293.906068,48036.245768,0.002000,0.986000,0.064000,192.000000,0.000000,0.000000,0.000000,0.000000,0.000000,0.000000,0.000000,0.000000,0.000000,1647326801.911076,0.000000
160.000000,26892.188417,35285.000239,30010.793210,27003.991843,14559.322841,35996.456265,50302.958525,48036.379878,0.002000,0.986000,0.064000,192.000000,0.000000,0.000000,0.000000,0.000000,0.000000,0.000000,0.000000,0.000000,0.000000,1647326801.918151,0.000000
