%OpenBCI Raw EEG Data
%Number of channels = 8
%Sample Rate = 256 Hz
%Board = OpenBCI_GUI$BoardCytonSerial
%Channels = Fp1, Fp2, F3, F4, Fz, Pz, O1, O2
%Data recorded at AIMS Lab (http://aimsl.uiu.ac.bd) by Rana Depto (mail@ranadepto.com)
%Brainwaves were obtained via the Ultracortex Mark IV Headset using the OpenBCI Cyton Board
%Recording Application = ConcentrateToday (https://concentrate.today)
%Data type = RAW data with noise
%Day No = 10
%Subject ID = 5
%Session ID = 7
%Record starting timestamp (UTC+6) = 2022-03-30T10:53:19.068627
%Record ending timestamp (UTC+6)   = 2022-03-30T10:53:44.937433
%Recorded durations = ~25 seconds
Sample Index, EXG Channel 0, EXG Channel 1, EXG Channel 2, EXG Channel 3, EXG Channel 4, EXG Channel 5, EXG Channel 6, EXG Channel 7, Accel Channel 0, Accel Channel 1, Accel Channel 2, Other, Other, Other, Other, Other, Other, Other, Analog Channel 0, Analog Channel 1, Analog Channel 2, Timestamp, Timestamp (Formatted)
219.000000,-53880.221114,-40786.055122,18203.573609,-5542.249148,10668.934663,27382.451580,-40933.956615,-28004.411221,-0.036000,0.942000,0.254000,192.000000,0.000000,0.000000,0.000000,0.000000,0.000000,0.000000,0.000000,0.000000,0.000000,1648615999.073815,0.000000
220.000000,-53891.262876,-40800.628460,18190.922521,-5560.734041,10676.266036,27367.900594,-40940.930359,-28007.965148,-0.036000,0.942000,0.254000,192.000000,0.000000,0.000000,0.000000,0.000000,0.000000,0.000000,0.000000,0.000000,0.000000,1648615999.073822,0.000000
221.000000,-53887.507783,-40794.325268,18182.942949,-5556.800134,10652.103800,27370.851024,-40943.746679,-27999.069154,-0.036000,0.942000,0.254000,192.000000,0.000000,0.000000,0.000000,0.000000,0.000000,0.000000,0.000000,0.000000,0.000000,1648615999.081706,0.000000
222.000000,-53887.530135,-40789.676105,18182.831190,-5549.424058,10640.615003,27374.784932,-40947.725290,-28004.411221,-0.036000,0.942000,0.254000,192.000000,0.000000,0.000000,0.000000,0.000000,0.000000,0.000000,0.000000,0.000000,0.000000,1648615999.081711,0.000000
223.000000,-53875.594303,-40783.797596,18192.218923,-5543.254977,10650.472122,27382.138655,-40924.725345,-27988.250910,-0.028000,0.942000,0.254000,192.000000,255.000000,32.000000,29.000000,112.000000,7.000000,240.000000,0.000000,0.000000,0.000000,1648615999.088287,0.000000
224.000000,-53883.752690,-40792.470073,18192.241274,-5546.518331,10665.581902,27379.031763,-40912.342478,-27996.521055,-0.028000,0.942000,0.254000,192.000000,0.000000,0.000000,0.000000,0.000000,0.000000,0.000000,0.000000,0.000000,0.000000,1648615999.088292,0.000000
225.000000,-53901.544678,-40808.004535,18173.912844,-5564.802058,10658.474047,27363.094969,-40922.221949,-27995.939910,-0.028000,0.942000,0.254000,192.000000,0.000000,0.000000,0.000000,0.000000,0.000000,0.000000,0.000000,0.000000,0.000000,1648615999.095308,0.000000
226.000000,-53891.262876,-40794.437026,18175.186893,-5556.308395,10642.179625,27371.722743,-40942.360871,-28013.508381,-0.028000,0.942000,0.254000,192.000000,0.000000,0.000000,0.000000,0.000000,0.000000,0.000000,0.000000,0.000000,0.000000,1648615999.103427,0.000000
227.000000,-53886.546658,-40790.525471,18178.338489,-5552.039212,10638.782160,27375.388429,-40926.848760,-27999.829113,-0.028000,0.942000,0.254000,192.000000,0.000000,0.000000,0.000000,0.000000,0.000000,0.000000,0.000000,0.000000,0.000000,1648615999.103431,0.000000
228.000000,-53870.878085,-40776.935610,18202.903056,-5540.639823,10656.708259,27389.559435,-40914.577653,-27984.406410,-0.028000,0.942000,0.254000,192.000000,0.000000,0.000000,0.000000,0.000000,0.000000,0.000000,0.000000,0.000000,0.000000,1648615999.111362,0.000000
229.000000,-53880.712853,-40788.111483,18202.768946,-5533.531968,10674.813172,27388.419496,-40927.407554,-27996.252834,-0.028000,0.942000,0.254000,192.000000,0.000000,0.000000,0.000000,0.000000,0.000000,0.000000,0.000000,0.000000,0.000000,1648615999.111369,0.000000
230.000000,-53898.437786,-40807.155169,18181.735954,-5555.503733,10665.313681,27363.296135,-40967.774805,-28023.901942,-0.028000,0.942000,0.254000,192.000000,0.000000,0.000000,0.000000,0.000000,0.000000,0.000000,0.000000,0.000000,0.000000,1648615999.117943,0.000000
231.000000,-53899.533021,-40803.958869,18171.588263,-5559.974082,10656.574149,27362.871452,-40956.978912,-28009.283901,-0.028000,0.942000,0.254000,192.000000,0.000000,0.000000,0.000000,0.000000,0.000000,0.000000,0.000000,0.000000,0.000000,1648615999.117948,0.000000
232.000000,-53888.960646,-40790.905451,18183.345280,-5548.507637,10648.996907,27375.500187,-40910.733153,-27991.804837,-0.028000,0.942000,0.254000,192.000000,0.000000,0.000000,0.000000,0.000000,0.000000,0.000000,0.000000,0.000000,0.000000,1648615999.125959,0.000000
233.000000,-53888.535963,-40794.571137,18189.089678,-5552.262730,10660.083373,27381.557510,-40923.294833,-27994.285881,-0.026000,0.954000,0.262000,192.000000,255.000000,48.000000,29.000000,208.000000,8.000000,48.000000,0.000000,0.000000,0.000000,1648615999.125966,0.000000
234.000000,-53907.579649,-40813.324250,18176.080963,-5567.528971,10667.459448,27364.972516,-40940.148048,-28002.958358,-0.026000,0.954000,0.262000,192.000000,0.000000,0.000000,0.000000,0.000000,0.000000,0.000000,0.000000,0.000000,0.000000,1648615999.133937,0.000000
235.000000,-53917.570879,-40826.042393,18164.994498,-5577.877829,10648.996907,27347.247582,-40966.254886,-28015.050651,-0.026000,0.954000,0.262000,192.000000,0.000000,0.000000,0.000000,0.000000,0.000000,0.000000,0.000000,0.000000,0.000000,1648615999.133949,0.000000
236.000000,-53906.059731,-40813.659527,18172.459981,-5565.517314,10636.926965,27358.334048,-40965.003188,-28018.515172,-0.026000,0.954000,0.262000,192.000000,0.000000,0.000000,0.000000,0.000000,0.000000,0.000000,0.000000,0.000000,0.000000,1648615999.140995,0.000000
237.000000,-53892.648684,-40800.695515,18182.205341,-5552.687413,10626.779273,27366.671248,-40954.922552,-28021.867933,-0.026000,0.954000,0.262000,192.000000,0.000000,0.000000,0.000000,0.000000,0.000000,0.000000,0.000000,0.000000,0.000000,1648615999.140999,0.000000
238.000000,-53892.715739,-40799.533224,18188.374423,-5551.435715,10633.618907,27371.231004,-40939.276330,-28011.317910,-0.026000,0.954000,0.262000,192.000000,0.000000,0.000000,0.000000,0.000000,0.000000,0.000000,0.000000,0.000000,0.000000,1648615999.148569,0.000000
239.000000,-53890.726434,-40798.907375,18191.481315,-5547.568863,10656.283576,27372.236833,-40921.082010,-28005.662919,-0.026000,0.954000,0.262000,192.000000,0.000000,0.000000,0.000000,0.000000,0.000000,0.000000,0.000000,0.000000,0.000000,1648615999.148573,0.000000
240.000000,-53892.648684,-40802.148378,18185.871027,-5546.227759,10661.960919,27372.572109,-40920.657327,-27982.931195,-0.026000,0.954000,0.262000,192.000000,0.000000,0.000000,0.000000,0.000000,0.000000,0.000000,0.000000,0.000000,0.000000,1648615999.155607,0.000000
241.000000,-53894.772100,-40803.333021,18181.043050,-5547.680622,10640.972631,27373.443827,-40927.094630,-27988.608538,-0.026000,0.954000,0.262000,192.000000,0.000000,0.000000,0.000000,0.000000,0.000000,0.000000,0.000000,0.000000,0.000000,1648615999.163630,0.000000
242.000000,-53882.948027,-40792.090093,18191.280149,-5537.599985,10635.027067,27383.323298,-40922.959557,-27990.463733,-0.026000,0.954000,0.262000,192.000000,0.000000,0.000000,0.000000,0.000000,0.000000,0.000000,0.000000,0.000000,0.000000,1648615999.163634,0.000000
243.000000,-53889.675902,-40806.618727,18188.553237,-5548.865265,10642.581957,27373.756751,-40915.315260,-28004.791201,-0.028000,0.954000,0.266000,192.000000,255.000000,32.000000,29.000000,208.000000,8.000000,80.000000,0.000000,0.000000,0.000000,1648615999.170702,0.000000
244.000000,-53913.435806,-40829.618672,18168.459018,-5571.596989,10642.179625,27348.208707,-40965.070243,-28034.474317,-0.028000,0.954000,0.266000,192.000000,0.000000,0.000000,0.000000,0.000000,0.000000,0.000000,0.000000,0.000000,0.000000,1648615999.170706,0.000000
245.000000,-53897.387254,-40809.926785,18186.563931,-5551.368660,10660.888035,27368.213519,-40957.783575,-28010.535599,-0.028000,0.954000,0.266000,192.000000,0.000000,0.000000,0.000000,0.000000,0.000000,0.000000,0.000000,0.000000,0.000000,1648615999.178172,0.000000
246.000000,-53891.195821,-40807.982183,18192.062460,-5548.239416,10664.844294,27371.275708,-40930.715612,-27982.841788,-0.028000,0.954000,0.266000,192.000000,0.000000,0.000000,0.000000,0.000000,0.000000,0.000000,0.000000,0.000000,0.000000,1648615999.178176,0.000000
247.000000,-53900.561202,-40813.212492,18177.645585,-5557.336576,10634.356515,27361.955030,-40954.117889,-28010.468544,-0.028000,0.954000,0.266000,192.000000,0.000000,0.000000,0.000000,0.000000,0.000000,0.000000,0.000000,0.000000,0.000000,1648615999.186191,0.000000
248.000000,-53894.034492,-40808.630384,18186.742745,-5555.570788,10638.335125,27365.106626,-40970.211145,-28013.128401,-0.028000,0.954000,0.266000,192.000000,0.000000,0.000000,0.000000,0.000000,0.000000,0.000000,0.000000,0.000000,0.000000,1648615999.186194,0.000000
249.000000,-53893.989789,-40809.479750,18188.754402,-5550.251073,10658.697564,27364.637240,-40959.415252,-28018.939855,-0.028000,0.954000,0.266000,192.000000,0.000000,0.000000,0.000000,0.000000,0.000000,0.000000,0.000000,0.000000,0.000000,1648615999.194236,0.000000
250.000000,-53888.155983,-40803.534186,18190.453135,-5540.908043,10660.575111,27373.734400,-40939.075165,-28013.150753,-0.028000,0.954000,0.266000,192.000000,0.000000,0.000000,0.000000,0.000000,0.000000,0.000000,0.000000,0.000000,0.000000,1648615999.194240,0.000000
251.000000,-53901.321161,-40812.117256,18173.018774,-5557.068355,10634.177701,27361.440940,-40944.126659,-28011.474372,-0.028000,0.954000,0.266000,192.000000,0.000000,0.000000,0.000000,0.000000,0.000000,0.000000,0.000000,0.000000,0.000000,1648615999.200854,0.000000
252.000000,-53880.802260,-40795.487558,18183.568798,-5546.451276,10629.617945,27373.935565,-40931.721441,-28003.874779,-0.028000,0.954000,0.266000,192.000000,0.000000,0.000000,0.000000,0.000000,0.000000,0.000000,0.000000,0.000000,0.000000,1648615999.200858,0.000000
253.000000,-53891.240524,-40804.160035,18178.830228,-5554.766125,10640.145617,27364.681943,-40925.060621,-28018.403413,-0.038000,0.942000,0.262000,192.000000,254.000000,208.000000,29.000000,112.000000,8.000000,48.000000,0.000000,0.000000,0.000000,1648615999.208876,0.000000
254.000000,-53913.994600,-40824.477771,18172.035297,-5572.334596,10644.995945,27348.655742,-40950.005168,-28002.354861,-0.038000,0.942000,0.262000,192.000000,0.000000,0.000000,0.000000,0.000000,0.000000,0.000000,0.000000,0.000000,0.000000,1648615999.208881,0.000000
255.000000,-53910.351266,-40816.297032,18175.186893,-5563.595064,10645.152407,27355.070693,-40964.623209,-27999.270320,-0.038000,0.942000,0.262000,192.000000,0.000000,0.000000,0.000000,0.000000,0.000000,0.000000,0.000000,0.000000,0.000000,1648615999.215963,0.000000
0.000000,-53889.407681,-40792.894756,18179.411373,-5545.266634,10629.729704,27370.806321,-40959.035272,-28024.281922,-0.038000,0.942000,0.262000,192.000000,0.000000,0.000000,0.000000,0.000000,0.000000,0.000000,0.000000,0.000000,0.000000,1648615999.222981,0.000000
1.000000,-53881.718681,-40786.837433,18193.112992,-5539.656346,10636.278765,27377.847121,-40932.012013,-28007.763983,-0.038000,0.942000,0.262000,192.000000,0.000000,0.000000,0.000000,0.000000,0.000000,0.000000,0.000000,0.000000,0.000000,1648615999.222991,0.000000
2.000000,-53888.446556,-40786.166881,18189.424955,-5542.271500,10642.649012,27368.906423,-40936.102383,-28005.819381,-0.038000,0.942000,0.262000,192.000000,0.000000,0.000000,0.000000,0.000000,0.000000,0.000000,0.000000,0.000000,0.000000,1648615999.230591,0.000000
3.000000,-53896.604943,-40793.811177,18188.441478,-5550.966328,10652.304966,27364.100798,-40956.554229,-28019.118669,-0.038000,0.942000,0.262000,192.000000,0.000000,0.000000,0.000000,0.000000,0.000000,0.000000,0.000000,0.000000,0.000000,1648615999.230596,0.000000
4.000000,-53902.818728,-40801.567233,18179.523132,-5563.885637,10652.640242,27348.566335,-40966.031368,-28021.063271,-0.038000,0.942000,0.262000,192.000000,0.000000,0.000000,0.000000,0.000000,0.000000,0.000000,0.000000,0.000000,0.000000,1648615999.238548,0.000000
5.000000,-53905.232716,-40803.243614,18169.531902,-5569.630035,10637.150483,27340.251486,-40962.008054,-28034.697835,-0.038000,0.942000,0.262000,192.000000,0.000000,0.000000,0.000000,0.000000,0.000000,0.000000,0.000000,0.000000,0.000000,1648615999.238552,0.000000
6.000000,-53893.207478,-40789.787863,18176.349184,-5554.989642,10628.187433,27350.130957,-40941.623264,-28032.909695,-0.038000,0.942000,0.262000,192.000000,0.000000,0.000000,0.000000,0.000000,0.000000,0.000000,0.000000,0.000000,0.000000,1648615999.246484,0.000000
7.000000,-53888.088928,-40780.646000,18185.267530,-5547.367698,10639.005678,27358.177585,-40931.564979,-28023.141983,-0.036000,0.952000,0.272000,192.000000,254.000000,224.000000,29.000000,192.000000,8.000000,128.000000,0.000000,0.000000,0.000000,1648615999.246489,0.000000
8.000000,-53887.641893,-40785.138701,18189.357899,-5550.988680,10651.835579,27359.719856,-40952.419156,-28007.629872,-0.036000,0.952000,0.272000,192.000000,0.000000,0.000000,0.000000,0.000000,0.000000,0.000000,0.000000,0.000000,0.000000,1648615999.253096,0.000000
9.000000,-53881.718681,-40783.082340,18191.213094,-5542.562073,10657.289405,27364.570184,-40941.936188,-28023.387852,-0.036000,0.952000,0.272000,192.000000,0.000000,0.000000,0.000000,0.000000,0.000000,0.000000,0.000000,0.000000,0.000000,1648615999.253100,0.000000
10.000000,-53886.211382,-40782.165919,18190.833114,-5547.188884,10639.631526,27367.833539,-40940.259807,-28003.763020,-0.036000,0.952000,0.272000,192.000000,0.000000,0.000000,0.000000,0.000000,0.000000,0.000000,0.000000,0.000000,0.000000,1648615999.261217,0.000000
11.000000,-53895.241486,-40787.306820,18180.484257,-5550.318128,10628.589765,27363.318487,-40948.217028,-27990.508436,-0.036000,0.952000,0.272000,192.000000,0.000000,0.000000,0.000000,0.000000,0.000000,0.000000,0.000000,0.000000,0.000000,1648615999.261224,0.000000
12.000000,-53899.756539,-40794.101750,18173.152885,-5557.738907,10634.423570,27352.209670,-40959.236438,-28012.010814,-0.036000,0.952000,0.272000,192.000000,0.000000,0.000000,0.000000,0.000000,0.000000,0.000000,0.000000,0.000000,0.000000,1648615999.269162,0.000000
13.000000,-53894.347417,-40792.492425,18184.731088,-5552.598006,10651.008564,27362.580879,-40952.620322,-28026.673559,-0.036000,0.952000,0.272000,192.000000,0.000000,0.000000,0.000000,0.000000,0.000000,0.000000,0.000000,0.000000,0.000000,1648615999.269167,0.000000
14.000000,-53896.448481,-40799.689686,18183.099411,-5558.320052,10654.696602,27363.653763,-40953.112060,-28022.985521,-0.036000,0.952000,0.272000,192.000000,0.000000,0.000000,0.000000,0.000000,0.000000,0.000000,0.000000,0.000000,0.000000,1648615999.276266,0.000000
15.000000,-53881.606922,-40780.333076,18186.362766,-5546.741849,10644.884186,27372.817978,-40934.984795,-28012.681367,-0.036000,0.952000,0.272000,192.000000,0.000000,0.000000,0.000000,0.000000,0.000000,0.000000,0.000000,0.000000,0.000000,1648615999.276271,0.000000
16.000000,-53887.150155,-40787.038599,18187.458001,-5544.327860,10638.469236,27375.321373,-40916.477551,-28002.734840,-0.036000,0.952000,0.272000,192.000000,0.000000,0.000000,0.000000,0.000000,0.000000,0.000000,0.000000,0.000000,0.000000,1648615999.284305,0.000000
17.000000,-53898.326027,-40802.640117,18184.284053,-5560.309358,10641.062038,27363.430245,-40932.883731,-28003.181875,-0.040000,0.954000,0.270000,192.000000,254.000000,192.000000,29.000000,208.000000,8.000000,112.000000,0.000000,0.000000,0.000000,1648615999.290819,0.000000
18.000000,-53901.410568,-40812.676050,18178.651414,-5573.295721,10645.934718,27348.856908,-40957.135374,-28013.307215,-0.040000,0.954000,0.270000,192.000000,0.000000,0.000000,0.000000,0.000000,0.000000,0.000000,0.000000,0.000000,0.000000,1648615999.290823,0.000000
19.000000,-53890.659379,-40798.661506,18186.966263,-5544.149046,10650.248605,27357.551737,-40941.377394,-28018.671634,-0.040000,0.954000,0.270000,192.000000,0.000000,0.000000,0.000000,0.000000,0.000000,0.000000,0.000000,0.000000,0.000000,1648615999.298819,0.000000
20.000000,-53876.980111,-40783.216451,18197.695100,-5538.270538,10644.191282,27374.539062,-40924.546531,-28011.519076,-0.040000,0.954000,0.270000,192.000000,0.000000,0.000000,0.000000,0.000000,0.000000,0.000000,0.000000,0.000000,0.000000,1648615999.298823,0.000000
21.000000,-53884.065614,-40797.946250,18191.213094,-5552.262730,10639.296250,27367.610022,-40947.322958,-28009.954454,-0.040000,0.954000,0.270000,192.000000,0.000000,0.000000,0.000000,0.000000,0.000000,0.000000,0.000000,0.000000,0.000000,1648615999.305934,0.000000
22.000000,-53892.671036,-40809.926785,18187.636815,-5561.069317,10648.125189,27361.776216,-40945.601874,-28011.206151,-0.040000,0.954000,0.270000,192.000000,0.000000,0.000000,0.000000,0.000000,0.000000,0.000000,0.000000,0.000000,0.000000,1648615999.305944,0.000000
23.000000,-53892.447518,-40805.143512,18190.006100,-5553.022689,10666.945358,27368.481740,-40924.345365,-27988.943814,-0.040000,0.954000,0.270000,192.000000,0.000000,0.000000,0.000000,0.000000,0.000000,0.000000,0.000000,0.000000,0.000000,1648615999.313404,0.000000
24.000000,-53881.204591,-40794.325268,18194.118821,-5539.924567,10669.515809,27376.573071,-40881.228850,-27988.385020,-0.040000,0.954000,0.270000,192.000000,0.000000,0.000000,0.000000,0.000000,0.000000,0.000000,0.000000,0.000000,0.000000,1648615999.313408,0.000000
25.000000,-53880.176411,-40798.840320,18188.016795,-5546.943014,10636.457579,27368.057056,-40907.961536,-28006.042898,-0.040000,0.954000,0.270000,192.000000,0.000000,0.000000,0.000000,0.000000,0.000000,0.000000,0.000000,0.000000,0.000000,1648615999.321422,0.000000
26.000000,-53888.513611,-40808.786846,18182.272396,-5553.782648,10632.590727,27360.412760,-40936.191790,-28021.644416,-0.040000,0.954000,0.270000,192.000000,0.000000,0.000000,0.000000,0.000000,0.000000,0.000000,0.000000,0.000000,0.000000,1648615999.321425,0.000000
27.000000,-53875.527248,-40799.019134,18198.410356,-5543.254977,10654.584843,27371.856853,-40946.294778,-28004.634739,-0.044000,0.944000,0.268000,192.000000,254.000000,160.000000,29.000000,128.000000,8.000000,96.000000,0.000000,0.000000,0.000000,1648615999.329348,0.000000
28.000000,-53874.811992,-40797.834491,18199.058556,-5543.143218,10666.565378,27372.974440,-40945.892447,-28006.378175,-0.044000,0.944000,0.268000,192.000000,0.000000,0.000000,0.000000,0.000000,0.000000,0.000000,0.000000,0.000000,0.000000,1648615999.329353,0.000000
29.000000,-53885.741995,-40810.239710,18192.330681,-5550.116962,10666.230102,27367.788836,-40940.371566,-28004.522980,-0.044000,0.944000,0.268000,192.000000,0.000000,0.000000,0.000000,0.000000,0.000000,0.000000,0.000000,0.000000,0.000000,1648615999.336089,0.000000
30.000000,-53889.117108,-40812.921919,18187.010966,-5554.117924,10652.819056,27366.984173,-40929.307452,-28001.460791,-0.044000,0.944000,0.268000,192.000000,0.000000,0.000000,0.000000,0.000000,0.000000,0.000000,0.000000,0.000000,0.000000,1648615999.336094,0.000000
31.000000,-53873.761460,-40801.634288,18196.063423,-5539.879863,10654.853064,27375.656650,-40908.877958,-27997.303366,-0.044000,0.944000,0.268000,192.000000,0.000000,0.000000,0.000000,0.000000,0.000000,0.000000,0.000000,0.000000,0.000000,1648615999.343138,0.000000
32.000000,-53858.562274,-40788.402055,18207.172240,-5525.217119,10663.525541,27385.849045,-40895.779836,-27988.809703,-0.044000,0.944000,0.268000,192.000000,0.000000,0.000000,0.000000,0.000000,0.000000,0.000000,0.000000,0.000000,0.000000,1648615999.351046,0.000000
33.000000,-53866.005405,-40794.995820,18207.708682,-5531.520311,10676.243684,27380.574033,-40912.990679,-28004.031241,-0.044000,0.944000,0.268000,192.000000,0.000000,0.000000,0.000000,0.000000,0.000000,0.000000,0.000000,0.000000,0.000000,1648615999.351050,0.000000
34.000000,-53864.619597,-40788.960849,18210.390891,-5530.179206,10674.567303,27385.334955,-40910.442580,-28004.858256,-0.044000,0.944000,0.268000,192.000000,0.000000,0.000000,0.000000,0.000000,0.000000,0.000000,0.000000,0.000000,0.000000,1648615999.359069,0.000000
35.000000,-53868.173524,-40790.279602,18198.589170,-5533.375506,10647.700506,27383.368001,-40883.888708,-27985.233424,-0.044000,0.944000,0.268000,192.000000,0.000000,0.000000,0.000000,0.000000,0.000000,0.000000,0.000000,0.000000,0.000000,1648615999.359072,0.000000
36.000000,-53879.304693,-40801.477826,18190.743708,-5542.003279,10630.333201,27377.355382,-40936.974101,-27991.603672,-0.044000,0.944000,0.268000,192.000000,0.000000,0.000000,0.000000,0.000000,0.000000,0.000000,0.000000,0.000000,0.000000,1648615999.365813,0.000000
37.000000,-53880.109355,-40805.389381,18197.069251,-5548.038250,10645.420628,27369.129940,-40938.829295,-28004.254759,-0.036000,0.944000,0.262000,192.000000,254.000000,224.000000,29.000000,128.000000,8.000000,48.000000,0.000000,0.000000,0.000000,1648615999.365817,0.000000
38.000000,-53872.599169,-40794.928765,18208.423937,-5539.209311,10672.600349,27378.361211,-40915.449371,-27990.463733,-0.036000,0.944000,0.262000,192.000000,0.000000,0.000000,0.000000,0.000000,0.000000,0.000000,0.000000,0.000000,0.000000,1648615999.373713,0.000000
39.000000,-53872.018024,-40796.426332,18204.445327,-5541.288023,10668.420573,27379.501150,-40926.245263,-28006.266416,-0.036000,0.944000,0.262000,192.000000,0.000000,0.000000,0.000000,0.000000,0.000000,0.000000,0.000000,0.000000,0.000000,1648615999.373717,0.000000
40.000000,-53871.436879,-40796.873366,18200.980806,-5545.110171,10655.858893,27382.898615,-40916.857531,-28011.586131,-0.036000,0.944000,0.262000,192.000000,0.000000,0.000000,0.000000,0.000000,0.000000,0.000000,0.000000,0.000000,0.000000,1648615999.381719,0.000000
41.000000,-53879.014120,-40797.298050,18198.522115,-5544.864302,10646.582919,27386.899577,-40899.512577,-28012.301387,-0.036000,0.944000,0.262000,192.000000,0.000000,0.000000,0.000000,0.000000,0.000000,0.000000,0.000000,0.000000,0.000000,1648615999.381723,0.000000
42.000000,-53888.535963,-40805.434085,18192.330681,-5551.703936,10656.216521,27381.378696,-40904.273499,-27997.325718,-0.036000,0.944000,0.262000,192.000000,0.000000,0.000000,0.000000,0.000000,0.000000,0.000000,0.000000,0.000000,0.000000,1648615999.388340,0.000000
43.000000,-53890.324103,-40807.602204,18194.141173,-5553.268558,10666.095992,27383.099780,-40914.063563,-27999.493837,-0.036000,0.944000,0.262000,192.000000,0.000000,0.000000,0.000000,0.000000,0.000000,0.000000,0.000000,0.000000,0.000000,1648615999.388350,0.000000
44.000000,-53883.819745,-40804.607070,18187.010966,-5556.554265,10657.177646,27376.528368,-40915.806999,-27982.841788,-0.036000,0.944000,0.262000,192.000000,0.000000,0.000000,0.000000,0.000000,0.000000,0.000000,0.000000,0.000000,0.000000,1648615999.396314,0.000000
45.000000,-53866.094812,-40784.445797,18192.330681,-5536.504750,10646.828788,27390.922891,-40896.137464,-27982.640622,-0.036000,0.944000,0.262000,192.000000,0.000000,0.000000,0.000000,0.000000,0.000000,0.000000,0.000000,0.000000,0.000000,1648615999.396317,0.000000
46.000000,-53865.021928,-40782.992933,18202.456022,-5530.849758,10652.908463,27401.607025,-40866.387292,-27990.173160,-0.036000,0.944000,0.262000,192.000000,0.000000,0.000000,0.000000,0.000000,0.000000,0.000000,0.000000,0.000000,0.000000,1648615999.403316,0.000000
47.000000,-53896.001446,-40817.213454,18178.673766,-5565.740832,10646.895843,27367.341801,-40934.515409,-28010.893227,-0.036000,0.946000,0.268000,192.000000,254.000000,224.000000,29.000000,144.000000,8.000000,96.000000,0.000000,0.000000,0.000000,1648615999.411516,0.000000
48.000000,-53892.514574,-40815.537073,18178.427896,-5567.596026,10658.585806,27364.279612,-40950.116926,-28018.023433,-0.036000,0.946000,0.268000,192.000000,0.000000,0.000000,0.000000,0.000000,0.000000,0.000000,0.000000,0.000000,0.000000,1648615999.411521,0.000000
49.000000,-53888.848888,-40808.608032,18185.803972,-5548.552340,10656.954128,27366.023048,-40932.839028,-28016.257646,-0.036000,0.946000,0.268000,192.000000,0.000000,0.000000,0.000000,0.000000,0.000000,0.000000,0.000000,0.000000,0.000000,1648615999.418032,0.000000
50.000000,-53890.927600,-40809.725620,18179.523132,-5558.074183,10637.999849,27358.714027,-40945.959502,-28025.891247,-0.036000,0.946000,0.268000,192.000000,0.000000,0.000000,0.000000,0.000000,0.000000,0.000000,0.000000,0.000000,0.000000,1648615999.418036,0.000000
51.000000,-53892.201649,-40817.258157,18184.552274,-5565.182038,10636.926965,27361.865623,-40935.565941,-28009.954454,-0.036000,0.946000,0.268000,192.000000,0.000000,0.000000,0.000000,0.000000,0.000000,0.000000,0.000000,0.000000,0.000000,1648615999.425944,0.000000
52.000000,-53882.880972,-40808.473922,18194.722318,-5556.129581,10650.807399,27370.359286,-40909.146179,-28007.451058,-0.036000,0.946000,0.268000,192.000000,0.000000,0.000000,0.000000,0.000000,0.000000,0.000000,0.000000,0.000000,0.000000,1648615999.425947,0.000000
53.000000,-53867.748841,-40792.693590,18209.563876,-5541.198616,10670.901617,27388.106571,-40881.430016,-27966.860290,-0.036000,0.946000,0.268000,192.000000,0.000000,0.000000,0.000000,0.000000,0.000000,0.000000,0.000000,0.000000,0.000000,1648615999.433991,0.000000
54.000000,-53905.366827,-40827.875236,18174.628100,-5576.961407,10648.371059,27353.908402,-40919.115057,-27991.491913,-0.036000,0.946000,0.268000,192.000000,0.000000,0.000000,0.000000,0.000000,0.000000,0.000000,0.000000,0.000000,0.000000,1648615999.433995,0.000000
55.000000,-53903.712798,-40826.355317,18164.815684,-5583.421061,10623.135939,27353.014332,-40924.568883,-28016.436460,-0.036000,0.946000,0.268000,192.000000,0.000000,0.000000,0.000000,0.000000,0.000000,0.000000,0.000000,0.000000,0.000000,1648615999.441194,0.000000
56.000000,-53885.384367,-40804.852939,18182.093582,-5560.912855,10620.856061,27378.361211,-40904.474664,-27977.812645,-0.036000,0.946000,0.268000,192.000000,0.000000,0.000000,0.000000,0.000000,0.000000,0.000000,0.000000,0.000000,0.000000,1648615999.441198,0.000000
57.000000,-53891.419338,-40812.094904,18182.317100,-5562.276311,10628.947393,27372.013315,-40912.588348,-27991.693078,-0.034000,0.948000,0.272000,192.000000,254.000000,240.000000,29.000000,160.000000,8.000000,128.000000,0.000000,0.000000,0.000000,1648615999.448647,0.000000
58.000000,-53886.099623,-40810.083247,18193.492972,-5563.282140,10641.643183,27373.913213,-40930.581502,-27999.739706,-0.034000,0.948000,0.272000,192.000000,0.000000,0.000000,0.000000,0.000000,0.000000,0.000000,0.000000,0.000000,0.000000,1648615999.448651,0.000000
59.000000,-53895.554411,-40816.677012,18185.133420,-5569.562980,10643.677192,27370.985135,-40931.207351,-28007.004023,-0.034000,0.948000,0.272000,192.000000,0.000000,0.000000,0.000000,0.000000,0.000000,0.000000,0.000000,0.000000,0.000000,1648615999.456572,0.000000
60.000000,-53883.797393,-40804.271794,18186.362766,-5559.124715,10635.988192,27379.501150,-40907.223929,-28006.534637,-0.034000,0.948000,0.272000,192.000000,0.000000,0.000000,0.000000,0.000000,0.000000,0.000000,0.000000,0.000000,0.000000,1648615999.456576,0.000000
61.000000,-53888.982998,-40810.060896,18183.054707,-5562.432773,10625.706390,27373.846158,-40914.130618,-28009.842695,-0.034000,0.948000,0.272000,192.000000,0.000000,0.000000,0.000000,0.000000,0.000000,0.000000,0.000000,0.000000,0.000000,1648615999.463663,0.000000
62.000000,-53886.457251,-40807.177521,18191.593074,-5558.409459,10643.878358,27374.784932,-40923.451295,-28000.767887,-0.034000,0.948000,0.272000,192.000000,0.000000,0.000000,0.000000,0.000000,0.000000,0.000000,0.000000,0.000000,0.000000,1648615999.470740,0.000000
63.000000,-53895.308542,-40813.301899,18180.864236,-5569.451221,10645.375925,27362.402065,-40911.269595,-28001.460791,-0.034000,0.948000,0.272000,192.000000,0.000000,0.000000,0.000000,0.000000,0.000000,0.000000,0.000000,0.000000,0.000000,1648615999.470743,0.000000
64.000000,-53894.213306,-40813.167788,18177.645585,-5571.328768,10637.038724,27366.358324,-40927.295795,-27979.801950,-0.034000,0.948000,0.272000,192.000000,0.000000,0.000000,0.000000,0.000000,0.000000,0.000000,0.000000,0.000000,0.000000,1648615999.478215,0.000000
65.000000,-53882.009254,-40803.914166,18184.127591,-5562.075145,10632.501320,27376.014277,-40919.092705,-27980.003116,-0.034000,0.948000,0.272000,192.000000,0.000000,0.000000,0.000000,0.000000,0.000000,0.000000,0.000000,0.000000,0.000000,1648615999.478225,0.000000
66.000000,-53884.758518,-40801.030791,18184.619330,-5557.224817,10628.232137,27377.176568,-40910.084952,-27984.875796,-0.034000,0.948000,0.272000,192.000000,0.000000,0.000000,0.000000,0.000000,0.000000,0.000000,0.000000,0.000000,0.000000,1648615999.486250,0.000000
67.000000,-53888.334797,-40806.015230,18185.155771,-5560.510523,10634.200053,27371.342763,-40912.141313,-27998.823285,-0.034000,0.948000,0.272000,192.000000,0.000000,0.000000,0.000000,0.000000,0.000000,0.000000,0.000000,0.000000,0.000000,1648615999.486268,0.000000
68.000000,-53881.942199,-40797.566271,18191.235446,-5553.514427,10651.880282,27373.287365,-40927.698127,-27989.994346,-0.028000,0.948000,0.272000,192.000000,255.000000,32.000000,29.000000,160.000000,8.000000,128.000000,0.000000,0.000000,0.000000,1648615999.494189,0.000000
69.000000,-53891.911077,-40804.696477,18178.249082,-5565.807887,10635.138826,27365.486606,-40942.874961,-27994.978785,-0.028000,0.948000,0.272000,192.000000,0.000000,0.000000,0.000000,0.000000,0.000000,0.000000,0.000000,0.000000,0.000000,1648615999.494193,0.000000
70.000000,-53901.544678,-40811.044372,18167.676707,-5574.681529,10615.357532,27361.619754,-40937.465839,-28008.635701,-0.028000,0.948000,0.272000,192.000000,0.000000,0.000000,0.000000,0.000000,0.000000,0.000000,0.000000,0.000000,0.000000,1648615999.500815,0.000000
71.000000,-53881.696329,-40791.039561,18183.278225,-5549.848741,10614.150538,27382.138655,-40904.519368,-27984.808741,-0.028000,0.948000,0.272000,192.000000,0.000000,0.000000,0.000000,0.000000,0.000000,0.000000,0.000000,0.000000,0.000000,1648615999.500818,0.000000
72.000000,-53875.236675,-40789.474939,18197.091603,-5544.260805,10639.944451,27385.469065,-40899.222004,-27958.500738,-0.028000,0.948000,0.272000,192.000000,0.000000,0.000000,0.000000,0.000000,0.000000,0.000000,0.000000,0.000000,0.000000,1648615999.508840,0.000000
73.000000,-53885.183201,-40798.974430,18192.174219,-5552.039212,10656.037707,27374.449655,-40929.754487,-27979.287860,-0.028000,0.948000,0.272000,192.000000,0.000000,0.000000,0.000000,0.000000,0.000000,0.000000,0.000000,0.000000,0.000000,1648615999.508844,0.000000
74.000000,-53896.649646,-40811.312593,18175.186893,-5568.423041,10642.514901,27364.257260,-40935.253016,-27988.787352,-0.028000,0.948000,0.272000,192.000000,0.000000,0.000000,0.000000,0.000000,0.000000,0.000000,0.000000,0.000000,0.000000,1648615999.516867,0.000000
75.000000,-53888.491260,-40804.249442,18175.902149,-5566.612550,10622.174814,27369.733437,-40924.837103,-27999.091506,-0.028000,0.948000,0.272000,192.000000,0.000000,0.000000,0.000000,0.000000,0.000000,0.000000,0.000000,0.000000,0.000000,1648615999.516871,0.000000
76.000000,-53887.954818,-40799.667335,18181.713603,-5559.012957,10619.380846,27372.750923,-40886.436806,-27990.955471,-0.028000,0.948000,0.272000,192.000000,0.000000,0.000000,0.000000,0.000000,0.000000,0.000000,0.000000,0.000000,0.000000,1648615999.523969,0.000000
77.000000,-53892.246353,-40803.154207,18181.043050,-5556.844837,10626.935736,27374.561414,-40914.063563,-27996.833980,-0.028000,0.948000,0.272000,192.000000,0.000000,0.000000,0.000000,0.000000,0.000000,0.000000,0.000000,0.000000,0.000000,1648615999.523973,0.000000
78.000000,-53887.038396,-40799.846148,18190.699004,-5553.000337,10649.063963,27380.283461,-40924.524179,-27986.261605,-0.032000,0.946000,0.266000,192.000000,255.000000,0.000000,29.000000,144.000000,8.000000,80.000000,0.000000,0.000000,0.000000,1648615999.530418,0.000000
79.000000,-53887.865411,-40797.387457,18188.530885,-5552.441544,10651.075620,27376.461312,-40915.069391,-27989.346145,-0.032000,0.946000,0.266000,192.000000,0.000000,0.000000,0.000000,0.000000,0.000000,0.000000,0.000000,0.000000,0.000000,1648615999.538501,0.000000
80.000000,-53878.477678,-40785.876308,18186.698042,-5545.847779,10628.433302,27381.222234,-40902.172435,-27986.149846,-0.032000,0.946000,0.266000,192.000000,0.000000,0.000000,0.000000,0.000000,0.000000,0.000000,0.000000,0.000000,0.000000,1648615999.538505,0.000000
81.000000,-53880.198762,-40785.541032,18188.553237,-5543.813770,10623.068884,27378.517673,-40923.339537,-27999.203265,-0.032000,0.946000,0.266000,192.000000,0.000000,0.000000,0.000000,0.000000,0.000000,0.000000,0.000000,0.000000,0.000000,1648615999.546514,0.000000
82.000000,-53879.148230,-40783.082340,18195.437574,-5541.690355,10650.785047,27372.192129,-40931.475572,-27998.666823,-0.032000,0.946000,0.266000,192.000000,0.000000,0.000000,0.000000,0.000000,0.000000,0.000000,0.000000,0.000000,0.000000,1648615999.546518,0.000000
83.000000,-53894.123899,-40801.030791,18183.546446,-5561.739869,10655.076582,27360.390408,-40936.638825,-27994.487047,-0.032000,0.946000,0.266000,192.000000,0.000000,0.000000,0.000000,0.000000,0.000000,0.000000,0.000000,0.000000,0.000000,1648615999.553095,0.000000
84.000000,-53896.895516,-40806.104637,18176.639757,-5555.056698,10647.901672,27362.022085,-40916.790475,-27988.787352,-0.032000,0.946000,0.266000,192.000000,0.000000,0.000000,0.000000,0.000000,0.000000,0.000000,0.000000,0.000000,0.000000,1648615999.553098,0.000000
85.000000,-53907.534946,-40818.442800,18165.218015,-5571.194657,10626.488701,27355.025989,-40924.568883,-28002.243102,-0.032000,0.946000,0.266000,192.000000,0.000000,0.000000,0.000000,0.000000,0.000000,0.000000,0.000000,0.000000,0.000000,1648615999.561113,0.000000
86.000000,-53881.338701,-40796.806311,18179.277263,-5556.107230,10620.721951,27370.359286,-40917.908063,-27990.016698,-0.032000,0.946000,0.266000,192.000000,0.000000,0.000000,0.000000,0.000000,0.000000,0.000000,0.000000,0.000000,0.000000,1648615999.561122,0.000000
87.000000,-53891.911077,-40806.931651,18177.131495,-5569.294759,10626.533404,27358.557565,-40914.488246,-28004.768849,-0.032000,0.946000,0.266000,192.000000,0.000000,0.000000,0.000000,0.000000,0.000000,0.000000,0.000000,0.000000,0.000000,1648615999.569115,0.000000
88.000000,-53900.047112,-40815.425314,18180.819533,-5581.029425,10634.267108,27355.987114,-40955.280179,-28010.803820,-0.032000,0.948000,0.262000,192.000000,255.000000,0.000000,29.000000,160.000000,8.000000,48.000000,0.000000,0.000000,0.000000,1648615999.569119,0.000000
89.000000,-53881.249294,-40794.772302,18192.621254,-5562.455125,10637.597518,27373.019144,-40938.471668,-27999.270320,-0.032000,0.948000,0.262000,192.000000,0.000000,0.000000,0.000000,0.000000,0.000000,0.000000,0.000000,0.000000,0.000000,1648615999.576655,0.000000
90.000000,-53849.867445,-40763.591619,18212.156679,-5529.933337,10644.593614,27401.629377,-40880.960629,-27972.314116,-0.032000,0.948000,0.262000,192.000000,0.000000,0.000000,0.000000,0.000000,0.000000,0.000000,0.000000,0.000000,0.000000,1648615999.576672,0.000000
91.000000,-53877.605960,-40790.145491,18189.536713,-5557.895369,10626.332238,27377.511844,-40890.527176,-27982.059477,-0.032000,0.948000,0.262000,192.000000,0.000000,0.000000,0.000000,0.000000,0.000000,0.000000,0.000000,0.000000,0.000000,1648615999.584186,0.000000
92.000000,-53896.403777,-40806.283451,18178.539655,-5574.145087,10620.632544,27367.095931,-40942.539685,-28019.096317,-0.032000,0.948000,0.262000,192.000000,0.000000,0.000000,0.000000,0.000000,0.000000,0.000000,0.000000,0.000000,0.000000,1648615999.584202,0.000000
93.000000,-53904.293943,-40809.077419,18172.147056,-5575.463840,10632.590727,27360.837443,-40949.178153,-28021.532657,-0.032000,0.948000,0.262000,192.000000,0.000000,0.000000,0.000000,0.000000,0.000000,0.000000,0.000000,0.000000,0.000000,1648615999.591173,0.000000
94.000000,-53884.490297,-40792.782997,18183.457039,-5568.937131,10626.064018,27367.721780,-40935.431830,-28013.575436,-0.032000,0.948000,0.262000,192.000000,0.000000,0.000000,0.000000,0.000000,0.000000,0.000000,0.000000,0.000000,0.000000,1648615999.599237,0.000000
95.000000,-53889.050053,-40795.711076,18184.708737,-5567.148991,10624.521747,27368.437036,-40925.909987,-28007.652224,-0.032000,0.948000,0.262000,192.000000,0.000000,0.000000,0.000000,0.000000,0.000000,0.000000,0.000000,0.000000,0.000000,1648615999.599254,0.000000
96.000000,-53894.772100,-40800.740218,18178.249082,-5571.239361,10614.888145,27358.669324,-40922.557226,-28007.495762,-0.032000,0.948000,0.262000,192.000000,0.000000,0.000000,0.000000,0.000000,0.000000,0.000000,0.000000,0.000000,0.000000,1648615999.605982,0.000000
97.000000,-53887.328969,-40799.622631,18180.618367,-5569.518276,10625.393465,27355.942411,-40925.127676,-28014.022471,-0.032000,0.948000,0.262000,192.000000,0.000000,0.000000,0.000000,0.000000,0.000000,0.000000,0.000000,0.000000,0.000000,1648615999.605992,0.000000
98.000000,-53873.023852,-40785.205756,18195.124649,-5555.190808,10645.822960,27370.135769,-40923.764220,-27995.202302,-0.028000,0.956000,0.266000,192.000000,255.000000,32.000000,29.000000,224.000000,8.000000,80.000000,0.000000,0.000000,0.000000,1648615999.615317,0.000000
99.000000,-53878.120050,-40786.502157,18192.107164,-5558.185942,10646.158236,27364.883109,-40916.544606,-28006.981672,-0.028000,0.956000,0.266000,192.000000,0.000000,0.000000,0.000000,0.000000,0.000000,0.000000,0.000000,0.000000,0.000000,1648615999.615333,0.000000
100.000000,-53873.113259,-40785.250459,18188.173257,-5559.907026,10632.255451,27358.512862,-40929.374508,-28009.507419,-0.028000,0.956000,0.266000,192.000000,0.000000,0.000000,0.000000,0.000000,0.000000,0.000000,0.000000,0.000000,0.000000,1648615999.623269,0.000000
101.000000,-53885.630236,-40796.605146,18174.941024,-5571.015843,10622.040704,27350.823861,-40934.694223,-27999.113858,-0.028000,0.956000,0.266000,192.000000,0.000000,0.000000,0.000000,0.000000,0.000000,0.000000,0.000000,0.000000,0.000000,1648615999.623285,0.000000
102.000000,-53876.331911,-40788.580869,18187.413298,-5558.364756,10630.914346,27362.133844,-40946.205371,-28014.245989,-0.028000,0.956000,0.266000,192.000000,0.000000,0.000000,0.000000,0.000000,0.000000,0.000000,0.000000,0.000000,0.000000,1648615999.631116,0.000000
103.000000,-53869.872257,-40778.768453,18204.959417,-5552.039212,10653.400201,27370.962783,-40934.560112,-28002.131343,-0.028000,0.956000,0.266000,192.000000,0.000000,0.000000,0.000000,0.000000,0.000000,0.000000,0.000000,0.000000,0.000000,1648615999.631132,0.000000
104.000000,-53887.530135,-40793.587660,18180.305443,-5565.494962,10627.941564,27352.857870,-40941.220932,-28027.433518,-0.028000,0.956000,0.266000,192.000000,0.000000,0.000000,0.000000,0.000000,0.000000,0.000000,0.000000,0.000000,0.000000,1648615999.637562,0.000000
105.000000,-53886.747824,-40794.794654,18175.790390,-5564.667948,10615.111663,27351.628524,-40943.433755,-28024.818364,-0.028000,0.956000,0.266000,192.000000,0.000000,0.000000,0.000000,0.000000,0.000000,0.000000,0.000000,0.000000,0.000000,1648615999.637579,0.000000
106.000000,-53871.347472,-40782.791767,18190.386080,-5555.324919,10622.286573,27362.983210,-40938.359909,-28016.279997,-0.028000,0.956000,0.266000,192.000000,0.000000,0.000000,0.000000,0.000000,0.000000,0.000000,0.000000,0.000000,0.000000,1648615999.644304,0.000000
107.000000,-53867.234751,-40782.724712,18194.409394,-5556.777782,10634.982364,27364.972516,-40925.530008,-28009.328605,-0.028000,0.956000,0.266000,192.000000,0.000000,0.000000,0.000000,0.000000,0.000000,0.000000,0.000000,0.000000,0.000000,1648615999.644339,0.000000
108.000000,-53881.472812,-40795.196986,18187.726222,-5569.004186,10642.716067,27349.907440,-40940.103345,-28005.238236,-0.028000,0.954000,0.266000,192.000000,255.000000,32.000000,29.000000,208.000000,8.000000,80.000000,0.000000,0.000000,0.000000,1648615999.653121,0.000000
109.000000,-53883.730338,-40797.275698,18186.586283,-5566.232570,10642.671364,27349.505109,-40938.091688,-28012.457849,-0.028000,0.954000,0.266000,192.000000,0.000000,0.000000,0.000000,0.000000,0.000000,0.000000,0.000000,0.000000,0.000000,1648615999.659603,0.000000
110.000000,-53862.585588,-40778.947267,18197.739804,-5551.636881,10631.473140,27365.553661,-40927.116981,-28014.134230,-0.028000,0.954000,0.266000,192.000000,0.000000,0.000000,0.000000,0.000000,0.000000,0.000000,0.000000,0.000000,0.000000,1648615999.659619,0.000000
111.000000,-53874.588475,-40789.452587,18192.174219,-5562.030442,10620.610192,27355.428321,-40923.563054,-28021.420899,-0.028000,0.954000,0.266000,192.000000,0.000000,0.000000,0.000000,0.000000,0.000000,0.000000,0.000000,0.000000,0.000000,1648615999.665788,0.000000
112.000000,-53880.377576,-40800.449646,18183.412335,-5574.413308,10627.382770,27340.475004,-40951.614493,-28014.983596,-0.028000,0.954000,0.266000,192.000000,0.000000,0.000000,0.000000,0.000000,0.000000,0.000000,0.000000,0.000000,0.000000,1648615999.665800,0.000000
113.000000,-53877.360091,-40796.985125,18189.246141,-5563.505657,10640.950279,27346.264106,-40939.388089,-28021.175029,-0.028000,0.954000,0.266000,192.000000,0.000000,0.000000,0.000000,0.000000,0.000000,0.000000,0.000000,0.000000,0.000000,1648615999.674214,0.000000
114.000000,-53892.983960,-40808.563329,18171.923539,-5579.487154,10629.237965,27334.663550,-40948.373490,-28037.424748,-0.028000,0.954000,0.266000,192.000000,0.000000,0.000000,0.000000,0.000000,0.000000,0.000000,0.000000,0.000000,0.000000,1648615999.674230,0.000000
115.000000,-53881.919847,-40795.711076,18177.556178,-5569.987663,10615.066959,27345.325332,-40958.901162,-28026.271227,-0.028000,0.954000,0.266000,192.000000,0.000000,0.000000,0.000000,0.000000,0.000000,0.000000,0.000000,0.000000,0.000000,1648615999.682125,0.000000
116.000000,-53865.983053,-40785.250459,18196.018719,-5553.648538,10629.170910,27358.289344,-40932.034365,-27984.138189,-0.028000,0.954000,0.266000,192.000000,0.000000,0.000000,0.000000,0.000000,0.000000,0.000000,0.000000,0.000000,0.000000,1648615999.682141,0.000000
117.000000,-53889.877068,-40804.160035,18181.177161,-5571.529933,10635.876433,27339.916210,-40939.276330,-28017.174067,-0.028000,0.954000,0.266000,192.000000,0.000000,0.000000,0.000000,0.000000,0.000000,0.000000,0.000000,0.000000,0.000000,1648615999.689340,0.000000
118.000000,-53883.551524,-40800.896680,18184.060536,-5571.574637,10638.737457,27345.481795,-40941.936188,-28038.587038,-0.036000,0.948000,0.262000,192.000000,254.000000,224.000000,29.000000,160.000000,8.000000,48.000000,0.000000,0.000000,0.000000,1648615999.689356,0.000000
119.000000,-53882.344530,-40798.907375,18185.334585,-5572.312244,10644.325393,27349.281591,-40911.604871,-28008.456887,-0.036000,0.948000,0.262000,192.000000,0.000000,0.000000,0.000000,0.000000,0.000000,0.000000,0.000000,0.000000,0.000000,1648615999.696761,0.000000
120.000000,-53901.701141,-40816.721716,18162.111123,-5591.668855,10615.156366,27329.075614,-40947.971159,-28035.994236,-0.036000,0.948000,0.262000,192.000000,0.000000,0.000000,0.000000,0.000000,0.000000,0.000000,0.000000,0.000000,0.000000,1648615999.696777,0.000000
121.000000,-53890.994655,-40805.724657,18169.241329,-5568.065413,10605.478061,27343.224268,-40970.144089,-28023.879590,-0.036000,0.948000,0.262000,192.000000,0.000000,0.000000,0.000000,0.000000,0.000000,0.000000,0.000000,0.000000,0.000000,1648615999.704761,0.000000
122.000000,-53875.102565,-40787.284468,18189.089678,-5554.162628,10635.854082,27363.854928,-40939.432793,-28003.472448,-0.036000,0.948000,0.262000,192.000000,0.000000,0.000000,0.000000,0.000000,0.000000,0.000000,0.000000,0.000000,0.000000,1648615999.704777,0.000000
123.000000,-53892.179297,-40804.517663,18177.332661,-5574.100384,10643.364268,27347.806376,-40940.684490,-28009.954454,-0.036000,0.948000,0.262000,192.000000,0.000000,0.000000,0.000000,0.000000,0.000000,0.000000,0.000000,0.000000,0.000000,1648615999.711886,0.000000
124.000000,-53879.148230,-40792.023038,18182.786486,-5566.567846,10630.914346,27349.996847,-40942.494982,-28011.139096,-0.036000,0.948000,0.262000,192.000000,0.000000,0.000000,0.000000,0.000000,0.000000,0.000000,0.000000,0.000000,0.000000,1648615999.718412,0.000000
125.000000,-53882.746861,-40794.705247,18179.701946,-5571.596989,10619.023218,27342.017274,-40940.706842,-28017.598750,-0.036000,0.948000,0.262000,192.000000,0.000000,0.000000,0.000000,0.000000,0.000000,0.000000,0.000000,0.000000,0.000000,1648615999.718428,0.000000
126.000000,-53883.931504,-40794.906413,18180.931292,-5569.317111,10616.251602,27342.285495,-40938.784592,-28017.308178,-0.036000,0.948000,0.262000,192.000000,0.000000,0.000000,0.000000,0.000000,0.000000,0.000000,0.000000,0.000000,0.000000,1648615999.726460,0.000000
127.000000,-53875.259027,-40780.847166,18188.910864,-5556.554265,10635.161178,27347.784024,-40927.988699,-28006.311119,-0.036000,0.948000,0.262000,192.000000,0.000000,0.000000,0.000000,0.000000,0.000000,0.000000,0.000000,0.000000,0.000000,1648615999.726476,0.000000
128.000000,-53861.423297,-40767.503174,18191.928350,-5548.351174,10646.426457,27352.053207,-40909.481455,-27991.670727,-0.038000,0.942000,0.264000,192.000000,254.000000,208.000000,29.000000,112.000000,8.000000,64.000000,0.000000,0.000000,0.000000,1648615999.734460,0.000000
129.000000,-53868.084117,-40775.572154,18188.553237,-5549.848741,10637.865739,27350.063902,-40918.600967,-27983.780561,-0.038000,0.942000,0.264000,192.000000,0.000000,0.000000,0.000000,0.000000,0.000000,0.000000,0.000000,0.000000,0.000000,1648615999.734495,0.000000
130.000000,-53885.674940,-40792.984163,18174.292824,-5565.941997,10615.201070,27337.211649,-40949.155801,-28016.615274,-0.038000,0.942000,0.264000,192.000000,0.000000,0.000000,0.000000,0.000000,0.000000,0.000000,0.000000,0.000000,0.000000,1648615999.741547,0.000000
131.000000,-53885.496126,-40799.041486,18179.344318,-5570.546457,10618.687942,27336.049358,-40931.207351,-27988.340317,-0.038000,0.942000,0.264000,192.000000,0.000000,0.000000,0.000000,0.000000,0.000000,0.000000,0.000000,0.000000,0.000000,1648615999.741563,0.000000
132.000000,-53886.189030,-40796.269869,18180.484257,-5565.472611,10635.541157,27339.335065,-40928.212217,-27970.615383,-0.038000,0.942000,0.264000,192.000000,0.000000,0.000000,0.000000,0.000000,0.000000,0.000000,0.000000,0.000000,0.000000,1648615999.749065,0.000000
133.000000,-53894.302713,-40804.271794,18175.455114,-5573.273369,10638.759808,27333.925943,-40960.734005,-28026.897076,-0.038000,0.942000,0.264000,192.000000,0.000000,0.000000,0.000000,0.000000,0.000000,0.000000,0.000000,0.000000,0.000000,1648615999.749081,0.000000
134.000000,-53889.631199,-40801.567233,18173.421106,-5572.580465,10627.449826,27332.271914,-40966.411348,-28041.313951,-0.038000,0.942000,0.264000,192.000000,0.000000,0.000000,0.000000,0.000000,0.000000,0.000000,0.000000,0.000000,0.000000,1648615999.757089,0.000000
135.000000,-53888.468908,-40801.008439,18170.336565,-5570.837029,10615.245773,27335.781137,-40958.945866,-28030.830983,-0.038000,0.942000,0.264000,192.000000,0.000000,0.000000,0.000000,0.000000,0.000000,0.000000,0.000000,0.000000,0.000000,1648615999.757105,0.000000
136.000000,-53876.398966,-40788.603221,18177.355013,-5564.824410,10617.480948,27342.844289,-40940.215104,-28015.989425,-0.038000,0.942000,0.264000,192.000000,0.000000,0.000000,0.000000,0.000000,0.000000,0.000000,0.000000,0.000000,0.000000,1648615999.765091,0.000000
137.000000,-53865.245445,-40774.879250,18195.258760,-5546.048945,10638.603346,27354.847175,-40917.013993,-27998.577416,-0.038000,0.942000,0.264000,192.000000,0.000000,0.000000,0.000000,0.000000,0.000000,0.000000,0.000000,0.000000,0.000000,1648615999.765106,0.000000
138.000000,-53865.401908,-40777.941439,18198.745632,-5550.720459,10649.510997,27350.130957,-40921.305528,-27982.350049,-0.032000,0.948000,0.264000,192.000000,255.000000,0.000000,29.000000,160.000000,8.000000,64.000000,0.000000,0.000000,0.000000,1648615999.771347,0.000000
139.000000,-53875.281379,-40785.921012,18194.118821,-5557.850666,10646.649974,27351.919097,-40924.166551,-27976.449189,-0.032000,0.948000,0.264000,192.000000,0.000000,0.000000,0.000000,0.000000,0.000000,0.000000,0.000000,0.000000,0.000000,1648615999.771363,0.000000
140.000000,-53875.773117,-40782.389436,18186.116896,-5559.415288,10631.070808,27354.802472,-40923.786571,-28004.925311,-0.032000,0.948000,0.264000,192.000000,0.000000,0.000000,0.000000,0.000000,0.000000,0.000000,0.000000,0.000000,0.000000,1648615999.780174,0.000000
141.000000,-53880.735204,-40789.251422,18182.540617,-5564.578541,10624.320581,27344.163042,-40926.312319,-28013.441326,-0.032000,0.948000,0.264000,192.000000,0.000000,0.000000,0.000000,0.000000,0.000000,0.000000,0.000000,0.000000,0.000000,1648615999.786757,0.000000
142.000000,-53884.780870,-40797.275698,18177.645585,-5570.747622,10630.802587,27334.596495,-40942.494982,-28016.928198,-0.032000,0.948000,0.264000,192.000000,0.000000,0.000000,0.000000,0.000000,0.000000,0.000000,0.000000,0.000000,0.000000,1648615999.786773,0.000000
143.000000,-53878.835306,-40792.313611,18195.504629,-5560.063488,10648.996907,27346.755844,-40945.177191,-28013.486029,-0.032000,0.948000,0.264000,192.000000,0.000000,0.000000,0.000000,0.000000,0.000000,0.000000,0.000000,0.000000,0.000000,1648615999.794688,0.000000
144.000000,-53876.555428,-40791.844224,18200.243199,-5560.890503,10651.209730,27352.030856,-40938.583426,-27994.419991,-0.032000,0.948000,0.264000,192.000000,0.000000,0.000000,0.000000,0.000000,0.000000,0.000000,0.000000,0.000000,0.000000,1648615999.794704,0.000000
145.000000,-53858.897550,-40773.605200,18205.227638,-5546.875959,10641.307907,27363.542004,-40923.473647,-27988.474427,-0.032000,0.948000,0.264000,192.000000,0.000000,0.000000,0.000000,0.000000,0.000000,0.000000,0.000000,0.000000,0.000000,1648615999.801232,0.000000
146.000000,-53870.900437,-40781.182442,18198.298597,-5550.742811,10637.798683,27357.797606,-40926.133505,-27995.805799,-0.032000,0.948000,0.264000,192.000000,0.000000,0.000000,0.000000,0.000000,0.000000,0.000000,0.000000,0.000000,0.000000,1648615999.801248,0.000000
147.000000,-53875.393137,-40788.491462,18195.884609,-5557.001300,10644.437151,27353.014332,-40934.895388,-28005.215884,-0.032000,0.948000,0.264000,192.000000,0.000000,0.000000,0.000000,0.000000,0.000000,0.000000,0.000000,0.000000,0.000000,1648615999.809247,0.000000
148.000000,-53867.167695,-40781.718884,18204.937065,-5552.754468,10658.027012,27362.469120,-40927.876941,-27993.078887,-0.034000,0.950000,0.258000,192.000000,254.000000,240.000000,29.000000,176.000000,8.000000,16.000000,0.000000,0.000000,0.000000,1648615999.809258,0.000000
149.000000,-53867.055937,-40781.003628,18208.021606,-5550.429887,10660.642166,27369.353458,-40924.188903,-27994.107067,-0.034000,0.950000,0.258000,192.000000,0.000000,0.000000,0.000000,0.000000,0.000000,0.000000,0.000000,0.000000,0.000000,1648615999.817109,0.000000
150.000000,-53881.405757,-40796.605146,18194.051766,-5564.153858,10643.431323,27358.624620,-40930.961481,-28007.227541,-0.034000,0.950000,0.258000,192.000000,0.000000,0.000000,0.000000,0.000000,0.000000,0.000000,0.000000,0.000000,0.000000,1648615999.817144,0.000000
151.000000,-53870.207533,-40786.457454,18204.713548,-5539.544587,10645.487683,27365.866585,-40943.389051,-27997.638643,-0.034000,0.950000,0.258000,192.000000,0.000000,0.000000,0.000000,0.000000,0.000000,0.000000,0.000000,0.000000,0.000000,1648615999.824216,0.000000
152.000000,-53863.636120,-40784.803424,18210.793222,-5545.266634,10662.139733,27370.336934,-40929.396859,-27996.006965,-0.034000,0.950000,0.258000,192.000000,0.000000,0.000000,0.000000,0.000000,0.000000,0.000000,0.000000,0.000000,0.000000,1648615999.824232,0.000000
153.000000,-53878.030643,-40795.398151,18198.946798,-5559.772916,10665.380736,27356.992943,-40917.483380,-27994.218826,-0.034000,0.950000,0.258000,192.000000,0.000000,0.000000,0.000000,0.000000,0.000000,0.000000,0.000000,0.000000,0.000000,1648615999.831939,0.000000
154.000000,-53891.464042,-40805.545843,18183.434687,-5568.847724,10638.670401,27342.777233,-40942.606740,-27984.562872,-0.034000,0.950000,0.258000,192.000000,0.000000,0.000000,0.000000,0.000000,0.000000,0.000000,0.000000,0.000000,0.000000,1648615999.831955,0.000000
155.000000,-53886.703120,-40803.198910,18186.630987,-5571.976968,10624.678209,27348.834556,-40948.820525,-27997.951567,-0.034000,0.950000,0.258000,192.000000,0.000000,0.000000,0.000000,0.000000,0.000000,0.000000,0.000000,0.000000,0.000000,1648615999.838966,0.000000
156.000000,-53880.668149,-40795.889890,18200.846696,-5566.277273,10629.975573,27360.748036,-40926.871112,-27988.317965,-0.034000,0.950000,0.258000,192.000000,0.000000,0.000000,0.000000,0.000000,0.000000,0.000000,0.000000,0.000000,0.000000,1648615999.846970,0.000000
157.000000,-53882.478640,-40796.225166,18205.808783,-5561.002262,10653.757829,27361.507995,-40923.384240,-27978.617308,-0.034000,0.950000,0.258000,192.000000,0.000000,0.000000,0.000000,0.000000,0.000000,0.000000,0.000000,0.000000,0.000000,1648615999.846986,0.000000
158.000000,-53877.896533,-40789.497291,18204.579437,-5555.101401,10657.110591,27360.926850,-40912.409534,-27976.829168,-0.036000,0.958000,0.262000,192.000000,254.000000,224.000000,29.000000,240.000000,8.000000,48.000000,0.000000,0.000000,0.000000,1648615999.853680,0.000000
159.000000,-53841.798465,-40755.254418,18228.898135,-5525.150064,10668.286463,27385.826693,-40863.615675,-27942.340427,-0.036000,0.958000,0.262000,192.000000,0.000000,0.000000,0.000000,0.000000,0.000000,0.000000,0.000000,0.000000,0.000000,1648615999.853696,0.000000
160.000000,-53869.738146,-40786.278640,18197.069251,-5553.603834,10641.062038,27354.869527,-40861.939295,-27954.991514,-0.036000,0.958000,0.262000,192.000000,0.000000,0.000000,0.000000,0.000000,0.000000,0.000000,0.000000,0.000000,0.000000,1648615999.861538,0.000000
161.000000,-53879.259989,-40794.437026,18195.839905,-5558.923550,10639.989154,27355.696542,-40944.551342,-27986.239253,-0.036000,0.958000,0.262000,192.000000,0.000000,0.000000,0.000000,0.000000,0.000000,0.000000,0.000000,0.000000,0.000000,1648615999.861554,0.000000
162.000000,-53880.042300,-40786.949192,18196.912789,-5552.642709,10650.740343,27351.628524,-40951.547438,-28003.695965,-0.036000,0.958000,0.262000,192.000000,0.000000,0.000000,0.000000,0.000000,0.000000,0.000000,0.000000,0.000000,0.000000,1648615999.869543,0.000000
163.000000,-53875.504896,-40792.090093,18205.093527,-5552.307433,10670.454582,27355.249507,-40948.574656,-28014.670672,-0.036000,0.958000,0.262000,192.000000,0.000000,0.000000,0.000000,0.000000,0.000000,0.000000,0.000000,0.000000,0.000000,1648615999.869559,0.000000
164.000000,-53883.059786,-40801.321364,18195.884609,-5561.404593,10663.100858,27349.616867,-40943.836086,-28016.101183,-0.036000,0.958000,0.262000,192.000000,0.000000,0.000000,0.000000,0.000000,0.000000,0.000000,0.000000,0.000000,0.000000,1648615999.876651,0.000000
165.000000,-53886.054919,-40801.589585,18184.440516,-5570.725271,10642.112570,27342.844289,-40950.787479,-28011.519076,-0.036000,0.958000,0.262000,192.000000,0.000000,0.000000,0.000000,0.000000,0.000000,0.000000,0.000000,0.000000,0.000000,1648615999.876667,0.000000
166.000000,-53882.545696,-40802.483654,18190.251969,-5566.232570,10628.992096,27349.616867,-40941.802078,-28005.215884,-0.036000,0.958000,0.262000,192.000000,0.000000,0.000000,0.000000,0.000000,0.000000,0.000000,0.000000,0.000000,0.000000,1648615999.884196,0.000000
167.000000,-53877.896533,-40802.662468,18197.359824,-5565.182038,10648.058134,27351.919097,-40923.317185,-27999.292672,-0.036000,0.958000,0.262000,192.000000,0.000000,0.000000,0.000000,0.000000,0.000000,0.000000,0.000000,0.000000,0.000000,1648615999.884212,0.000000
168.000000,-53874.163791,-40797.521567,18198.075080,-5563.080974,10661.491533,27353.103739,-40898.149121,-27985.702811,-0.036000,0.950000,0.262000,192.000000,254.000000,224.000000,29.000000,176.000000,8.000000,48.000000,0.000000,0.000000,0.000000,1648615999.892246,0.000000
169.000000,-53876.778946,-40799.130893,18196.689272,-5560.331709,10647.901672,27356.724722,-40908.117999,-27985.099314,-0.036000,0.950000,0.262000,192.000000,0.000000,0.000000,0.000000,0.000000,0.000000,0.000000,0.000000,0.000000,0.000000,1648615999.892262,0.000000
170.000000,-53880.914018,-40807.423390,18188.530885,-5570.501753,10628.679172,27348.052245,-40929.843894,-27993.369459,-0.036000,0.950000,0.262000,192.000000,0.000000,0.000000,0.000000,0.000000,0.000000,0.000000,0.000000,0.000000,0.000000,1648615999.899248,0.000000
171.000000,-53896.537888,-40825.282434,18177.086792,-5588.025521,10610.730721,27333.590666,-40927.988699,-28006.445230,-0.036000,0.950000,0.262000,192.000000,0.000000,0.000000,0.000000,0.000000,0.000000,0.000000,0.000000,0.000000,0.000000,1648615999.906317,0.000000
172.000000,-53892.425167,-40819.292166,18186.407469,-5581.431756,10625.594631,27342.196088,-40937.756412,-28007.808686,-0.036000,0.950000,0.262000,192.000000,0.000000,0.000000,0.000000,0.000000,0.000000,0.000000,0.000000,0.000000,0.000000,1648615999.906333,0.000000
173.000000,-53892.380463,-40815.268852,18188.642644,-5582.437585,10649.220425,27341.011446,-40917.729249,-28006.400526,-0.036000,0.950000,0.262000,192.000000,0.000000,0.000000,0.000000,0.000000,0.000000,0.000000,0.000000,0.000000,0.000000,1648615999.913874,0.000000
174.000000,-53887.932466,-40807.244576,18186.318062,-5578.861306,10636.435227,27346.264106,-40926.804057,-27998.264491,-0.036000,0.950000,0.262000,192.000000,0.000000,0.000000,0.000000,0.000000,0.000000,0.000000,0.000000,0.000000,0.000000,1648615999.913890,0.000000
175.000000,-53873.292073,-40789.072608,18197.113955,-5561.136372,10632.322506,27358.781082,-40897.031533,-27968.111988,-0.036000,0.950000,0.262000,192.000000,0.000000,0.000000,0.000000,0.000000,0.000000,0.000000,0.000000,0.000000,0.000000,1648615999.921892,0.000000
176.000000,-53879.908190,-40800.069666,18193.291806,-5569.361814,10634.244756,27347.582859,-40876.132652,-27968.827244,-0.036000,0.950000,0.262000,192.000000,0.000000,0.000000,0.000000,0.000000,0.000000,0.000000,0.000000,0.000000,0.000000,1648615999.921908,0.000000
177.000000,-53888.647722,-40812.653698,18189.268492,-5576.603779,10644.571262,27342.129033,-40911.806036,-27972.671744,-0.036000,0.950000,0.262000,192.000000,0.000000,0.000000,0.000000,0.000000,0.000000,0.000000,0.000000,0.000000,0.000000,1648615999.929920,0.000000
178.000000,-53890.547620,-40809.524454,18185.289882,-5575.799117,10642.514901,27347.336989,-40965.204354,-27990.910767,-0.036000,0.950000,0.262000,192.000000,0.000000,0.000000,0.000000,0.000000,0.000000,0.000000,0.000000,0.000000,0.000000,1648615999.929936,0.000000
179.000000,-53867.033585,-40790.681933,18200.556123,-5556.800134,10644.392448,27363.810225,-40943.947845,-27995.269358,-0.034000,0.958000,0.260000,192.000000,254.000000,240.000000,29.000000,240.000000,8.000000,32.000000,0.000000,0.000000,0.000000,1648615999.936435,0.000000
180.000000,-53863.814934,-40787.329172,18207.082833,-5549.245244,10642.447846,27372.639164,-40912.141313,-27989.726125,-0.034000,0.958000,0.260000,192.000000,0.000000,0.000000,0.000000,0.000000,0.000000,0.000000,0.000000,0.000000,0.000000,1648615999.936451,0.000000
181.000000,-53887.194858,-40812.944271,18187.502705,-5575.262675,10634.267108,27343.134861,-40943.344348,-28002.243102,-0.034000,0.958000,0.260000,192.000000,0.000000,0.000000,0.000000,0.000000,0.000000,0.000000,0.000000,0.000000,0.000000,1648615999.944474,0.000000
182.000000,-53876.510725,-40796.180462,18199.751461,-5562.388070,10651.969689,27357.127053,-40933.241359,-27993.972956,-0.034000,0.958000,0.260000,192.000000,0.000000,0.000000,0.000000,0.000000,0.000000,0.000000,0.000000,0.000000,0.000000,1648615999.944490,0.000000
183.000000,-53883.663283,-40798.482692,18189.156734,-5573.362776,10652.863759,27344.386559,-40925.150028,-27983.087657,-0.034000,0.958000,0.260000,192.000000,0.000000,0.000000,0.000000,0.000000,0.000000,0.000000,0.000000,0.000000,0.000000,1648615999.952489,0.000000
184.000000,-53868.419393,-40789.966677,18199.237370,-5555.123753,10649.131018,27346.375864,-40913.057734,-27994.241177,-0.034000,0.958000,0.260000,192.000000,0.000000,0.000000,0.000000,0.000000,0.000000,0.000000,0.000000,0.000000,0.000000,1648615999.952505,0.000000
185.000000,-53880.824611,-40805.434085,18189.536713,-5567.953654,10635.049419,27332.651893,-40898.350286,-27998.733878,-0.034000,0.958000,0.260000,192.000000,0.000000,0.000000,0.000000,0.000000,0.000000,0.000000,0.000000,0.000000,0.000000,1648615999.959594,0.000000
186.000000,-53886.725472,-40812.720753,18181.378327,-5584.650407,10623.985305,27328.427414,-40939.321034,-27996.722221,-0.034000,0.958000,0.260000,192.000000,0.000000,0.000000,0.000000,0.000000,0.000000,0.000000,0.000000,0.000000,0.000000,1648615999.966146,0.000000
187.000000,-53881.495164,-40806.149340,18190.676652,-5569.473573,10643.967765,27339.826803,-40940.036290,-27993.972956,-0.034000,0.958000,0.260000,192.000000,0.000000,0.000000,0.000000,0.000000,0.000000,0.000000,0.000000,0.000000,0.000000,1648615999.966162,0.000000
188.000000,-53876.801297,-40801.857805,18201.629007,-5563.863285,10661.469181,27342.173736,-40941.019766,-28001.729012,-0.034000,0.958000,0.260000,192.000000,0.000000,0.000000,0.000000,0.000000,0.000000,0.000000,0.000000,0.000000,0.000000,1648615999.974118,0.000000
189.000000,-53869.648739,-40801.164901,18194.118821,-5560.242302,10634.535329,27342.509013,-40939.410441,-28018.403413,-0.042000,0.952000,0.252000,192.000000,254.000000,176.000000,29.000000,192.000000,7.000000,224.000000,0.000000,0.000000,0.000000,1648615999.974135,0.000000
190.000000,-53852.080268,-40783.708189,18209.787394,-5543.970232,10630.064980,27362.245603,-40905.055810,-27985.099314,-0.042000,0.952000,0.252000,192.000000,0.000000,0.000000,0.000000,0.000000,0.000000,0.000000,0.000000,0.000000,0.000000,1648615999.981811,0.000000
191.000000,-53868.061765,-40798.437989,18201.517248,-5561.873980,10637.597518,27348.901611,-40888.135539,-27969.274279,-0.042000,0.952000,0.252000,192.000000,0.000000,0.000000,0.000000,0.000000,0.000000,0.000000,0.000000,0.000000,0.000000,1648615999.981822,0.000000
192.000000,-53878.656492,-40811.334945,18192.844771,-5573.094556,10645.107704,27332.271914,-40930.961481,-27995.939910,-0.042000,0.952000,0.252000,192.000000,0.000000,0.000000,0.000000,0.000000,0.000000,0.000000,0.000000,0.000000,0.000000,1648615999.989241,0.000000
193.000000,-53898.482489,-40828.411678,18174.270472,-5592.831146,10631.070808,27316.536285,-40966.210182,-28036.307160,-0.042000,0.952000,0.252000,192.000000,0.000000,0.000000,0.000000,0.000000,0.000000,0.000000,0.000000,0.000000,0.000000,1648615999.989275,0.000000
194.000000,-53895.263838,-40824.678937,18174.605748,-5590.104233,10627.919212,27322.548905,-40961.985703,-28026.382986,-0.042000,0.952000,0.252000,192.000000,0.000000,0.000000,0.000000,0.000000,0.000000,0.000000,0.000000,0.000000,0.000000,1648615999.996763,0.000000
195.000000,-53872.487411,-40804.808236,18186.630987,-5570.993492,10621.683076,27337.770443,-40933.911912,-28005.148829,-0.042000,0.952000,0.252000,192.000000,0.000000,0.000000,0.000000,0.000000,0.000000,0.000000,0.000000,0.000000,0.000000,1648615999.996779,0.000000
196.000000,-53866.586550,-40793.051218,18201.561952,-5557.873018,10644.258338,27352.634353,-40901.904214,-28000.723183,-0.042000,0.952000,0.252000,192.000000,0.000000,0.000000,0.000000,0.000000,0.000000,0.000000,0.000000,0.000000,0.000000,1648616000.004464,0.000000
197.000000,-53876.846001,-40810.686745,18193.068289,-5575.396785,10648.192245,27334.149460,-40930.134467,-28021.085622,-0.042000,0.952000,0.252000,192.000000,0.000000,0.000000,0.000000,0.000000,0.000000,0.000000,0.000000,0.000000,0.000000,1648616000.004473,0.000000
198.000000,-53871.749803,-40812.944271,18192.889475,-5574.927399,10645.152407,27332.115451,-40957.247133,-28023.924294,-0.042000,0.952000,0.252000,192.000000,0.000000,0.000000,0.000000,0.000000,0.000000,0.000000,0.000000,0.000000,0.000000,1648616000.012463,0.000000
199.000000,-53874.119088,-40811.379649,18185.692213,-5577.207276,10625.907555,27333.076576,-40950.407499,-28019.118669,-0.036000,0.954000,0.260000,192.000000,254.000000,224.000000,29.000000,208.000000,8.000000,32.000000,0.000000,0.000000,0.000000,1648616000.012474,0.000000
200.000000,-53862.004442,-40797.007477,18191.637777,-5567.193695,10622.577145,27343.045454,-40925.530008,-28002.623082,-0.036000,0.954000,0.260000,192.000000,0.000000,0.000000,0.000000,0.000000,0.000000,0.000000,0.000000,0.000000,0.000000,1648616000.018952,0.000000
201.000000,-53860.819800,-40800.695515,18194.968187,-5564.377375,10626.265183,27347.046417,-40918.980946,-27994.643509,-0.036000,0.954000,0.260000,192.000000,0.000000,0.000000,0.000000,0.000000,0.000000,0.000000,0.000000,0.000000,0.000000,1648616000.018968,0.000000
202.000000,-53862.518533,-40806.819893,18200.332606,-5567.976006,10638.066904,27343.291324,-40939.209275,-28008.680404,-0.036000,0.954000,0.260000,192.000000,0.000000,0.000000,0.000000,0.000000,0.000000,0.000000,0.000000,0.000000,0.000000,1648616000.026423,0.000000
203.000000,-53858.919902,-40802.595413,18202.053690,-5562.678643,10657.334108,27342.620771,-40928.435734,-27993.235349,-0.036000,0.954000,0.260000,192.000000,0.000000,0.000000,0.000000,0.000000,0.000000,0.000000,0.000000,0.000000,0.000000,1648616000.035784,0.000000
204.000000,-53847.833436,-40787.396227,18208.759214,-5550.586349,10648.594576,27352.679056,-40896.584498,-27971.464750,-0.036000,0.954000,0.260000,192.000000,0.000000,0.000000,0.000000,0.000000,0.000000,0.000000,0.000000,0.000000,0.000000,1648616000.035799,0.000000
205.000000,-53872.107431,-40815.022983,18181.132457,-5574.659178,10613.345875,27331.847230,-40883.598135,-28013.217808,-0.036000,0.954000,0.260000,192.000000,0.000000,0.000000,0.000000,0.000000,0.000000,0.000000,0.000000,0.000000,0.000000,1648616000.043096,0.000000
206.000000,-53865.267797,-40806.059933,18192.621254,-5565.047928,10628.142730,27344.632428,-40940.706842,-28005.215884,-0.036000,0.954000,0.260000,192.000000,0.000000,0.000000,0.000000,0.000000,0.000000,0.000000,0.000000,0.000000,0.000000,1648616000.043112,0.000000
207.000000,-53861.490352,-40803.020096,18197.471583,-5556.040174,10650.405067,27352.142614,-40941.757374,-27996.431648,-0.036000,0.954000,0.260000,192.000000,0.000000,0.000000,0.000000,0.000000,0.000000,0.000000,0.000000,0.000000,0.000000,1648616000.049469,0.000000
208.000000,-53866.966530,-40807.110465,18196.622216,-5560.957558,10657.959957,27350.801510,-40935.029499,-28002.466619,-0.036000,0.954000,0.260000,192.000000,0.000000,0.000000,0.000000,0.000000,0.000000,0.000000,0.000000,0.000000,0.000000,1648616000.049486,0.000000
209.000000,-53870.743975,-40809.367992,18191.928350,-5569.160648,10642.358439,27349.840385,-40930.939130,-28012.234332,-0.032000,0.950000,0.266000,192.000000,255.000000,0.000000,29.000000,176.000000,8.000000,80.000000,0.000000,0.000000,0.000000,1648616000.057071,0.000000
210.000000,-53877.069518,-40823.248425,18179.925463,-5587.019692,10627.092198,27338.865678,-40929.799191,-28010.960282,-0.032000,0.950000,0.266000,192.000000,0.000000,0.000000,0.000000,0.000000,0.000000,0.000000,0.000000,0.000000,0.000000,1648616000.057087,0.000000
211.000000,-53875.728414,-40824.477771,18183.389984,-5588.629018,10630.221442,27336.496393,-40939.186923,-28005.484105,-0.032000,0.950000,0.266000,192.000000,0.000000,0.000000,0.000000,0.000000,0.000000,0.000000,0.000000,0.000000,0.000000,1648616000.065103,0.000000
212.000000,-53868.195876,-40815.201797,18192.397737,-5579.017768,10641.240852,27342.307847,-40934.917740,-28007.048727,-0.032000,0.950000,0.266000,192.000000,0.000000,0.000000,0.000000,0.000000,0.000000,0.000000,0.000000,0.000000,0.000000,1648616000.065119,0.000000
213.000000,-53845.441800,-40793.274736,18211.731996,-5554.922587,10656.216521,27359.764559,-40913.549473,-27994.643509,-0.032000,0.950000,0.266000,192.000000,0.000000,0.000000,0.000000,0.000000,0.000000,0.000000,0.000000,0.000000,0.000000,1648616000.071690,0.000000
214.000000,-53849.286300,-40793.855881,18209.161545,-5553.894407,10653.623718,27357.998771,-40907.648612,-28019.968035,-0.032000,0.950000,0.266000,192.000000,0.000000,0.000000,0.000000,0.000000,0.000000,0.000000,0.000000,0.000000,0.000000,1648616000.071725,0.000000
215.000000,-53887.083100,-40829.015175,18172.281167,-5587.802003,10624.767616,27321.677187,-40929.910949,-28017.107012,-0.032000,0.950000,0.266000,192.000000,0.000000,0.000000,0.000000,0.000000,0.000000,0.000000,0.000000,0.000000,0.000000,1648616000.079693,0.000000
216.000000,-53894.861507,-40838.626425,18159.987707,-5602.621210,10613.010599,27310.724832,-40973.899183,-28018.716338,-0.032000,0.950000,0.266000,192.000000,0.000000,0.000000,0.000000,0.000000,0.000000,0.000000,0.000000,0.000000,0.000000,1648616000.079709,0.000000
217.000000,-53875.974283,-40821.348527,18184.060536,-5581.722329,10637.418704,27336.138765,-40949.424022,-28010.066212,-0.032000,0.950000,0.266000,192.000000,0.000000,0.000000,0.000000,0.000000,0.000000,0.000000,0.000000,0.000000,0.000000,1648616000.086641,0.000000
218.000000,-53870.833382,-40815.291204,18187.972091,-5572.289893,10654.204864,27346.755844,-40930.603854,-28009.686233,-0.032000,0.950000,0.266000,192.000000,0.000000,0.000000,0.000000,0.000000,0.000000,0.000000,0.000000,0.000000,0.000000,1648616000.094640,0.000000
219.000000,-53874.432012,-40820.543864,18180.707774,-5580.515335,10638.782160,27344.967704,-40930.827371,-28012.480201,-0.034000,0.948000,0.266000,192.000000,254.000000,240.000000,29.000000,160.000000,8.000000,80.000000,0.000000,0.000000,0.000000,1648616000.094652,0.000000
220.000000,-53872.107431,-40821.706155,18178.249082,-5581.387053,10616.989209,27339.782100,-40947.881752,-28025.041881,-0.034000,0.948000,0.266000,192.000000,0.000000,0.000000,0.000000,0.000000,0.000000,0.000000,0.000000,0.000000,0.000000,1648616000.101318,0.000000
221.000000,-53866.854771,-40813.883044,18183.747611,-5572.714576,10623.761788,27341.972571,-40939.812772,-28019.297483,-0.034000,0.948000,0.266000,192.000000,0.000000,0.000000,0.000000,0.000000,0.000000,0.000000,0.000000,0.000000,0.000000,1648616000.101334,0.000000
222.000000,-53859.299881,-40805.992878,18197.538638,-5564.287968,10651.701468,27354.824824,-40926.737002,-28009.418012,-0.034000,0.948000,0.266000,192.000000,0.000000,0.000000,0.000000,0.000000,0.000000,0.000000,0.000000,0.000000,0.000000,1648616000.109323,0.000000
223.000000,-53870.252236,-40816.945233,18194.051766,-5573.943922,10658.719916,27344.543021,-40925.574711,-28013.977768,-0.034000,0.948000,0.266000,192.000000,0.000000,0.000000,0.000000,0.000000,0.000000,0.000000,0.000000,0.000000,0.000000,1648616000.109339,0.000000
224.000000,-53862.049146,-40807.892776,18193.358862,-5568.959483,10643.967765,27349.348646,-40927.496961,-28024.036053,-0.034000,0.948000,0.266000,192.000000,0.000000,0.000000,0.000000,0.000000,0.000000,0.000000,0.000000,0.000000,0.000000,1648616000.117111,0.000000
225.000000,-53862.809105,-40810.016192,18187.905036,-5568.221875,10636.077599,27351.650876,-40928.994528,-28003.248930,-0.034000,0.948000,0.266000,192.000000,0.000000,0.000000,0.000000,0.000000,0.000000,0.000000,0.000000,0.000000,0.000000,1648616000.117128,0.000000
226.000000,-53862.362070,-40813.793637,18186.452173,-5572.155782,10638.826864,27346.398216,-40919.807961,-28014.536561,-0.034000,0.948000,0.266000,192.000000,0.000000,0.000000,0.000000,0.000000,0.000000,0.000000,0.000000,0.000000,0.000000,1648616000.124355,0.000000
227.000000,-53860.819800,-40815.090038,18192.353033,-5567.193695,10646.940547,27343.917172,-40937.532894,-28025.377157,-0.034000,0.948000,0.266000,192.000000,0.000000,0.000000,0.000000,0.000000,0.000000,0.000000,0.000000,0.000000,0.000000,1648616000.124371,0.000000
228.000000,-53863.569065,-40818.331041,18190.877818,-5569.987663,10648.907500,27339.111547,-40953.156764,-28030.473355,-0.034000,0.948000,0.266000,192.000000,0.000000,0.000000,0.000000,0.000000,0.000000,0.000000,0.000000,0.000000,0.000000,1648616000.131964,0.000000
229.000000,-53859.188123,-40809.815026,18196.421051,-5563.572712,10646.605271,27347.560507,-40941.019766,-28022.694948,-0.038000,0.952000,0.266000,192.000000,254.000000,208.000000,29.000000,192.000000,8.000000,80.000000,0.000000,0.000000,0.000000,1648616000.131980,0.000000
230.000000,-53854.449553,-40803.735352,18200.667882,-5556.777782,10641.397314,27352.030856,-40927.787534,-28012.614311,-0.038000,0.952000,0.266000,192.000000,0.000000,0.000000,0.000000,0.000000,0.000000,0.000000,0.000000,0.000000,0.000000,1648616000.139954,0.000000
231.000000,-53848.571044,-40803.109503,18209.787394,-5553.760297,10647.745210,27358.557565,-40916.298737,-28000.119686,-0.038000,0.952000,0.266000,192.000000,0.000000,0.000000,0.000000,0.000000,0.000000,0.000000,0.000000,0.000000,0.000000,1648616000.139970,0.000000
232.000000,-53862.138553,-40812.720753,18197.292769,-5567.283102,10658.250530,27344.140690,-40920.612624,-28004.388869,-0.038000,0.952000,0.266000,192.000000,0.000000,0.000000,0.000000,0.000000,0.000000,0.000000,0.000000,0.000000,0.000000,1648616000.147034,0.000000
233.000000,-53868.732318,-40815.693535,18185.356937,-5569.764146,10650.069791,27339.200954,-40921.283176,-28009.797991,-0.038000,0.952000,0.266000,192.000000,0.000000,0.000000,0.000000,0.000000,0.000000,0.000000,0.000000,0.000000,0.000000,1648616000.154268,0.000000
234.000000,-53873.873219,-40823.918977,18179.813704,-5575.106213,10634.714143,27334.864716,-40930.670909,-28009.149791,-0.038000,0.952000,0.266000,192.000000,0.000000,0.000000,0.000000,0.000000,0.000000,0.000000,0.000000,0.000000,0.000000,1648616000.154285,0.000000
235.000000,-53881.361053,-40832.412640,18170.269510,-5582.057605,10620.297267,27334.037701,-40952.441508,-28022.560838,-0.038000,0.952000,0.266000,192.000000,0.000000,0.000000,0.000000,0.000000,0.000000,0.000000,0.000000,0.000000,0.000000,1648616000.161649,0.000000
236.000000,-53872.912094,-40823.606053,18183.859370,-5573.943922,10632.903651,27339.916210,-40949.759299,-28017.956378,-0.038000,0.952000,0.266000,192.000000,0.000000,0.000000,0.000000,0.000000,0.000000,0.000000,0.000000,0.000000,0.000000,1648616000.161665,0.000000
237.000000,-53858.562274,-40804.495311,18199.416184,-5557.448334,10646.627622,27350.399178,-40926.066449,-28016.995253,-0.038000,0.952000,0.266000,192.000000,0.000000,0.000000,0.000000,0.000000,0.000000,0.000000,0.000000,0.000000,0.000000,1648616000.169386,0.000000
238.000000,-53860.417469,-40806.551672,18199.974978,-5557.805962,10664.352556,27353.483719,-40909.079124,-28003.561855,-0.038000,0.952000,0.266000,192.000000,0.000000,0.000000,0.000000,0.000000,0.000000,0.000000,0.000000,0.000000,0.000000,1648616000.169398,0.000000
239.000000,-53855.164809,-40800.337887,18204.333568,-5555.503733,10666.207751,27360.055132,-40902.865339,-27983.177064,-0.036000,0.940000,0.266000,192.000000,254.000000,224.000000,29.000000,96.000000,8.000000,80.000000,0.000000,0.000000,0.000000,1648616000.176716,0.000000
240.000000,-53864.731355,-40811.089076,18196.041071,-5562.946864,10657.736439,27354.713065,-40915.806999,-27997.191608,-0.036000,0.940000,0.266000,192.000000,0.000000,0.000000,0.000000,0.000000,0.000000,0.000000,0.000000,0.000000,0.000000,1648616000.176727,0.000000
241.000000,-53879.192934,-40823.091963,18181.758306,-5579.576561,10639.340954,27335.199992,-40922.154894,-28011.340262,-0.036000,0.940000,0.266000,192.000000,0.000000,0.000000,0.000000,0.000000,0.000000,0.000000,0.000000,0.000000,0.000000,1648616000.185654,0.000000
242.000000,-53868.531152,-40818.554559,18190.564894,-5575.754413,10639.452712,27340.631466,-40940.080993,-28007.451058,-0.036000,0.940000,0.266000,192.000000,0.000000,0.000000,0.000000,0.000000,0.000000,0.000000,0.000000,0.000000,0.000000,1648616000.185670,0.000000
243.000000,-53872.532114,-40822.332003,18189.760231,-5575.553247,10645.018297,27343.492489,-40956.800098,-28012.457849,-0.036000,0.940000,0.266000,192.000000,0.000000,0.000000,0.000000,0.000000,0.000000,0.000000,0.000000,0.000000,0.000000,1648616000.192250,0.000000
244.000000,-53866.966530,-40812.117256,18186.921559,-5568.132468,10636.569337,27350.421530,-40942.003243,-28005.662919,-0.036000,0.940000,0.266000,192.000000,0.000000,0.000000,0.000000,0.000000,0.000000,0.000000,0.000000,0.000000,0.000000,1648616000.192267,0.000000
245.000000,-53864.820762,-40811.357297,18191.727184,-5564.422079,10636.882262,27356.165928,-40932.839028,-27997.437477,-0.036000,0.940000,0.266000,192.000000,0.000000,0.000000,0.000000,0.000000,0.000000,0.000000,0.000000,0.000000,0.000000,1648616000.200183,0.000000
246.000000,-53853.108448,-40801.477826,18203.059519,-5556.733079,10646.851140,27363.609059,-40911.336650,-27987.155674,-0.036000,0.940000,0.266000,192.000000,0.000000,0.000000,0.000000,0.000000,0.000000,0.000000,0.000000,0.000000,0.000000,1648616000.200200,0.000000
247.000000,-53847.855788,-40792.939459,18219.085719,-5549.736983,10676.623663,27373.175606,-40878.345475,-27962.613459,-0.036000,0.940000,0.266000,192.000000,0.000000,0.000000,0.000000,0.000000,0.000000,0.000000,0.000000,0.000000,0.000000,1648616000.206418,0.000000
248.000000,-53891.374635,-40830.423335,18181.847713,-5581.543515,10665.850123,27334.238867,-40881.720588,-28000.231445,-0.036000,0.940000,0.266000,192.000000,0.000000,0.000000,0.000000,0.000000,0.000000,0.000000,0.000000,0.000000,0.000000,1648616000.213931,0.000000
249.000000,-53902.416396,-40843.968492,18161.977012,-5601.436567,10629.372076,27319.285550,-40948.686415,-28031.613294,-0.034000,0.948000,0.264000,192.000000,254.000000,240.000000,29.000000,160.000000,8.000000,64.000000,0.000000,0.000000,0.000000,1648616000.213947,0.000000
250.000000,-53894.615638,-40841.532152,18170.001289,-5599.559021,10618.710294,27335.289399,-40976.871965,-28007.696928,-0.034000,0.948000,0.264000,192.000000,0.000000,0.000000,0.000000,0.000000,0.000000,0.000000,0.000000,0.000000,0.000000,1648616000.221861,0.000000
251.000000,-53884.557353,-40829.864541,18176.773867,-5588.718425,10629.237965,27344.990056,-40963.036235,-28002.712488,-0.034000,0.948000,0.264000,192.000000,0.000000,0.000000,0.000000,0.000000,0.000000,0.000000,0.000000,0.000000,0.000000,1648616000.221877,0.000000
252.000000,-53867.950006,-40815.268852,18187.860332,-5578.414271,10644.168931,27351.226193,-40952.419156,-28006.355823,-0.034000,0.948000,0.264000,192.000000,0.000000,0.000000,0.000000,0.000000,0.000000,0.000000,0.000000,0.000000,0.000000,1648616000.229989,0.000000
253.000000,-53849.308652,-40796.560442,18206.769908,-5557.716555,10654.562492,27363.273783,-40930.380336,-28000.522018,-0.034000,0.948000,0.264000,192.000000,0.000000,0.000000,0.000000,0.000000,0.000000,0.000000,0.000000,0.000000,0.000000,1648616000.230005,0.000000
254.000000,-53839.004497,-40786.055122,18221.790281,-5546.317166,10660.329242,27377.556548,-40890.996562,-27979.891357,-0.034000,0.948000,0.264000,192.000000,0.000000,0.000000,0.000000,0.000000,0.000000,0.000000,0.000000,0.000000,0.000000,1648616000.236457,0.000000
255.000000,-53878.701196,-40825.438896,18185.513399,-5586.952637,10622.644201,27334.462385,-40938.203447,-28013.307215,-0.034000,0.948000,0.264000,192.000000,0.000000,0.000000,0.000000,0.000000,0.000000,0.000000,0.000000,0.000000,0.000000,1648616000.236474,0.000000
0.000000,-53883.909152,-40827.629367,18182.562969,-5593.434643,10623.761788,27326.371053,-40958.252961,-28032.485012,-0.034000,0.948000,0.264000,192.000000,0.000000,0.000000,0.000000,0.000000,0.000000,0.000000,0.000000,0.000000,0.000000,1648616000.244454,0.000000
1.000000,-53877.449498,-40828.344623,18189.022623,-5592.384111,10641.643183,27332.048396,-40944.819563,-28019.699814,-0.034000,0.948000,0.264000,192.000000,0.000000,0.000000,0.000000,0.000000,0.000000,0.000000,0.000000,0.000000,0.000000,1648616000.244489,0.000000
2.000000,-53870.185181,-40821.460285,18193.269455,-5588.360797,10642.783122,27339.737396,-40930.670909,-28003.517151,-0.034000,0.948000,0.264000,192.000000,0.000000,0.000000,0.000000,0.000000,0.000000,0.000000,0.000000,0.000000,0.000000,1648616000.252597,0.000000
3.000000,-53844.212454,-40791.620707,18213.073100,-5561.494000,10645.487683,27364.838405,-40896.942126,-27984.182892,-0.032000,0.952000,0.262000,192.000000,255.000000,0.000000,29.000000,192.000000,8.000000,48.000000,0.000000,0.000000,0.000000,1648616000.252613,0.000000
4.000000,-53856.662376,-40805.188215,18201.539600,-5570.904085,10631.339029,27352.232021,-40886.168586,-27970.235404,-0.032000,0.952000,0.262000,192.000000,0.000000,0.000000,0.000000,0.000000,0.000000,0.000000,0.000000,0.000000,0.000000,1648616000.259563,0.000000
5.000000,-53875.929579,-40825.617710,18186.519228,-5594.105195,10628.746227,27334.462385,-40955.570752,-27979.220805,-0.032000,0.952000,0.262000,192.000000,0.000000,0.000000,0.000000,0.000000,0.000000,0.000000,0.000000,0.000000,0.000000,1648616000.259579,0.000000
6.000000,-53878.544733,-40828.948120,18190.922521,-5593.233477,10636.167006,27337.837498,-40951.100403,-28012.681367,-0.032000,0.952000,0.262000,192.000000,0.000000,0.000000,0.000000,0.000000,0.000000,0.000000,0.000000,0.000000,0.000000,1648616000.266053,0.000000
7.000000,-53876.622483,-40829.059878,18189.469658,-5593.725216,10634.021239,27338.373940,-40949.468726,-28033.379082,-0.032000,0.952000,0.262000,192.000000,0.000000,0.000000,0.000000,0.000000,0.000000,0.000000,0.000000,0.000000,0.000000,1648616000.266069,0.000000
8.000000,-53862.496181,-40813.190140,18202.724243,-5581.811736,10635.362343,27352.343780,-40925.328842,-28014.760079,-0.032000,0.952000,0.262000,192.000000,0.000000,0.000000,0.000000,0.000000,0.000000,0.000000,0.000000,0.000000,0.000000,1648616000.274163,0.000000
9.000000,-53865.088983,-40810.843207,18199.550295,-5578.526029,10635.742323,27358.378751,-40912.543644,-27997.504532,-0.032000,0.952000,0.262000,192.000000,0.000000,0.000000,0.000000,0.000000,0.000000,0.000000,0.000000,0.000000,0.000000,1648616000.282174,0.000000
10.000000,-53868.620559,-40821.549692,18191.950702,-5595.222783,10629.908518,27346.599382,-40907.782722,-28013.933064,-0.032000,0.952000,0.262000,192.000000,0.000000,0.000000,0.000000,0.000000,0.000000,0.000000,0.000000,0.000000,0.000000,1648616000.282191,0.000000
11.000000,-53875.571951,-40827.607015,18199.863219,-5588.673721,10654.741306,27341.078501,-40926.245263,-28021.197381,-0.032000,0.952000,0.262000,192.000000,0.000000,0.000000,0.000000,0.000000,0.000000,0.000000,0.000000,0.000000,0.000000,1648616000.289258,0.000000
12.000000,-53874.677882,-40823.538998,18197.225713,-5582.571695,10660.843332,27338.105719,-40937.868170,-28022.806707,-0.032000,0.952000,0.262000,192.000000,0.000000,0.000000,0.000000,0.000000,0.000000,0.000000,0.000000,0.000000,0.000000,1648616000.289273,0.000000
13.000000,-53868.173524,-40820.610919,18196.644568,-5582.884620,10646.851140,27335.870544,-40947.591179,-28026.405338,-0.036000,0.952000,0.264000,192.000000,254.000000,224.000000,29.000000,192.000000,8.000000,64.000000,0.000000,0.000000,0.000000,1648616000.296708,0.000000
14.000000,-53863.591416,-40813.815989,18194.565856,-5580.515335,10629.439131,27338.128071,-40942.740851,-28030.965093,-0.036000,0.952000,0.264000,192.000000,0.000000,0.000000,0.000000,0.000000,0.000000,0.000000,0.000000,0.000000,0.000000,1648616000.296724,0.000000
15.000000,-53865.334852,-40809.971489,18200.220847,-5573.608646,10644.481855,27346.197050,-40927.452258,-28016.682329,-0.036000,0.952000,0.264000,192.000000,0.000000,0.000000,0.000000,0.000000,0.000000,0.000000,0.000000,0.000000,0.000000,1648616000.304760,0.000000
16.000000,-53863.434954,-40818.532207,18195.169353,-5584.069262,10654.786009,27338.709216,-40922.445467,-28013.575436,-0.036000,0.952000,0.264000,192.000000,0.000000,0.000000,0.000000,0.000000,0.000000,0.000000,0.000000,0.000000,0.000000,1648616000.304777,0.000000
17.000000,-53866.743012,-40820.879140,18195.571684,-5582.057605,10654.562492,27334.417681,-40930.201522,-28022.963169,-0.036000,0.952000,0.264000,192.000000,0.000000,0.000000,0.000000,0.000000,0.000000,0.000000,0.000000,0.000000,0.000000,1648616000.312780,0.000000
18.000000,-53853.644890,-40805.277622,18203.618312,-5567.841896,10640.257375,27346.934658,-40904.720533,-27993.548273,-0.036000,0.952000,0.264000,192.000000,0.000000,0.000000,0.000000,0.000000,0.000000,0.000000,0.000000,0.000000,0.000000,1648616000.312795,0.000000
19.000000,-53863.166733,-40812.385477,18199.103260,-5575.150916,10630.467311,27343.514841,-40911.113132,-28011.452021,-0.036000,0.952000,0.264000,192.000000,0.000000,0.000000,0.000000,0.000000,0.000000,0.000000,0.000000,0.000000,0.000000,1648616000.319385,0.000000
20.000000,-53876.734242,-40826.601187,18190.341376,-5589.299570,10629.819111,27338.150422,-40911.671926,-28012.346090,-0.036000,0.952000,0.264000,192.000000,0.000000,0.000000,0.000000,0.000000,0.000000,0.000000,0.000000,0.000000,0.000000,1648616000.319401,0.000000
21.000000,-53876.510725,-40830.423335,18189.760231,-5589.880716,10639.631526,27336.943428,-40946.607703,-28009.663881,-0.036000,0.952000,0.264000,192.000000,0.000000,0.000000,0.000000,0.000000,0.000000,0.000000,0.000000,0.000000,0.000000,1648616000.327409,0.000000
22.000000,-53859.076364,-40812.743105,18203.618312,-5571.753451,10649.935681,27349.549812,-40930.201522,-28006.780506,-0.036000,0.952000,0.264000,192.000000,0.000000,0.000000,0.000000,0.000000,0.000000,0.000000,0.000000,0.000000,0.000000,1648616000.327444,0.000000
23.000000,-53866.832419,-40819.135704,18193.224751,-5579.755375,10637.262242,27345.928829,-40925.351194,-28023.387852,-0.034000,0.950000,0.264000,192.000000,254.000000,240.000000,29.000000,176.000000,8.000000,64.000000,0.000000,0.000000,0.000000,1648616000.334395,0.000000
24.000000,-53870.073422,-40822.957852,18194.163524,-5585.388015,10625.058189,27337.882201,-40940.505676,-28028.327588,-0.034000,0.950000,0.264000,192.000000,0.000000,0.000000,0.000000,0.000000,0.000000,0.000000,0.000000,0.000000,0.000000,1648616000.342047,0.000000
25.000000,-53873.783812,-40824.030736,18191.928350,-5588.539611,10637.284593,27331.310789,-40947.792345,-28030.026320,-0.034000,0.950000,0.264000,192.000000,0.000000,0.000000,0.000000,0.000000,0.000000,0.000000,0.000000,0.000000,0.000000,1648616000.342056,0.000000
26.000000,-53860.238655,-40814.754762,18208.021606,-5572.245189,10661.960919,27351.472062,-40921.551397,-28001.013756,-0.034000,0.950000,0.264000,192.000000,0.000000,0.000000,0.000000,0.000000,0.000000,0.000000,0.000000,0.000000,0.000000,1648616000.349068,0.000000
27.000000,-53857.377631,-40812.363125,18208.692158,-5571.507582,10666.274806,27353.818995,-40904.385257,-27990.508436,-0.034000,0.950000,0.264000,192.000000,0.000000,0.000000,0.000000,0.000000,0.000000,0.000000,0.000000,0.000000,0.000000,1648616000.349084,0.000000
28.000000,-53846.402925,-40799.667335,18213.386025,-5560.756393,10654.204864,27358.579917,-40890.035437,-28005.975843,-0.034000,0.950000,0.264000,192.000000,0.000000,0.000000,0.000000,0.000000,0.000000,0.000000,0.000000,0.000000,0.000000,1648616000.357017,0.000000
29.000000,-53863.591416,-40817.727544,18199.393833,-5581.051777,10640.190320,27343.336027,-40917.528083,-28014.067175,-0.034000,0.950000,0.264000,192.000000,0.000000,0.000000,0.000000,0.000000,0.000000,0.000000,0.000000,0.000000,0.000000,1648616000.357033,0.000000
30.000000,-53884.333835,-40831.272701,18182.317100,-5592.495870,10636.949317,27325.991073,-40949.446374,-27988.899110,-0.034000,0.950000,0.264000,192.000000,0.000000,0.000000,0.000000,0.000000,0.000000,0.000000,0.000000,0.000000,0.000000,1648616000.365040,0.000000
31.000000,-53893.252181,-40835.407774,18181.065402,-5599.201393,10652.059096,27319.956102,-40952.910895,-28020.213904,-0.034000,0.950000,0.264000,192.000000,0.000000,0.000000,0.000000,0.000000,0.000000,0.000000,0.000000,0.000000,0.000000,1648616000.365056,0.000000
32.000000,-53868.754669,-40817.638137,18200.109088,-5585.075091,10653.422553,27337.144594,-40919.048002,-28041.001027,-0.034000,0.950000,0.264000,192.000000,0.000000,0.000000,0.000000,0.000000,0.000000,0.000000,0.000000,0.000000,0.000000,1648616000.371467,0.000000
33.000000,-53869.313463,-40819.850960,18195.124649,-5584.672759,10630.288497,27337.993960,-40928.033403,-28034.228448,-0.034000,0.950000,0.264000,192.000000,0.000000,0.000000,0.000000,0.000000,0.000000,0.000000,0.000000,0.000000,0.000000,1648616000.371483,0.000000
34.000000,-53859.724565,-40810.686745,18199.080908,-5578.637788,10620.409026,27341.302018,-40937.018804,-28024.080756,-0.034000,0.954000,0.262000,192.000000,254.000000,240.000000,29.000000,208.000000,8.000000,48.000000,0.000000,0.000000,0.000000,1648616000.379713,0.000000
35.000000,-53865.156038,-40812.072553,18200.198495,-5580.694149,10625.996962,27344.990056,-40929.978005,-28016.056480,-0.034000,0.954000,0.262000,192.000000,0.000000,0.000000,0.000000,0.000000,0.000000,0.000000,0.000000,0.000000,0.000000,1648616000.379729,0.000000
36.000000,-53864.485486,-40811.781980,18207.954551,-5575.910875,10653.288442,27352.008504,-40916.276385,-28009.127439,-0.034000,0.954000,0.262000,192.000000,0.000000,0.000000,0.000000,0.000000,0.000000,0.000000,0.000000,0.000000,0.000000,1648616000.387676,0.000000
37.000000,-53871.727451,-40820.745030,18197.695100,-5585.343311,10646.292346,27336.049358,-40927.675775,-28025.220695,-0.034000,0.954000,0.262000,192.000000,0.000000,0.000000,0.000000,0.000000,0.000000,0.000000,0.000000,0.000000,0.000000,1648616000.387692,0.000000
38.000000,-53868.039413,-40812.519588,18202.858353,-5578.078995,10629.863814,27341.994922,-40932.302586,-28030.920390,-0.034000,0.954000,0.262000,192.000000,0.000000,0.000000,0.000000,0.000000,0.000000,0.000000,0.000000,0.000000,0.000000,1648616000.394863,0.000000
39.000000,-53859.858675,-40803.221262,18212.000216,-5570.211180,10640.056210,27349.773329,-40908.989717,-28007.316948,-0.034000,0.954000,0.262000,192.000000,0.000000,0.000000,0.000000,0.000000,0.000000,0.000000,0.000000,0.000000,0.000000,1648616000.401362,0.000000
40.000000,-53869.581684,-40811.960794,18205.562914,-5577.922532,10642.581957,27339.782100,-40898.462045,-28009.172143,-0.034000,0.954000,0.262000,192.000000,0.000000,0.000000,0.000000,0.000000,0.000000,0.000000,0.000000,0.000000,0.000000,1648616000.401379,0.000000
41.000000,-53898.661303,-40842.470925,18177.086792,-5608.812643,10622.197166,27314.703442,-40940.818601,-28031.412128,-0.034000,0.954000,0.262000,192.000000,0.000000,0.000000,0.000000,0.000000,0.000000,0.000000,0.000000,0.000000,0.000000,1648616000.409131,0.000000
42.000000,-53893.095719,-40833.239655,18183.725260,-5600.274277,10625.728741,27324.851134,-40960.018749,-28029.445175,-0.034000,0.954000,0.262000,192.000000,0.000000,0.000000,0.000000,0.000000,0.000000,0.000000,0.000000,0.000000,0.000000,1648616000.409148,0.000000
43.000000,-53894.123899,-40831.138591,18179.478428,-5601.280105,10618.062093,27323.577085,-40948.932284,-28037.827079,-0.034000,0.954000,0.262000,192.000000,0.000000,0.000000,0.000000,0.000000,0.000000,0.000000,0.000000,0.000000,0.000000,1648616000.417116,0.000000
44.000000,-53877.561257,-40818.845131,18186.139248,-5585.455070,10604.047549,27328.941504,-40938.002281,-28036.530678,-0.038000,0.952000,0.266000,192.000000,254.000000,208.000000,29.000000,192.000000,8.000000,80.000000,0.000000,0.000000,0.000000,1648616000.417132,0.000000
45.000000,-53877.225980,-40821.840265,18188.642644,-5589.143108,10614.061131,27327.980379,-40928.860417,-28030.763928,-0.038000,0.952000,0.266000,192.000000,0.000000,0.000000,0.000000,0.000000,0.000000,0.000000,0.000000,0.000000,0.000000,1648616000.424274,0.000000
46.000000,-53883.953856,-40831.965605,18196.465754,-5594.149899,10639.184492,27322.817126,-40929.553322,-28024.974826,-0.038000,0.952000,0.266000,192.000000,0.000000,0.000000,0.000000,0.000000,0.000000,0.000000,0.000000,0.000000,0.000000,1648616000.424290,0.000000
47.000000,-53876.689539,-40821.862617,18198.678577,-5583.622227,10652.416724,27329.992036,-40918.869188,-28010.602654,-0.038000,0.952000,0.266000,192.000000,0.000000,0.000000,0.000000,0.000000,0.000000,0.000000,0.000000,0.000000,0.000000,1648616000.431966,0.000000
48.000000,-53875.840172,-40820.476809,18191.458963,-5586.863230,10636.301117,27327.980379,-40912.722458,-28009.775640,-0.038000,0.952000,0.266000,192.000000,0.000000,0.000000,0.000000,0.000000,0.000000,0.000000,0.000000,0.000000,0.000000,1648616000.431982,0.000000
49.000000,-53898.035455,-40842.023890,18172.616443,-5606.689227,10605.813337,27308.668471,-40943.836086,-28002.041936,-0.038000,0.952000,0.266000,192.000000,0.000000,0.000000,0.000000,0.000000,0.000000,0.000000,0.000000,0.000000,0.000000,1648616000.439993,0.000000
50.000000,-53902.192879,-40844.147306,18169.800123,-5608.700884,10603.198183,27309.651948,-40965.874906,-27996.163427,-0.038000,0.952000,0.266000,192.000000,0.000000,0.000000,0.000000,0.000000,0.000000,0.000000,0.000000,0.000000,0.000000,1648616000.440010,0.000000
51.000000,-53888.893591,-40834.044317,18179.746649,-5599.357855,10622.107759,27317.720928,-40936.482362,-28003.003061,-0.038000,0.952000,0.266000,192.000000,0.000000,0.000000,0.000000,0.000000,0.000000,0.000000,0.000000,0.000000,0.000000,1648616000.448014,0.000000
52.000000,-53874.387309,-40816.095867,18192.196571,-5582.571695,10628.098026,27337.166946,-40892.091798,-28006.691099,-0.038000,0.952000,0.266000,192.000000,0.000000,0.000000,0.000000,0.000000,0.000000,0.000000,0.000000,0.000000,0.000000,1648616000.448029,0.000000
53.000000,-53876.823649,-40817.861655,18192.375385,-5582.571695,10614.552869,27341.793757,-40904.139388,-28019.945683,-0.038000,0.952000,0.266000,192.000000,0.000000,0.000000,0.000000,0.000000,0.000000,0.000000,0.000000,0.000000,0.000000,1648616000.454185,0.000000
54.000000,-53883.998559,-40823.583701,18191.369556,-5585.186849,10615.916326,27342.732530,-40943.411403,-28017.174067,-0.032000,0.950000,0.266000,192.000000,255.000000,0.000000,29.000000,176.000000,8.000000,80.000000,0.000000,0.000000,0.000000,1648616000.461676,0.000000
55.000000,-53874.722585,-40819.180407,18203.484202,-5581.275294,10641.263204,27343.403082,-40934.604816,-28003.494800,-0.032000,0.950000,0.266000,192.000000,0.000000,0.000000,0.000000,0.000000,0.000000,0.000000,0.000000,0.000000,0.000000,1648616000.461692,0.000000
56.000000,-53877.673015,-40820.007422,18197.918617,-5581.185887,10644.481855,27333.523611,-40913.236548,-28000.678480,-0.032000,0.950000,0.266000,192.000000,0.000000,0.000000,0.000000,0.000000,0.000000,0.000000,0.000000,0.000000,0.000000,1648616000.469657,0.000000
57.000000,-53899.935353,-40840.347509,18174.002251,-5602.084768,10631.026105,27311.753012,-40928.078106,-28014.693024,-0.032000,0.950000,0.266000,192.000000,0.000000,0.000000,0.000000,0.000000,0.000000,0.000000,0.000000,0.000000,0.000000,1648616000.469673,0.000000
58.000000,-53885.138498,-40828.724602,18175.835094,-5594.619285,10610.395445,27322.258332,-40946.741813,-27999.672651,-0.032000,0.950000,0.266000,192.000000,0.000000,0.000000,0.000000,0.000000,0.000000,0.000000,0.000000,0.000000,0.000000,1648616000.477675,0.000000
59.000000,-53880.534039,-40822.443762,18187.569760,-5585.633884,10613.457634,27335.356454,-40931.386165,-28005.662919,-0.032000,0.950000,0.266000,192.000000,0.000000,0.000000,0.000000,0.000000,0.000000,0.000000,0.000000,0.000000,0.000000,1648616000.477691,0.000000
60.000000,-53896.180260,-40834.781925,18177.779696,-5597.927344,10614.239945,27322.213629,-40933.755450,-28026.718262,-0.032000,0.950000,0.266000,192.000000,0.000000,0.000000,0.000000,0.000000,0.000000,0.000000,0.000000,0.000000,0.000000,1648616000.484103,0.000000
61.000000,-53888.915943,-40824.254253,18186.809800,-5587.042044,10628.232137,27334.574143,-40927.184037,-28019.386890,-0.032000,0.950000,0.266000,192.000000,0.000000,0.000000,0.000000,0.000000,0.000000,0.000000,0.000000,0.000000,0.000000,1648616000.484119,0.000000
62.000000,-53876.331911,-40811.983146,18198.946798,-5577.989588,10641.754942,27342.419606,-40921.149066,-28005.998195,-0.032000,0.950000,0.266000,192.000000,0.000000,0.000000,0.000000,0.000000,0.000000,0.000000,0.000000,0.000000,0.000000,1648616000.492243,0.000000
63.000000,-53885.809050,-40822.779038,18185.513399,-5592.629980,10611.960067,27328.226248,-40940.125697,-28025.600675,-0.032000,0.950000,0.266000,192.000000,0.000000,0.000000,0.000000,0.000000,0.000000,0.000000,0.000000,0.000000,0.000000,1648616000.492260,0.000000
64.000000,-53893.743920,-40828.188160,18175.276300,-5598.866117,10599.800718,27325.856963,-40951.681549,-28018.269303,-0.038000,0.954000,0.268000,192.000000,254.000000,208.000000,29.000000,208.000000,8.000000,96.000000,0.000000,0.000000,0.000000,1648616000.500167,0.000000
65.000000,-53877.673015,-40811.536111,18186.027489,-5585.142146,10614.865794,27334.462385,-40931.967310,-27995.716392,-0.038000,0.954000,0.268000,192.000000,0.000000,0.000000,0.000000,0.000000,0.000000,0.000000,0.000000,0.000000,0.000000,1648616000.500204,0.000000
66.000000,-53869.380518,-40806.886948,18196.286940,-5577.788422,10631.517843,27338.999789,-40927.876941,-28004.433573,-0.038000,0.954000,0.268000,192.000000,0.000000,0.000000,0.000000,0.000000,0.000000,0.000000,0.000000,0.000000,0.000000,1648616000.506882,0.000000
67.000000,-53878.567085,-40813.301899,18194.096469,-5579.978893,10627.494529,27332.249562,-40941.220932,-28019.163372,-0.038000,0.954000,0.268000,192.000000,0.000000,0.000000,0.000000,0.000000,0.000000,0.000000,0.000000,0.000000,0.000000,1648616000.506898,0.000000
68.000000,-53886.121975,-40823.583701,18184.686385,-5592.205297,10624.499395,27327.823916,-40930.447391,-28016.503515,-0.038000,0.954000,0.268000,192.000000,0.000000,0.000000,0.000000,0.000000,0.000000,0.000000,0.000000,0.000000,0.000000,1648616000.515293,0.000000
69.000000,-53878.589437,-40817.839303,18185.289882,-5587.757300,10617.391541,27338.552754,-40897.724437,-27993.056535,-0.038000,0.954000,0.268000,192.000000,0.000000,0.000000,0.000000,0.000000,0.000000,0.000000,0.000000,0.000000,0.000000,1648616000.515305,0.000000
70.000000,-53886.278437,-40824.634233,18184.507571,-5590.707730,10617.123320,27331.400196,-40897.232699,-28020.727995,-0.038000,0.954000,0.268000,192.000000,0.000000,0.000000,0.000000,0.000000,0.000000,0.000000,0.000000,0.000000,0.000000,1648616000.521963,0.000000
71.000000,-53884.624408,-40821.281471,18190.363728,-5587.757300,10638.312774,27335.088233,-40940.975063,-27992.900073,-0.038000,0.954000,0.268000,192.000000,0.000000,0.000000,0.000000,0.000000,0.000000,0.000000,0.000000,0.000000,0.000000,1648616000.529965,0.000000
72.000000,-53885.876106,-40821.437934,18178.293786,-5587.980817,10619.179680,27331.243733,-40933.129601,-28006.780506,-0.038000,0.954000,0.268000,192.000000,0.000000,0.000000,0.000000,0.000000,0.000000,0.000000,0.000000,0.000000,0.000000,1648616000.529981,0.000000
73.000000,-53880.466983,-40818.465152,18176.237425,-5592.004131,10597.431433,27335.870544,-40956.286008,-28020.303311,-0.038000,0.954000,0.268000,192.000000,0.000000,0.000000,0.000000,0.000000,0.000000,0.000000,0.000000,0.000000,0.000000,1648616000.537162,0.000000
74.000000,-53879.930542,-40814.330079,18182.205341,-5590.104233,10603.198183,27340.810280,-40938.471668,-28020.951512,-0.038000,0.952000,0.266000,192.000000,254.000000,208.000000,29.000000,192.000000,8.000000,80.000000,0.000000,0.000000,0.000000,1648616000.537178,0.000000
75.000000,-53876.756594,-40814.933576,18193.135344,-5581.543515,10624.633506,27337.815146,-40941.399746,-28024.371329,-0.038000,0.952000,0.266000,192.000000,0.000000,0.000000,0.000000,0.000000,0.000000,0.000000,0.000000,0.000000,0.000000,1648616000.544529,0.000000
76.000000,-53873.940274,-40811.625518,18204.221809,-5574.994454,10645.912367,27343.671303,-40935.118906,-28015.318872,-0.038000,0.952000,0.266000,192.000000,0.000000,0.000000,0.000000,0.000000,0.000000,0.000000,0.000000,0.000000,0.000000,1648616000.544545,0.000000
77.000000,-53879.908190,-40811.446704,18191.123687,-5582.728157,10637.329297,27338.373940,-40929.732136,-28016.659977,-0.038000,0.952000,0.266000,192.000000,0.000000,0.000000,0.000000,0.000000,0.000000,0.000000,0.000000,0.000000,0.000000,1648616000.552555,0.000000
78.000000,-53870.363995,-40799.063837,18196.823382,-5564.936169,10623.404160,27356.009466,-40911.314298,-28003.830076,-0.038000,0.952000,0.266000,192.000000,0.000000,0.000000,0.000000,0.000000,0.000000,0.000000,0.000000,0.000000,0.000000,1648616000.552571,0.000000
79.000000,-53874.588475,-40812.653698,18192.621254,-5576.469669,10614.575221,27346.308809,-40914.465894,-28006.825209,-0.038000,0.952000,0.266000,192.000000,0.000000,0.000000,0.000000,0.000000,0.000000,0.000000,0.000000,0.000000,0.000000,1648616000.559630,0.000000
80.000000,-53872.040376,-40806.283451,18196.801030,-5572.066375,10628.254488,27346.197050,-40915.806999,-28000.365555,-0.038000,0.952000,0.266000,192.000000,0.000000,0.000000,0.000000,0.000000,0.000000,0.000000,0.000000,0.000000,0.000000,1648616000.559646,0.000000
81.000000,-53881.383405,-40814.531245,18195.124649,-5579.934189,10639.497416,27338.396292,-40908.654440,-27989.659070,-0.038000,0.952000,0.266000,192.000000,0.000000,0.000000,0.000000,0.000000,0.000000,0.000000,0.000000,0.000000,0.000000,1648616000.566930,0.000000
82.000000,-53884.020911,-40816.788771,18190.363728,-5582.705806,10630.579070,27339.357417,-40916.768124,-28003.472448,-0.038000,0.952000,0.266000,192.000000,0.000000,0.000000,0.000000,0.000000,0.000000,0.000000,0.000000,0.000000,0.000000,1648616000.566947,0.000000
83.000000,-53886.524306,-40814.128913,18187.569760,-5578.235457,10619.045570,27342.419606,-40925.239435,-28015.810611,-0.038000,0.952000,0.266000,192.000000,0.000000,0.000000,0.000000,0.000000,0.000000,0.000000,0.000000,0.000000,0.000000,1648616000.575083,0.000000
84.000000,-53894.347417,-40824.857751,18177.600882,-5588.405500,10602.661741,27329.455594,-40924.948862,-28023.521963,-0.040000,0.946000,0.270000,192.000000,254.000000,192.000000,29.000000,144.000000,8.000000,112.000000,0.000000,0.000000,0.000000,1648616000.575099,0.000000
85.000000,-53903.757501,-40841.353338,18173.555216,-5600.944829,10615.491642,27323.085347,-40934.336595,-28000.477314,-0.040000,0.946000,0.270000,192.000000,0.000000,0.000000,0.000000,0.000000,0.000000,0.000000,0.000000,0.000000,0.000000,1648616000.582251,0.000000
86.000000,-53893.855678,-40834.558408,18181.780658,-5595.468652,10631.026105,27331.109623,-40933.844856,-27992.140113,-0.040000,0.946000,0.270000,192.000000,0.000000,0.000000,0.000000,0.000000,0.000000,0.000000,0.000000,0.000000,0.000000,1648616000.589349,0.000000
87.000000,-53876.801297,-40812.631346,18191.391908,-5578.883657,10621.504262,27346.308809,-40910.666097,-27991.067230,-0.040000,0.946000,0.270000,192.000000,0.000000,0.000000,0.000000,0.000000,0.000000,0.000000,0.000000,0.000000,0.000000,1648616000.589365,0.000000
88.000000,-53892.939257,-40826.556483,18179.232559,-5596.228611,10609.121395,27333.702425,-40901.546586,-27988.854407,-0.040000,0.946000,0.270000,192.000000,0.000000,0.000000,0.000000,0.000000,0.000000,0.000000,0.000000,0.000000,0.000000,1648616000.596798,0.000000
89.000000,-53902.461100,-40833.709041,18168.011983,-5600.877774,10593.564581,27330.751995,-40927.407554,-28014.603617,-0.040000,0.946000,0.270000,192.000000,0.000000,0.000000,0.000000,0.000000,0.000000,0.000000,0.000000,0.000000,0.000000,1648616000.596814,0.000000
90.000000,-53898.594248,-40831.026832,18178.271434,-5597.413253,10601.231229,27339.089196,-40930.872074,-28020.616236,-0.040000,0.946000,0.270000,192.000000,0.000000,0.000000,0.000000,0.000000,0.000000,0.000000,0.000000,0.000000,0.000000,1648616000.604837,0.000000
91.000000,-53877.717719,-40818.465152,18198.164487,-5577.654311,10633.216576,27352.634353,-40922.423115,-27999.538541,-0.040000,0.946000,0.270000,192.000000,0.000000,0.000000,0.000000,0.000000,0.000000,0.000000,0.000000,0.000000,0.000000,1648616000.604853,0.000000
92.000000,-53872.733280,-40809.546806,18198.410356,-5570.188829,10632.031933,27360.144539,-40888.895498,-27985.322831,-0.040000,0.946000,0.270000,192.000000,0.000000,0.000000,0.000000,0.000000,0.000000,0.000000,0.000000,0.000000,0.000000,1648616000.612864,0.000000
93.000000,-53886.412547,-40824.835399,18185.803972,-5586.907934,10601.320636,27345.481795,-40918.466856,-28008.121611,-0.040000,0.946000,0.270000,192.000000,0.000000,0.000000,0.000000,0.000000,0.000000,0.000000,0.000000,0.000000,0.000000,1648616000.612880,0.000000
94.000000,-53881.204591,-40816.677012,18191.838943,-5575.285026,10607.333256,27353.237850,-40933.174304,-28011.742593,-0.032000,0.946000,0.266000,192.000000,255.000000,0.000000,29.000000,144.000000,8.000000,80.000000,0.000000,0.000000,0.000000,1648616000.619485,0.000000
95.000000,-53884.982036,-40814.955928,18198.857391,-5576.827297,10623.202994,27352.723760,-40922.400763,-27977.589128,-0.032000,0.946000,0.266000,192.000000,0.000000,0.000000,0.000000,0.000000,0.000000,0.000000,0.000000,0.000000,0.000000,1648616000.619501,0.000000
96.000000,-53895.286190,-40833.262006,18190.319024,-5590.528916,10634.110646,27333.545963,-40937.354080,-28008.211018,-0.032000,0.946000,0.266000,192.000000,0.000000,0.000000,0.000000,0.000000,0.000000,0.000000,0.000000,0.000000,0.000000,1648616000.627491,0.000000
97.000000,-53874.387309,-40815.000631,18200.153792,-5575.329730,10639.877396,27345.459443,-40925.015917,-27995.537579,-0.032000,0.946000,0.266000,192.000000,0.000000,0.000000,0.000000,0.000000,0.000000,0.000000,0.000000,0.000000,0.000000,1648616000.627507,0.000000
98.000000,-53872.688576,-40814.687707,18194.230580,-5578.906009,10615.424587,27346.062940,-40918.668022,-27987.312137,-0.032000,0.946000,0.266000,192.000000,0.000000,0.000000,0.000000,0.000000,0.000000,0.000000,0.000000,0.000000,0.000000,1648616000.635485,0.000000
99.000000,-53883.998559,-40823.181370,18190.631949,-5586.952637,10606.841517,27340.944390,-40933.219008,-27999.069154,-0.032000,0.946000,0.266000,192.000000,0.000000,0.000000,0.000000,0.000000,0.000000,0.000000,0.000000,0.000000,0.000000,1648616000.635501,0.000000
100.000000,-53883.015082,-40820.789733,18195.571684,-5584.158669,10619.604363,27338.731568,-40930.179170,-28006.624044,-0.032000,0.946000,0.266000,192.000000,0.000000,0.000000,0.000000,0.000000,0.000000,0.000000,0.000000,0.000000,0.000000,1648616000.642518,0.000000
101.000000,-53894.392120,-40829.372803,18190.274321,-5594.127547,10632.411913,27329.477946,-40925.664118,-28009.686233,-0.032000,0.946000,0.266000,192.000000,0.000000,0.000000,0.000000,0.000000,0.000000,0.000000,0.000000,0.000000,0.000000,1648616000.649174,0.000000
102.000000,-53891.151117,-40825.841227,18187.860332,-5592.272352,10628.857986,27332.808355,-40913.840045,-28001.170218,-0.032000,0.946000,0.266000,192.000000,0.000000,0.000000,0.000000,0.000000,0.000000,0.000000,0.000000,0.000000,0.000000,1648616000.649190,0.000000
103.000000,-53895.643818,-40829.015175,18181.154809,-5594.507527,10613.167061,27334.037701,-40913.169493,-28005.484105,-0.032000,0.946000,0.266000,192.000000,0.000000,0.000000,0.000000,0.000000,0.000000,0.000000,0.000000,0.000000,0.000000,1648616000.657167,0.000000
104.000000,-53889.586495,-40827.383498,18190.251969,-5591.601800,10614.485814,27341.547888,-40919.696202,-28003.137172,-0.038000,0.948000,0.262000,192.000000,254.000000,208.000000,29.000000,160.000000,8.000000,48.000000,0.000000,0.000000,0.000000,1648616000.657183,0.000000
105.000000,-53896.850812,-40830.915073,18179.187856,-5592.093538,10612.921192,27332.853059,-40933.844856,-27998.376250,-0.038000,0.948000,0.262000,192.000000,0.000000,0.000000,0.000000,0.000000,0.000000,0.000000,0.000000,0.000000,0.000000,1648616000.665026,0.000000
106.000000,-53893.989789,-40830.043355,18183.479391,-5593.211126,10631.897823,27330.260257,-40934.738926,-27998.823285,-0.038000,0.948000,0.262000,192.000000,0.000000,0.000000,0.000000,0.000000,0.000000,0.000000,0.000000,0.000000,0.000000,1648616000.665041,0.000000
107.000000,-53877.673015,-40814.307727,18201.360786,-5572.401651,10638.178663,27344.766539,-40920.277348,-27987.826227,-0.038000,0.948000,0.262000,192.000000,0.000000,0.000000,0.000000,0.000000,0.000000,0.000000,0.000000,0.000000,0.000000,1648616000.672305,0.000000
108.000000,-53867.301806,-40802.081323,18205.585266,-5563.103326,10630.802587,27349.885088,-40898.484397,-27989.592015,-0.038000,0.948000,0.262000,192.000000,0.000000,0.000000,0.000000,0.000000,0.000000,0.000000,0.000000,0.000000,0.000000,1648616000.672322,0.000000
109.000000,-53883.484469,-40816.431143,18189.268492,-5574.256846,10616.318657,27330.036739,-40910.084952,-28004.187704,-0.038000,0.948000,0.262000,192.000000,0.000000,0.000000,0.000000,0.000000,0.000000,0.000000,0.000000,0.000000,0.000000,1648616000.679772,0.000000
110.000000,-53877.807126,-40814.553596,18200.869048,-5570.680567,10633.931832,27337.345760,-40927.787534,-27989.346145,-0.038000,0.948000,0.262000,192.000000,0.000000,0.000000,0.000000,0.000000,0.000000,0.000000,0.000000,0.000000,0.000000,1648616000.679787,0.000000
111.000000,-53899.845946,-40839.587550,18191.324853,-5591.937076,10654.763657,27319.643178,-40938.248150,-27991.715430,-0.038000,0.948000,0.262000,192.000000,0.000000,0.000000,0.000000,0.000000,0.000000,0.000000,0.000000,0.000000,0.000000,1648616000.687785,0.000000
112.000000,-53891.262876,-40830.356280,18189.469658,-5583.890448,10647.901672,27323.532381,-40922.289005,-27997.683346,-0.038000,0.948000,0.262000,192.000000,0.000000,0.000000,0.000000,0.000000,0.000000,0.000000,0.000000,0.000000,0.000000,1648616000.687801,0.000000
113.000000,-53884.780870,-40821.013250,18188.419126,-5577.810774,10619.514956,27332.584838,-40942.763203,-28004.947663,-0.038000,0.948000,0.262000,192.000000,0.000000,0.000000,0.000000,0.000000,0.000000,0.000000,0.000000,0.000000,0.000000,1648616000.694798,0.000000
114.000000,-53879.818783,-40823.136666,18193.403565,-5578.883657,10614.508166,27334.551791,-40945.981854,-27999.270320,-0.044000,0.944000,0.272000,192.000000,254.000000,160.000000,29.000000,128.000000,8.000000,128.000000,0.000000,0.000000,0.000000,1648616000.694815,0.000000
115.000000,-53867.637082,-40809.256233,18210.189725,-5562.589236,10643.207806,27348.991018,-40903.401781,-27973.565814,-0.044000,0.944000,0.272000,192.000000,0.000000,0.000000,0.000000,0.000000,0.000000,0.000000,0.000000,0.000000,0.000000,1648616000.701315,0.000000
116.000000,-53881.383405,-40823.986032,18200.086737,-5577.229628,10649.265128,27340.296190,-40897.858548,-27992.877721,-0.044000,0.944000,0.272000,192.000000,0.000000,0.000000,0.000000,0.000000,0.000000,0.000000,0.000000,0.000000,0.000000,1648616000.709466,0.000000
117.000000,-53873.269722,-40815.984108,18202.120745,-5574.033329,10642.805474,27346.822899,-40914.823522,-27985.747514,-0.044000,0.944000,0.272000,192.000000,0.000000,0.000000,0.000000,0.000000,0.000000,0.000000,0.000000,0.000000,0.000000,1648616000.709483,0.000000
118.000000,-53876.130745,-40821.236768,18192.196571,-5584.650407,10623.873547,27336.496393,-40910.666097,-27993.592977,-0.044000,0.944000,0.272000,192.000000,0.000000,0.000000,0.000000,0.000000,0.000000,0.000000,0.000000,0.000000,0.000000,1648616000.717250,0.000000
119.000000,-53867.100640,-40814.888872,18193.336510,-5577.117870,10612.585916,27338.955085,-40902.105379,-28000.164390,-0.044000,0.944000,0.272000,192.000000,0.000000,0.000000,0.000000,0.000000,0.000000,0.000000,0.000000,0.000000,0.000000,1648616000.717266,0.000000
120.000000,-53861.691518,-40809.412695,18212.313141,-5564.399727,10643.587785,27356.702370,-40895.958650,-27981.187759,-0.044000,0.944000,0.272000,192.000000,0.000000,0.000000,0.000000,0.000000,0.000000,0.000000,0.000000,0.000000,0.000000,1648616000.724278,0.000000
121.000000,-53871.615693,-40816.788771,18205.026472,-5574.212143,10655.791838,27348.164004,-40898.015010,-27987.446247,-0.044000,0.944000,0.272000,192.000000,0.000000,0.000000,0.000000,0.000000,0.000000,0.000000,0.000000,0.000000,0.000000,1648616000.724295,0.000000
122.000000,-53877.002463,-40826.288262,18188.352071,-5586.505602,10637.329297,27338.105719,-40931.944958,-27980.561910,-0.044000,0.944000,0.272000,192.000000,0.000000,0.000000,0.000000,0.000000,0.000000,0.000000,0.000000,0.000000,0.000000,1648616000.731935,0.000000
123.000000,-53878.500030,-40826.265910,18181.378327,-5587.891410,10625.751093,27337.725739,-40927.608720,-27992.430686,-0.044000,0.944000,0.272000,192.000000,0.000000,0.000000,0.000000,0.000000,0.000000,0.000000,0.000000,0.000000,0.000000,1648616000.731951,0.000000
124.000000,-53873.090908,-40824.231902,18194.364690,-5583.242247,10626.756922,27339.446824,-40914.577653,-28011.809648,-0.036000,0.946000,0.272000,192.000000,254.000000,224.000000,29.000000,144.000000,8.000000,128.000000,0.000000,0.000000,0.000000,1648616000.740039,0.000000
125.000000,-53874.007329,-40820.923843,18194.185876,-5582.258771,10636.815207,27338.843326,-40922.512522,-28019.006910,-0.036000,0.946000,0.272000,192.000000,0.000000,0.000000,0.000000,0.000000,0.000000,0.000000,0.000000,0.000000,0.000000,1648616000.740056,0.000000
126.000000,-53864.150210,-40813.234843,18198.969149,-5576.044986,10648.505169,27342.039626,-40904.653478,-27990.441381,-0.036000,0.946000,0.272000,192.000000,0.000000,0.000000,0.000000,0.000000,0.000000,0.000000,0.000000,0.000000,0.000000,1648616000.748003,0.000000
127.000000,-53861.758573,-40812.117256,18203.305388,-5572.580465,10639.050381,27347.113472,-40900.183129,-27985.814570,-0.036000,0.946000,0.272000,192.000000,0.000000,0.000000,0.000000,0.000000,0.000000,0.000000,0.000000,0.000000,0.000000,1648616000.748019,0.000000
128.000000,-53857.131762,-40804.852939,18207.932199,-5564.757355,10635.764675,27357.015295,-40897.009182,-27980.181930,-0.036000,0.946000,0.272000,192.000000,0.000000,0.000000,0.000000,0.000000,0.000000,0.000000,0.000000,0.000000,0.000000,1648616000.754621,0.000000
129.000000,-53877.561257,-40825.416544,18191.481315,-5587.131451,10616.363360,27338.753919,-40909.928490,-27993.212997,-0.036000,0.946000,0.272000,192.000000,0.000000,0.000000,0.000000,0.000000,0.000000,0.000000,0.000000,0.000000,0.000000,1648616000.754655,0.000000
130.000000,-53854.248387,-40808.630384,18210.279132,-5572.312244,10624.924079,27354.333085,-40911.671926,-27991.670727,-0.036000,0.946000,0.272000,192.000000,0.000000,0.000000,0.000000,0.000000,0.000000,0.000000,0.000000,0.000000,0.000000,1648616000.762438,0.000000
131.000000,-53855.589492,-40810.798503,18212.581362,-5567.953654,10649.220425,27362.647934,-40886.950897,-27960.199471,-0.036000,0.946000,0.272000,192.000000,0.000000,0.000000,0.000000,0.000000,0.000000,0.000000,0.000000,0.000000,0.000000,1648616000.762454,0.000000
132.000000,-53867.950006,-40820.141532,18200.533772,-5578.324864,10645.241814,27355.987114,-40899.400818,-27969.855424,-0.036000,0.946000,0.272000,192.000000,0.000000,0.000000,0.000000,0.000000,0.000000,0.000000,0.000000,0.000000,0.000000,1648616000.768973,0.000000
133.000000,-53867.413565,-40814.151265,18197.650397,-5580.381224,10628.835634,27348.320466,-40892.717647,-27981.903014,-0.036000,0.946000,0.272000,192.000000,0.000000,0.000000,0.000000,0.000000,0.000000,0.000000,0.000000,0.000000,0.000000,1648616000.776936,0.000000
134.000000,-53878.544733,-40825.930634,18187.837981,-5593.993437,10616.877451,27327.376882,-40921.998432,-28013.977768,-0.034000,0.944000,0.272000,192.000000,254.000000,240.000000,29.000000,128.000000,8.000000,128.000000,0.000000,0.000000,0.000000,1648616000.776953,0.000000
135.000000,-53874.700233,-40825.595358,18191.704833,-5589.880716,10629.841462,27334.395329,-40945.423060,-28019.811573,-0.034000,0.944000,0.272000,192.000000,0.000000,0.000000,0.000000,0.000000,0.000000,0.000000,0.000000,0.000000,0.000000,1648616000.784944,0.000000
136.000000,-53868.687614,-40817.951061,18193.940007,-5583.242247,10641.956108,27341.503184,-40920.612624,-28000.723183,-0.034000,0.944000,0.272000,192.000000,0.000000,0.000000,0.000000,0.000000,0.000000,0.000000,0.000000,0.000000,0.000000,1648616000.784959,0.000000
137.000000,-53869.916960,-40816.967585,18182.004175,-5580.604742,10634.736494,27335.088233,-40935.431830,-28014.402451,-0.034000,0.944000,0.272000,192.000000,0.000000,0.000000,0.000000,0.000000,0.000000,0.000000,0.000000,0.000000,0.000000,1648616000.792099,0.000000
138.000000,-53852.460248,-40803.556538,18199.013853,-5568.199523,10626.265183,27348.543984,-40920.612624,-28019.833925,-0.034000,0.944000,0.272000,192.000000,0.000000,0.000000,0.000000,0.000000,0.000000,0.000000,0.000000,0.000000,0.000000,1648616000.792115,0.000000
139.000000,-53857.422335,-40802.237785,18202.366615,-5570.747622,10626.891032,27352.813167,-40909.928490,-27995.090544,-0.034000,0.944000,0.272000,192.000000,0.000000,0.000000,0.000000,0.000000,0.000000,0.000000,0.000000,0.000000,0.000000,1648616000.799592,0.000000
140.000000,-53872.330948,-40816.498198,18194.230580,-5582.057605,10637.888090,27340.273838,-40912.208368,-27997.839808,-0.034000,0.944000,0.272000,192.000000,0.000000,0.000000,0.000000,0.000000,0.000000,0.000000,0.000000,0.000000,0.000000,1648616000.799608,0.000000
141.000000,-53866.944178,-40806.395210,18194.208228,-5575.352082,10648.661631,27340.184431,-40878.189013,-27989.480256,-0.034000,0.944000,0.272000,192.000000,0.000000,0.000000,0.000000,0.000000,0.000000,0.000000,0.000000,0.000000,0.000000,1648616000.807572,0.000000
142.000000,-53879.930542,-40823.047259,18178.137324,-5593.747567,10631.339029,27324.582913,-40905.525196,-28008.523942,-0.034000,0.944000,0.272000,192.000000,0.000000,0.000000,0.000000,0.000000,0.000000,0.000000,0.000000,0.000000,0.000000,1648616000.807589,0.000000
143.000000,-53876.734242,-40820.074477,18184.753440,-5586.505602,10621.727779,27329.120318,-40957.314188,-28012.547256,-0.034000,0.944000,0.272000,192.000000,0.000000,0.000000,0.000000,0.000000,0.000000,0.000000,0.000000,0.000000,0.000000,1648616000.815612,0.000000
144.000000,-53864.641948,-40807.848073,18200.131440,-5573.072204,10630.064980,27341.838460,-40932.123772,-27979.734895,-0.034000,0.944000,0.272000,192.000000,0.000000,0.000000,0.000000,0.000000,0.000000,0.000000,0.000000,0.000000,0.000000,1648616000.815628,0.000000
145.000000,-53865.334852,-40814.017154,18197.270417,-5582.415233,10634.825901,27331.981341,-40920.947900,-27984.987555,-0.040000,0.942000,0.270000,192.000000,254.000000,192.000000,29.000000,112.000000,8.000000,112.000000,0.000000,0.000000,0.000000,1648616000.822251,0.000000
146.000000,-53860.663338,-40810.910262,18199.907923,-5581.767032,10643.610137,27329.746166,-40920.567920,-28013.016643,-0.040000,0.942000,0.270000,192.000000,0.000000,0.000000,0.000000,0.000000,0.000000,0.000000,0.000000,0.000000,0.000000,1648616000.822267,0.000000
147.000000,-53861.602111,-40803.422428,18199.304426,-5580.358872,10641.799646,27333.143632,-40923.831275,-28017.554047,-0.040000,0.942000,0.270000,192.000000,0.000000,0.000000,0.000000,0.000000,0.000000,0.000000,0.000000,0.000000,0.000000,1648616000.829289,0.000000
148.000000,-53853.935463,-40793.654715,18198.656225,-5569.518276,10629.685000,27340.698521,-40909.101475,-28017.263474,-0.040000,0.942000,0.270000,192.000000,0.000000,0.000000,0.000000,0.000000,0.000000,0.000000,0.000000,0.000000,0.000000,1648616000.837264,0.000000
149.000000,-53839.853864,-40789.720808,18209.027434,-5559.012957,10626.488701,27357.104702,-40894.908118,-28004.366518,-0.040000,0.942000,0.270000,192.000000,0.000000,0.000000,0.000000,0.000000,0.000000,0.000000,0.000000,0.000000,0.000000,1648616000.837280,0.000000
150.000000,-53848.727506,-40805.054105,18205.339397,-5574.212143,10636.234061,27339.491527,-40929.553322,-28010.557951,-0.040000,0.942000,0.270000,192.000000,0.000000,0.000000,0.000000,0.000000,0.000000,0.000000,0.000000,0.000000,0.000000,1648616000.845266,0.000000
151.000000,-53851.856750,-40809.278585,18207.574571,-5574.837992,10651.813227,27337.859850,-40932.727269,-28016.302349,-0.040000,0.942000,0.270000,192.000000,0.000000,0.000000,0.000000,0.000000,0.000000,0.000000,0.000000,0.000000,0.000000,1648616000.845282,0.000000
152.000000,-53843.899529,-40799.510872,18203.730071,-5573.049852,10646.672326,27342.620771,-40909.861435,-27996.766924,-0.040000,0.942000,0.270000,192.000000,0.000000,0.000000,0.000000,0.000000,0.000000,0.000000,0.000000,0.000000,0.000000,1648616000.851857,0.000000
153.000000,-53873.135611,-40831.920902,18172.258815,-5606.085730,10614.932849,27316.603341,-40913.191845,-28012.904884,-0.040000,0.942000,0.270000,192.000000,0.000000,0.000000,0.000000,0.000000,0.000000,0.000000,0.000000,0.000000,0.000000,1648616000.851873,0.000000
