%OpenBCI Raw EEG Data
%Number of channels = 8
%Sample Rate = 256 Hz
%Board = OpenBCI_GUI$BoardCytonSerial
%Channels = Fp1, Fp2, F3, F4, Fz, Pz, O1, O2
%Data recorded at AIMS Lab (http://aimsl.uiu.ac.bd) by Rana Depto (mail@ranadepto.com)
%Brainwaves were obtained via the Ultracortex Mark IV Headset using the OpenBCI Cyton Board
%Recording Application = ConcentrateToday (https://concentrate.today)
%Data type = RAW data with noise
%Day No = 1
%Subject ID = 2
%Session ID = 7
%Record starting timestamp (UTC+6) = 2022-03-05T14:36:02.016632
%Record ending timestamp (UTC+6)   = 2022-03-05T14:36:17.848419
%Recorded durations = ~15 seconds
Sample Index, EXG Channel 0, EXG Channel 1, EXG Channel 2, EXG Channel 3, EXG Channel 4, EXG Channel 5, EXG Channel 6, EXG Channel 7, Accel Channel 0, Accel Channel 1, Accel Channel 2, Other, Other, Other, Other, Other, Other, Other, Analog Channel 0, Analog Channel 1, Analog Channel 2, Timestamp, Timestamp (Formatted)
219.000000,68465.449627,55409.952153,52678.300760,47465.739842,34260.597439,36511.328699,47345.442753,44746.493667,-0.134000,0.978000,-0.014000,192.000000,0.000000,0.000000,0.000000,0.000000,0.000000,0.000000,0.000000,0.000000,0.000000,1646469362.021506,0.000000
220.000000,68475.552616,55401.279676,52685.922704,47463.459964,34298.483646,36504.287899,47342.268806,44747.030109,-0.134000,0.978000,-0.014000,192.000000,0.000000,0.000000,0.000000,0.000000,0.000000,0.000000,0.000000,0.000000,0.000000,1646469362.021512,0.000000
221.000000,68432.190231,55388.762699,52651.746887,47443.298691,34231.204895,36491.010963,47333.775143,44727.807609,-0.134000,0.978000,-0.014000,192.000000,0.000000,0.000000,0.000000,0.000000,0.000000,0.000000,0.000000,0.000000,0.000000,1646469362.029520,0.000000
222.000000,68409.994949,55393.098938,52633.507864,47437.129609,34171.704551,36491.212129,47326.600233,44720.118608,-0.126000,0.978000,-0.012000,192.000000,252.000000,16.000000,30.000000,144.000000,255.000000,160.000000,0.000000,0.000000,0.000000,1646469362.029525,0.000000
223.000000,68433.017246,55411.561479,52653.020937,47453.871066,34192.692839,36509.875835,47340.592425,44737.530617,-0.126000,0.978000,-0.012000,192.000000,0.000000,0.000000,0.000000,0.000000,0.000000,0.000000,0.000000,0.000000,0.000000,1646469362.037425,0.000000
224.000000,68460.778113,55406.018246,52670.812925,47457.693214,34250.472099,36509.920539,47354.741079,44738.670556,-0.126000,0.978000,-0.012000,192.000000,0.000000,0.000000,0.000000,0.000000,0.000000,0.000000,0.000000,0.000000,0.000000,1646469362.037429,0.000000
225.000000,68484.694479,55406.599391,52686.839126,47464.756365,34295.488512,36509.875835,47356.439812,44740.168123,-0.126000,0.978000,-0.012000,192.000000,0.000000,0.000000,0.000000,0.000000,0.000000,0.000000,0.000000,0.000000,0.000000,1646469362.044125,0.000000
226.000000,68451.748008,55403.090167,52662.565131,47453.759307,34235.161154,36502.589166,47337.306719,44734.691946,-0.126000,0.978000,-0.012000,192.000000,0.000000,0.000000,0.000000,0.000000,0.000000,0.000000,0.000000,0.000000,0.000000,1646469362.044129,0.000000
227.000000,68428.166917,55408.052255,52644.616681,47449.423069,34180.824063,36506.321908,47339.743059,44737.463562,-0.126000,0.978000,-0.012000,192.000000,0.000000,0.000000,0.000000,0.000000,0.000000,0.000000,0.000000,0.000000,0.000000,1646469362.052122,0.000000
228.000000,68438.359313,55410.220374,52648.952919,47452.284092,34191.150569,36508.288861,47345.755678,44737.374155,-0.126000,0.978000,-0.012000,192.000000,0.000000,0.000000,0.000000,0.000000,0.000000,0.000000,0.000000,0.000000,0.000000,1646469362.052126,0.000000
229.000000,68462.767418,55403.403092,52666.387280,47456.463868,34249.220401,36504.131437,47342.961710,44739.944606,-0.126000,0.978000,-0.012000,192.000000,0.000000,0.000000,0.000000,0.000000,0.000000,0.000000,0.000000,0.000000,0.000000,1646469362.059126,0.000000
230.000000,68473.764476,55395.915257,52671.796402,47455.525095,34284.111474,36495.794236,47340.525370,44738.268225,-0.126000,0.978000,-0.012000,192.000000,0.000000,0.000000,0.000000,0.000000,0.000000,0.000000,0.000000,0.000000,0.000000,1646469362.067185,0.000000
231.000000,68442.516737,55393.456566,52650.741059,47445.489162,34227.606264,36493.447303,47337.552588,44733.931987,-0.126000,0.978000,-0.012000,192.000000,0.000000,0.000000,0.000000,0.000000,0.000000,0.000000,0.000000,0.000000,0.000000,1646469362.067189,0.000000
232.000000,68419.628551,55397.345769,52634.401933,47443.566912,34174.319705,36494.654297,47332.769314,44729.327527,-0.126000,0.970000,-0.014000,192.000000,252.000000,16.000000,30.000000,80.000000,255.000000,144.000000,0.000000,0.000000,0.000000,1646469362.073761,0.000000
233.000000,68434.179537,55405.191231,52645.019012,47452.708775,34187.462531,36501.091600,47338.491361,44735.116629,-0.126000,0.970000,-0.014000,192.000000,0.000000,0.000000,0.000000,0.000000,0.000000,0.000000,0.000000,0.000000,0.000000,1646469362.073765,0.000000
234.000000,68459.727581,55404.140699,52664.263864,47459.704871,34246.761709,36499.325812,47339.050155,44737.709431,-0.126000,0.970000,-0.014000,192.000000,0.000000,0.000000,0.000000,0.000000,0.000000,0.000000,0.000000,0.000000,0.000000,1646469362.081845,0.000000
235.000000,68477.452514,55406.130005,52680.334768,47466.633912,34292.068695,36495.794236,47336.770277,44738.111763,-0.126000,0.970000,-0.014000,192.000000,0.000000,0.000000,0.000000,0.000000,0.000000,0.000000,0.000000,0.000000,0.000000,1646469362.081856,0.000000
236.000000,68452.351505,55407.359351,52663.705070,47459.146078,34239.877372,36497.783541,47339.608948,44740.212827,-0.126000,0.970000,-0.014000,192.000000,0.000000,0.000000,0.000000,0.000000,0.000000,0.000000,0.000000,0.000000,0.000000,1646469362.089779,0.000000
237.000000,68425.819984,55402.754891,52640.481608,47448.081964,34177.963040,36494.207262,47335.116248,44731.741516,-0.126000,0.970000,-0.014000,192.000000,0.000000,0.000000,0.000000,0.000000,0.000000,0.000000,0.000000,0.000000,0.000000,1646469362.089790,0.000000
238.000000,68440.013342,55411.025037,52652.149219,47457.715566,34191.418790,36501.717448,47340.055983,44738.357632,-0.126000,0.970000,-0.014000,192.000000,0.000000,0.000000,0.000000,0.000000,0.000000,0.000000,0.000000,0.000000,0.000000,1646469362.096740,0.000000
239.000000,68464.913185,55402.129042,52663.526257,47457.581455,34242.738395,36497.291803,47334.177474,44738.424687,-0.126000,0.970000,-0.014000,192.000000,0.000000,0.000000,0.000000,0.000000,0.000000,0.000000,0.000000,0.000000,0.000000,1646469362.096743,0.000000
240.000000,68492.606997,55403.939534,52680.938265,47468.399700,34289.542948,36505.204321,47342.335861,44748.617083,-0.126000,0.970000,-0.014000,192.000000,0.000000,0.000000,0.000000,0.000000,0.000000,0.000000,0.000000,0.000000,0.000000,1646469362.104436,0.000000
241.000000,68466.187235,55403.112519,52662.721594,47459.280188,34236.949293,36508.244158,47346.314472,44742.984443,-0.126000,0.970000,-0.014000,192.000000,0.000000,0.000000,0.000000,0.000000,0.000000,0.000000,0.000000,0.000000,0.000000,1646469362.104439,0.000000
242.000000,68436.638228,55404.364217,52643.364983,47450.384194,34179.460607,36506.657184,47339.318376,44733.842580,-0.130000,0.974000,-0.016000,192.000000,251.000000,240.000000,30.000000,112.000000,255.000000,128.000000,0.000000,0.000000,0.000000,1646469362.112403,0.000000
243.000000,68445.355409,55406.867612,52650.271672,47452.597016,34187.842511,36509.093524,47345.107477,44740.928083,-0.130000,0.974000,-0.016000,192.000000,0.000000,0.000000,0.000000,0.000000,0.000000,0.000000,0.000000,0.000000,0.000000,1646469362.112406,0.000000
244.000000,68475.597319,55404.945362,52674.366853,47459.883685,34248.773366,36511.149885,47359.122021,44748.147696,-0.130000,0.974000,-0.016000,192.000000,0.000000,0.000000,0.000000,0.000000,0.000000,0.000000,0.000000,0.000000,0.000000,1646469362.119426,0.000000
245.000000,68487.242578,55395.736443,52680.960617,47457.223828,34282.502148,36499.012887,47349.220198,44740.928083,-0.130000,0.974000,-0.016000,192.000000,0.000000,0.000000,0.000000,0.000000,0.000000,0.000000,0.000000,0.000000,0.000000,1646469362.126455,0.000000
246.000000,68451.032752,55390.349673,52652.417440,47443.343394,34220.252540,36490.340411,47335.026841,44739.452867,-0.130000,0.974000,-0.016000,192.000000,0.000000,0.000000,0.000000,0.000000,0.000000,0.000000,0.000000,0.000000,0.000000,1646469362.126459,0.000000
247.000000,68429.575077,55396.161127,52636.927681,47439.320080,34166.675409,36492.329716,47332.858721,44733.239082,-0.130000,0.974000,-0.016000,192.000000,0.000000,0.000000,0.000000,0.000000,0.000000,0.000000,0.000000,0.000000,0.000000,1646469362.134095,0.000000
248.000000,68444.595450,55401.726711,52649.332899,47447.165543,34181.315801,36497.023582,47345.599216,44734.982519,-0.130000,0.974000,-0.016000,192.000000,0.000000,0.000000,0.000000,0.000000,0.000000,0.000000,0.000000,0.000000,0.000000,1646469362.134098,0.000000
249.000000,68475.016174,55401.190269,52672.377547,47460.911865,34247.231096,36501.583338,47351.030690,44749.153525,-0.130000,0.974000,-0.016000,192.000000,0.000000,0.000000,0.000000,0.000000,0.000000,0.000000,0.000000,0.000000,0.000000,1646469362.142043,0.000000
250.000000,68491.601168,55401.614952,52683.575771,47466.857429,34289.677058,36497.045934,47347.052079,44746.381908,-0.130000,0.974000,-0.016000,192.000000,0.000000,0.000000,0.000000,0.000000,0.000000,0.000000,0.000000,0.000000,0.000000,1646469362.142046,0.000000
251.000000,68467.282470,55400.899696,52663.481553,47460.308368,34237.396328,36496.330678,47343.319338,44745.823115,-0.130000,0.974000,-0.016000,192.000000,0.000000,0.000000,0.000000,0.000000,0.000000,0.000000,0.000000,0.000000,0.000000,1646469362.149968,0.000000
252.000000,68439.476900,55400.229144,52642.359155,47452.217037,34178.119502,36494.877815,47343.028765,44747.320681,-0.126000,0.978000,-0.014000,192.000000,252.000000,16.000000,30.000000,144.000000,255.000000,144.000000,0.000000,0.000000,0.000000,1646469362.149972,0.000000
253.000000,68455.860729,55411.449720,52655.300815,47459.548409,34194.123351,36503.773809,47356.573922,44759.368272,-0.126000,0.978000,-0.014000,192.000000,0.000000,0.000000,0.000000,0.000000,0.000000,0.000000,0.000000,0.000000,0.000000,1646469362.156595,0.000000
254.000000,68491.779982,55415.316572,52681.921742,47473.272380,34259.971590,36507.819475,47361.111326,44767.146679,-0.126000,0.978000,-0.014000,192.000000,0.000000,0.000000,0.000000,0.000000,0.000000,0.000000,0.000000,0.000000,0.000000,1646469362.156599,0.000000
255.000000,68506.286264,55408.298124,52690.683626,47470.925447,34298.729515,36502.902091,47357.266826,44766.409071,-0.126000,0.978000,-0.014000,192.000000,0.000000,0.000000,0.000000,0.000000,0.000000,0.000000,0.000000,0.000000,0.000000,1646469362.164741,0.000000
0.000000,68468.042429,55398.329246,52657.804210,47450.272435,34232.501296,36492.061495,47336.703221,44749.377042,-0.126000,0.978000,-0.014000,192.000000,0.000000,0.000000,0.000000,0.000000,0.000000,0.000000,0.000000,0.000000,0.000000,1646469362.164745,0.000000
1.000000,68438.761644,55399.782109,52636.145370,47443.052822,34174.163243,36487.479387,47323.918024,44738.335280,-0.126000,0.978000,-0.014000,192.000000,0.000000,0.000000,0.000000,0.000000,0.000000,0.000000,0.000000,0.000000,0.000000,1646469362.172593,0.000000
2.000000,68453.424389,55412.388493,52648.617643,47451.859409,34191.888176,36495.816588,47338.469009,44745.912522,-0.126000,0.978000,-0.014000,192.000000,0.000000,0.000000,0.000000,0.000000,0.000000,0.000000,0.000000,0.000000,0.000000,1646469362.172597,0.000000
3.000000,68483.353374,55412.902583,52671.751698,47460.710700,34251.835555,36497.001230,47344.861608,44753.847391,-0.126000,0.978000,-0.014000,192.000000,0.000000,0.000000,0.000000,0.000000,0.000000,0.000000,0.000000,0.000000,0.000000,1646469362.179702,0.000000
4.000000,68495.937407,55406.331170,52683.061681,47463.772889,34291.800474,36497.515320,47354.092879,44759.480030,-0.126000,0.978000,-0.014000,192.000000,0.000000,0.000000,0.000000,0.000000,0.000000,0.000000,0.000000,0.000000,0.000000,1646469362.186274,0.000000
5.000000,68459.571118,55395.043539,52655.099649,47446.494990,34227.561561,36488.485216,47339.765410,44744.258493,-0.126000,0.978000,-0.014000,192.000000,0.000000,0.000000,0.000000,0.000000,0.000000,0.000000,0.000000,0.000000,0.000000,1646469362.186277,0.000000
6.000000,68432.011417,55392.875420,52635.296003,47437.330775,34168.955287,36488.284050,47333.685736,44738.134115,-0.126000,0.974000,-0.014000,192.000000,252.000000,16.000000,30.000000,112.000000,255.000000,144.000000,0.000000,0.000000,0.000000,1646469362.194400,0.000000
7.000000,68444.796615,55398.105728,52641.465085,47441.219978,34181.159339,36492.262661,47337.776105,44743.364423,-0.126000,0.974000,-0.014000,192.000000,0.000000,0.000000,0.000000,0.000000,0.000000,0.000000,0.000000,0.000000,0.000000,1646469362.194403,0.000000
8.000000,68477.117238,55397.815156,52663.414498,47451.434726,34242.850154,36493.603765,47343.676966,44748.840600,-0.126000,0.974000,-0.014000,192.000000,0.000000,0.000000,0.000000,0.000000,0.000000,0.000000,0.000000,0.000000,0.000000,1646469362.202247,0.000000
9.000000,68504.542828,55404.006589,52689.074300,47467.036243,34297.142541,36504.466713,47352.863533,44761.469336,-0.126000,0.974000,-0.014000,192.000000,0.000000,0.000000,0.000000,0.000000,0.000000,0.000000,0.000000,0.000000,0.000000,1646469362.202250,0.000000
10.000000,68467.505988,55400.810289,52665.359100,47454.116935,34240.346758,36494.900166,47338.714878,44738.245873,-0.126000,0.974000,-0.014000,192.000000,0.000000,0.000000,0.000000,0.000000,0.000000,0.000000,0.000000,0.000000,0.000000,1646469362.209515,0.000000
11.000000,68432.838432,55397.234010,52641.733306,47442.739897,34177.873633,36491.100370,47335.451524,44734.647242,-0.126000,0.974000,-0.014000,192.000000,0.000000,0.000000,0.000000,0.000000,0.000000,0.000000,0.000000,0.000000,0.000000,1646469362.209520,0.000000
12.000000,68449.334019,55411.583830,52658.944149,47457.045014,34198.146665,36503.103257,47347.208541,44751.701623,-0.126000,0.974000,-0.014000,192.000000,0.000000,0.000000,0.000000,0.000000,0.000000,0.000000,0.000000,0.000000,0.000000,1646469362.217007,0.000000
13.000000,68479.844151,55409.326304,52678.814850,47461.180086,34257.334084,36502.477408,47356.931550,44758.496554,-0.126000,0.974000,-0.014000,192.000000,0.000000,0.000000,0.000000,0.000000,0.000000,0.000000,0.000000,0.000000,0.000000,1646469362.217011,0.000000
14.000000,68501.011253,55403.067816,52687.777899,47459.816630,34294.192111,36498.543501,47357.557399,44760.351749,-0.126000,0.974000,-0.014000,192.000000,0.000000,0.000000,0.000000,0.000000,0.000000,0.000000,0.000000,0.000000,0.000000,1646469362.224950,0.000000
15.000000,68463.326211,55393.009531,52657.424230,47444.282167,34228.053299,36490.787445,47339.966576,44746.292501,-0.126000,0.974000,-0.014000,192.000000,0.000000,0.000000,0.000000,0.000000,0.000000,0.000000,0.000000,0.000000,0.000000,1646469362.224954,0.000000
16.000000,68436.034731,55396.295237,52640.973346,47437.129609,34170.654019,36490.653335,47333.462218,44733.842580,-0.128000,0.974000,-0.012000,192.000000,252.000000,0.000000,30.000000,112.000000,255.000000,160.000000,0.000000,0.000000,0.000000,1646469362.232988,0.000000
17.000000,68453.625554,55408.096958,52649.891692,47439.968281,34182.969830,36486.741780,47335.026841,44728.791085,-0.128000,0.974000,-0.012000,192.000000,0.000000,0.000000,0.000000,0.000000,0.000000,0.000000,0.000000,0.000000,0.000000,1646469362.232991,0.000000
18.000000,68488.449572,55418.490519,52676.087937,47455.234522,34247.320503,36489.982783,47339.787762,44748.170048,-0.128000,0.974000,-0.012000,192.000000,0.000000,0.000000,0.000000,0.000000,0.000000,0.000000,0.000000,0.000000,0.000000,1646469362.239098,0.000000
19.000000,68494.126915,55405.302990,52688.716673,47462.185915,34291.107570,36494.609594,47343.274634,44759.994121,-0.128000,0.974000,-0.012000,192.000000,0.000000,0.000000,0.000000,0.000000,0.000000,0.000000,0.000000,0.000000,0.000000,1646469362.239102,0.000000
20.000000,68464.041467,55400.877345,52669.650634,47456.374461,34239.698558,36497.336507,47338.223140,44755.747289,-0.128000,0.974000,-0.012000,192.000000,0.000000,0.000000,0.000000,0.000000,0.000000,0.000000,0.000000,0.000000,0.000000,1646469362.246682,0.000000
21.000000,68440.460377,55403.514851,52646.918910,47448.350185,34180.801711,36492.664992,47331.070582,44743.453830,-0.128000,0.974000,-0.012000,192.000000,0.000000,0.000000,0.000000,0.000000,0.000000,0.000000,0.000000,0.000000,0.000000,1646469362.254649,0.000000
22.000000,68449.401075,55404.744197,52647.723573,47448.573702,34189.071857,36488.194643,47324.990907,44731.361536,-0.128000,0.974000,-0.012000,192.000000,0.000000,0.000000,0.000000,0.000000,0.000000,0.000000,0.000000,0.000000,0.000000,1646469362.254659,0.000000
23.000000,68481.945215,55411.136795,52672.846934,47463.862296,34256.797642,36498.163521,47341.397088,44748.885304,-0.128000,0.974000,-0.012000,192.000000,0.000000,0.000000,0.000000,0.000000,0.000000,0.000000,0.000000,0.000000,0.000000,1646469362.261627,0.000000
24.000000,68503.246427,55415.294220,52691.153013,47477.787432,34305.010355,36509.965242,47357.512695,44774.634513,-0.128000,0.974000,-0.012000,192.000000,0.000000,0.000000,0.000000,0.000000,0.000000,0.000000,0.000000,0.000000,0.000000,1646469362.261631,0.000000
25.000000,68464.332040,55408.566345,52663.861533,47466.477450,34242.246657,36501.829207,47342.984062,44762.877496,-0.128000,0.974000,-0.012000,192.000000,0.000000,0.000000,0.000000,0.000000,0.000000,0.000000,0.000000,0.000000,0.000000,1646469362.269250,0.000000
26.000000,68439.275734,55409.728636,52643.074410,47457.492048,34182.723961,36499.303460,47334.065716,44752.193362,-0.130000,0.974000,-0.014000,192.000000,251.000000,240.000000,30.000000,112.000000,255.000000,144.000000,0.000000,0.000000,0.000000,1646469362.269254,0.000000
27.000000,68455.547804,55417.372932,52654.697317,47463.370557,34199.241900,36506.344260,47347.767335,44755.993158,-0.130000,0.974000,-0.014000,192.000000,0.000000,0.000000,0.000000,0.000000,0.000000,0.000000,0.000000,0.000000,0.000000,1646469362.277306,0.000000
28.000000,68486.370860,55416.881194,52678.099594,47470.925447,34263.391407,36511.216940,47357.400937,44766.297313,-0.130000,0.974000,-0.014000,192.000000,0.000000,0.000000,0.000000,0.000000,0.000000,0.000000,0.000000,0.000000,0.000000,1646469362.277310,0.000000
29.000000,68503.134668,55411.650886,52689.454280,47473.227677,34301.210559,36511.574568,47365.380510,44771.728786,-0.130000,0.974000,-0.014000,192.000000,0.000000,0.000000,0.000000,0.000000,0.000000,0.000000,0.000000,0.000000,0.000000,1646469362.285240,0.000000
30.000000,68463.482674,55407.180537,52664.420326,47461.604769,34240.704386,36502.142132,47349.622530,44759.927065,-0.130000,0.974000,-0.014000,192.000000,0.000000,0.000000,0.000000,0.000000,0.000000,0.000000,0.000000,0.000000,0.000000,1646469362.285244,0.000000
31.000000,68434.067778,55407.381702,52644.013184,47449.959511,34181.986354,36496.911823,47334.691564,44745.845466,-0.130000,0.974000,-0.014000,192.000000,0.000000,0.000000,0.000000,0.000000,0.000000,0.000000,0.000000,0.000000,0.000000,1646469362.291852,0.000000
32.000000,68455.547804,55421.150377,52663.615663,47464.756365,34207.534398,36511.820437,47355.076355,44760.396452,-0.130000,0.974000,-0.014000,192.000000,0.000000,0.000000,0.000000,0.000000,0.000000,0.000000,0.000000,0.000000,0.000000,1646469362.291855,0.000000
33.000000,68488.047241,55421.820929,52687.375568,47477.429804,34271.773311,36513.094486,47362.027748,44765.090318,-0.130000,0.974000,-0.014000,192.000000,0.000000,0.000000,0.000000,0.000000,0.000000,0.000000,0.000000,0.000000,0.000000,1646469362.299882,0.000000
34.000000,68503.291130,55415.920069,52692.628228,47477.385101,34304.965652,36502.365649,47353.511733,44752.483934,-0.130000,0.974000,-0.014000,192.000000,0.000000,0.000000,0.000000,0.000000,0.000000,0.000000,0.000000,0.000000,0.000000,1646469362.299886,0.000000
35.000000,68470.881101,55410.287429,52665.627320,47465.024586,34246.024101,36498.364687,47340.301852,44753.065080,-0.130000,0.974000,-0.014000,192.000000,0.000000,0.000000,0.000000,0.000000,0.000000,0.000000,0.000000,0.000000,0.000000,1646469362.306901,0.000000
36.000000,68442.539089,55409.594525,52644.862550,47458.430822,34186.680220,36497.247100,47336.703221,44747.834772,-0.128000,0.978000,-0.010000,192.000000,252.000000,0.000000,30.000000,144.000000,255.000000,176.000000,0.000000,0.000000,0.000000,1646469362.314915,0.000000
37.000000,68457.693572,55419.317534,52659.234722,47469.249066,34203.376973,36504.980803,47351.790649,44749.667615,-0.128000,0.978000,-0.010000,192.000000,0.000000,0.000000,0.000000,0.000000,0.000000,0.000000,0.000000,0.000000,0.000000,1646469362.314919,0.000000
38.000000,68488.963662,55424.123159,52684.045158,47482.347188,34267.772349,36508.847655,47359.837277,44757.043690,-0.128000,0.978000,-0.010000,192.000000,0.000000,0.000000,0.000000,0.000000,0.000000,0.000000,0.000000,0.000000,0.000000,1646469362.321524,0.000000
39.000000,68501.257122,55419.317534,52691.935324,47482.771871,34304.540968,36502.589166,47347.566169,44752.193362,-0.128000,0.978000,-0.010000,192.000000,0.000000,0.000000,0.000000,0.000000,0.000000,0.000000,0.000000,0.000000,0.000000,1646469362.321528,0.000000
40.000000,68460.755761,55411.382665,52662.363966,47462.364729,34239.407985,36492.396771,47327.181378,44740.838676,-0.128000,0.978000,-0.010000,192.000000,0.000000,0.000000,0.000000,0.000000,0.000000,0.000000,0.000000,0.000000,0.000000,1646469362.329568,0.000000
41.000000,68436.682932,55414.981295,52644.370812,47457.849676,34184.065066,36495.481312,47331.718782,44746.694833,-0.128000,0.978000,-0.010000,192.000000,0.000000,0.000000,0.000000,0.000000,0.000000,0.000000,0.000000,0.000000,0.000000,1646469362.329572,0.000000
42.000000,68466.388400,55433.019153,52665.582617,47472.043034,34211.110677,36504.958451,47341.039460,44755.479068,-0.128000,0.978000,-0.010000,192.000000,0.000000,0.000000,0.000000,0.000000,0.000000,0.000000,0.000000,0.000000,0.000000,1646469362.337497,0.000000
43.000000,68498.731375,55434.002630,52691.309475,47480.000255,34275.640163,36507.506550,47353.601140,44760.284693,-0.128000,0.978000,-0.010000,192.000000,0.000000,0.000000,0.000000,0.000000,0.000000,0.000000,0.000000,0.000000,0.000000,1646469362.337506,0.000000
44.000000,68507.627369,55424.816063,52699.445510,47481.497822,34310.844160,36502.164483,47351.388318,44758.720071,-0.128000,0.978000,-0.010000,192.000000,0.000000,0.000000,0.000000,0.000000,0.000000,0.000000,0.000000,0.000000,0.000000,1646469362.344573,0.000000
45.000000,68474.166807,55422.737351,52675.327978,47472.892400,34250.405043,36497.582376,47348.415535,44741.151600,-0.128000,0.978000,-0.010000,192.000000,0.000000,0.000000,0.000000,0.000000,0.000000,0.000000,0.000000,0.000000,0.000000,1646469362.344577,0.000000
46.000000,68443.611973,55423.542014,52655.256111,47465.695139,34190.480017,36499.929309,47345.330995,44740.190475,-0.128000,0.978000,-0.010000,192.000000,0.000000,0.000000,0.000000,0.000000,0.000000,0.000000,0.000000,0.000000,0.000000,1646469362.352098,0.000000
47.000000,68451.904470,55428.191176,52660.978158,47468.377348,34201.454723,36504.332603,47346.873265,44752.618045,-0.130000,0.974000,-0.012000,192.000000,251.000000,240.000000,30.000000,112.000000,255.000000,160.000000,0.000000,0.000000,0.000000,1646469362.352101,0.000000
48.000000,68487.197874,55430.314592,52685.542725,47477.586267,34264.732512,36506.299556,47351.030690,44758.161278,-0.130000,0.974000,-0.012000,192.000000,0.000000,0.000000,0.000000,0.000000,0.000000,0.000000,0.000000,0.000000,0.000000,1646469362.360174,0.000000
49.000000,68505.749822,55423.676124,52696.226859,47481.006084,34304.138637,36504.176140,47351.343614,44760.687025,-0.130000,0.974000,-0.012000,192.000000,0.000000,0.000000,0.000000,0.000000,0.000000,0.000000,0.000000,0.000000,0.000000,1646469362.360178,0.000000
50.000000,68465.360220,55411.986162,52664.420326,47464.354034,34237.284569,36494.229614,47338.066678,44744.683176,-0.130000,0.974000,-0.012000,192.000000,0.000000,0.000000,0.000000,0.000000,0.000000,0.000000,0.000000,0.000000,0.000000,1646469362.367256,0.000000
51.000000,68444.059008,55423.787883,52651.769239,47463.482316,34183.439217,36499.281108,47340.391259,44746.203094,-0.130000,0.974000,-0.012000,192.000000,0.000000,0.000000,0.000000,0.000000,0.000000,0.000000,0.000000,0.000000,0.000000,1646469362.374275,0.000000
52.000000,68465.002592,55435.366086,52667.616626,47473.004159,34205.567444,36507.685364,47345.442753,44756.551952,-0.130000,0.974000,-0.012000,192.000000,0.000000,0.000000,0.000000,0.000000,0.000000,0.000000,0.000000,0.000000,0.000000,1646469362.374278,0.000000
53.000000,68495.378613,55431.566290,52688.470803,47479.754386,34264.710160,36510.702850,47357.713861,44765.090318,-0.130000,0.974000,-0.012000,192.000000,0.000000,0.000000,0.000000,0.000000,0.000000,0.000000,0.000000,0.000000,0.000000,1646469362.381677,0.000000
54.000000,68505.168677,55423.787883,52694.081091,47476.893363,34297.678983,36502.455056,47355.143411,44761.134060,-0.130000,0.974000,-0.012000,192.000000,0.000000,0.000000,0.000000,0.000000,0.000000,0.000000,0.000000,0.000000,0.000000,1646469362.381680,0.000000
55.000000,68468.824741,55413.953115,52663.213332,47463.102336,34233.395366,36491.346239,47343.095820,44747.946530,-0.130000,0.974000,-0.012000,192.000000,0.000000,0.000000,0.000000,0.000000,0.000000,0.000000,0.000000,0.000000,0.000000,1646469362.389771,0.000000
56.000000,68441.712074,55415.920069,52642.470913,47458.028490,34176.487824,36489.982783,47335.004489,44739.743440,-0.130000,0.974000,-0.012000,192.000000,0.000000,0.000000,0.000000,0.000000,0.000000,0.000000,0.000000,0.000000,0.000000,1646469362.389775,0.000000
57.000000,68452.373857,55420.435121,52651.769239,47460.777755,34191.642307,36488.932251,47336.792628,44742.135077,-0.136000,0.976000,-0.008000,192.000000,251.000000,192.000000,30.000000,128.000000,255.000000,192.000000,0.000000,0.000000,0.000000,1646469362.397776,0.000000
58.000000,68480.447648,55418.244650,52669.248303,47468.377348,34250.606209,36486.384152,47334.870378,44746.359556,-0.136000,0.976000,-0.008000,192.000000,0.000000,0.000000,0.000000,0.000000,0.000000,0.000000,0.000000,0.000000,0.000000,1646469362.397779,0.000000
59.000000,68507.336796,55424.793711,52689.454280,47483.263610,34299.467122,36498.185873,47355.501038,44762.229295,-0.136000,0.976000,-0.008000,192.000000,0.000000,0.000000,0.000000,0.000000,0.000000,0.000000,0.000000,0.000000,0.000000,1646469362.404448,0.000000
60.000000,68469.696459,55415.204813,52658.675928,47465.315159,34234.557657,36487.837015,47341.687660,44753.176839,-0.136000,0.976000,-0.008000,192.000000,0.000000,0.000000,0.000000,0.000000,0.000000,0.000000,0.000000,0.000000,0.000000,1646469362.404452,0.000000
61.000000,68450.943345,55422.826758,52642.783838,47461.671825,34182.947479,36493.134379,47342.760544,44749.041766,-0.136000,0.976000,-0.008000,192.000000,0.000000,0.000000,0.000000,0.000000,0.000000,0.000000,0.000000,0.000000,0.000000,1646469362.412353,0.000000
62.000000,68460.778113,55423.877290,52647.812980,47463.772889,34194.413924,36494.944870,47350.740117,44753.310949,-0.136000,0.976000,-0.008000,192.000000,0.000000,0.000000,0.000000,0.000000,0.000000,0.000000,0.000000,0.000000,0.000000,1646469362.412357,0.000000
63.000000,68485.521494,55419.094016,52666.119059,47470.187839,34250.270933,36491.390943,47349.130791,44756.909580,-0.136000,0.976000,-0.008000,192.000000,0.000000,0.000000,0.000000,0.000000,0.000000,0.000000,0.000000,0.000000,0.000000,1646469362.420487,0.000000
64.000000,68505.325139,55419.943383,52681.385300,47478.435633,34290.437018,36489.178120,47345.643919,44758.518905,-0.136000,0.976000,-0.008000,192.000000,0.000000,0.000000,0.000000,0.000000,0.000000,0.000000,0.000000,0.000000,0.000000,1646469362.420491,0.000000
65.000000,68469.562348,55416.188290,52656.999547,47465.739842,34229.081479,36480.975030,47332.165817,44743.252664,-0.136000,0.976000,-0.008000,192.000000,0.000000,0.000000,0.000000,0.000000,0.000000,0.000000,0.000000,0.000000,0.000000,1646469362.426557,0.000000
66.000000,68442.628496,55418.043484,52638.559358,47457.022662,34171.816310,36483.366666,47336.457352,44739.050536,-0.136000,0.976000,-0.008000,192.000000,0.000000,0.000000,0.000000,0.000000,0.000000,0.000000,0.000000,0.000000,0.000000,1646469362.434027,0.000000
67.000000,68461.247499,55422.782054,52650.875169,47464.264627,34188.133083,36490.072190,47345.107477,44745.130211,-0.124000,0.972000,-0.012000,192.000000,252.000000,32.000000,30.000000,96.000000,255.000000,160.000000,0.000000,0.000000,0.000000,1646469362.434031,0.000000
68.000000,68495.579779,55424.167862,52675.931475,47473.697063,34252.841384,36490.809797,47355.210466,44742.716222,-0.124000,0.972000,-0.012000,192.000000,0.000000,0.000000,0.000000,0.000000,0.000000,0.000000,0.000000,0.000000,0.000000,1646469362.441955,0.000000
69.000000,68510.533096,55422.402075,52688.493155,47477.362749,34293.923890,36493.424951,47354.294044,44746.024280,-0.124000,0.972000,-0.012000,192.000000,0.000000,0.000000,0.000000,0.000000,0.000000,0.000000,0.000000,0.000000,0.000000,1646469362.441958,0.000000
70.000000,68473.675069,55413.349618,52660.888751,47464.175220,34232.322482,36494.006097,47347.566169,44758.407147,-0.124000,0.972000,-0.012000,192.000000,0.000000,0.000000,0.000000,0.000000,0.000000,0.000000,0.000000,0.000000,0.000000,1646469362.450102,0.000000
71.000000,68435.677103,55408.678104,52634.044306,47448.059612,34166.273077,36483.545480,47332.121114,44743.297367,-0.124000,0.972000,-0.012000,192.000000,0.000000,0.000000,0.000000,0.000000,0.000000,0.000000,0.000000,0.000000,0.000000,1646469362.450105,0.000000
72.000000,68441.734426,55411.874403,52640.682774,47447.903150,34178.298316,36480.237422,47331.294099,44737.083583,-0.124000,0.972000,-0.012000,192.000000,0.000000,0.000000,0.000000,0.000000,0.000000,0.000000,0.000000,0.000000,0.000000,1646469362.456678,0.000000
73.000000,68488.695441,55425.732485,52677.898428,47471.685406,34254.540116,36497.224748,47355.657501,44760.687025,-0.124000,0.972000,-0.012000,192.000000,0.000000,0.000000,0.000000,0.000000,0.000000,0.000000,0.000000,0.000000,0.000000,1646469362.456681,0.000000
74.000000,68506.509782,55429.219357,52691.845917,47478.279171,34296.337878,36497.515320,47353.578788,44763.123365,-0.124000,0.972000,-0.012000,192.000000,0.000000,0.000000,0.000000,0.000000,0.000000,0.000000,0.000000,0.000000,0.000000,1646469362.464636,0.000000
75.000000,68470.188197,55423.720828,52662.408669,47461.761232,34231.651930,36488.306402,47335.563282,44747.678309,-0.124000,0.972000,-0.012000,192.000000,0.000000,0.000000,0.000000,0.000000,0.000000,0.000000,0.000000,0.000000,0.000000,1646469362.464641,0.000000
76.000000,68444.751912,55426.872424,52640.436904,47450.473601,34170.966944,36487.188815,47339.988928,44738.871722,-0.124000,0.972000,-0.012000,192.000000,0.000000,0.000000,0.000000,0.000000,0.000000,0.000000,0.000000,0.000000,0.000000,1646469362.473302,0.000000
77.000000,68463.482674,55433.667354,52651.076335,47456.687386,34188.311897,36490.005134,47343.922835,44734.289614,-0.130000,0.970000,-0.008000,192.000000,251.000000,240.000000,30.000000,80.000000,255.000000,192.000000,0.000000,0.000000,0.000000,1646469362.473306,0.000000
78.000000,68490.081249,55424.145511,52673.428079,47463.728185,34249.958009,36492.575585,47348.013204,44746.247798,-0.130000,0.970000,-0.008000,192.000000,0.000000,0.000000,0.000000,0.000000,0.000000,0.000000,0.000000,0.000000,0.000000,1646469362.480002,0.000000
79.000000,68502.754689,55422.603240,52687.621437,47468.980845,34294.259166,36497.001230,47350.337786,44765.582057,-0.130000,0.970000,-0.008000,192.000000,0.000000,0.000000,0.000000,0.000000,0.000000,0.000000,0.000000,0.000000,0.000000,1646469362.480005,0.000000
80.000000,68468.936499,55419.786921,52662.878056,47455.413336,34235.719947,36491.927384,47337.619643,44755.948455,-0.130000,0.970000,-0.008000,192.000000,0.000000,0.000000,0.000000,0.000000,0.000000,0.000000,0.000000,0.000000,0.000000,1646469362.487045,0.000000
81.000000,68446.651810,55424.033752,52646.583634,47449.758345,34179.415903,36493.670820,47340.927701,44746.471315,-0.130000,0.970000,-0.008000,192.000000,0.000000,0.000000,0.000000,0.000000,0.000000,0.000000,0.000000,0.000000,0.000000,1646469362.487048,0.000000
82.000000,68463.348563,55432.996801,52660.575826,47455.972130,34198.079610,36496.017754,47342.604082,44741.285710,-0.130000,0.970000,-0.008000,192.000000,0.000000,0.000000,0.000000,0.000000,0.000000,0.000000,0.000000,0.000000,0.000000,1646469362.495065,0.000000
83.000000,68489.231883,55430.314592,52679.150126,47461.895342,34253.958971,36498.990536,47350.941283,44755.724937,-0.130000,0.970000,-0.008000,192.000000,0.000000,0.000000,0.000000,0.000000,0.000000,0.000000,0.000000,0.000000,0.000000,1646469362.502114,0.000000
84.000000,68508.163811,55426.023057,52691.175364,47467.416223,34292.739247,36498.677611,47352.841181,44762.296350,-0.130000,0.970000,-0.008000,192.000000,0.000000,0.000000,0.000000,0.000000,0.000000,0.000000,0.000000,0.000000,0.000000,1646469362.502129,0.000000
85.000000,68472.535130,55419.429293,52661.671062,47453.356976,34231.003729,36491.055666,47343.006413,44747.924179,-0.130000,0.970000,-0.008000,192.000000,0.000000,0.000000,0.000000,0.000000,0.000000,0.000000,0.000000,0.000000,0.000000,1646469362.510098,0.000000
86.000000,68446.830624,55422.022095,52642.336803,47446.249121,34175.794920,36490.072190,47336.256187,44736.211864,-0.130000,0.970000,-0.008000,192.000000,0.000000,0.000000,0.000000,0.000000,0.000000,0.000000,0.000000,0.000000,0.000000,1646469362.510133,0.000000
87.000000,68455.726618,55418.043484,52646.337765,47440.974109,34186.389647,36483.053742,47329.103628,44729.282824,-0.126000,0.974000,-0.014000,192.000000,252.000000,16.000000,30.000000,112.000000,255.000000,144.000000,0.000000,0.000000,0.000000,1646469362.517803,0.000000
88.000000,68495.177447,55424.637249,52678.792498,47458.274359,34256.149442,36492.463826,47343.878131,44746.203094,-0.126000,0.974000,-0.014000,192.000000,0.000000,0.000000,0.000000,0.000000,0.000000,0.000000,0.000000,0.000000,0.000000,1646469362.517820,0.000000
89.000000,68512.634160,55425.643078,52691.532992,47465.091642,34297.321355,36496.688306,47350.002509,44754.205019,-0.126000,0.974000,-0.014000,192.000000,0.000000,0.000000,0.000000,0.000000,0.000000,0.000000,0.000000,0.000000,0.000000,1646469362.525236,0.000000
90.000000,68467.930671,55411.069740,52653.646785,47444.684499,34224.946406,36476.839957,47319.671192,44727.628795,-0.126000,0.974000,-0.014000,192.000000,0.000000,0.000000,0.000000,0.000000,0.000000,0.000000,0.000000,0.000000,0.000000,1646469362.525253,0.000000
91.000000,68436.571173,55411.829699,52633.753733,47438.224845,34166.407188,36475.208280,47315.826692,44719.246890,-0.126000,0.974000,-0.014000,192.000000,0.000000,0.000000,0.000000,0.000000,0.000000,0.000000,0.000000,0.000000,0.000000,1646469362.532482,0.000000
92.000000,68460.800464,55427.118293,52654.853780,47452.976996,34196.514988,36491.547405,47339.676003,44736.323623,-0.126000,0.974000,-0.014000,192.000000,0.000000,0.000000,0.000000,0.000000,0.000000,0.000000,0.000000,0.000000,0.000000,1646469362.532498,0.000000
93.000000,68489.611863,55426.872424,52676.713786,47464.085813,34256.976456,36491.368591,47336.591463,44742.358594,-0.126000,0.974000,-0.014000,192.000000,0.000000,0.000000,0.000000,0.000000,0.000000,0.000000,0.000000,0.000000,0.000000,1646469362.540627,0.000000
94.000000,68503.715814,55419.004609,52685.922704,47464.286979,34292.627489,36489.356934,47343.118172,44743.565588,-0.126000,0.974000,-0.014000,192.000000,0.000000,0.000000,0.000000,0.000000,0.000000,0.000000,0.000000,0.000000,0.000000,1646469362.540644,0.000000
95.000000,68470.679935,55414.780130,52660.397012,47450.361842,34231.182543,36480.192719,47333.350460,44726.086524,-0.126000,0.974000,-0.014000,192.000000,0.000000,0.000000,0.000000,0.000000,0.000000,0.000000,0.000000,0.000000,0.000000,1646469362.547728,0.000000
96.000000,68439.834528,55414.400150,52638.514654,47440.169446,34172.665676,36476.929364,47323.761561,44718.039896,-0.126000,0.974000,-0.014000,192.000000,0.000000,0.000000,0.000000,0.000000,0.000000,0.000000,0.000000,0.000000,0.000000,1646469362.547744,0.000000
97.000000,68459.772284,55424.167862,52652.953881,47450.585359,34194.883310,36486.540614,47334.892730,44727.204111,-0.124000,0.978000,-0.012000,192.000000,252.000000,32.000000,30.000000,144.000000,255.000000,160.000000,0.000000,0.000000,0.000000,1646469362.554287,0.000000
98.000000,68487.533151,55417.663505,52667.236646,47452.619368,34248.415738,36479.231594,47331.182341,44724.320736,-0.124000,0.978000,-0.012000,192.000000,0.000000,0.000000,0.000000,0.000000,0.000000,0.000000,0.000000,0.000000,0.000000,1646469362.562313,0.000000
99.000000,68496.093869,55407.046426,52673.249265,47450.317138,34281.898651,36470.469710,47324.387410,44721.549120,-0.124000,0.978000,-0.012000,192.000000,0.000000,0.000000,0.000000,0.000000,0.000000,0.000000,0.000000,0.000000,0.000000,1646469362.562329,0.000000
100.000000,68469.405886,55408.834566,52655.859608,47446.003252,34229.752032,36472.414311,47324.745038,44717.056419,-0.124000,0.978000,-0.012000,192.000000,0.000000,0.000000,0.000000,0.000000,0.000000,0.000000,0.000000,0.000000,0.000000,1646469362.570270,0.000000
101.000000,68440.549784,55406.085301,52633.731381,47437.062554,34168.128272,36470.514413,47308.942355,44710.149730,-0.124000,0.978000,-0.012000,192.000000,0.000000,0.000000,0.000000,0.000000,0.000000,0.000000,0.000000,0.000000,0.000000,1646469362.570288,0.000000
102.000000,68461.403961,55413.640191,52645.466047,47443.991595,34186.411999,36478.471634,47317.324259,44720.900920,-0.124000,0.978000,-0.012000,192.000000,0.000000,0.000000,0.000000,0.000000,0.000000,0.000000,0.000000,0.000000,0.000000,1646469362.577326,0.000000
103.000000,68499.513686,55421.463301,52675.439736,47460.822458,34253.578991,36488.351105,47340.167742,44735.764830,-0.124000,0.978000,-0.012000,192.000000,0.000000,0.000000,0.000000,0.000000,0.000000,0.000000,0.000000,0.000000,0.000000,1646469362.577343,0.000000
104.000000,68509.259046,55414.422502,52684.335731,47462.655301,34288.715933,36485.355971,47336.502056,44735.071926,-0.124000,0.978000,-0.012000,192.000000,0.000000,0.000000,0.000000,0.000000,0.000000,0.000000,0.000000,0.000000,0.000000,1646469362.585011,0.000000
105.000000,68469.517645,55406.442929,52655.546684,47444.371574,34225.080517,36478.382227,47324.454465,44720.543292,-0.124000,0.978000,-0.012000,192.000000,0.000000,0.000000,0.000000,0.000000,0.000000,0.000000,0.000000,0.000000,0.000000,1646469362.585026,0.000000
106.000000,68444.707208,55408.208717,52638.045268,47435.877912,34170.408150,36478.829262,47319.179454,44709.881510,-0.124000,0.978000,-0.012000,192.000000,0.000000,0.000000,0.000000,0.000000,0.000000,0.000000,0.000000,0.000000,0.000000,1646469362.592903,0.000000
107.000000,68458.945269,55413.148452,52649.444657,47442.918711,34188.937746,36482.249079,47330.377678,44713.189568,-0.126000,0.980000,-0.012000,192.000000,252.000000,16.000000,30.000000,160.000000,255.000000,160.000000,0.000000,0.000000,0.000000,1646469362.592937,0.000000
108.000000,68494.573950,55418.110540,52677.831373,47460.017796,34257.870526,36489.535748,47342.648785,44729.707507,-0.126000,0.980000,-0.012000,192.000000,0.000000,0.000000,0.000000,0.000000,0.000000,0.000000,0.000000,0.000000,0.000000,1646469362.601043,0.000000
109.000000,68513.528229,55419.116368,52694.081091,47469.249066,34300.025916,36496.353030,47344.660442,44752.953321,-0.126000,0.980000,-0.012000,192.000000,0.000000,0.000000,0.000000,0.000000,0.000000,0.000000,0.000000,0.000000,0.000000,1646469362.601058,0.000000
110.000000,68470.501121,55411.047388,52664.330919,47451.725298,34233.171848,36486.831187,47335.496227,44732.479123,-0.126000,0.980000,-0.012000,192.000000,0.000000,0.000000,0.000000,0.000000,0.000000,0.000000,0.000000,0.000000,0.000000,1646469362.607620,0.000000
111.000000,68432.749025,55401.391435,52636.547701,47432.972185,34166.742464,36476.571736,47321.816960,44717.458751,-0.126000,0.980000,-0.012000,192.000000,0.000000,0.000000,0.000000,0.000000,0.000000,0.000000,0.000000,0.000000,0.000000,1646469362.607636,0.000000
112.000000,68449.445778,55411.807348,52650.271672,47442.024641,34187.864862,36483.076094,47333.104591,44723.180797,-0.126000,0.980000,-0.012000,192.000000,0.000000,0.000000,0.000000,0.000000,0.000000,0.000000,0.000000,0.000000,0.000000,1646469362.614622,0.000000
113.000000,68492.964625,55426.648906,52682.704053,47464.510496,34260.195107,36494.006097,47341.710012,44739.497571,-0.126000,0.980000,-0.012000,192.000000,0.000000,0.000000,0.000000,0.000000,0.000000,0.000000,0.000000,0.000000,0.000000,1646469362.622410,0.000000
114.000000,68508.074404,55425.441912,52694.304609,47470.254895,34298.416591,36494.095504,47342.000585,44747.141868,-0.126000,0.980000,-0.012000,192.000000,0.000000,0.000000,0.000000,0.000000,0.000000,0.000000,0.000000,0.000000,0.000000,1646469362.622426,0.000000
115.000000,68472.378668,55414.936592,52662.341614,47454.452211,34230.668453,36481.936155,47332.590500,44726.466504,-0.126000,0.980000,-0.012000,192.000000,0.000000,0.000000,0.000000,0.000000,0.000000,0.000000,0.000000,0.000000,0.000000,1646469362.630661,0.000000
116.000000,68445.131891,55416.657676,52643.364983,47448.037261,34171.458682,36479.142187,47327.717820,44718.822207,-0.126000,0.980000,-0.012000,192.000000,0.000000,0.000000,0.000000,0.000000,0.000000,0.000000,0.000000,0.000000,0.000000,1646469362.630677,0.000000
117.000000,68459.168787,55420.904508,52652.551550,47453.267569,34190.077685,36488.418160,47338.536064,44735.071926,-0.128000,0.976000,-0.010000,192.000000,252.000000,0.000000,30.000000,128.000000,255.000000,176.000000,0.000000,0.000000,0.000000,1646469362.637340,0.000000
118.000000,68491.221188,55417.976429,52672.645768,47461.649473,34252.439052,36492.039143,47344.548684,44746.225446,-0.128000,0.976000,-0.010000,192.000000,0.000000,0.000000,0.000000,0.000000,0.000000,0.000000,0.000000,0.000000,0.000000,1646469362.637356,0.000000
119.000000,68503.492296,55417.551746,52682.413481,47469.696101,34291.554605,36491.010963,47348.192018,44746.583074,-0.128000,0.976000,-0.010000,192.000000,0.000000,0.000000,0.000000,0.000000,0.000000,0.000000,0.000000,0.000000,0.000000,1646469362.645173,0.000000
120.000000,68466.164883,55413.394322,52657.401879,47458.699043,34232.322482,36486.428855,47337.284367,44733.931987,-0.128000,0.976000,-0.010000,192.000000,0.000000,0.000000,0.000000,0.000000,0.000000,0.000000,0.000000,0.000000,0.000000,1646469362.645189,0.000000
121.000000,68436.414711,55406.934667,52632.055000,47442.471676,34169.379970,36478.069303,47323.135713,44719.202187,-0.128000,0.976000,-0.010000,192.000000,0.000000,0.000000,0.000000,0.000000,0.000000,0.000000,0.000000,0.000000,0.000000,1646469362.653322,0.000000
122.000000,68452.798540,55415.271868,52641.263919,47446.606749,34186.054371,36481.355009,47336.278538,44725.795952,-0.128000,0.976000,-0.010000,192.000000,0.000000,0.000000,0.000000,0.000000,0.000000,0.000000,0.000000,0.000000,0.000000,1646469362.653339,0.000000
123.000000,68480.179427,55416.232993,52667.102536,47455.949778,34246.940523,36484.953640,47343.744021,44732.412068,-0.128000,0.976000,-0.010000,192.000000,0.000000,0.000000,0.000000,0.000000,0.000000,0.000000,0.000000,0.000000,0.000000,1646469362.659990,0.000000
124.000000,68497.569084,55417.931726,52680.647693,47465.359862,34289.542948,36487.479387,47342.000585,44739.765792,-0.128000,0.976000,-0.010000,192.000000,0.000000,0.000000,0.000000,0.000000,0.000000,0.000000,0.000000,0.000000,0.000000,1646469362.660001,0.000000
125.000000,68470.836398,55418.043484,52656.887788,47458.631987,34232.881276,36484.439550,47335.093896,44734.289614,-0.128000,0.976000,-0.010000,192.000000,0.000000,0.000000,0.000000,0.000000,0.000000,0.000000,0.000000,0.000000,0.000000,1646469362.667950,0.000000
126.000000,68443.075531,55416.970601,52633.083181,47446.383231,34168.351790,36475.275335,47323.627451,44718.464579,-0.128000,0.976000,-0.010000,192.000000,0.000000,0.000000,0.000000,0.000000,0.000000,0.000000,0.000000,0.000000,0.000000,1646469362.667965,0.000000
127.000000,68458.118255,55425.978354,52644.639032,47450.652415,34183.998011,36476.325867,47323.426285,44719.001021,-0.126000,0.972000,-0.010000,192.000000,252.000000,16.000000,30.000000,96.000000,255.000000,176.000000,0.000000,0.000000,0.000000,1646469362.674870,0.000000
128.000000,68490.528284,55424.972525,52672.086975,47463.974054,34251.142651,36483.590184,47329.573015,44732.054440,-0.126000,0.972000,-0.010000,192.000000,0.000000,0.000000,0.000000,0.000000,0.000000,0.000000,0.000000,0.000000,0.000000,1646469362.682893,0.000000
129.000000,68503.581703,55419.451644,52684.581600,47468.869086,34291.532253,36487.054704,47335.317413,44735.474257,-0.126000,0.972000,-0.010000,192.000000,0.000000,0.000000,0.000000,0.000000,0.000000,0.000000,0.000000,0.000000,0.000000,1646469362.682927,0.000000
130.000000,68477.161941,55423.921993,52662.319262,47460.665996,34233.462421,36481.667934,47324.409762,44720.655050,-0.126000,0.972000,-0.010000,192.000000,0.000000,0.000000,0.000000,0.000000,0.000000,0.000000,0.000000,0.000000,0.000000,1646469362.689997,0.000000
131.000000,68450.853938,55421.642115,52640.906291,47448.886627,34172.844490,36475.297686,47316.743114,44709.210957,-0.126000,0.972000,-0.010000,192.000000,0.000000,0.000000,0.000000,0.000000,0.000000,0.000000,0.000000,0.000000,0.000000,1646469362.690013,0.000000
132.000000,68459.235842,55421.865633,52649.377602,47446.785563,34188.758932,36478.024599,47329.617718,44714.575376,-0.126000,0.972000,-0.010000,192.000000,0.000000,0.000000,0.000000,0.000000,0.000000,0.000000,0.000000,0.000000,0.000000,1646469362.697503,0.000000
133.000000,68485.029755,55413.081397,52664.800306,47448.752516,34244.303017,36471.140262,47324.074486,44712.161387,-0.126000,0.972000,-0.010000,192.000000,0.000000,0.000000,0.000000,0.000000,0.000000,0.000000,0.000000,0.000000,0.000000,1646469362.697518,0.000000
134.000000,68495.713889,55405.593563,52673.070451,47449.065441,34280.266974,36467.787500,47320.118227,44712.675478,-0.126000,0.972000,-0.010000,192.000000,0.000000,0.000000,0.000000,0.000000,0.000000,0.000000,0.000000,0.000000,0.000000,1646469362.705543,0.000000
135.000000,68462.655659,55401.659656,52650.316376,47438.582473,34220.878389,36467.608686,47314.329125,44707.489873,-0.126000,0.972000,-0.010000,192.000000,0.000000,0.000000,0.000000,0.000000,0.000000,0.000000,0.000000,0.000000,0.000000,1646469362.705558,0.000000
136.000000,68430.066816,55399.849164,52626.198843,47425.506702,34155.678350,36461.707826,47302.058017,44695.844614,-0.126000,0.972000,-0.010000,192.000000,0.000000,0.000000,0.000000,0.000000,0.000000,0.000000,0.000000,0.000000,0.000000,1646469362.712634,0.000000
137.000000,68450.876290,55411.315609,52642.917948,47433.575682,34177.694819,36468.949791,47313.077428,44706.931079,-0.122000,0.972000,-0.014000,192.000000,252.000000,48.000000,30.000000,96.000000,255.000000,144.000000,0.000000,0.000000,0.000000,1646469362.712650,0.000000
138.000000,68490.058898,55418.512871,52672.690472,47451.770002,34245.197087,36481.064437,47346.716803,44734.088449,-0.122000,0.972000,-0.014000,192.000000,0.000000,0.000000,0.000000,0.000000,0.000000,0.000000,0.000000,0.000000,0.000000,1646469362.720223,0.000000
139.000000,68504.900456,55414.511909,52682.905219,47458.944912,34282.390390,36478.985724,47340.346556,44736.837713,-0.122000,0.972000,-0.014000,192.000000,0.000000,0.000000,0.000000,0.000000,0.000000,0.000000,0.000000,0.000000,0.000000,1646469362.720238,0.000000
140.000000,68472.266909,55411.449720,52658.452411,47450.719470,34223.404136,36477.018771,47329.774181,44721.727934,-0.122000,0.972000,-0.014000,192.000000,0.000000,0.000000,0.000000,0.000000,0.000000,0.000000,0.000000,0.000000,0.000000,1646469362.728156,0.000000
141.000000,68444.774263,55412.969638,52641.353326,47443.119877,34166.608353,36479.008076,47325.773218,44722.085562,-0.122000,0.972000,-0.014000,192.000000,0.000000,0.000000,0.000000,0.000000,0.000000,0.000000,0.000000,0.000000,0.000000,1646469362.728171,0.000000
142.000000,68460.331078,55421.105673,52655.971367,47451.300615,34188.870691,36488.239347,47337.507884,44735.496609,-0.122000,0.972000,-0.014000,192.000000,0.000000,0.000000,0.000000,0.000000,0.000000,0.000000,0.000000,0.000000,0.000000,1646469362.735347,0.000000
143.000000,68485.253273,55415.920069,52671.036443,47451.881761,34245.554715,36480.751512,47327.159027,44727.248815,-0.122000,0.972000,-0.014000,192.000000,0.000000,0.000000,0.000000,0.000000,0.000000,0.000000,0.000000,0.000000,0.000000,1646469362.735364,0.000000
144.000000,68508.342625,55420.233955,52687.286161,47461.470659,34291.934585,36485.333620,47333.708088,44729.729859,-0.122000,0.972000,-0.014000,192.000000,0.000000,0.000000,0.000000,0.000000,0.000000,0.000000,0.000000,0.000000,0.000000,1646469362.742351,0.000000
145.000000,68481.632290,55419.161072,52663.347443,47454.563970,34235.362319,36485.065399,47336.055021,44725.527731,-0.122000,0.972000,-0.014000,192.000000,0.000000,0.000000,0.000000,0.000000,0.000000,0.000000,0.000000,0.000000,0.000000,1646469362.749825,0.000000
146.000000,68457.335944,55420.725694,52646.091896,47451.457077,34182.053409,36490.295707,47332.143466,44718.688097,-0.122000,0.972000,-0.014000,192.000000,0.000000,0.000000,0.000000,0.000000,0.000000,0.000000,0.000000,0.000000,0.000000,1646469362.749840,0.000000
147.000000,68467.640098,55421.910336,52655.792553,47455.502743,34199.308956,36492.150902,47331.249396,44725.304213,-0.118000,0.976000,-0.014000,192.000000,252.000000,80.000000,30.000000,128.000000,255.000000,144.000000,0.000000,0.000000,0.000000,1646469362.757799,0.000000
148.000000,68494.976282,55419.339886,52676.892600,47460.934217,34257.781119,36490.921556,47334.132771,44729.551045,-0.118000,0.976000,-0.014000,192.000000,0.000000,0.000000,0.000000,0.000000,0.000000,0.000000,0.000000,0.000000,0.000000,1646469362.757814,0.000000
149.000000,68514.355244,55417.797615,52690.638923,47467.684444,34299.176550,36493.424951,47335.317413,44734.133152,-0.118000,0.976000,-0.014000,192.000000,0.000000,0.000000,0.000000,0.000000,0.000000,0.000000,0.000000,0.000000,0.000000,1646469362.765940,0.000000
150.000000,68481.475828,55417.417636,52665.917893,47459.459002,34240.190296,36486.920594,47319.067695,44722.666707,-0.118000,0.976000,-0.014000,192.000000,0.000000,0.000000,0.000000,0.000000,0.000000,0.000000,0.000000,0.000000,0.000000,1646469362.765974,0.000000
151.000000,68454.877252,55422.133854,52649.042326,47454.385156,34186.479054,36492.463826,47329.103628,44719.470408,-0.118000,0.976000,-0.014000,192.000000,0.000000,0.000000,0.000000,0.000000,0.000000,0.000000,0.000000,0.000000,0.000000,1646469362.772290,0.000000
152.000000,68474.122104,55429.755799,52663.749774,47460.889514,34208.584930,36501.359821,47340.681832,44729.729859,-0.118000,0.976000,-0.014000,192.000000,0.000000,0.000000,0.000000,0.000000,0.000000,0.000000,0.000000,0.000000,0.000000,1646469362.772307,0.000000
153.000000,68506.174505,55428.481749,52687.196754,47471.886572,34269.113454,36501.605690,47340.346556,44733.864931,-0.118000,0.976000,-0.014000,192.000000,0.000000,0.000000,0.000000,0.000000,0.000000,0.000000,0.000000,0.000000,0.000000,1646469362.780360,0.000000
154.000000,68521.239581,55423.989048,52696.092748,47474.613485,34304.652727,36497.180044,47333.283405,44733.037917,-0.118000,0.976000,-0.014000,192.000000,0.000000,0.000000,0.000000,0.000000,0.000000,0.000000,0.000000,0.000000,0.000000,1646469362.780376,0.000000
155.000000,68479.508874,55412.388493,52664.174457,47456.553275,34235.608189,36482.293783,47314.440884,44712.720181,-0.118000,0.976000,-0.014000,192.000000,0.000000,0.000000,0.000000,0.000000,0.000000,0.000000,0.000000,0.000000,0.000000,1646469362.788439,0.000000
156.000000,68455.301935,55415.025999,52649.556416,47451.747650,34181.829891,36484.908937,47321.884015,44708.428646,-0.118000,0.976000,-0.014000,192.000000,0.000000,0.000000,0.000000,0.000000,0.000000,0.000000,0.000000,0.000000,0.000000,1646469362.788456,0.000000
157.000000,68480.380592,55429.219357,52669.807097,47464.957531,34210.417773,36492.597937,47326.600233,44716.207053,-0.118000,0.974000,-0.010000,192.000000,252.000000,80.000000,30.000000,112.000000,255.000000,176.000000,0.000000,0.000000,0.000000,1646469362.795568,0.000000
158.000000,68510.734261,55427.945307,52691.577696,47473.451194,34270.052227,36496.777713,47337.619643,44728.433457,-0.118000,0.974000,-0.010000,192.000000,0.000000,0.000000,0.000000,0.000000,0.000000,0.000000,0.000000,0.000000,0.000000,1646469362.795583,0.000000
159.000000,68525.508764,55423.117330,52699.065530,47471.931275,34303.870416,36494.117855,47336.077373,44729.439286,-0.118000,0.974000,-0.010000,192.000000,0.000000,0.000000,0.000000,0.000000,0.000000,0.000000,0.000000,0.000000,0.000000,1646469362.802109,0.000000
160.000000,68491.310595,55418.512871,52671.416422,47459.302540,34242.447822,36486.272393,47321.213462,44717.034068,-0.118000,0.974000,-0.010000,192.000000,0.000000,0.000000,0.000000,0.000000,0.000000,0.000000,0.000000,0.000000,0.000000,1646469362.810120,0.000000
161.000000,68469.472941,55425.531319,52658.877094,47458.229656,34189.295374,36493.648469,47328.455428,44721.571472,-0.118000,0.974000,-0.010000,192.000000,0.000000,0.000000,0.000000,0.000000,0.000000,0.000000,0.000000,0.000000,0.000000,1646469362.810136,0.000000
162.000000,68483.822761,55429.800502,52670.008262,47461.045976,34208.584930,36498.945832,47337.284367,44730.892149,-0.118000,0.974000,-0.010000,192.000000,0.000000,0.000000,0.000000,0.000000,0.000000,0.000000,0.000000,0.000000,0.000000,1646469362.818130,0.000000
163.000000,68513.036491,55428.437046,52691.510641,47468.712624,34270.454558,36501.695097,47354.830486,44742.068022,-0.118000,0.974000,-0.010000,192.000000,0.000000,0.000000,0.000000,0.000000,0.000000,0.000000,0.000000,0.000000,0.000000,1646469362.818147,0.000000
164.000000,68524.368825,55421.642115,52697.724426,47466.991540,34303.423381,36494.162559,47350.270730,44738.223521,-0.118000,0.974000,-0.010000,192.000000,0.000000,0.000000,0.000000,0.000000,0.000000,0.000000,0.000000,0.000000,0.000000,1646469362.825153,0.000000
165.000000,68479.553578,55409.885098,52662.073393,47448.126668,34233.127145,36479.589221,47327.226082,44715.983536,-0.118000,0.974000,-0.010000,192.000000,0.000000,0.000000,0.000000,0.000000,0.000000,0.000000,0.000000,0.000000,0.000000,1646469362.825169,0.000000
166.000000,68458.230014,55416.702380,52648.461181,47448.059612,34179.326496,36484.283088,47326.823750,44718.553986,-0.118000,0.974000,-0.010000,192.000000,0.000000,0.000000,0.000000,0.000000,0.000000,0.000000,0.000000,0.000000,0.000000,1646469362.832718,0.000000
167.000000,68479.978261,55428.817025,52666.387280,47459.414298,34202.840531,36491.815626,47335.920910,44730.154542,-0.118000,0.974000,-0.010000,192.000000,0.000000,0.000000,0.000000,0.000000,0.000000,0.000000,0.000000,0.000000,0.000000,1646469362.832733,0.000000
168.000000,68506.755651,55423.586717,52682.793460,47462.007101,34259.278686,36486.406503,47335.339765,44724.857178,-0.124000,0.982000,-0.012000,192.000000,252.000000,32.000000,30.000000,176.000000,255.000000,160.000000,0.000000,0.000000,0.000000,1646469362.840717,0.000000
169.000000,68520.233753,55417.864670,52688.850783,47461.850639,34291.688715,36484.439550,47341.151219,44733.350841,-0.124000,0.982000,-0.012000,192.000000,0.000000,0.000000,0.000000,0.000000,0.000000,0.000000,0.000000,0.000000,0.000000,1646469362.840732,0.000000
170.000000,68481.744049,55412.544955,52661.224027,47447.344356,34228.098002,36479.298649,47335.272710,44732.255606,-0.124000,0.982000,-0.012000,192.000000,0.000000,0.000000,0.000000,0.000000,0.000000,0.000000,0.000000,0.000000,0.000000,1646469362.848531,0.000000
171.000000,68456.508929,55416.657676,52645.846027,47443.365746,34175.549051,36481.600878,47333.752791,44723.896053,-0.124000,0.982000,-0.012000,192.000000,0.000000,0.000000,0.000000,0.000000,0.000000,0.000000,0.000000,0.000000,0.000000,1646469362.848566,0.000000
172.000000,68473.026868,55422.469130,52657.312472,47449.154848,34195.956194,36485.601841,47340.570073,44727.695850,-0.124000,0.982000,-0.012000,192.000000,0.000000,0.000000,0.000000,0.000000,0.000000,0.000000,0.000000,0.000000,0.000000,1646469362.854863,0.000000
173.000000,68508.052052,55425.799540,52682.413481,47464.331682,34262.452634,36492.441474,47345.196884,44746.538370,-0.124000,0.982000,-0.012000,192.000000,0.000000,0.000000,0.000000,0.000000,0.000000,0.000000,0.000000,0.000000,0.000000,1646469362.854870,0.000000
174.000000,68526.916924,55425.486615,52696.830356,47473.250028,34303.892768,36494.810759,47350.158972,44756.037862,-0.124000,0.982000,-0.012000,192.000000,0.000000,0.000000,0.000000,0.000000,0.000000,0.000000,0.000000,0.000000,0.000000,1646469362.862381,0.000000
175.000000,68488.561331,55416.702380,52665.873190,47457.916732,34239.028005,36484.148977,47332.925777,44746.203094,-0.124000,0.982000,-0.012000,192.000000,0.000000,0.000000,0.000000,0.000000,0.000000,0.000000,0.000000,0.000000,0.000000,1646469362.870406,0.000000
176.000000,68463.057990,55418.937554,52647.276538,47454.072232,34183.908604,36488.395809,47335.630338,44740.793972,-0.124000,0.982000,-0.012000,192.000000,0.000000,0.000000,0.000000,0.000000,0.000000,0.000000,0.000000,0.000000,0.000000,1646469362.870422,0.000000
177.000000,68484.113334,55429.644040,52663.190980,47463.817592,34210.171903,36496.017754,47347.275597,44746.650129,-0.124000,0.982000,-0.012000,192.000000,0.000000,0.000000,0.000000,0.000000,0.000000,0.000000,0.000000,0.000000,0.000000,1646469362.878424,0.000000
178.000000,68520.278456,55436.036639,52689.901315,47475.842831,34275.908384,36498.811722,47352.192980,44757.535429,-0.126000,0.978000,-0.012000,192.000000,252.000000,16.000000,30.000000,144.000000,255.000000,160.000000,0.000000,0.000000,0.000000,1646469362.878439,0.000000
179.000000,68534.449462,55431.275717,52697.679722,47479.150889,34312.811114,36498.118818,47349.443716,44760.463507,-0.126000,0.978000,-0.012000,192.000000,0.000000,0.000000,0.000000,0.000000,0.000000,0.000000,0.000000,0.000000,0.000000,1646469362.884941,0.000000
180.000000,68502.598226,55424.816063,52671.058794,47464.666958,34248.013407,36492.307364,47344.369870,44748.102993,-0.126000,0.978000,-0.012000,192.000000,0.000000,0.000000,0.000000,0.000000,0.000000,0.000000,0.000000,0.000000,0.000000,1646469362.884956,0.000000
181.000000,68474.703249,55426.023057,52653.222102,47454.474563,34186.702572,36491.748570,47340.078335,44742.537408,-0.126000,0.978000,-0.012000,192.000000,0.000000,0.000000,0.000000,0.000000,0.000000,0.000000,0.000000,0.000000,0.000000,1646469362.893010,0.000000
182.000000,68489.187180,55434.673182,52665.090879,47463.079985,34206.036831,36492.821454,47340.950053,44747.030109,-0.126000,0.978000,-0.012000,192.000000,0.000000,0.000000,0.000000,0.000000,0.000000,0.000000,0.000000,0.000000,0.000000,1646469362.893025,0.000000
183.000000,68525.531116,55444.865578,52690.348350,47478.033302,34270.901593,36494.877815,47346.940320,44754.383833,-0.126000,0.978000,-0.012000,192.000000,0.000000,0.000000,0.000000,0.000000,0.000000,0.000000,0.000000,0.000000,0.000000,1646469362.901032,0.000000
184.000000,68537.690465,55435.321383,52694.930457,47475.954589,34303.579843,36486.898242,47338.044326,44751.165182,-0.126000,0.978000,-0.012000,192.000000,0.000000,0.000000,0.000000,0.000000,0.000000,0.000000,0.000000,0.000000,0.000000,1646469362.901049,0.000000
185.000000,68504.632235,55425.486615,52671.975216,47463.906999,34243.900686,36485.333620,47334.177474,44736.167161,-0.126000,0.978000,-0.012000,192.000000,0.000000,0.000000,0.000000,0.000000,0.000000,0.000000,0.000000,0.000000,0.000000,1646469362.907560,0.000000
186.000000,68479.531226,55427.252403,52660.575826,47461.761232,34194.212758,36490.519224,47337.999623,44733.239082,-0.126000,0.978000,-0.012000,192.000000,0.000000,0.000000,0.000000,0.000000,0.000000,0.000000,0.000000,0.000000,0.000000,1646469362.907575,0.000000
187.000000,68498.597264,55435.634307,52674.836239,47470.679578,34220.565465,36499.683440,47346.090954,44748.214751,-0.126000,0.978000,-0.012000,192.000000,0.000000,0.000000,0.000000,0.000000,0.000000,0.000000,0.000000,0.000000,0.000000,1646469362.915403,0.000000
188.000000,68529.956762,55434.315554,52695.533955,47478.078005,34281.049285,36499.124646,47346.046251,44752.327472,-0.126000,0.976000,-0.010000,192.000000,252.000000,16.000000,30.000000,128.000000,255.000000,176.000000,0.000000,0.000000,0.000000,1646469362.915418,0.000000
189.000000,68538.875108,55425.553671,52703.826452,47477.586267,34312.855817,36492.642640,47342.402916,44747.208923,-0.126000,0.976000,-0.010000,192.000000,0.000000,0.000000,0.000000,0.000000,0.000000,0.000000,0.000000,0.000000,0.000000,1646469362.922399,0.000000
190.000000,68494.819819,55411.494423,52668.622454,47456.128592,34240.369110,36475.655314,47321.146407,44729.886321,-0.126000,0.976000,-0.010000,192.000000,0.000000,0.000000,0.000000,0.000000,0.000000,0.000000,0.000000,0.000000,0.000000,1646469362.930629,0.000000
191.000000,68473.183331,55418.110540,52655.479629,47454.943950,34187.529586,36483.389018,47331.070582,44731.182722,-0.126000,0.976000,-0.010000,192.000000,0.000000,0.000000,0.000000,0.000000,0.000000,0.000000,0.000000,0.000000,0.000000,1646469362.930644,0.000000
192.000000,68500.564218,55436.573081,52677.674911,47469.964322,34219.358470,36499.594033,47348.773163,44747.320681,-0.126000,0.976000,-0.010000,192.000000,0.000000,0.000000,0.000000,0.000000,0.000000,0.000000,0.000000,0.000000,0.000000,1646469362.937229,0.000000
193.000000,68524.413529,55435.924880,52693.209373,47474.769947,34274.120244,36497.403562,47343.051117,44752.394527,-0.126000,0.976000,-0.010000,192.000000,0.000000,0.000000,0.000000,0.000000,0.000000,0.000000,0.000000,0.000000,0.000000,1646469362.937263,0.000000
194.000000,68532.326047,55426.626554,52697.813832,47472.423014,34304.026878,36493.894338,47343.073469,44744.951397,-0.126000,0.976000,-0.010000,192.000000,0.000000,0.000000,0.000000,0.000000,0.000000,0.000000,0.000000,0.000000,0.000000,1646469362.945264,0.000000
195.000000,68496.227979,55419.831624,52671.461126,47457.022662,34239.720910,36489.423989,47338.469009,44732.836751,-0.126000,0.976000,-0.010000,192.000000,0.000000,0.000000,0.000000,0.000000,0.000000,0.000000,0.000000,0.000000,0.000000,1646469362.945279,0.000000
196.000000,68465.270813,55417.775264,52648.505884,47448.730165,34180.242918,36489.178120,47332.031707,44738.044708,-0.126000,0.976000,-0.010000,192.000000,0.000000,0.000000,0.000000,0.000000,0.000000,0.000000,0.000000,0.000000,0.000000,1646469362.953326,0.000000
197.000000,68479.687688,55419.496348,52656.418402,47451.948816,34197.744333,36485.132454,47326.779047,44730.489818,-0.126000,0.976000,-0.010000,192.000000,0.000000,0.000000,0.000000,0.000000,0.000000,0.000000,0.000000,0.000000,0.000000,1646469362.953345,0.000000
198.000000,68511.918904,55424.749008,52682.368777,47469.427880,34261.133881,36494.341373,47347.387355,44748.639434,-0.124000,0.980000,-0.012000,192.000000,252.000000,32.000000,30.000000,160.000000,255.000000,160.000000,0.000000,0.000000,0.000000,1646469362.960412,0.000000
199.000000,68532.929544,55432.974450,52704.295838,47483.464775,34307.536102,36506.366611,47362.586541,44764.620932,-0.124000,0.980000,-0.012000,192.000000,0.000000,0.000000,0.000000,0.000000,0.000000,0.000000,0.000000,0.000000,0.000000,1646469362.960428,0.000000
200.000000,68489.678918,55414.735426,52665.046175,47456.977958,34233.350662,36486.317097,47334.803323,44736.793010,-0.124000,0.980000,-0.012000,192.000000,0.000000,0.000000,0.000000,0.000000,0.000000,0.000000,0.000000,0.000000,0.000000,1646469362.967715,0.000000
201.000000,68467.997726,55414.333095,52646.158951,47449.177200,34177.337191,36484.506605,47330.467085,44730.221597,-0.124000,0.980000,-0.012000,192.000000,0.000000,0.000000,0.000000,0.000000,0.000000,0.000000,0.000000,0.000000,0.000000,1646469362.967731,0.000000
202.000000,68485.588549,55421.351543,52663.302739,47456.061537,34204.382802,36490.407466,47337.217312,44737.888245,-0.124000,0.980000,-0.012000,192.000000,0.000000,0.000000,0.000000,0.000000,0.000000,0.000000,0.000000,0.000000,0.000000,1646469362.975915,0.000000
203.000000,68511.695386,55420.725694,52682.882867,47463.728185,34262.966724,36488.842844,47340.413611,44746.314853,-0.124000,0.980000,-0.012000,192.000000,0.000000,0.000000,0.000000,0.000000,0.000000,0.000000,0.000000,0.000000,0.000000,1646469362.975930,0.000000
204.000000,68527.252201,55422.156205,52694.706940,47472.020682,34300.830579,36488.395809,47342.380564,44748.706490,-0.124000,0.980000,-0.012000,192.000000,0.000000,0.000000,0.000000,0.000000,0.000000,0.000000,0.000000,0.000000,0.000000,1646469362.982913,0.000000
205.000000,68494.037508,55420.636287,52669.516524,47462.878819,34241.218476,36486.652373,47334.021012,44749.868780,-0.124000,0.980000,-0.012000,192.000000,0.000000,0.000000,0.000000,0.000000,0.000000,0.000000,0.000000,0.000000,0.000000,1646469362.982928,0.000000
206.000000,68468.735334,55421.306839,52650.294024,47453.625197,34184.176825,36482.159672,47322.800436,44738.111763,-0.124000,0.980000,-0.012000,192.000000,0.000000,0.000000,0.000000,0.000000,0.000000,0.000000,0.000000,0.000000,0.000000,1646469362.990050,0.000000
207.000000,68483.733354,55425.598374,52664.129754,47458.609636,34205.947424,36486.719428,47340.346556,44742.738574,-0.124000,0.980000,-0.012000,192.000000,0.000000,0.000000,0.000000,0.000000,0.000000,0.000000,0.000000,0.000000,0.000000,1646469362.997493,0.000000
208.000000,68506.688596,55418.602278,52679.843030,47461.493011,34259.144575,36482.249079,47335.764448,44740.726917,-0.126000,0.982000,-0.016000,192.000000,252.000000,16.000000,30.000000,176.000000,255.000000,128.000000,0.000000,0.000000,0.000000,1646469362.997509,0.000000
209.000000,68514.467003,55406.398226,52684.782765,47457.402641,34289.431189,36475.878832,47332.791666,44733.484952,-0.126000,0.982000,-0.016000,192.000000,0.000000,0.000000,0.000000,0.000000,0.000000,0.000000,0.000000,0.000000,0.000000,1646469363.005320,0.000000
210.000000,68492.271720,55415.987124,52671.885809,47460.084851,34239.855020,36483.925460,47335.093896,44739.296405,-0.126000,0.982000,-0.016000,192.000000,0.000000,0.000000,0.000000,0.000000,0.000000,0.000000,0.000000,0.000000,0.000000,1646469363.005328,0.000000
211.000000,68468.288299,55422.603240,52656.172533,47455.279226,34183.461569,36484.707771,47332.344631,44733.328489,-0.126000,0.982000,-0.016000,192.000000,0.000000,0.000000,0.000000,0.000000,0.000000,0.000000,0.000000,0.000000,0.000000,1646469363.013372,0.000000
212.000000,68491.265892,55430.783979,52672.109326,47462.409432,34209.411944,36488.574623,47334.199826,44737.128286,-0.126000,0.982000,-0.016000,192.000000,0.000000,0.000000,0.000000,0.000000,0.000000,0.000000,0.000000,0.000000,0.000000,1646469363.013388,0.000000
213.000000,68518.535020,55428.392342,52690.728330,47469.606694,34268.912288,36486.853538,47333.037535,44738.759963,-0.126000,0.982000,-0.016000,192.000000,0.000000,0.000000,0.000000,0.000000,0.000000,0.000000,0.000000,0.000000,0.000000,1646469363.020121,0.000000
214.000000,68521.776023,55416.322400,52690.862440,47462.990578,34294.996774,36477.018771,47325.750867,44734.535484,-0.126000,0.982000,-0.016000,192.000000,0.000000,0.000000,0.000000,0.000000,0.000000,0.000000,0.000000,0.000000,0.000000,1646469363.020155,0.000000
215.000000,68492.964625,55420.323362,52672.355196,47457.246179,34240.503221,36480.304477,47329.103628,44737.709431,-0.126000,0.982000,-0.016000,192.000000,0.000000,0.000000,0.000000,0.000000,0.000000,0.000000,0.000000,0.000000,0.000000,1646469363.028239,0.000000
216.000000,68464.868482,55422.223261,52652.618605,47444.729202,34180.533490,36479.298649,47327.717820,44730.378059,-0.126000,0.982000,-0.016000,192.000000,0.000000,0.000000,0.000000,0.000000,0.000000,0.000000,0.000000,0.000000,0.000000,1646469363.028255,0.000000
217.000000,68480.626462,55426.939479,52660.307605,47447.076136,34197.878444,36481.623230,47334.266881,44737.038879,-0.126000,0.982000,-0.016000,192.000000,0.000000,0.000000,0.000000,0.000000,0.000000,0.000000,0.000000,0.000000,0.000000,1646469363.036234,0.000000
218.000000,68508.812011,55425.128987,52680.737100,47454.519266,34256.574125,36483.612535,47336.278538,44740.950434,-0.124000,0.982000,-0.020000,192.000000,252.000000,32.000000,30.000000,176.000000,255.000000,96.000000,0.000000,0.000000,0.000000,1646469363.036249,0.000000
219.000000,68526.447538,55428.705267,52696.539783,47467.304464,34297.254300,36486.719428,47340.882998,44748.930007,-0.124000,0.982000,-0.020000,192.000000,0.000000,0.000000,0.000000,0.000000,0.000000,0.000000,0.000000,0.000000,0.000000,1646469363.043179,0.000000
220.000000,68486.929654,55418.691685,52665.202637,47454.541618,34229.573218,36479.991553,47330.176512,44730.556873,-0.124000,0.982000,-0.020000,192.000000,0.000000,0.000000,0.000000,0.000000,0.000000,0.000000,0.000000,0.000000,0.000000,1646469363.043195,0.000000
221.000000,68455.860729,55413.751950,52639.699297,47441.577606,34166.228374,36473.598954,47327.203730,44716.765847,-0.124000,0.982000,-0.020000,192.000000,0.000000,0.000000,0.000000,0.000000,0.000000,0.000000,0.000000,0.000000,0.000000,1646469363.049705,0.000000
222.000000,68471.395191,55416.791787,52647.790628,47444.617444,34186.613165,36471.095559,47324.320355,44721.772638,-0.124000,0.982000,-0.020000,192.000000,0.000000,0.000000,0.000000,0.000000,0.000000,0.000000,0.000000,0.000000,0.000000,1646469363.057850,0.000000
223.000000,68504.676939,55416.948249,52673.025748,47457.447345,34251.053244,36479.924498,47334.445695,44742.760926,-0.124000,0.982000,-0.020000,192.000000,0.000000,0.000000,0.000000,0.000000,0.000000,0.000000,0.000000,0.000000,0.000000,1646469363.057865,0.000000
224.000000,68520.926657,55415.987124,52688.783728,47466.455098,34291.465198,36486.898242,47344.571035,44750.807554,-0.124000,0.982000,-0.020000,192.000000,0.000000,0.000000,0.000000,0.000000,0.000000,0.000000,0.000000,0.000000,0.000000,1646469363.065767,0.000000
225.000000,68481.833456,55409.616877,52660.508771,47452.172333,34226.399270,36478.471634,47331.785838,44732.881455,-0.124000,0.982000,-0.020000,192.000000,0.000000,0.000000,0.000000,0.000000,0.000000,0.000000,0.000000,0.000000,0.000000,1646469363.065782,0.000000
226.000000,68451.122159,55411.337961,52639.766352,47444.505685,34167.278906,36476.437625,47328.053096,44724.231329,-0.124000,0.982000,-0.020000,192.000000,0.000000,0.000000,0.000000,0.000000,0.000000,0.000000,0.000000,0.000000,0.000000,1646469363.072230,0.000000
227.000000,68465.226110,55413.237859,52648.058849,47445.220941,34183.819197,36474.917707,47329.863588,44724.521902,-0.124000,0.982000,-0.020000,192.000000,0.000000,0.000000,0.000000,0.000000,0.000000,0.000000,0.000000,0.000000,0.000000,1646469363.072245,0.000000
228.000000,68501.681805,55419.161072,52678.345463,47458.453173,34249.868602,36482.874928,47341.955881,44738.312928,-0.132000,0.978000,-0.020000,192.000000,251.000000,224.000000,30.000000,144.000000,255.000000,96.000000,0.000000,0.000000,0.000000,1646469363.080209,0.000000
229.000000,68508.879067,55409.594525,52683.307550,47455.838019,34279.082332,36477.398750,47340.994756,44743.073850,-0.132000,0.978000,-0.020000,192.000000,0.000000,0.000000,0.000000,0.000000,0.000000,0.000000,0.000000,0.000000,0.000000,1646469363.080227,0.000000
230.000000,68476.379630,55407.918144,52658.228893,47446.807915,34217.324462,36471.319076,47330.578843,44734.088449,-0.132000,0.978000,-0.020000,192.000000,0.000000,0.000000,0.000000,0.000000,0.000000,0.000000,0.000000,0.000000,0.000000,1646469363.088277,0.000000
231.000000,68452.955002,55413.997819,52643.588500,47444.438630,34164.216717,36477.108178,47333.819846,44730.445114,-0.132000,0.978000,-0.020000,192.000000,0.000000,0.000000,0.000000,0.000000,0.000000,0.000000,0.000000,0.000000,0.000000,1646469363.088294,0.000000
232.000000,68466.857787,55418.445816,52656.217236,47449.870104,34187.239014,36482.763169,47340.279501,44733.775524,-0.132000,0.978000,-0.020000,192.000000,0.000000,0.000000,0.000000,0.000000,0.000000,0.000000,0.000000,0.000000,0.000000,1646469363.095628,0.000000
233.000000,68498.105526,55417.507043,52676.356158,47458.676691,34245.532363,36479.812739,47336.256187,44737.485914,-0.132000,0.978000,-0.020000,192.000000,0.000000,0.000000,0.000000,0.000000,0.000000,0.000000,0.000000,0.000000,0.000000,1646469363.095643,0.000000
234.000000,68513.260008,55413.841356,52687.710844,47462.297673,34281.004582,36479.522166,47336.546759,44741.084545,-0.132000,0.978000,-0.020000,192.000000,0.000000,0.000000,0.000000,0.000000,0.000000,0.000000,0.000000,0.000000,0.000000,1646469363.103032,0.000000
235.000000,68478.346584,55404.565383,52657.804210,47447.232598,34216.586854,36469.866213,47322.554567,44725.013641,-0.132000,0.978000,-0.020000,192.000000,0.000000,0.000000,0.000000,0.000000,0.000000,0.000000,0.000000,0.000000,0.000000,1646469363.103066,0.000000
236.000000,68460.778113,55410.488595,52645.242530,47445.846790,34167.770644,36476.795253,47328.634242,44732.121495,-0.132000,0.978000,-0.020000,192.000000,0.000000,0.000000,0.000000,0.000000,0.000000,0.000000,0.000000,0.000000,0.000000,1646469363.110184,0.000000
237.000000,68478.234825,55415.674200,52656.954844,47450.764173,34190.032982,36484.260736,47342.693489,44743.409126,-0.132000,0.978000,-0.020000,192.000000,0.000000,0.000000,0.000000,0.000000,0.000000,0.000000,0.000000,0.000000,0.000000,1646469363.117866,0.000000
238.000000,68512.812974,55418.758740,52679.910085,47458.699043,34249.063939,36483.791349,47342.648785,44744.191437,-0.128000,0.978000,-0.018000,192.000000,252.000000,0.000000,30.000000,144.000000,255.000000,112.000000,0.000000,0.000000,0.000000,1646469363.117877,0.000000
239.000000,68512.477697,55405.101824,52676.669082,47449.378365,34271.214517,36466.267582,47323.158064,44725.281861,-0.128000,0.978000,-0.018000,192.000000,0.000000,0.000000,0.000000,0.000000,0.000000,0.000000,0.000000,0.000000,0.000000,1646469363.124880,0.000000
240.000000,68478.458342,55404.163051,52654.049117,47438.738935,34212.608244,36466.915782,47317.592480,44719.939795,-0.128000,0.978000,-0.018000,192.000000,0.000000,0.000000,0.000000,0.000000,0.000000,0.000000,0.000000,0.000000,0.000000,1646469363.124889,0.000000
241.000000,68461.582775,55414.042522,52636.368887,47433.039240,34158.740539,36469.821509,47321.191111,44721.258547,-0.128000,0.978000,-0.018000,192.000000,0.000000,0.000000,0.000000,0.000000,0.000000,0.000000,0.000000,0.000000,0.000000,1646469363.132674,0.000000
242.000000,68489.075421,55423.854938,52653.758544,47444.483333,34188.200139,36478.225765,47334.535102,44730.378059,-0.128000,0.978000,-0.018000,192.000000,0.000000,0.000000,0.000000,0.000000,0.000000,0.000000,0.000000,0.000000,0.000000,1646469363.132685,0.000000
243.000000,68510.019006,55407.649923,52674.031576,47447.143191,34247.320503,36481.377361,47342.022937,44741.397469,-0.128000,0.978000,-0.018000,192.000000,0.000000,0.000000,0.000000,0.000000,0.000000,0.000000,0.000000,0.000000,0.000000,1646469363.140799,0.000000
244.000000,68510.622503,55388.807403,52674.657425,47441.219978,34270.231041,36470.849689,47334.758620,44736.077754,-0.128000,0.978000,-0.018000,192.000000,0.000000,0.000000,0.000000,0.000000,0.000000,0.000000,0.000000,0.000000,0.000000,1646469363.140815,0.000000
245.000000,68477.273700,55390.595542,52647.455352,47429.708830,34204.002822,36460.254962,47319.492378,44720.900920,-0.128000,0.978000,-0.018000,192.000000,0.000000,0.000000,0.000000,0.000000,0.000000,0.000000,0.000000,0.000000,0.000000,1646469363.148744,0.000000
246.000000,68453.066761,55395.535278,52631.250338,47422.779789,34147.385853,36459.852631,47313.703276,44712.720181,-0.128000,0.978000,-0.018000,192.000000,0.000000,0.000000,0.000000,0.000000,0.000000,0.000000,0.000000,0.000000,0.000000,1646469363.148759,0.000000
247.000000,68474.949118,55403.559554,52651.568073,47435.229711,34179.259441,36469.821509,47325.437942,44722.398486,-0.128000,0.978000,-0.018000,192.000000,0.000000,0.000000,0.000000,0.000000,0.000000,0.000000,0.000000,0.000000,0.000000,1646469363.155345,0.000000
248.000000,68503.201723,55402.218449,52673.338672,47443.499856,34241.933732,36474.202451,47335.719745,44724.365440,-0.124000,0.982000,-0.014000,192.000000,252.000000,32.000000,30.000000,176.000000,255.000000,144.000000,0.000000,0.000000,0.000000,1646469363.155362,0.000000
249.000000,68514.087023,55399.670351,52680.021844,47441.823476,34270.923945,36472.391960,47333.238701,44732.255606,-0.124000,0.982000,-0.014000,192.000000,0.000000,0.000000,0.000000,0.000000,0.000000,0.000000,0.000000,0.000000,0.000000,1646469363.163326,0.000000
250.000000,68474.859712,55391.266095,52651.121038,47427.496007,34202.035868,36466.960486,47319.090047,44716.765847,-0.124000,0.982000,-0.014000,192.000000,0.000000,0.000000,0.000000,0.000000,0.000000,0.000000,0.000000,0.000000,0.000000,1646469363.163341,0.000000
251.000000,68448.976391,55391.377853,52634.513692,47420.857539,34145.620065,36465.842899,47317.324259,44706.461693,-0.124000,0.982000,-0.014000,192.000000,0.000000,0.000000,0.000000,0.000000,0.000000,0.000000,0.000000,0.000000,0.000000,1646469363.170257,0.000000
252.000000,68471.685764,55402.374912,52656.463105,47434.268586,34180.645249,36477.242288,47331.048230,44728.344050,-0.124000,0.982000,-0.014000,192.000000,0.000000,0.000000,0.000000,0.000000,0.000000,0.000000,0.000000,0.000000,0.000000,1646469363.178211,0.000000
253.000000,68499.223113,55403.336037,52677.786669,47449.601883,34245.398253,36479.745684,47333.015184,44735.094277,-0.124000,0.982000,-0.014000,192.000000,0.000000,0.000000,0.000000,0.000000,0.000000,0.000000,0.000000,0.000000,0.000000,1646469363.178228,0.000000
254.000000,68499.178409,55391.780185,52671.483478,47444.349223,34268.174680,36464.568849,47318.486550,44717.235233,-0.124000,0.982000,-0.014000,192.000000,0.000000,0.000000,0.000000,0.000000,0.000000,0.000000,0.000000,0.000000,0.000000,1646469363.184995,0.000000
255.000000,68479.575930,55404.744197,52661.067565,47445.712679,34219.716098,36473.643657,47326.309660,44719.649222,-0.124000,0.982000,-0.014000,192.000000,0.000000,0.000000,0.000000,0.000000,0.000000,0.000000,0.000000,0.000000,0.000000,1646469363.185011,0.000000
0.000000,68455.301935,55405.839432,52644.303756,47436.257891,34164.976676,36474.828300,47322.152236,44720.833864,-0.124000,0.982000,-0.014000,192.000000,0.000000,0.000000,0.000000,0.000000,0.000000,0.000000,0.000000,0.000000,0.000000,1646469363.193072,0.000000
1.000000,68480.894683,55416.255345,52664.241512,47448.104316,34195.442104,36484.484253,47333.909253,44732.501475,-0.124000,0.982000,-0.014000,192.000000,0.000000,0.000000,0.000000,0.000000,0.000000,0.000000,0.000000,0.000000,0.000000,1646469363.193107,0.000000
2.000000,68512.209476,55416.925897,52686.570905,47456.508572,34256.529421,36488.127588,47344.615739,44738.447039,-0.128000,0.978000,-0.014000,192.000000,252.000000,0.000000,30.000000,144.000000,255.000000,144.000000,0.000000,0.000000,0.000000,1646469363.201003,0.000000
3.000000,68521.418395,55411.919106,52691.622399,47455.323929,34287.196015,36480.818567,47341.754716,44736.122458,-0.128000,0.978000,-0.014000,192.000000,0.000000,0.000000,0.000000,0.000000,0.000000,0.000000,0.000000,0.000000,0.000000,1646469363.201018,0.000000
4.000000,68485.767363,55406.085301,52664.755602,47445.712679,34226.086345,36473.867175,47324.432114,44721.571472,-0.128000,0.978000,-0.014000,192.000000,0.000000,0.000000,0.000000,0.000000,0.000000,0.000000,0.000000,0.000000,0.000000,1646469363.208116,0.000000
5.000000,68465.740200,55409.818042,52651.411611,47440.325909,34171.972772,36479.902146,47330.869416,44722.465542,-0.128000,0.978000,-0.014000,192.000000,0.000000,0.000000,0.000000,0.000000,0.000000,0.000000,0.000000,0.000000,0.000000,1646469363.208132,0.000000
6.000000,68480.291185,55412.768473,52661.805172,47438.761287,34192.111694,36480.103312,47335.496227,44724.298385,-0.128000,0.978000,-0.014000,192.000000,0.000000,0.000000,0.000000,0.000000,0.000000,0.000000,0.000000,0.000000,0.000000,1646469363.215553,0.000000
7.000000,68505.280436,55411.494423,52682.391129,47448.752516,34252.595514,36478.695152,47334.244530,44729.260472,-0.128000,0.978000,-0.014000,192.000000,0.000000,0.000000,0.000000,0.000000,0.000000,0.000000,0.000000,0.000000,0.000000,1646469363.215569,0.000000
8.000000,68513.416471,55404.543031,52687.487327,47449.333662,34281.965707,36468.569811,47323.761561,44725.304213,-0.128000,0.978000,-0.014000,192.000000,0.000000,0.000000,0.000000,0.000000,0.000000,0.000000,0.000000,0.000000,0.000000,1646469363.223675,0.000000
9.000000,68471.395191,55388.606237,52651.724535,47425.082019,34207.757915,36454.175288,47310.886957,44705.344105,-0.128000,0.978000,-0.014000,192.000000,0.000000,0.000000,0.000000,0.000000,0.000000,0.000000,0.000000,0.000000,0.000000,1646469363.223690,0.000000
10.000000,68466.835435,55409.236897,52653.222102,47436.615519,34169.402322,36472.749588,47321.302869,44713.994231,-0.128000,0.978000,-0.014000,192.000000,0.000000,0.000000,0.000000,0.000000,0.000000,0.000000,0.000000,0.000000,0.000000,1646469363.230687,0.000000
11.000000,68485.275624,55410.399188,52665.292044,47439.431839,34193.206929,36474.023637,47326.108495,44718.151655,-0.128000,0.978000,-0.014000,192.000000,0.000000,0.000000,0.000000,0.000000,0.000000,0.000000,0.000000,0.000000,0.000000,1646469363.230702,0.000000
12.000000,68509.348453,55407.269944,52681.452356,47448.081964,34250.472099,36474.001285,47331.919948,44724.119571,-0.130000,0.968000,-0.012000,192.000000,251.000000,240.000000,30.000000,64.000000,255.000000,160.000000,0.000000,0.000000,0.000000,1646469363.237698,0.000000
13.000000,68527.587477,55414.288391,52695.556306,47459.749575,34289.699410,36479.186890,47332.255224,44733.194379,-0.130000,0.968000,-0.012000,192.000000,0.000000,0.000000,0.000000,0.000000,0.000000,0.000000,0.000000,0.000000,0.000000,1646469363.245238,0.000000
14.000000,68489.902436,55407.046426,52666.946073,47442.918711,34224.074688,36473.151919,47323.068657,44721.035030,-0.130000,0.968000,-0.012000,192.000000,0.000000,0.000000,0.000000,0.000000,0.000000,0.000000,0.000000,0.000000,0.000000,1646469363.245253,0.000000
15.000000,68460.532243,55404.565383,52644.236701,47430.155865,34162.205060,36470.402654,47312.630393,44711.669649,-0.130000,0.968000,-0.012000,192.000000,0.000000,0.000000,0.000000,0.000000,0.000000,0.000000,0.000000,0.000000,0.000000,1646469363.253327,0.000000
16.000000,68483.956872,55414.131929,52663.213332,47440.258853,34192.268156,36480.796216,47327.002564,44724.276033,-0.130000,0.968000,-0.012000,192.000000,0.000000,0.000000,0.000000,0.000000,0.000000,0.000000,0.000000,0.000000,0.000000,1646469363.253343,0.000000
17.000000,68513.483526,55409.505118,52683.128736,47447.299653,34252.796680,36480.617402,47327.270785,44728.925196,-0.130000,0.968000,-0.012000,192.000000,0.000000,0.000000,0.000000,0.000000,0.000000,0.000000,0.000000,0.000000,0.000000,1646469363.260443,0.000000
18.000000,68524.145308,55406.040598,52690.258943,47449.356013,34284.871433,36480.483291,47327.784875,44730.065135,-0.130000,0.968000,-0.012000,192.000000,0.000000,0.000000,0.000000,0.000000,0.000000,0.000000,0.000000,0.000000,0.000000,1646469363.260458,0.000000
19.000000,68495.065688,55409.192194,52670.477649,47445.958548,34227.740375,36486.428855,47328.790704,44727.070001,-0.130000,0.968000,-0.012000,192.000000,0.000000,0.000000,0.000000,0.000000,0.000000,0.000000,0.000000,0.000000,0.000000,1646469363.267627,0.000000
20.000000,68472.311613,55414.578964,52656.083126,47446.003252,34174.207947,36490.295707,47325.862625,44722.398486,-0.130000,0.968000,-0.012000,192.000000,0.000000,0.000000,0.000000,0.000000,0.000000,0.000000,0.000000,0.000000,0.000000,1646469363.267643,0.000000
21.000000,68487.019060,55417.194118,52668.801268,47450.585359,34199.107790,36493.380248,47336.435000,44724.812475,-0.130000,0.968000,-0.012000,192.000000,0.000000,0.000000,0.000000,0.000000,0.000000,0.000000,0.000000,0.000000,0.000000,1646469363.275663,0.000000
22.000000,68508.521439,55409.482766,52683.307550,47450.048918,34254.562468,36485.221861,47336.122076,44721.280899,-0.130000,0.968000,-0.012000,192.000000,0.000000,0.000000,0.000000,0.000000,0.000000,0.000000,0.000000,0.000000,0.000000,1646469363.275697,0.000000
23.000000,68520.591381,55408.946324,52692.203545,47454.072232,34289.252375,36482.785521,47329.170684,44729.595748,-0.124000,0.968000,-0.012000,192.000000,252.000000,32.000000,30.000000,64.000000,255.000000,160.000000,0.000000,0.000000,0.000000,1646469363.283781,0.000000
24.000000,68491.958796,55410.510947,52669.293007,47447.344356,34229.930845,36483.791349,47329.617718,44733.395545,-0.124000,0.968000,-0.012000,192.000000,0.000000,0.000000,0.000000,0.000000,0.000000,0.000000,0.000000,0.000000,0.000000,1646469363.283798,0.000000
25.000000,68463.259156,55407.918144,52648.930567,47437.174313,34171.592792,36481.936155,47328.500131,44724.030164,-0.124000,0.968000,-0.012000,192.000000,0.000000,0.000000,0.000000,0.000000,0.000000,0.000000,0.000000,0.000000,0.000000,1646469363.290575,0.000000
26.000000,68483.286319,55415.674200,52665.157934,47444.662147,34198.928976,36486.339448,47334.289233,44729.662803,-0.124000,0.968000,-0.012000,192.000000,0.000000,0.000000,0.000000,0.000000,0.000000,0.000000,0.000000,0.000000,0.000000,1646469363.290591,0.000000
27.000000,68519.339683,55424.905470,52691.644751,47462.454136,34265.492471,36489.423989,47342.000585,44743.520885,-0.124000,0.968000,-0.012000,192.000000,0.000000,0.000000,0.000000,0.000000,0.000000,0.000000,0.000000,0.000000,0.000000,1646469363.297416,0.000000
28.000000,68526.156965,55419.518700,52696.763301,47464.935179,34298.148370,36484.394846,47339.854817,44744.079679,-0.124000,0.968000,-0.012000,192.000000,0.000000,0.000000,0.000000,0.000000,0.000000,0.000000,0.000000,0.000000,0.000000,1646469363.305564,0.000000
29.000000,68485.990880,55409.952153,52665.224989,47448.640758,34230.757860,36477.130530,47326.667288,44725.997117,-0.124000,0.968000,-0.012000,192.000000,0.000000,0.000000,0.000000,0.000000,0.000000,0.000000,0.000000,0.000000,0.000000,1646469363.305580,0.000000
30.000000,68462.633307,55410.376836,52645.421343,47439.789467,34173.313877,36474.716541,47319.894710,44712.071980,-0.124000,0.968000,-0.012000,192.000000,0.000000,0.000000,0.000000,0.000000,0.000000,0.000000,0.000000,0.000000,0.000000,1646469363.313576,0.000000
31.000000,68482.906340,55411.539127,52657.915969,47443.544560,34196.224415,36474.224803,47324.923852,44711.066152,-0.124000,0.968000,-0.012000,192.000000,0.000000,0.000000,0.000000,0.000000,0.000000,0.000000,0.000000,0.000000,0.000000,1646469363.313591,0.000000
32.000000,68512.924732,55408.946324,52675.663254,47448.149019,34252.841384,36476.035294,47332.232873,44726.533559,-0.124000,0.968000,-0.012000,192.000000,0.000000,0.000000,0.000000,0.000000,0.000000,0.000000,0.000000,0.000000,0.000000,1646469363.320194,0.000000
33.000000,68532.773081,55413.640191,52692.650580,47459.302540,34292.448675,36483.679591,47348.214370,44743.789106,-0.116000,0.970000,-0.016000,192.000000,252.000000,96.000000,30.000000,80.000000,255.000000,128.000000,0.000000,0.000000,0.000000,1646469363.320209,0.000000
34.000000,68493.299901,55405.794728,52663.012166,47445.220941,34226.533380,36473.710713,47333.395163,44727.718202,-0.116000,0.970000,-0.016000,192.000000,0.000000,0.000000,0.000000,0.000000,0.000000,0.000000,0.000000,0.000000,0.000000,1646469363.328120,0.000000
35.000000,68460.755761,55402.285505,52638.447599,47431.139342,34165.557821,36465.038236,47321.168759,44712.787236,-0.116000,0.970000,-0.016000,192.000000,0.000000,0.000000,0.000000,0.000000,0.000000,0.000000,0.000000,0.000000,0.000000,1646469363.328136,0.000000
36.000000,68481.565235,55410.913278,52656.641919,47442.024641,34194.905662,36475.275335,47332.612852,44721.794989,-0.116000,0.970000,-0.016000,192.000000,0.000000,0.000000,0.000000,0.000000,0.000000,0.000000,0.000000,0.000000,0.000000,1646469363.336131,0.000000
37.000000,68511.918904,55412.612011,52677.786669,47453.893418,34252.997846,36479.321000,47334.870378,44727.964071,-0.116000,0.970000,-0.016000,192.000000,0.000000,0.000000,0.000000,0.000000,0.000000,0.000000,0.000000,0.000000,0.000000,1646469363.336147,0.000000
38.000000,68526.894573,55408.991028,52685.185097,47457.514400,34282.233928,36476.370570,47326.779047,44721.280899,-0.116000,0.970000,-0.016000,192.000000,0.000000,0.000000,0.000000,0.000000,0.000000,0.000000,0.000000,0.000000,0.000000,1646469363.343337,0.000000
39.000000,68497.904360,55408.611048,52665.381451,47450.540656,34224.566427,36478.583393,47323.091009,44717.726972,-0.116000,0.970000,-0.016000,192.000000,0.000000,0.000000,0.000000,0.000000,0.000000,0.000000,0.000000,0.000000,0.000000,1646469363.343352,0.000000
40.000000,68471.886929,55410.488595,52646.985966,47446.249121,34169.804653,36481.913803,47325.326183,44723.449018,-0.116000,0.970000,-0.016000,192.000000,0.000000,0.000000,0.000000,0.000000,0.000000,0.000000,0.000000,0.000000,0.000000,1646469363.350840,0.000000
41.000000,68497.524380,55421.552708,52663.839181,47455.413336,34197.409057,36485.646544,47343.431096,44729.841617,-0.116000,0.970000,-0.016000,192.000000,0.000000,0.000000,0.000000,0.000000,0.000000,0.000000,0.000000,0.000000,0.000000,1646469363.350855,0.000000
42.000000,68529.621485,55418.870499,52689.677798,47465.158697,34259.479852,36488.887547,47345.062774,44738.514094,-0.116000,0.970000,-0.016000,192.000000,0.000000,0.000000,0.000000,0.000000,0.000000,0.000000,0.000000,0.000000,0.000000,1646469363.357848,0.000000
43.000000,68529.621485,55401.078510,52693.611705,47461.984749,34287.754808,36481.891451,47333.819846,44730.735687,-0.120000,0.974000,-0.016000,192.000000,252.000000,64.000000,30.000000,112.000000,255.000000,128.000000,0.000000,0.000000,0.000000,1646469363.365500,0.000000
44.000000,68489.969491,55398.731577,52666.163762,47447.925502,34223.471191,36471.609649,47316.005506,44715.357687,-0.120000,0.974000,-0.016000,192.000000,0.000000,0.000000,0.000000,0.000000,0.000000,0.000000,0.000000,0.000000,0.000000,1646469363.365516,0.000000
45.000000,68466.544863,55405.459452,52653.535027,47442.561083,34172.196290,36478.918669,47330.020050,44716.855254,-0.120000,0.974000,-0.016000,192.000000,0.000000,0.000000,0.000000,0.000000,0.000000,0.000000,0.000000,0.000000,0.000000,1646469363.372696,0.000000
46.000000,68485.297976,55411.717941,52664.710899,47444.058650,34195.553863,36477.376399,47329.461256,44715.625908,-0.120000,0.974000,-0.016000,192.000000,0.000000,0.000000,0.000000,0.000000,0.000000,0.000000,0.000000,0.000000,0.000000,1646469363.372711,0.000000
47.000000,68518.780889,55415.093054,52689.141356,47455.279226,34258.094044,36477.689323,47328.656593,44720.453885,-0.120000,0.974000,-0.016000,192.000000,0.000000,0.000000,0.000000,0.000000,0.000000,0.000000,0.000000,0.000000,0.000000,1646469363.380442,0.000000
48.000000,68537.802224,55416.970601,52704.720522,47465.493973,34298.014259,36482.696114,47335.093896,44729.729859,-0.120000,0.974000,-0.016000,192.000000,0.000000,0.000000,0.000000,0.000000,0.000000,0.000000,0.000000,0.000000,0.000000,1646469363.380457,0.000000
49.000000,68502.374709,55411.181499,52679.284236,47452.932293,34232.769517,36479.969201,47333.752791,44722.510245,-0.120000,0.974000,-0.016000,192.000000,0.000000,0.000000,0.000000,0.000000,0.000000,0.000000,0.000000,0.000000,0.000000,1646469363.388365,0.000000
50.000000,68471.283432,55408.745159,52654.496152,47442.739897,34170.542260,36473.263678,47324.029782,44707.758094,-0.120000,0.974000,-0.016000,192.000000,0.000000,0.000000,0.000000,0.000000,0.000000,0.000000,0.000000,0.000000,0.000000,1646469363.388380,0.000000
51.000000,68490.952968,55414.757778,52666.990777,47448.707813,34196.246767,36478.717503,47332.791666,44714.195396,-0.120000,0.974000,-0.016000,192.000000,0.000000,0.000000,0.000000,0.000000,0.000000,0.000000,0.000000,0.000000,0.000000,1646469363.396441,0.000000
52.000000,68521.060767,55413.908412,52687.688492,47456.888551,34255.076558,36479.477463,47338.245492,44719.984498,-0.120000,0.974000,-0.016000,192.000000,0.000000,0.000000,0.000000,0.000000,0.000000,0.000000,0.000000,0.000000,0.000000,1646469363.396457,0.000000
53.000000,68530.180279,55407.694627,52692.024731,47454.429859,34285.631393,36472.928402,47331.607024,44722.465542,-0.120000,0.974000,-0.012000,192.000000,252.000000,64.000000,30.000000,112.000000,255.000000,160.000000,0.000000,0.000000,0.000000,1646469363.403160,0.000000
54.000000,68494.082212,55405.504156,52663.906236,47441.063516,34222.308901,36463.987704,47317.927756,44710.239137,-0.120000,0.974000,-0.012000,192.000000,0.000000,0.000000,0.000000,0.000000,0.000000,0.000000,0.000000,0.000000,0.000000,1646469363.403176,0.000000
55.000000,68471.976336,55408.991028,52650.741059,47438.426010,34169.692894,36467.496928,47326.108495,44704.003001,-0.120000,0.974000,-0.012000,192.000000,0.000000,0.000000,0.000000,0.000000,0.000000,0.000000,0.000000,0.000000,0.000000,1646469363.411151,0.000000
56.000000,68489.589511,55414.578964,52667.460164,47445.176237,34197.900796,36474.202451,47334.266881,44708.875681,-0.120000,0.974000,-0.012000,192.000000,0.000000,0.000000,0.000000,0.000000,0.000000,0.000000,0.000000,0.000000,0.000000,1646469363.411168,0.000000
57.000000,68517.238619,55411.829699,52687.509678,47454.116935,34254.920096,36470.022675,47319.559433,44714.754190,-0.120000,0.974000,-0.012000,192.000000,0.000000,0.000000,0.000000,0.000000,0.000000,0.000000,0.000000,0.000000,0.000000,1646469363.418048,0.000000
58.000000,68530.068520,55407.895792,52696.629190,47459.503705,34289.967631,36470.849689,47322.934547,44722.219672,-0.120000,0.974000,-0.012000,192.000000,0.000000,0.000000,0.000000,0.000000,0.000000,0.000000,0.000000,0.000000,0.000000,1646469363.426185,0.000000
59.000000,68502.195895,55408.074606,52675.663254,47453.759307,34235.250561,36474.515375,47333.171646,44722.577300,-0.120000,0.974000,-0.012000,192.000000,0.000000,0.000000,0.000000,0.000000,0.000000,0.000000,0.000000,0.000000,0.000000,1646469363.426202,0.000000
60.000000,68480.425296,55417.976429,52658.161838,47454.027528,34182.612202,36475.431797,47329.260091,44714.776542,-0.120000,0.974000,-0.012000,192.000000,0.000000,0.000000,0.000000,0.000000,0.000000,0.000000,0.000000,0.000000,0.000000,1646469363.432822,0.000000
61.000000,68504.632235,55427.364162,52674.411556,47462.409432,34211.870636,36476.795253,47330.891768,44715.290632,-0.120000,0.974000,-0.012000,192.000000,0.000000,0.000000,0.000000,0.000000,0.000000,0.000000,0.000000,0.000000,0.000000,1646469363.432837,0.000000
62.000000,68538.048093,55431.722752,52693.567001,47472.177145,34269.828709,36473.710713,47331.159989,44716.832902,-0.120000,0.974000,-0.012000,192.000000,0.000000,0.000000,0.000000,0.000000,0.000000,0.000000,0.000000,0.000000,0.000000,1646469363.440746,0.000000
63.000000,68552.643782,55429.644040,52697.009170,47472.758290,34297.768390,36469.307419,47322.286346,44716.654088,-0.124000,0.978000,-0.010000,192.000000,252.000000,32.000000,30.000000,144.000000,255.000000,176.000000,0.000000,0.000000,0.000000,1646469363.440763,0.000000
64.000000,68511.047186,55410.108615,52669.248303,47451.166505,34231.964854,36464.524146,47313.859739,44702.326620,-0.124000,0.978000,-0.010000,192.000000,0.000000,0.000000,0.000000,0.000000,0.000000,0.000000,0.000000,0.000000,0.000000,1646469363.448804,0.000000
65.000000,68468.243595,55393.613028,52644.750791,47431.161693,34168.530603,36464.479442,47310.082294,44694.972896,-0.124000,0.978000,-0.010000,192.000000,0.000000,0.000000,0.000000,0.000000,0.000000,0.000000,0.000000,0.000000,0.000000,1646469363.448837,0.000000
66.000000,68485.968529,55398.396301,52659.726460,47436.503760,34194.726848,36468.458053,47313.211538,44697.096312,-0.124000,0.978000,-0.010000,192.000000,0.000000,0.000000,0.000000,0.000000,0.000000,0.000000,0.000000,0.000000,0.000000,1646469363.455214,0.000000
67.000000,68524.681750,55407.091130,52691.153013,47452.641720,34262.095006,36477.577564,47327.606061,44710.060323,-0.124000,0.978000,-0.010000,192.000000,0.000000,0.000000,0.000000,0.000000,0.000000,0.000000,0.000000,0.000000,0.000000,1646469363.455231,0.000000
68.000000,68537.198727,55406.197060,52698.327923,47458.475525,34294.080352,36474.269506,47325.884977,44714.217748,-0.124000,0.978000,-0.010000,192.000000,0.000000,0.000000,0.000000,0.000000,0.000000,0.000000,0.000000,0.000000,0.000000,1646469363.463276,0.000000
69.000000,68498.351395,55401.950228,52666.186114,47446.427935,34228.857962,36463.652428,47313.166834,44701.030219,-0.124000,0.978000,-0.010000,192.000000,0.000000,0.000000,0.000000,0.000000,0.000000,0.000000,0.000000,0.000000,0.000000,1646469363.463292,0.000000
70.000000,68471.015211,55399.312723,52647.790628,47439.878874,34173.693856,36462.490137,47307.780064,44694.011771,-0.124000,0.978000,-0.010000,192.000000,0.000000,0.000000,0.000000,0.000000,0.000000,0.000000,0.000000,0.000000,0.000000,1646469363.471334,0.000000
71.000000,68502.620578,55411.606182,52672.064623,47453.580493,34209.702517,36471.855518,47323.091009,44704.405332,-0.124000,0.978000,-0.010000,192.000000,0.000000,0.000000,0.000000,0.000000,0.000000,0.000000,0.000000,0.000000,0.000000,1646469363.471351,0.000000
72.000000,68532.817785,55411.315609,52690.370702,47461.269493,34265.805395,36469.977971,47330.064753,44707.311059,-0.124000,0.978000,-0.010000,192.000000,0.000000,0.000000,0.000000,0.000000,0.000000,0.000000,0.000000,0.000000,0.000000,1646469363.478420,0.000000
73.000000,68541.356151,55407.649923,52696.048045,47461.783583,34294.259166,36467.608686,47317.190148,44717.481103,-0.124000,0.972000,-0.012000,192.000000,252.000000,32.000000,30.000000,96.000000,255.000000,160.000000,0.000000,0.000000,0.000000,1646469363.478437,0.000000
74.000000,68501.659453,55403.313685,52667.996605,47446.919673,34224.074688,36463.138338,47312.295116,44707.311059,-0.124000,0.972000,-0.012000,192.000000,0.000000,0.000000,0.000000,0.000000,0.000000,0.000000,0.000000,0.000000,0.000000,1646469363.485115,0.000000
75.000000,68472.199854,55401.972580,52644.616681,47432.927481,34161.892135,36457.013960,47300.672209,44693.788254,-0.124000,0.972000,-0.012000,192.000000,0.000000,0.000000,0.000000,0.000000,0.000000,0.000000,0.000000,0.000000,0.000000,1646469363.493067,0.000000
76.000000,68500.675976,55411.606182,52666.543742,47444.460981,34198.459589,36472.794291,47328.231910,44715.715315,-0.124000,0.972000,-0.012000,192.000000,0.000000,0.000000,0.000000,0.000000,0.000000,0.000000,0.000000,0.000000,0.000000,1646469363.493084,0.000000
77.000000,68527.073387,55403.671313,52684.626303,47447.858447,34256.596477,36470.760282,47340.637128,44716.832902,-0.124000,0.972000,-0.012000,192.000000,0.000000,0.000000,0.000000,0.000000,0.000000,0.000000,0.000000,0.000000,0.000000,1646469363.500995,0.000000
78.000000,68539.366846,55402.665484,52694.416367,47456.821496,34290.995811,36469.687399,47335.183303,44713.971879,-0.124000,0.972000,-0.012000,192.000000,0.000000,0.000000,0.000000,0.000000,0.000000,0.000000,0.000000,0.000000,0.000000,1646469363.501012,0.000000
79.000000,68503.291130,55400.095034,52667.169591,47447.344356,34226.108697,36463.317151,47319.268861,44703.198338,-0.124000,0.972000,-0.012000,192.000000,0.000000,0.000000,0.000000,0.000000,0.000000,0.000000,0.000000,0.000000,0.000000,1646469363.508139,0.000000
80.000000,68472.982165,55398.418653,52643.588500,47436.436705,34164.172013,36454.152936,47314.262070,44686.188660,-0.124000,0.972000,-0.012000,192.000000,0.000000,0.000000,0.000000,0.000000,0.000000,0.000000,0.000000,0.000000,0.000000,1646469363.508154,0.000000
81.000000,68499.714851,55412.388493,52664.576788,47450.361842,34199.644232,36466.066416,47327.650765,44702.326620,-0.124000,0.972000,-0.012000,192.000000,0.000000,0.000000,0.000000,0.000000,0.000000,0.000000,0.000000,0.000000,0.000000,1646469363.515705,0.000000
82.000000,68532.996599,55413.282563,52689.163707,47462.230618,34263.436110,36473.956582,47333.484570,44722.756114,-0.124000,0.972000,-0.012000,192.000000,0.000000,0.000000,0.000000,0.000000,0.000000,0.000000,0.000000,0.000000,0.000000,1646469363.515720,0.000000
83.000000,68543.479567,55409.639229,52699.177289,47463.281150,34295.309698,36474.738893,47339.720707,44724.477199,-0.122000,0.970000,-0.012000,192.000000,252.000000,48.000000,30.000000,80.000000,255.000000,160.000000,0.000000,0.000000,0.000000,1646469363.523646,0.000000
84.000000,68501.860619,55399.290371,52664.465030,47444.505685,34225.102869,36462.579544,47322.621622,44707.154597,-0.122000,0.970000,-0.012000,192.000000,0.000000,0.000000,0.000000,0.000000,0.000000,0.000000,0.000000,0.000000,0.000000,1646469363.523662,0.000000
85.000000,68474.815008,55398.686874,52646.203655,47436.190836,34166.138967,36460.567887,47317.659535,44697.520995,-0.122000,0.970000,-0.012000,192.000000,0.000000,0.000000,0.000000,0.000000,0.000000,0.000000,0.000000,0.000000,0.000000,1646469363.531611,0.000000
86.000000,68496.272683,55400.787938,52662.118097,47442.248159,34193.139874,36464.322980,47322.822788,44701.253736,-0.122000,0.970000,-0.012000,192.000000,0.000000,0.000000,0.000000,0.000000,0.000000,0.000000,0.000000,0.000000,0.000000,1646469363.531644,0.000000
87.000000,68526.268724,55405.638266,52682.480536,47453.356976,34251.410872,36466.602858,47330.131809,44711.446132,-0.122000,0.970000,-0.012000,192.000000,0.000000,0.000000,0.000000,0.000000,0.000000,0.000000,0.000000,0.000000,0.000000,1646469363.538310,0.000000
88.000000,68544.328933,55409.773339,52691.689455,47458.944912,34281.317506,36465.842899,47331.025878,44717.346992,-0.122000,0.970000,-0.012000,192.000000,0.000000,0.000000,0.000000,0.000000,0.000000,0.000000,0.000000,0.000000,0.000000,1646469363.538326,0.000000
89.000000,68505.056918,55401.570249,52660.776992,47443.946891,34213.010575,36456.276352,47319.291212,44703.153634,-0.122000,0.970000,-0.012000,192.000000,0.000000,0.000000,0.000000,0.000000,0.000000,0.000000,0.000000,0.000000,0.000000,1646469363.545098,0.000000
90.000000,68477.430162,55395.959961,52638.559358,47434.179179,34156.550068,36452.700073,47308.875300,44693.542384,-0.122000,0.970000,-0.012000,192.000000,0.000000,0.000000,0.000000,0.000000,0.000000,0.000000,0.000000,0.000000,0.000000,1646469363.553122,0.000000
91.000000,68496.451497,55396.742272,52650.159913,47437.241368,34183.170996,36455.069358,47309.747018,44691.866003,-0.122000,0.970000,-0.012000,192.000000,0.000000,0.000000,0.000000,0.000000,0.000000,0.000000,0.000000,0.000000,0.000000,1646469363.553137,0.000000
92.000000,68529.733244,55402.240801,52673.182210,47449.333662,34247.946352,36461.216087,47323.761561,44699.867928,-0.122000,0.970000,-0.012000,192.000000,0.000000,0.000000,0.000000,0.000000,0.000000,0.000000,0.000000,0.000000,0.000000,1646469363.561227,0.000000
93.000000,68542.719608,55400.095034,52683.195792,47452.261740,34281.585727,36463.719483,47329.617718,44706.998134,-0.118000,0.962000,-0.012000,192.000000,252.000000,80.000000,30.000000,16.000000,255.000000,160.000000,0.000000,0.000000,0.000000,1646469363.561243,0.000000
94.000000,68504.833401,55389.142679,52651.679832,47434.290938,34211.222435,36452.990646,47311.401047,44696.872794,-0.118000,0.962000,-0.012000,192.000000,0.000000,0.000000,0.000000,0.000000,0.000000,0.000000,0.000000,0.000000,0.000000,1646469363.567913,0.000000
95.000000,68482.414601,55396.205830,52634.312527,47429.842941,34155.365426,36452.297741,47300.538099,44691.709541,-0.118000,0.962000,-0.012000,192.000000,0.000000,0.000000,0.000000,0.000000,0.000000,0.000000,0.000000,0.000000,0.000000,1646469363.567928,0.000000
96.000000,68505.168677,55405.973542,52654.116172,47439.744763,34187.216662,36460.724349,47314.887919,44697.476291,-0.118000,0.962000,-0.012000,192.000000,0.000000,0.000000,0.000000,0.000000,0.000000,0.000000,0.000000,0.000000,0.000000,1646469363.575956,0.000000
97.000000,68536.282305,55410.376836,52681.206486,47454.452211,34251.880259,36469.061550,47333.797495,44706.037009,-0.118000,0.962000,-0.012000,192.000000,0.000000,0.000000,0.000000,0.000000,0.000000,0.000000,0.000000,0.000000,0.000000,1646469363.575971,0.000000
98.000000,68552.442617,55409.348656,52691.622399,47462.096508,34284.446750,36472.011980,47335.496227,44719.738629,-0.118000,0.962000,-0.012000,192.000000,0.000000,0.000000,0.000000,0.000000,0.000000,0.000000,0.000000,0.000000,0.000000,1646469363.583873,0.000000
99.000000,68519.294979,55403.961885,52665.426155,47447.769040,34220.029023,36467.653390,47323.269823,44709.948565,-0.118000,0.962000,-0.012000,192.000000,0.000000,0.000000,0.000000,0.000000,0.000000,0.000000,0.000000,0.000000,0.000000,1646469363.583888,0.000000
100.000000,68495.445668,55403.738368,52645.264881,47437.286071,34163.613220,36467.519279,47318.598308,44703.175986,-0.118000,0.962000,-0.012000,192.000000,0.000000,0.000000,0.000000,0.000000,0.000000,0.000000,0.000000,0.000000,0.000000,1646469363.591145,0.000000
101.000000,68520.792546,55412.790825,52664.263864,47446.942025,34195.330345,36473.733064,47327.539006,44712.653126,-0.118000,0.962000,-0.012000,192.000000,0.000000,0.000000,0.000000,0.000000,0.000000,0.000000,0.000000,0.000000,0.000000,1646469363.591160,0.000000
102.000000,68543.188994,55405.258287,52682.636998,47451.993519,34250.941485,36470.737931,47333.641032,44716.967013,-0.118000,0.962000,-0.012000,192.000000,0.000000,0.000000,0.000000,0.000000,0.000000,0.000000,0.000000,0.000000,0.000000,1646469363.598628,0.000000
103.000000,68546.072369,55393.568324,52684.402786,47449.378365,34274.790797,36458.735044,47324.588576,44712.496664,-0.120000,0.976000,-0.016000,192.000000,252.000000,64.000000,30.000000,128.000000,255.000000,128.000000,0.000000,0.000000,0.000000,1646469363.598643,0.000000
104.000000,68505.280436,55386.505173,52654.473800,47434.380345,34207.579101,36447.514468,47311.199881,44700.225556,-0.120000,0.976000,-0.016000,192.000000,0.000000,0.000000,0.000000,0.000000,0.000000,0.000000,0.000000,0.000000,0.000000,1646469363.605664,0.000000
105.000000,68490.774154,55401.972580,52646.136599,47435.676746,34161.534507,36455.248172,47326.086143,44703.064227,-0.120000,0.976000,-0.016000,192.000000,0.000000,0.000000,0.000000,0.000000,0.000000,0.000000,0.000000,0.000000,0.000000,1646469363.613570,0.000000
106.000000,68513.215305,55414.064874,52663.570960,47446.360880,34196.336174,36463.987704,47339.072506,44721.213844,-0.120000,0.976000,-0.016000,192.000000,0.000000,0.000000,0.000000,0.000000,0.000000,0.000000,0.000000,0.000000,0.000000,1646469363.613585,0.000000
107.000000,68537.511651,55410.600354,52681.139431,47454.675729,34253.891916,36464.457090,47336.278538,44728.209940,-0.120000,0.976000,-0.016000,192.000000,0.000000,0.000000,0.000000,0.000000,0.000000,0.000000,0.000000,0.000000,0.000000,1646469363.620160,0.000000
108.000000,68550.274497,55409.885098,52690.907143,47461.068328,34287.039553,36463.540669,47333.618681,44729.863969,-0.120000,0.976000,-0.016000,192.000000,0.000000,0.000000,0.000000,0.000000,0.000000,0.000000,0.000000,0.000000,0.000000,1646469363.620175,0.000000
109.000000,68509.683729,55399.893868,52658.452411,47443.253987,34217.100944,36453.191811,47325.035611,44712.340201,-0.120000,0.976000,-0.016000,192.000000,0.000000,0.000000,0.000000,0.000000,0.000000,0.000000,0.000000,0.000000,0.000000,1646469363.628216,0.000000
110.000000,68485.432087,55400.095034,52634.267823,47434.067420,34156.058330,36446.978026,47309.970535,44706.394637,-0.120000,0.976000,-0.016000,192.000000,0.000000,0.000000,0.000000,0.000000,0.000000,0.000000,0.000000,0.000000,0.000000,1646469363.628232,0.000000
111.000000,68506.487430,55406.152356,52649.399954,47438.850694,34182.254575,36453.772957,47328.723649,44722.018507,-0.120000,0.976000,-0.016000,192.000000,0.000000,0.000000,0.000000,0.000000,0.000000,0.000000,0.000000,0.000000,0.000000,1646469363.636204,0.000000
112.000000,68528.526250,55403.224278,52662.922759,47438.738935,34235.049395,36447.201544,47329.036573,44721.660879,-0.120000,0.976000,-0.016000,192.000000,0.000000,0.000000,0.000000,0.000000,0.000000,0.000000,0.000000,0.000000,0.000000,1646469363.636220,0.000000
113.000000,68551.637954,55406.241763,52680.178306,47450.942987,34275.595459,36458.667989,47351.544780,44734.222559,-0.124000,0.976000,-0.014000,192.000000,252.000000,32.000000,30.000000,128.000000,255.000000,144.000000,0.000000,0.000000,0.000000,1646469363.643035,0.000000
114.000000,68522.267762,55405.146528,52657.446582,47442.158752,34218.218531,36452.878887,47328.947166,44713.927175,-0.124000,0.976000,-0.014000,192.000000,0.000000,0.000000,0.000000,0.000000,0.000000,0.000000,0.000000,0.000000,0.000000,1646469363.643051,0.000000
115.000000,68494.149267,55402.129042,52637.978213,47432.502798,34161.042769,36449.615532,47322.353401,44711.267318,-0.124000,0.976000,-0.014000,192.000000,0.000000,0.000000,0.000000,0.000000,0.000000,0.000000,0.000000,0.000000,0.000000,1646469363.650544,0.000000
116.000000,68522.446575,55411.405016,52659.681756,47447.992557,34197.029078,36459.293837,47332.411686,44729.148713,-0.124000,0.976000,-0.014000,192.000000,0.000000,0.000000,0.000000,0.000000,0.000000,0.000000,0.000000,0.000000,0.000000,1646469363.650560,0.000000
117.000000,68556.443579,55415.405979,52685.386263,47462.700005,34259.502203,36463.607724,47330.131809,44731.696812,-0.124000,0.976000,-0.014000,192.000000,0.000000,0.000000,0.000000,0.000000,0.000000,0.000000,0.000000,0.000000,0.000000,1646469363.658608,0.000000
118.000000,68571.665117,55419.563403,52701.591277,47475.418147,34296.360230,36468.927439,47334.915082,44738.111763,-0.124000,0.976000,-0.014000,192.000000,0.000000,0.000000,0.000000,0.000000,0.000000,0.000000,0.000000,0.000000,0.000000,1646469363.658618,0.000000
119.000000,68529.800299,55415.249516,52674.322149,47462.945874,34232.255427,36464.211221,47324.387410,44726.891187,-0.124000,0.976000,-0.014000,192.000000,0.000000,0.000000,0.000000,0.000000,0.000000,0.000000,0.000000,0.000000,0.000000,1646469363.665659,0.000000
120.000000,68496.339738,55410.823871,52651.277501,47451.322967,34170.966944,36459.271486,47317.547776,44711.446132,-0.124000,0.976000,-0.014000,192.000000,0.000000,0.000000,0.000000,0.000000,0.000000,0.000000,0.000000,0.000000,0.000000,1646469363.672728,0.000000
121.000000,68517.864468,55412.455548,52665.448507,47452.842886,34197.364354,36463.585372,47320.945242,44718.039896,-0.124000,0.976000,-0.014000,192.000000,0.000000,0.000000,0.000000,0.000000,0.000000,0.000000,0.000000,0.000000,0.000000,1646469363.672743,0.000000
122.000000,68546.407646,55414.198984,52687.733196,47460.755403,34258.541078,36470.425006,47331.204692,44733.015565,-0.124000,0.976000,-0.014000,192.000000,0.000000,0.000000,0.000000,0.000000,0.000000,0.000000,0.000000,0.000000,0.000000,1646469363.680390,0.000000
123.000000,68555.370695,55410.712112,52695.824527,47464.443441,34289.677058,36467.943963,47333.082239,44736.010699,-0.122000,0.970000,-0.010000,192.000000,252.000000,48.000000,30.000000,80.000000,255.000000,176.000000,0.000000,0.000000,0.000000,1646469363.680405,0.000000
124.000000,68514.846982,55398.262191,52663.638015,47444.550388,34220.811334,36457.393939,47313.435055,44717.503454,-0.122000,0.970000,-0.010000,192.000000,0.000000,0.000000,0.000000,0.000000,0.000000,0.000000,0.000000,0.000000,0.000000,1646469363.688357,0.000000
125.000000,68485.029755,55391.780185,52638.000564,47427.741877,34156.773586,36447.715634,47302.303887,44703.466559,-0.122000,0.970000,-0.010000,192.000000,0.000000,0.000000,0.000000,0.000000,0.000000,0.000000,0.000000,0.000000,0.000000,1646469363.688371,0.000000
126.000000,68516.031625,55405.191231,52660.844047,47441.890531,34194.950365,36461.596067,47328.231910,44724.119571,-0.122000,0.970000,-0.010000,192.000000,0.000000,0.000000,0.000000,0.000000,0.000000,0.000000,0.000000,0.000000,0.000000,1646469363.696438,0.000000
127.000000,68545.245355,55405.772377,52683.374606,47453.401679,34256.842346,36463.920649,47332.523445,44728.522864,-0.122000,0.970000,-0.010000,192.000000,0.000000,0.000000,0.000000,0.000000,0.000000,0.000000,0.000000,0.000000,0.000000,1646469363.696455,0.000000
128.000000,68549.916869,55399.156260,52687.174402,47453.669900,34283.083294,36458.623285,47322.867492,44726.712373,-0.122000,0.970000,-0.010000,192.000000,0.000000,0.000000,0.000000,0.000000,0.000000,0.000000,0.000000,0.000000,0.000000,1646469363.703056,0.000000
129.000000,68513.081195,55398.195135,52661.246379,47443.186932,34220.856037,36457.326884,47312.004544,44717.257585,-0.122000,0.970000,-0.010000,192.000000,0.000000,0.000000,0.000000,0.000000,0.000000,0.000000,0.000000,0.000000,0.000000,1646469363.703089,0.000000
130.000000,68486.415563,55402.799595,52645.711916,47439.521246,34168.284734,36461.372550,47308.942355,44714.173044,-0.122000,0.970000,-0.010000,192.000000,0.000000,0.000000,0.000000,0.000000,0.000000,0.000000,0.000000,0.000000,0.000000,1646469363.711168,0.000000
131.000000,68516.121032,55412.410845,52662.542780,47450.048918,34202.371145,36470.357951,47333.015184,44724.477199,-0.122000,0.970000,-0.010000,192.000000,0.000000,0.000000,0.000000,0.000000,0.000000,0.000000,0.000000,0.000000,0.000000,1646469363.711185,0.000000
132.000000,68547.167605,55411.427368,52682.972274,47456.419165,34259.591610,36471.162614,47335.675041,44728.768734,-0.122000,0.970000,-0.010000,192.000000,0.000000,0.000000,0.000000,0.000000,0.000000,0.000000,0.000000,0.000000,0.000000,1646469363.719162,0.000000
133.000000,68554.431922,55399.044502,52689.163707,47453.133458,34285.229061,36466.491099,47332.098762,44727.584091,-0.126000,0.974000,-0.012000,192.000000,252.000000,16.000000,30.000000,112.000000,255.000000,160.000000,0.000000,0.000000,0.000000,1646469363.719178,0.000000
134.000000,68520.077291,55393.702435,52666.856666,47441.197627,34223.068860,36465.261753,47322.398105,44721.236196,-0.126000,0.974000,-0.012000,192.000000,0.000000,0.000000,0.000000,0.000000,0.000000,0.000000,0.000000,0.000000,0.000000,1646469363.726154,0.000000
135.000000,68488.270758,55389.366196,52643.990832,47426.959566,34162.160356,36458.332712,47307.556547,44709.412123,-0.126000,0.974000,-0.012000,192.000000,0.000000,0.000000,0.000000,0.000000,0.000000,0.000000,0.000000,0.000000,0.000000,1646469363.726170,0.000000
136.000000,68505.883933,55393.814193,52658.161838,47433.262757,34188.960098,36462.311323,47320.900538,44714.620079,-0.126000,0.974000,-0.012000,192.000000,0.000000,0.000000,0.000000,0.000000,0.000000,0.000000,0.000000,0.000000,0.000000,1646469363.732575,0.000000
137.000000,68534.114186,55397.748100,52681.005321,47447.299653,34248.683959,36463.540669,47328.589538,44722.622004,-0.126000,0.974000,-0.012000,192.000000,0.000000,0.000000,0.000000,0.000000,0.000000,0.000000,0.000000,0.000000,0.000000,1646469363.740656,0.000000
138.000000,68549.134558,55401.771414,52692.225896,47454.094583,34281.742189,36463.697131,47330.355326,44729.752210,-0.126000,0.974000,-0.012000,192.000000,0.000000,0.000000,0.000000,0.000000,0.000000,0.000000,0.000000,0.000000,0.000000,1646469363.740672,0.000000
139.000000,68516.232790,55396.742272,52665.828486,47440.080040,34217.391517,36458.399768,47320.185282,44717.861082,-0.126000,0.974000,-0.012000,192.000000,0.000000,0.000000,0.000000,0.000000,0.000000,0.000000,0.000000,0.000000,0.000000,1646469363.748641,0.000000
140.000000,68491.332947,55393.858897,52645.153123,47432.256929,34160.595734,36454.331750,47311.915137,44703.690076,-0.126000,0.974000,-0.012000,192.000000,0.000000,0.000000,0.000000,0.000000,0.000000,0.000000,0.000000,0.000000,0.000000,1646469363.748656,0.000000
141.000000,68517.171564,55403.179574,52663.973291,47447.009080,34196.045601,36460.992570,47317.145445,44713.703658,-0.126000,0.974000,-0.012000,192.000000,0.000000,0.000000,0.000000,0.000000,0.000000,0.000000,0.000000,0.000000,0.000000,1646469363.755741,0.000000
142.000000,68549.179262,55403.604258,52684.358082,47458.430822,34255.456538,36463.585372,47322.532215,44721.884396,-0.126000,0.974000,-0.012000,192.000000,0.000000,0.000000,0.000000,0.000000,0.000000,0.000000,0.000000,0.000000,0.000000,1646469363.755757,0.000000
143.000000,68562.590308,55405.325342,52692.717635,47461.940046,34286.301945,36462.445433,47323.985079,44725.080696,-0.126000,0.974000,-0.012000,192.000000,0.000000,0.000000,0.000000,0.000000,0.000000,0.000000,0.000000,0.000000,0.000000,1646469363.763379,0.000000
144.000000,68526.380482,55401.123214,52665.649672,47448.484295,34221.280720,36457.036311,47315.804340,44720.789161,-0.122000,0.980000,-0.004000,192.000000,252.000000,48.000000,30.000000,160.000000,255.000000,224.000000,0.000000,0.000000,0.000000,1646469363.763395,0.000000
145.000000,68500.363052,55398.709226,52647.008317,47438.582473,34163.724978,36454.152936,47313.122131,44713.726010,-0.122000,0.980000,-0.004000,192.000000,0.000000,0.000000,0.000000,0.000000,0.000000,0.000000,0.000000,0.000000,0.000000,1646469363.771445,0.000000
146.000000,68521.284285,55408.342827,52668.555399,47448.081964,34198.660755,36463.674779,47324.365058,44720.610347,-0.122000,0.980000,-0.004000,192.000000,0.000000,0.000000,0.000000,0.000000,0.000000,0.000000,0.000000,0.000000,0.000000,1646469363.771460,0.000000
147.000000,68551.526195,55411.829699,52691.890620,47457.492048,34258.675189,36469.128605,47334.758620,44726.734725,-0.122000,0.980000,-0.004000,192.000000,0.000000,0.000000,0.000000,0.000000,0.000000,0.000000,0.000000,0.000000,0.000000,1646469363.779385,0.000000
148.000000,68554.498977,55398.753929,52689.409577,47451.993519,34279.797587,36457.528050,47319.671192,44714.307155,-0.122000,0.980000,-0.004000,192.000000,0.000000,0.000000,0.000000,0.000000,0.000000,0.000000,0.000000,0.000000,0.000000,1646469363.779402,0.000000
149.000000,68518.333854,55396.071720,52661.648710,47439.096563,34212.787057,36456.410462,47317.458369,44713.502492,-0.122000,0.980000,-0.004000,192.000000,0.000000,0.000000,0.000000,0.000000,0.000000,0.000000,0.000000,0.000000,0.000000,1646469363.786069,0.000000
150.000000,68491.690575,55396.474051,52641.755657,47431.206397,34155.208964,36458.712692,47317.324259,44711.624946,-0.122000,0.980000,-0.004000,192.000000,0.000000,0.000000,0.000000,0.000000,0.000000,0.000000,0.000000,0.000000,0.000000,1646469363.786104,0.000000
151.000000,68510.354282,55398.262191,52653.915006,47437.040202,34181.516967,36459.182079,47320.498207,44717.414047,-0.122000,0.980000,-0.004000,192.000000,0.000000,0.000000,0.000000,0.000000,0.000000,0.000000,0.000000,0.000000,0.000000,1646469363.793128,0.000000
152.000000,68549.805111,55407.582868,52683.821640,47458.319063,34248.527497,36469.307419,47332.232873,44738.379984,-0.122000,0.980000,-0.004000,192.000000,0.000000,0.000000,0.000000,0.000000,0.000000,0.000000,0.000000,0.000000,0.000000,1646469363.801162,0.000000
153.000000,68561.852701,55406.264115,52693.410539,47465.002235,34280.714009,36467.631038,47333.126942,44739.542274,-0.122000,0.980000,-0.004000,192.000000,0.000000,0.000000,0.000000,0.000000,0.000000,0.000000,0.000000,0.000000,0.000000,1646469363.801179,0.000000
154.000000,68516.657474,55392.070757,52656.708974,47444.952720,34209.501351,36449.280256,47311.065771,44714.709486,-0.120000,0.976000,-0.012000,192.000000,252.000000,64.000000,30.000000,128.000000,255.000000,160.000000,0.000000,0.000000,0.000000,1646469363.809145,0.000000
155.000000,68493.277549,55393.434214,52637.151198,47434.179179,34153.689045,36443.066471,47305.969573,44707.825149,-0.120000,0.976000,-0.012000,192.000000,0.000000,0.000000,0.000000,0.000000,0.000000,0.000000,0.000000,0.000000,0.000000,1646469363.809160,0.000000
156.000000,68516.791584,55397.926914,52657.200713,47442.158752,34188.602470,36449.771994,47317.100742,44710.440303,-0.120000,0.976000,-0.012000,192.000000,0.000000,0.000000,0.000000,0.000000,0.000000,0.000000,0.000000,0.000000,0.000000,1646469363.815502,0.000000
157.000000,68545.893555,55402.956057,52680.111251,47453.267569,34249.935657,36450.978989,47315.424361,44711.446132,-0.120000,0.976000,-0.012000,192.000000,0.000000,0.000000,0.000000,0.000000,0.000000,0.000000,0.000000,0.000000,0.000000,1646469363.815518,0.000000
