%OpenBCI Raw EEG Data
%Number of channels = 8
%Sample Rate = 256 Hz
%Board = OpenBCI_GUI$BoardCytonSerial
%Channels = Fp1, Fp2, F3, F4, Fz, Pz, O1, O2
%Data recorded at AIMS Lab (http://aimsl.uiu.ac.bd) by Rana Depto (mail@ranadepto.com)
%Brainwaves were obtained via the Ultracortex Mark IV Headset using the OpenBCI Cyton Board
%Recording Application = ConcentrateToday (https://concentrate.today)
%Data type = RAW data with noise
%Day No = 10
%Subject ID = 4
%Session ID = 7
%Record starting timestamp (UTC+6) = 2022-03-30T11:33:34.335314
%Record ending timestamp (UTC+6)   = 2022-03-30T11:34:10.699318
%Recorded durations = ~36 seconds
Sample Index, EXG Channel 0, EXG Channel 1, EXG Channel 2, EXG Channel 3, EXG Channel 4, EXG Channel 5, EXG Channel 6, EXG Channel 7, Accel Channel 0, Accel Channel 1, Accel Channel 2, Other, Other, Other, Other, Other, Other, Other, Analog Channel 0, Analog Channel 1, Analog Channel 2, Timestamp, Timestamp (Formatted)
219.000000,-12763.896616,2025.716248,9483.800469,28224.084166,-3883.079157,47426.557234,3369.257256,10490.992426,0.050000,0.856000,0.472000,192.000000,0.000000,0.000000,0.000000,0.000000,0.000000,0.000000,0.000000,0.000000,0.000000,1648618414.341325,0.000000
220.000000,-12765.975328,2026.923242,9480.894742,28224.307683,-3883.615599,47425.774923,3367.245599,10492.579400,0.050000,0.856000,0.472000,192.000000,0.000000,0.000000,0.000000,0.000000,0.000000,0.000000,0.000000,0.000000,0.000000,1648618414.341332,0.000000
221.000000,-12774.111363,2021.961155,9472.043451,28217.937436,-3891.081082,47418.354144,3360.785945,10485.873876,0.050000,0.856000,0.472000,192.000000,0.000000,0.000000,0.000000,0.000000,0.000000,0.000000,0.000000,0.000000,0.000000,1648618414.347809,0.000000
222.000000,-12767.830523,2028.376106,9479.620693,28224.352387,-3883.325026,47422.288051,3357.254369,10484.510420,0.054000,0.856000,0.470000,192.000000,1.000000,176.000000,26.000000,192.000000,14.000000,176.000000,0.000000,0.000000,0.000000,1648618414.347814,0.000000
223.000000,-12775.675985,2018.876614,9475.820896,28216.194000,-3886.990713,47420.231690,3342.770439,10482.118783,0.054000,0.856000,0.470000,192.000000,0.000000,0.000000,0.000000,0.000000,0.000000,0.000000,0.000000,0.000000,0.000000,1648618414.355737,0.000000
224.000000,-12771.049174,2021.447065,9476.200876,28214.562322,-3889.069425,47418.868234,3355.890913,10483.661054,0.054000,0.856000,0.470000,192.000000,0.000000,0.000000,0.000000,0.000000,0.000000,0.000000,0.000000,0.000000,0.000000,1648618414.355742,0.000000
225.000000,-12763.337822,2026.900891,9481.520591,28219.591465,-3886.342512,47422.757438,3372.230038,10486.097394,0.054000,0.856000,0.470000,192.000000,0.000000,0.000000,0.000000,0.000000,0.000000,0.000000,0.000000,0.000000,0.000000,1648618414.362830,0.000000
226.000000,-12760.812075,2027.616147,9481.744108,28220.776107,-3887.348340,47419.583490,3370.933637,10486.678539,0.054000,0.856000,0.470000,192.000000,0.000000,0.000000,0.000000,0.000000,0.000000,0.000000,0.000000,0.000000,0.000000,1648618414.370013,0.000000
227.000000,-12757.012279,2031.728867,9482.414661,28222.631302,-3885.984884,47420.186987,3361.970587,10485.315083,0.054000,0.856000,0.470000,192.000000,0.000000,0.000000,0.000000,0.000000,0.000000,0.000000,0.000000,0.000000,0.000000,1648618414.370017,0.000000
228.000000,-12757.213444,2032.310013,9481.028853,28220.619645,-3887.281285,47420.142283,3358.573122,10482.141135,0.054000,0.856000,0.470000,192.000000,0.000000,0.000000,0.000000,0.000000,0.000000,0.000000,0.000000,0.000000,0.000000,1648618414.377491,0.000000
229.000000,-12761.460276,2030.276004,9477.184353,28217.311587,-3890.835213,47418.600013,3363.646968,10483.169315,0.054000,0.856000,0.470000,192.000000,0.000000,0.000000,0.000000,0.000000,0.000000,0.000000,0.000000,0.000000,0.000000,1648618414.377497,0.000000
230.000000,-12755.537064,2036.266272,9482.638178,28222.586599,-3884.867297,47422.980955,3367.022081,10489.204286,0.054000,0.856000,0.470000,192.000000,0.000000,0.000000,0.000000,0.000000,0.000000,0.000000,0.000000,0.000000,0.000000,1648618414.385587,0.000000
231.000000,-12754.061848,2039.797847,9485.208629,28223.346558,-3882.542715,47422.779789,3366.932674,10489.181934,0.054000,0.856000,0.470000,192.000000,0.000000,0.000000,0.000000,0.000000,0.000000,0.000000,0.000000,0.000000,0.000000,1648618414.385592,0.000000
232.000000,-12754.821808,2038.546150,9483.979283,28219.949093,-3885.336683,47418.376496,3360.025985,10482.431708,0.054000,0.856000,0.470000,192.000000,0.000000,0.000000,0.000000,0.000000,0.000000,0.000000,0.000000,0.000000,0.000000,1648618414.393512,0.000000
233.000000,-12751.580805,2042.144780,9486.125050,28221.446660,-3883.257971,47416.320135,3350.928825,10475.927350,0.046000,0.862000,0.472000,192.000000,1.000000,112.000000,26.000000,240.000000,14.000000,192.000000,0.000000,0.000000,0.000000,1648618414.393518,0.000000
234.000000,-12756.520540,2040.043716,9483.778117,28218.920913,-3884.621428,47414.956679,3351.308805,10470.652338,0.046000,0.862000,0.472000,192.000000,0.000000,0.000000,0.000000,0.000000,0.000000,0.000000,0.000000,0.000000,0.000000,1648618414.400109,0.000000
235.000000,-12752.430171,2043.642347,9484.716890,28222.810116,-3882.967399,47419.918766,3364.406927,10480.352995,0.046000,0.862000,0.472000,192.000000,0.000000,0.000000,0.000000,0.000000,0.000000,0.000000,0.000000,0.000000,0.000000,1648618414.400121,0.000000
236.000000,-12754.978270,2038.322632,9483.666358,28222.743061,-3882.632122,47422.064533,3371.425375,10483.504591,0.046000,0.862000,0.472000,192.000000,0.000000,0.000000,0.000000,0.000000,0.000000,0.000000,0.000000,0.000000,0.000000,1648618414.408093,0.000000
237.000000,-12761.303814,2031.170074,9478.659568,28215.590503,-3887.415396,47419.225862,3370.531305,10486.946760,0.046000,0.862000,0.472000,192.000000,0.000000,0.000000,0.000000,0.000000,0.000000,0.000000,0.000000,0.000000,0.000000,1648618414.408098,0.000000
238.000000,-12755.224139,2036.199216,9482.302902,28214.763488,-3885.873125,47413.950850,3358.930750,10469.870027,0.046000,0.862000,0.472000,192.000000,0.000000,0.000000,0.000000,0.000000,0.000000,0.000000,0.000000,0.000000,0.000000,1648618414.416203,0.000000
239.000000,-12755.738229,2036.959176,9481.431184,28213.467087,-3887.437747,47409.815778,3351.957005,10459.811742,0.046000,0.862000,0.472000,192.000000,0.000000,0.000000,0.000000,0.000000,0.000000,0.000000,0.000000,0.000000,0.000000,1648618414.416208,0.000000
240.000000,-12748.809188,2046.168094,9488.963722,28225.559381,-3878.474698,47417.437722,3358.103735,10468.730088,0.046000,0.862000,0.472000,192.000000,0.000000,0.000000,0.000000,0.000000,0.000000,0.000000,0.000000,0.000000,0.000000,1648618414.423273,0.000000
241.000000,-12755.738229,2041.004841,9482.258199,28218.876209,-3884.733186,47407.468844,3339.752953,10451.206321,0.046000,0.862000,0.472000,192.000000,0.000000,0.000000,0.000000,0.000000,0.000000,0.000000,0.000000,0.000000,0.000000,1648618414.423278,0.000000
242.000000,-12756.900520,2036.556844,9481.677053,28214.584674,-3887.817727,47403.713751,3325.559595,10441.036277,0.046000,0.862000,0.472000,192.000000,0.000000,0.000000,0.000000,0.000000,0.000000,0.000000,0.000000,0.000000,0.000000,1648618414.429713,0.000000
243.000000,-12761.840255,2031.728867,9480.246542,28209.868456,-3889.739977,47408.072341,3331.795732,10463.253911,0.044000,0.870000,0.466000,192.000000,1.000000,96.000000,27.000000,48.000000,14.000000,144.000000,0.000000,0.000000,0.000000,1648618414.437748,0.000000
244.000000,-12757.705183,2038.277929,9483.800469,28214.741136,-3883.682654,47419.918766,3350.437087,10482.252894,0.044000,0.870000,0.466000,192.000000,0.000000,0.000000,0.000000,0.000000,0.000000,0.000000,0.000000,0.000000,0.000000,1648618414.437752,0.000000
245.000000,-12753.279537,2043.396478,9485.923885,28218.362119,-3881.693349,47423.383286,3351.822895,10482.990501,0.044000,0.870000,0.466000,192.000000,0.000000,0.000000,0.000000,0.000000,0.000000,0.000000,0.000000,0.000000,0.000000,1648618414.445790,0.000000
246.000000,-12756.162912,2040.624862,9483.241675,28214.294102,-3885.314332,47422.533920,3348.246616,10482.811687,0.044000,0.870000,0.466000,192.000000,0.000000,0.000000,0.000000,0.000000,0.000000,0.000000,0.000000,0.000000,0.000000,1648618414.445793,0.000000
247.000000,-12749.926776,2045.497542,9490.729510,28220.597293,-3876.954779,47435.386173,3370.665416,10508.426786,0.044000,0.870000,0.466000,192.000000,0.000000,0.000000,0.000000,0.000000,0.000000,0.000000,0.000000,0.000000,0.000000,1648618414.452866,0.000000
248.000000,-12725.786892,2071.984359,9513.327123,28245.318323,-3852.926654,47452.887589,3386.825727,10521.010819,0.044000,0.870000,0.466000,192.000000,0.000000,0.000000,0.000000,0.000000,0.000000,0.000000,0.000000,0.000000,0.000000,1648618414.452870,0.000000
249.000000,-12717.047360,2083.093176,9522.178414,28255.398960,-3843.069535,47460.755403,3394.850003,10527.090493,0.044000,0.870000,0.466000,192.000000,0.000000,0.000000,0.000000,0.000000,0.000000,0.000000,0.000000,0.000000,0.000000,1648618414.460381,0.000000
250.000000,-12711.034740,2087.183545,9523.273650,28258.349390,-3842.510741,47458.140249,3397.263992,10514.282944,0.044000,0.870000,0.466000,192.000000,0.000000,0.000000,0.000000,0.000000,0.000000,0.000000,0.000000,0.000000,0.000000,1648618414.460385,0.000000
251.000000,-12719.014313,2077.259371,9515.003504,28249.118119,-3854.401869,47448.953682,3379.226134,10499.329626,0.044000,0.870000,0.466000,192.000000,0.000000,0.000000,0.000000,0.000000,0.000000,0.000000,0.000000,0.000000,0.000000,1648618414.468444,0.000000
252.000000,-12728.714970,2066.262313,9505.392254,28240.065663,-3864.527209,47442.382269,3368.430241,10495.842754,0.044000,0.870000,0.466000,192.000000,0.000000,0.000000,0.000000,0.000000,0.000000,0.000000,0.000000,0.000000,0.000000,1648618414.468447,0.000000
253.000000,-12726.345685,2072.163173,9507.403911,28244.156032,-3860.772116,47443.566912,3367.536171,10488.019644,0.044000,0.870000,0.470000,192.000000,1.000000,96.000000,27.000000,48.000000,14.000000,176.000000,0.000000,0.000000,0.000000,1648618414.476538,0.000000
254.000000,-12730.212537,2068.989226,9501.815975,28236.511736,-3867.209419,47435.721449,3349.900645,10472.976920,0.044000,0.870000,0.470000,192.000000,0.000000,0.000000,0.000000,0.000000,0.000000,0.000000,0.000000,0.000000,0.000000,1648618414.476559,0.000000
255.000000,-12762.309642,2030.678336,9469.942387,28197.932625,-3901.474643,47399.981010,3308.326400,10433.101408,0.044000,0.870000,0.470000,192.000000,0.000000,0.000000,0.000000,0.000000,0.000000,0.000000,0.000000,0.000000,0.000000,1648618414.482989,0.000000
0.000000,-12769.931587,2020.441237,9460.621710,28188.813113,-3910.929431,47388.983952,3302.783168,10426.664105,0.044000,0.870000,0.470000,192.000000,0.000000,0.000000,0.000000,0.000000,0.000000,0.000000,0.000000,0.000000,0.000000,1648618414.482993,0.000000
1.000000,-12761.974366,2030.186597,9472.490486,28203.788782,-3898.278343,47409.815778,3339.820008,10459.521170,0.044000,0.870000,0.470000,192.000000,0.000000,0.000000,0.000000,0.000000,0.000000,0.000000,0.000000,0.000000,0.000000,1648618414.489924,0.000000
2.000000,-12757.146389,2039.149647,9478.950140,28208.326186,-3894.366788,47415.090789,3342.748087,10456.146056,0.044000,0.870000,0.470000,192.000000,0.000000,0.000000,0.000000,0.000000,0.000000,0.000000,0.000000,0.000000,0.000000,1648618414.498120,0.000000
3.000000,-12763.047250,2035.886292,9472.624597,28201.643014,-3900.178242,47411.268641,3339.976470,10455.900187,0.044000,0.870000,0.470000,192.000000,0.000000,0.000000,0.000000,0.000000,0.000000,0.000000,0.000000,0.000000,0.000000,1648618414.498124,0.000000
4.000000,-12761.504979,2031.550054,9481.565294,28209.711994,-3891.014027,47424.411467,3348.268968,10480.800030,0.044000,0.870000,0.470000,192.000000,0.000000,0.000000,0.000000,0.000000,0.000000,0.000000,0.000000,0.000000,0.000000,1648618414.506075,0.000000
5.000000,-12766.623529,2025.313917,9479.553637,28208.795572,-3892.131614,47427.518359,3350.101811,10487.974940,0.044000,0.870000,0.470000,192.000000,0.000000,0.000000,0.000000,0.000000,0.000000,0.000000,0.000000,0.000000,0.000000,1648618414.506102,0.000000
6.000000,-12757.660479,2038.613205,9484.694539,28213.645901,-3887.840079,47430.871121,3354.683918,10480.084775,0.044000,0.870000,0.470000,192.000000,0.000000,0.000000,0.000000,0.000000,0.000000,0.000000,0.000000,0.000000,0.000000,1648618414.512578,0.000000
7.000000,-12764.611872,2029.918376,9483.688710,28208.661462,-3888.108300,47431.027583,3354.505104,10480.241237,0.060000,0.868000,0.468000,192.000000,1.000000,224.000000,27.000000,32.000000,14.000000,160.000000,0.000000,0.000000,0.000000,1648618414.512582,0.000000
8.000000,-12760.297985,2032.757048,9487.846135,28211.991872,-3884.688483,47438.403659,3356.695575,10497.407376,0.060000,0.868000,0.468000,192.000000,0.000000,0.000000,0.000000,0.000000,0.000000,0.000000,0.000000,0.000000,0.000000,1648618414.520627,0.000000
9.000000,-12757.682831,2034.969870,9485.543905,28211.120154,-3886.566029,47436.906092,3353.566331,10499.821365,0.060000,0.868000,0.468000,192.000000,0.000000,0.000000,0.000000,0.000000,0.000000,0.000000,0.000000,0.000000,0.000000,1648618414.520633,0.000000
10.000000,-12764.366003,2029.292527,9477.765498,28204.057003,-3893.539774,47424.165597,3335.215549,10479.973016,0.060000,0.868000,0.468000,192.000000,0.000000,0.000000,0.000000,0.000000,0.000000,0.000000,0.000000,0.000000,0.000000,1648618414.528711,0.000000
11.000000,-12759.113343,2035.193388,9479.665396,28209.667290,-3888.287114,47420.566967,3315.255441,10469.132420,0.060000,0.868000,0.468000,192.000000,0.000000,0.000000,0.000000,0.000000,0.000000,0.000000,0.000000,0.000000,0.000000,1648618414.528733,0.000000
12.000000,-12753.436000,2042.345946,9485.320388,28215.434040,-3880.531058,47423.852673,3330.253462,10459.409411,0.060000,0.868000,0.468000,192.000000,0.000000,0.000000,0.000000,0.000000,0.000000,0.000000,0.000000,0.000000,0.000000,1648618414.535321,0.000000
13.000000,-12755.961747,2038.993184,9483.621655,28212.975349,-3881.849811,47431.519321,3362.507029,10488.109051,0.060000,0.868000,0.468000,192.000000,0.000000,0.000000,0.000000,0.000000,0.000000,0.000000,0.000000,0.000000,0.000000,1648618414.535326,0.000000
14.000000,-12753.547758,2039.641385,9485.432146,28216.797497,-3879.279361,47439.208321,3371.246561,10509.879650,0.060000,0.868000,0.468000,192.000000,0.000000,0.000000,0.000000,0.000000,0.000000,0.000000,0.000000,0.000000,0.000000,1648618414.543276,0.000000
15.000000,-12753.704220,2040.110772,9482.638178,28214.919950,-3881.648646,47432.592205,3353.186351,10492.199420,0.060000,0.868000,0.468000,192.000000,0.000000,0.000000,0.000000,0.000000,0.000000,0.000000,0.000000,0.000000,0.000000,1648618414.543298,0.000000
16.000000,-12756.609947,2036.445086,9477.609036,28211.254264,-3885.426090,47423.472693,3345.631462,10477.603731,0.060000,0.868000,0.468000,192.000000,0.000000,0.000000,0.000000,0.000000,0.000000,0.000000,0.000000,0.000000,0.000000,1648618414.550336,0.000000
17.000000,-12748.786837,2041.921263,9489.880143,28220.731404,-3873.691425,47437.777810,3353.342814,10494.792222,0.052000,0.868000,0.466000,192.000000,1.000000,160.000000,27.000000,32.000000,14.000000,144.000000,0.000000,0.000000,0.000000,1648618414.558344,0.000000
18.000000,-12749.278575,2040.580158,9487.399100,28219.323244,-3875.770137,47437.286071,3358.528418,10490.701853,0.052000,0.868000,0.466000,192.000000,0.000000,0.000000,0.000000,0.000000,0.000000,0.000000,0.000000,0.000000,0.000000,1648618414.558349,0.000000
19.000000,-12754.620642,2036.154513,9481.274722,28213.243570,-3881.670997,47434.603862,3366.418584,10486.700891,0.052000,0.868000,0.466000,192.000000,0.000000,0.000000,0.000000,0.000000,0.000000,0.000000,0.000000,0.000000,0.000000,1648618414.564950,0.000000
20.000000,-12750.127941,2042.055373,9486.192106,28221.781936,-3873.087927,47444.416278,3378.287360,10504.291714,0.052000,0.868000,0.466000,192.000000,0.000000,0.000000,0.000000,0.000000,0.000000,0.000000,0.000000,0.000000,0.000000,1648618414.564953,0.000000
21.000000,-12748.585671,2042.457705,9490.081309,28222.407785,-3871.702119,47443.388098,3375.649855,10498.614371,0.052000,0.868000,0.466000,192.000000,0.000000,0.000000,0.000000,0.000000,0.000000,0.000000,0.000000,0.000000,0.000000,1648618414.572986,0.000000
22.000000,-12750.798494,2038.903777,9489.231943,28217.915084,-3873.870239,47440.258853,3368.653759,10494.792222,0.052000,0.868000,0.466000,192.000000,0.000000,0.000000,0.000000,0.000000,0.000000,0.000000,0.000000,0.000000,0.000000,1648618414.573015,0.000000
23.000000,-12745.568186,2045.564597,9494.372844,28224.352387,-3867.634102,47445.042127,3364.473982,10494.456946,0.052000,0.868000,0.466000,192.000000,0.000000,0.000000,0.000000,0.000000,0.000000,0.000000,0.000000,0.000000,0.000000,1648618414.581056,0.000000
24.000000,-12747.244566,2045.542246,9496.205687,28223.279503,-3868.282302,47444.505685,3357.991976,10491.037129,0.052000,0.868000,0.466000,192.000000,0.000000,0.000000,0.000000,0.000000,0.000000,0.000000,0.000000,0.000000,0.000000,1648618414.581075,0.000000
25.000000,-12758.308680,2036.333327,9487.622617,28216.730442,-3878.586457,47435.386173,3347.956043,10480.040071,0.052000,0.868000,0.466000,192.000000,0.000000,0.000000,0.000000,0.000000,0.000000,0.000000,0.000000,0.000000,0.000000,1648618414.588081,0.000000
26.000000,-12760.253282,2035.215740,9485.074518,28218.540933,-3883.101509,47434.447400,3349.833590,10484.130440,0.052000,0.868000,0.466000,192.000000,0.000000,0.000000,0.000000,0.000000,0.000000,0.000000,0.000000,0.000000,0.000000,1648618414.588088,0.000000
27.000000,-12751.424343,2043.530589,9492.674111,28222.608950,-3876.306579,47443.432801,3366.865619,10503.889382,0.044000,0.864000,0.466000,192.000000,1.000000,96.000000,27.000000,0.000000,14.000000,144.000000,0.000000,0.000000,0.000000,1648618414.595584,0.000000
28.000000,-12748.675078,2046.726888,9498.865545,28225.984064,-3870.226904,47454.139287,3375.962779,10509.812595,0.044000,0.864000,0.466000,192.000000,0.000000,0.000000,0.000000,0.000000,0.000000,0.000000,0.000000,0.000000,0.000000,1648618414.595589,0.000000
29.000000,-12759.023936,2034.411077,9487.890838,28212.349500,-3881.648646,47441.488199,3369.480773,10495.216906,0.044000,0.864000,0.466000,192.000000,0.000000,0.000000,0.000000,0.000000,0.000000,0.000000,0.000000,0.000000,0.000000,1648618414.603598,0.000000
30.000000,-12764.276596,2031.214777,9479.888914,28208.549703,-3887.884782,47429.708830,3355.868561,10473.602769,0.044000,0.864000,0.466000,192.000000,0.000000,0.000000,0.000000,0.000000,0.000000,0.000000,0.000000,0.000000,0.000000,1648618414.603604,0.000000
31.000000,-12759.649785,2035.528664,9489.790736,28216.171648,-3881.022797,47434.357993,3356.852038,10480.755327,0.044000,0.864000,0.466000,192.000000,0.000000,0.000000,0.000000,0.000000,0.000000,0.000000,0.000000,0.000000,0.000000,1648618414.610607,0.000000
32.000000,-12757.034630,2036.825065,9494.149327,28217.244532,-3878.228829,47434.983842,3348.537189,10477.179048,0.044000,0.864000,0.466000,192.000000,0.000000,0.000000,0.000000,0.000000,0.000000,0.000000,0.000000,0.000000,0.000000,1648618414.617771,0.000000
33.000000,-12753.659517,2041.720097,9499.357283,28222.966578,-3873.065576,47442.762249,3372.140631,10494.814574,0.044000,0.864000,0.466000,192.000000,0.000000,0.000000,0.000000,0.000000,0.000000,0.000000,0.000000,0.000000,0.000000,1648618414.617775,0.000000
34.000000,-12758.666308,2036.780362,9492.137670,28214.428212,-3881.648646,47436.280243,3368.340834,10500.715435,0.044000,0.864000,0.466000,192.000000,0.000000,0.000000,0.000000,0.000000,0.000000,0.000000,0.000000,0.000000,0.000000,1648618414.625179,0.000000
35.000000,-12765.036555,2033.181731,9487.779079,28206.091011,-3890.701102,47431.944005,3368.832573,10492.199420,0.044000,0.864000,0.466000,192.000000,0.000000,0.000000,0.000000,0.000000,0.000000,0.000000,0.000000,0.000000,0.000000,1648618414.625183,0.000000
36.000000,-12765.282424,2030.834798,9486.505030,28205.711032,-3892.958628,47432.525150,3376.588628,10491.551219,0.044000,0.864000,0.466000,192.000000,0.000000,0.000000,0.000000,0.000000,0.000000,0.000000,0.000000,0.000000,0.000000,1648618414.633185,0.000000
37.000000,-12764.790686,2026.744428,9485.789774,28202.179456,-3893.718588,47424.545577,3372.453555,10487.997292,0.020000,0.850000,0.466000,192.000000,0.000000,160.000000,26.000000,144.000000,14.000000,144.000000,0.000000,0.000000,0.000000,1648618414.633190,0.000000
38.000000,-12754.844159,2038.568501,9495.825707,28214.897599,-3881.872163,47435.967319,3393.732416,10504.984618,0.020000,0.850000,0.466000,192.000000,0.000000,0.000000,0.000000,0.000000,0.000000,0.000000,0.000000,0.000000,0.000000,1648618414.641289,0.000000
39.000000,-12750.172645,2046.391612,9500.966609,28224.218276,-3876.440689,47444.773906,3402.561355,10508.247973,0.020000,0.850000,0.466000,192.000000,0.000000,0.000000,0.000000,0.000000,0.000000,0.000000,0.000000,0.000000,0.000000,1648618414.641294,0.000000
40.000000,-12746.126979,2053.857095,9507.515670,28228.018073,-3874.093756,47442.538731,3397.822785,10490.590094,0.020000,0.850000,0.466000,192.000000,0.000000,0.000000,0.000000,0.000000,0.000000,0.000000,0.000000,0.000000,0.000000,1648618414.647839,0.000000
41.000000,-12743.489473,2062.373109,9502.978266,28226.162878,-3877.558276,47434.223882,3384.635256,10475.614426,0.020000,0.850000,0.466000,192.000000,0.000000,0.000000,0.000000,0.000000,0.000000,0.000000,0.000000,0.000000,0.000000,1648618414.647844,0.000000
42.000000,-12741.276651,2064.205952,9505.258144,28226.654616,-3874.719605,47435.654394,3382.176564,10477.067289,0.020000,0.850000,0.466000,192.000000,0.000000,0.000000,0.000000,0.000000,0.000000,0.000000,0.000000,0.000000,0.000000,1648618414.655976,0.000000
43.000000,-12761.035593,2039.462571,9493.702292,28209.264959,-3888.376521,47426.534882,3373.369977,10467.590149,0.020000,0.850000,0.466000,192.000000,0.000000,0.000000,0.000000,0.000000,0.000000,0.000000,0.000000,0.000000,0.000000,1648618414.655988,0.000000
44.000000,-12762.041421,2039.663737,9489.075481,28203.967596,-3892.645704,47424.031487,3365.300997,10459.163542,0.020000,0.850000,0.466000,192.000000,0.000000,0.000000,0.000000,0.000000,0.000000,0.000000,0.000000,0.000000,0.000000,1648618414.663794,0.000000
45.000000,-12746.238738,2055.309958,9502.240658,28216.037538,-3879.458175,47433.307461,3371.715948,10466.740783,0.020000,0.850000,0.466000,192.000000,0.000000,0.000000,0.000000,0.000000,0.000000,0.000000,0.000000,0.000000,0.000000,1648618414.663799,0.000000
46.000000,-12749.233872,2052.873618,9499.446690,28207.230950,-3884.107337,47422.757438,3352.448744,10454.715545,0.020000,0.850000,0.466000,192.000000,0.000000,0.000000,0.000000,0.000000,0.000000,0.000000,0.000000,0.000000,0.000000,1648618414.670872,0.000000
47.000000,-12745.389372,2061.590798,9503.402949,28212.505962,-3880.240486,47428.926519,3350.370032,10456.056649,-0.014000,0.868000,0.466000,192.000000,255.000000,144.000000,27.000000,32.000000,14.000000,144.000000,0.000000,0.000000,0.000000,1648618414.670876,0.000000
48.000000,-12753.994793,2061.590798,9500.519574,28210.851933,-3881.067500,47437.688403,3362.439974,10461.868103,-0.014000,0.868000,0.466000,192.000000,0.000000,0.000000,0.000000,0.000000,0.000000,0.000000,0.000000,0.000000,0.000000,1648618414.677500,0.000000
49.000000,-12758.688660,2061.546095,9496.295094,28208.639110,-3882.609771,47440.169446,3368.363186,10463.946815,-0.014000,0.868000,0.466000,192.000000,0.000000,0.000000,0.000000,0.000000,0.000000,0.000000,0.000000,0.000000,0.000000,1648618414.685641,0.000000
50.000000,-12771.742078,2053.410060,9486.885010,28198.424363,-3891.215192,47431.027583,3339.082401,10448.144132,-0.014000,0.868000,0.466000,192.000000,0.000000,0.000000,0.000000,0.000000,0.000000,0.000000,0.000000,0.000000,0.000000,1648618414.685646,0.000000
51.000000,-12781.845067,2047.822124,9483.353434,28192.322337,-3895.730245,47430.647603,3332.354526,10441.416257,-0.014000,0.868000,0.466000,192.000000,0.000000,0.000000,0.000000,0.000000,0.000000,0.000000,0.000000,0.000000,0.000000,1648618414.693530,0.000000
52.000000,-12780.950997,2052.158362,9488.516687,28197.373831,-3889.404701,47443.321042,3355.510933,10472.462830,-0.014000,0.868000,0.466000,192.000000,0.000000,0.000000,0.000000,0.000000,0.000000,0.000000,0.000000,0.000000,0.000000,1648618414.693551,0.000000
53.000000,-12784.437869,2047.777420,9491.936504,28197.195017,-3883.816765,47455.502743,3381.327198,10491.305350,-0.014000,0.868000,0.466000,192.000000,0.000000,0.000000,0.000000,0.000000,0.000000,0.000000,0.000000,0.000000,0.000000,1648618414.700573,0.000000
54.000000,-12787.231837,2045.251673,9491.668283,28193.752848,-3884.599076,47447.813743,3353.521628,10460.079963,-0.014000,0.868000,0.466000,192.000000,0.000000,0.000000,0.000000,0.000000,0.000000,0.000000,0.000000,0.000000,0.000000,1648618414.700577,0.000000
55.000000,-12791.724538,2042.636519,9489.701329,28187.449656,-3889.516460,47444.349223,3344.223302,10447.831207,-0.014000,0.868000,0.466000,192.000000,0.000000,0.000000,0.000000,0.000000,0.000000,0.000000,0.000000,0.000000,0.000000,1648618414.708170,0.000000
56.000000,-12787.902390,2049.051469,9497.233867,28195.652747,-3883.749710,47453.312272,3358.014328,10480.911789,-0.014000,0.868000,0.466000,192.000000,0.000000,0.000000,0.000000,0.000000,0.000000,0.000000,0.000000,0.000000,0.000000,1648618414.708177,0.000000
57.000000,-12784.706090,2053.253597,9504.721702,28199.497247,-3878.586457,47447.120839,3353.074593,10498.614371,0.020000,0.888000,0.472000,192.000000,0.000000,160.000000,27.000000,192.000000,14.000000,192.000000,0.000000,0.000000,0.000000,1648618414.716048,0.000000
58.000000,-12793.624436,2038.434391,9495.557486,28188.746058,-3889.181183,47431.027583,3337.316613,10485.270379,0.020000,0.888000,0.472000,192.000000,0.000000,0.000000,0.000000,0.000000,0.000000,0.000000,0.000000,0.000000,0.000000,1648618414.716053,0.000000
59.000000,-12793.155049,2031.818274,9493.411719,28187.762581,-3892.668056,47425.461999,3317.289450,10466.114934,0.020000,0.888000,0.472000,192.000000,0.000000,0.000000,0.000000,0.000000,0.000000,0.000000,0.000000,0.000000,0.000000,1648618414.723031,0.000000
60.000000,-12788.327073,2033.405248,9500.698388,28194.311642,-3888.287114,47434.603862,3327.794770,10480.978844,0.020000,0.888000,0.472000,192.000000,0.000000,0.000000,0.000000,0.000000,0.000000,0.000000,0.000000,0.000000,0.000000,1648618414.723036,0.000000
61.000000,-12785.801326,2038.344984,9500.497222,28196.636223,-3891.528117,47435.788505,3333.807389,10505.901039,0.020000,0.888000,0.472000,192.000000,0.000000,0.000000,0.000000,0.000000,0.000000,0.000000,0.000000,0.000000,0.000000,1648618414.730767,0.000000
62.000000,-12782.135639,2042.994147,9497.278571,28197.463238,-3894.746768,47424.165597,3322.340944,10492.400586,0.020000,0.888000,0.472000,192.000000,0.000000,0.000000,0.000000,0.000000,0.000000,0.000000,0.000000,0.000000,0.000000,1648618414.730771,0.000000
63.000000,-12785.644863,2038.702612,9488.337873,28187.807284,-3905.609716,47413.928498,3310.494520,10471.457001,0.020000,0.888000,0.472000,192.000000,0.000000,0.000000,0.000000,0.000000,0.000000,0.000000,0.000000,0.000000,0.000000,1648618414.737830,0.000000
64.000000,-12774.871322,2048.582083,9498.999655,28198.714936,-3895.931410,47419.829359,3324.084380,10480.375347,0.020000,0.888000,0.472000,192.000000,0.000000,0.000000,0.000000,0.000000,0.000000,0.000000,0.000000,0.000000,0.000000,1648618414.745757,0.000000
65.000000,-12771.049174,2046.704536,9503.939391,28199.832523,-3891.639875,47419.762304,3322.340944,10481.492934,0.020000,0.888000,0.472000,192.000000,0.000000,0.000000,0.000000,0.000000,0.000000,0.000000,0.000000,0.000000,0.000000,1648618414.745768,0.000000
66.000000,-12768.679889,2044.201141,9498.463213,28197.060907,-3895.059692,47412.319173,3310.650982,10473.982748,0.020000,0.888000,0.472000,192.000000,0.000000,0.000000,0.000000,0.000000,0.000000,0.000000,0.000000,0.000000,0.000000,1648618414.752823,0.000000
67.000000,-12758.554549,2051.040775,9506.509841,28205.755735,-3885.895477,47415.716638,3311.276831,10469.177123,0.054000,0.862000,0.466000,192.000000,1.000000,176.000000,26.000000,240.000000,14.000000,144.000000,0.000000,0.000000,0.000000,1648618414.752827,0.000000
68.000000,-12759.090991,2049.856132,9503.849984,28205.465162,-3886.744843,47414.777865,3314.450778,10467.768963,0.054000,0.862000,0.466000,192.000000,0.000000,0.000000,0.000000,0.000000,0.000000,0.000000,0.000000,0.000000,0.000000,1648618414.760373,0.000000
69.000000,-12760.812075,2044.491714,9500.072539,28204.906369,-3889.404701,47413.213243,3313.109674,10466.383155,0.054000,0.862000,0.466000,192.000000,0.000000,0.000000,0.000000,0.000000,0.000000,0.000000,0.000000,0.000000,0.000000,1648618414.760378,0.000000
70.000000,-12756.185264,2047.106868,9503.313542,28210.494305,-3883.369730,47414.330830,3303.431368,10479.347167,0.054000,0.862000,0.466000,192.000000,0.000000,0.000000,0.000000,0.000000,0.000000,0.000000,0.000000,0.000000,0.000000,1648618414.768318,0.000000
71.000000,-12760.141523,2041.228359,9501.905382,28209.488476,-3881.939218,47413.101484,3299.855089,10483.437536,0.054000,0.862000,0.466000,192.000000,0.000000,0.000000,0.000000,0.000000,0.000000,0.000000,0.000000,0.000000,0.000000,1648618414.768322,0.000000
72.000000,-12759.314508,2038.881426,9504.252315,28210.807229,-3878.854678,47411.536862,3308.661676,10478.251931,0.054000,0.862000,0.466000,192.000000,0.000000,0.000000,0.000000,0.000000,0.000000,0.000000,0.000000,0.000000,0.000000,1648618414.776366,0.000000
73.000000,-12758.912177,2036.020402,9505.526365,28212.349500,-3877.647683,47405.323077,3307.477034,10455.184931,0.054000,0.862000,0.466000,192.000000,0.000000,0.000000,0.000000,0.000000,0.000000,0.000000,0.000000,0.000000,0.000000,1648618414.776370,0.000000
74.000000,-12762.644918,2032.689993,9500.139594,28209.779049,-3880.084023,47405.837167,3314.450778,10450.178140,0.054000,0.862000,0.466000,192.000000,0.000000,0.000000,0.000000,0.000000,0.000000,0.000000,0.000000,0.000000,0.000000,1648618414.783072,0.000000
75.000000,-12750.910252,2046.726888,9511.986019,28223.279503,-3866.874143,47419.896414,3327.817121,10469.802972,0.054000,0.862000,0.466000,192.000000,0.000000,0.000000,0.000000,0.000000,0.000000,0.000000,0.000000,0.000000,0.000000,1648618414.783076,0.000000
76.000000,-12748.563319,2045.206969,9509.326161,28224.888828,-3866.382404,47418.734124,3330.700497,10475.614426,0.054000,0.862000,0.466000,192.000000,0.000000,0.000000,0.000000,0.000000,0.000000,0.000000,0.000000,0.000000,0.000000,1648618414.791046,0.000000
77.000000,-12739.622621,2053.946501,9517.819824,28233.650712,-3854.826552,47432.167522,3334.455590,10514.104130,0.072000,0.864000,0.476000,192.000000,2.000000,64.000000,27.000000,0.000000,14.000000,224.000000,0.000000,0.000000,0.000000,1648618414.791050,0.000000
78.000000,-12735.465197,2059.668548,9519.272687,28235.818831,-3852.546674,47427.741877,3326.744238,10489.807783,0.072000,0.864000,0.476000,192.000000,0.000000,0.000000,0.000000,0.000000,0.000000,0.000000,0.000000,0.000000,0.000000,1648618414.797956,0.000000
79.000000,-12732.492415,2061.188467,9520.814958,28237.741081,-3851.563198,47429.038278,3329.627613,10493.674635,0.072000,0.864000,0.476000,192.000000,0.000000,0.000000,0.000000,0.000000,0.000000,0.000000,0.000000,0.000000,0.000000,1648618414.806064,0.000000
80.000000,-12738.057999,2051.532513,9517.283382,28231.951980,-3857.307596,47435.699098,3372.364148,10523.335400,0.072000,0.864000,0.476000,192.000000,0.000000,0.000000,0.000000,0.000000,0.000000,0.000000,0.000000,0.000000,0.000000,1648618414.806070,0.000000
81.000000,-12735.845177,2051.264292,9515.450539,28234.254209,-3858.626349,47429.082981,3353.946311,10519.714417,0.072000,0.864000,0.476000,192.000000,0.000000,0.000000,0.000000,0.000000,0.000000,0.000000,0.000000,0.000000,0.000000,1648618414.812825,0.000000
82.000000,-12745.389372,2040.557807,9499.290228,28221.469011,-3872.260913,47399.757493,3286.756967,10476.284978,0.072000,0.864000,0.476000,192.000000,0.000000,0.000000,0.000000,0.000000,0.000000,0.000000,0.000000,0.000000,0.000000,1648618414.812830,0.000000
83.000000,-12747.915119,2032.846455,9498.262048,28216.417517,-3874.540791,47407.848824,3322.385648,10497.675597,0.072000,0.864000,0.476000,192.000000,0.000000,0.000000,0.000000,0.000000,0.000000,0.000000,0.000000,0.000000,0.000000,1648618414.820785,0.000000
84.000000,-12759.515674,2013.646306,9485.208629,28197.418534,-3890.052902,47397.835242,3337.316613,10480.867086,0.072000,0.864000,0.476000,192.000000,0.000000,0.000000,0.000000,0.000000,0.000000,0.000000,0.000000,0.000000,0.000000,1648618414.820790,0.000000
85.000000,-12768.948110,2002.425731,9472.423431,28187.337898,-3904.402721,47379.305646,3305.867708,10459.722335,0.072000,0.864000,0.476000,192.000000,0.000000,0.000000,0.000000,0.000000,0.000000,0.000000,0.000000,0.000000,0.000000,1648618414.828626,0.000000
86.000000,-12755.872340,2014.942707,9481.766460,28198.647880,-3895.596134,47385.430024,3316.373028,10476.441440,0.072000,0.864000,0.476000,192.000000,0.000000,0.000000,0.000000,0.000000,0.000000,0.000000,0.000000,0.000000,0.000000,1648618414.828635,0.000000
87.000000,-12758.532197,2018.742504,9482.079385,28200.771296,-3895.752596,47383.418367,3318.764665,10477.223751,0.072000,0.864000,0.476000,192.000000,0.000000,0.000000,0.000000,0.000000,0.000000,0.000000,0.000000,0.000000,0.000000,1648618414.835816,0.000000
88.000000,-12758.487494,2026.140931,9491.489469,28206.135715,-3890.142308,47394.370722,3329.426447,10482.945798,0.086000,0.828000,0.458000,192.000000,2.000000,176.000000,25.000000,224.000000,14.000000,80.000000,0.000000,0.000000,0.000000,1648618414.835820,0.000000
89.000000,-12752.810151,2030.343059,9495.557486,28209.041442,-3890.634047,47393.878984,3325.157264,10478.073118,0.086000,0.828000,0.458000,192.000000,0.000000,0.000000,0.000000,0.000000,0.000000,0.000000,0.000000,0.000000,0.000000,1648618414.843419,0.000000
90.000000,-12748.317450,2035.349850,9497.546792,28216.104593,-3885.917829,47397.008228,3327.325383,10478.587208,0.086000,0.828000,0.458000,192.000000,0.000000,0.000000,0.000000,0.000000,0.000000,0.000000,0.000000,0.000000,0.000000,1648618414.843424,0.000000
91.000000,-12748.339802,2032.377068,9495.602190,28216.462221,-3886.990713,47396.963524,3324.106732,10476.530847,0.086000,0.828000,0.458000,192.000000,0.000000,0.000000,0.000000,0.000000,0.000000,0.000000,0.000000,0.000000,0.000000,1648618414.851763,0.000000
92.000000,-12753.056020,2030.276004,9488.270818,28210.159029,-3891.639875,47391.487347,3314.897813,10470.048841,0.086000,0.828000,0.458000,192.000000,0.000000,0.000000,0.000000,0.000000,0.000000,0.000000,0.000000,0.000000,0.000000,1648618414.851778,0.000000
93.000000,-12756.229968,2029.694859,9482.369957,28204.593444,-3894.858527,47387.396978,3303.096092,10464.326795,0.086000,0.828000,0.458000,192.000000,0.000000,0.000000,0.000000,0.000000,0.000000,0.000000,0.000000,0.000000,0.000000,1648618414.858388,0.000000
94.000000,-12757.526369,2027.437333,9479.799507,28203.677023,-3896.221983,47386.391149,3302.358485,10459.923501,0.086000,0.828000,0.458000,192.000000,0.000000,0.000000,0.000000,0.000000,0.000000,0.000000,0.000000,0.000000,0.000000,1648618414.865985,0.000000
95.000000,-12747.065752,2034.969870,9488.516687,28212.952997,-3886.051939,47394.661295,3316.864767,10468.327757,0.086000,0.828000,0.458000,192.000000,0.000000,0.000000,0.000000,0.000000,0.000000,0.000000,0.000000,0.000000,0.000000,1648618414.866002,0.000000
96.000000,-12746.819883,2033.740524,9490.975379,28216.104593,-3879.569933,47400.875080,3328.130046,10478.676615,0.086000,0.828000,0.458000,192.000000,0.000000,0.000000,0.000000,0.000000,0.000000,0.000000,0.000000,0.000000,0.000000,1648618414.873176,0.000000
97.000000,-12749.747962,2035.640423,9492.003559,28218.473878,-3875.256047,47401.098597,3328.644136,10482.454059,0.086000,0.828000,0.458000,192.000000,0.000000,0.000000,0.000000,0.000000,0.000000,0.000000,0.000000,0.000000,0.000000,1648618414.873189,0.000000
98.000000,-12752.631337,2032.891158,9491.712986,28219.882038,-3874.160811,47402.864385,3330.320517,10482.901094,0.072000,0.862000,0.474000,192.000000,2.000000,64.000000,26.000000,240.000000,14.000000,208.000000,0.000000,0.000000,0.000000,1648618414.881203,0.000000
99.000000,-12756.431133,2027.482036,9487.577914,28219.747927,-3877.200648,47404.607821,3329.739372,10503.040016,0.072000,0.862000,0.474000,192.000000,0.000000,0.000000,0.000000,0.000000,0.000000,0.000000,0.000000,0.000000,0.000000,1648618414.881217,0.000000
100.000000,-12748.116284,2034.746353,9493.635236,28230.454413,-3868.639930,47411.201586,3330.320517,10504.895211,0.072000,0.862000,0.474000,192.000000,0.000000,0.000000,0.000000,0.000000,0.000000,0.000000,0.000000,0.000000,0.000000,1648618414.889395,0.000000
101.000000,-12748.406857,2030.454818,9491.288303,28229.448584,-3870.919808,47406.597126,3317.468264,10495.485126,0.072000,0.862000,0.474000,192.000000,0.000000,0.000000,0.000000,0.000000,0.000000,0.000000,0.000000,0.000000,0.000000,1648618414.889411,0.000000
102.000000,-12756.475837,2017.379048,9487.533210,28224.508849,-3875.591323,47402.484405,3310.606278,10490.277170,0.072000,0.862000,0.474000,192.000000,0.000000,0.000000,0.000000,0.000000,0.000000,0.000000,0.000000,0.000000,0.000000,1648618414.895790,0.000000
103.000000,-12757.436962,2015.032114,9486.549733,28224.352387,-3875.099584,47408.005286,3302.604354,10485.426841,0.072000,0.862000,0.474000,192.000000,0.000000,0.000000,0.000000,0.000000,0.000000,0.000000,0.000000,0.000000,0.000000,1648618414.895802,0.000000
104.000000,-12742.662459,2027.280870,9502.128899,28234.567134,-3861.800297,47427.540711,3335.662584,10506.750406,0.072000,0.862000,0.474000,192.000000,0.000000,0.000000,0.000000,0.000000,0.000000,0.000000,0.000000,0.000000,0.000000,1648618414.903698,0.000000
105.000000,-12741.433113,2028.286699,9505.258144,28237.562267,-3857.151134,47441.935234,3364.921017,10525.324705,0.072000,0.862000,0.474000,192.000000,0.000000,0.000000,0.000000,0.000000,0.000000,0.000000,0.000000,0.000000,0.000000,1648618414.903709,0.000000
106.000000,-12745.322316,2024.218681,9496.339798,28229.448584,-3866.650625,47424.478522,3337.048392,10501.922429,0.072000,0.862000,0.474000,192.000000,0.000000,0.000000,0.000000,0.000000,0.000000,0.000000,0.000000,0.000000,0.000000,1648618414.911650,0.000000
107.000000,-12748.205691,2023.659888,9492.137670,28228.845087,-3870.249256,47416.007211,3326.721886,10489.584266,0.072000,0.862000,0.474000,192.000000,0.000000,0.000000,0.000000,0.000000,0.000000,0.000000,0.000000,0.000000,0.000000,1648618414.911671,0.000000
108.000000,-12759.269805,2013.623954,9479.397175,28215.746965,-3882.967399,47403.065551,3316.909470,10484.398661,0.048000,0.872000,0.480000,192.000000,1.000000,128.000000,27.000000,64.000000,15.000000,0.000000,0.000000,0.000000,0.000000,1648618414.918225,0.000000
109.000000,-12763.963671,2007.186652,9471.618768,28208.214427,-3891.863393,47389.810966,3299.922144,10470.026489,0.048000,0.872000,0.480000,192.000000,0.000000,0.000000,0.000000,0.000000,0.000000,0.000000,0.000000,0.000000,0.000000,1648618414.918242,0.000000
110.000000,-12756.386430,2017.088475,9477.541980,28214.987006,-3883.637951,47394.773053,3303.297258,10472.105202,0.048000,0.872000,0.480000,192.000000,0.000000,0.000000,0.000000,0.000000,0.000000,0.000000,0.000000,0.000000,0.000000,1648618414.925900,0.000000
111.000000,-12748.183340,2025.470379,9484.426318,28222.430136,-3875.323102,47403.803158,3335.237901,10482.543466,0.048000,0.872000,0.480000,192.000000,0.000000,0.000000,0.000000,0.000000,0.000000,0.000000,0.000000,0.000000,0.000000,1648618414.933702,0.000000
112.000000,-12743.489473,2028.979603,9490.215420,28226.632264,-3870.986863,47405.256022,3331.058124,10488.310216,0.048000,0.872000,0.480000,192.000000,0.000000,0.000000,0.000000,0.000000,0.000000,0.000000,0.000000,0.000000,0.000000,1648618414.933719,0.000000
113.000000,-12742.729514,2031.237129,9491.176545,28226.609913,-3870.003387,47402.193833,3317.647078,10481.895266,0.048000,0.872000,0.480000,192.000000,0.000000,0.000000,0.000000,0.000000,0.000000,0.000000,0.000000,0.000000,0.000000,1648618414.941375,0.000000
114.000000,-12751.133770,2024.933937,9482.012329,28218.719747,-3880.799279,47386.167632,3296.815252,10456.347222,0.048000,0.872000,0.480000,192.000000,0.000000,0.000000,0.000000,0.000000,0.000000,0.000000,0.000000,0.000000,0.000000,1648618414.941387,0.000000
115.000000,-12747.065752,2033.092324,9486.706196,28224.799421,-3875.300750,47389.274524,3303.856051,10463.075097,0.048000,0.872000,0.480000,192.000000,0.000000,0.000000,0.000000,0.000000,0.000000,0.000000,0.000000,0.000000,0.000000,1648618414.948061,0.000000
116.000000,-12746.328145,2038.389687,9487.153231,28225.827602,-3873.780832,47390.906202,3299.206889,10469.132420,0.048000,0.872000,0.480000,192.000000,0.000000,0.000000,0.000000,0.000000,0.000000,0.000000,0.000000,0.000000,0.000000,1648618414.948074,0.000000
117.000000,-12737.655668,2046.682185,9496.652722,28232.175497,-3864.348395,47404.429007,3317.289450,10485.985635,0.048000,0.872000,0.480000,192.000000,0.000000,0.000000,0.000000,0.000000,0.000000,0.000000,0.000000,0.000000,0.000000,1648618414.956234,0.000000
118.000000,-12733.788816,2050.437278,9501.614809,28234.500078,-3859.945102,47412.922670,3329.806427,10484.108089,0.046000,0.862000,0.470000,192.000000,1.000000,112.000000,26.000000,240.000000,14.000000,176.000000,0.000000,0.000000,0.000000,1648618414.956246,0.000000
119.000000,-12734.660534,2050.772554,9504.028798,28233.248381,-3860.012157,47419.739952,3329.337040,10489.830135,0.046000,0.862000,0.470000,192.000000,0.000000,0.000000,0.000000,0.000000,0.000000,0.000000,0.000000,0.000000,0.000000,1648618414.964035,0.000000
120.000000,-12749.792665,2037.428562,9489.030777,28218.831506,-3873.914942,47410.419275,3310.539223,10486.611484,0.046000,0.862000,0.470000,192.000000,0.000000,0.000000,0.000000,0.000000,0.000000,0.000000,0.000000,0.000000,0.000000,1648618414.964048,0.000000
121.000000,-12749.926776,2036.780362,9489.321350,28219.166782,-3874.719605,47409.078170,3301.330304,10475.122687,0.046000,0.862000,0.470000,192.000000,0.000000,0.000000,0.000000,0.000000,0.000000,0.000000,0.000000,0.000000,0.000000,1648618414.970985,0.000000
122.000000,-12755.492360,2032.354716,9487.175582,28214.852895,-3876.932428,47406.753589,3302.425540,10469.557103,0.046000,0.862000,0.470000,192.000000,0.000000,0.000000,0.000000,0.000000,0.000000,0.000000,0.000000,0.000000,0.000000,1648618414.970996,0.000000
123.000000,-12759.426267,2031.326536,9482.638178,28209.779049,-3881.045148,47398.371684,3299.117482,10463.030393,0.046000,0.862000,0.470000,192.000000,0.000000,0.000000,0.000000,0.000000,0.000000,0.000000,0.000000,0.000000,0.000000,1648618414.978569,0.000000
124.000000,-12749.345630,2041.518932,9491.377710,28221.804288,-3869.958683,47413.704981,3305.040694,10486.946760,0.046000,0.862000,0.470000,192.000000,0.000000,0.000000,0.000000,0.000000,0.000000,0.000000,0.000000,0.000000,0.000000,1648618414.978579,0.000000
125.000000,-12752.653689,2036.355679,9492.942332,28217.758622,-3869.936332,47418.108275,3305.577136,10497.519135,0.046000,0.862000,0.470000,192.000000,0.000000,0.000000,0.000000,0.000000,0.000000,0.000000,0.000000,0.000000,0.000000,1648618414.985737,0.000000
126.000000,-12743.668287,2041.585987,9502.888859,28224.441793,-3862.672015,47427.920691,3334.388534,10511.958362,0.046000,0.862000,0.470000,192.000000,0.000000,0.000000,0.000000,0.000000,0.000000,0.000000,0.000000,0.000000,0.000000,1648618414.993656,0.000000
127.000000,-12730.033723,2057.567484,9513.014199,28235.394148,-3852.367860,47431.899301,3325.090209,10507.286848,0.046000,0.862000,0.470000,192.000000,0.000000,0.000000,0.000000,0.000000,0.000000,0.000000,0.000000,0.000000,0.000000,1648618414.993667,0.000000
128.000000,-12726.926831,2063.311882,9512.030722,28238.098709,-3850.535017,47429.552368,3308.371104,10495.887458,0.060000,0.858000,0.460000,192.000000,1.000000,224.000000,26.000000,208.000000,14.000000,96.000000,0.000000,0.000000,0.000000,1648618415.001058,0.000000
129.000000,-12723.775235,2067.111679,9516.903402,28243.798404,-3845.103543,47429.306499,3300.793862,10496.289789,0.060000,0.858000,0.460000,192.000000,0.000000,0.000000,0.000000,0.000000,0.000000,0.000000,0.000000,0.000000,0.000000,1648618415.001095,0.000000
130.000000,-12717.650857,2073.906609,9519.943240,28248.089939,-3843.985956,47426.870159,3310.539223,10499.128461,0.060000,0.858000,0.460000,192.000000,0.000000,0.000000,0.000000,0.000000,0.000000,0.000000,0.000000,0.000000,0.000000,1648618415.008102,0.000000
131.000000,-12731.754807,2059.355624,9505.727530,28234.187154,-3858.156962,47408.608783,3282.666598,10470.674690,0.060000,0.858000,0.460000,192.000000,0.000000,0.000000,0.000000,0.000000,0.000000,0.000000,0.000000,0.000000,0.000000,1648618415.008109,0.000000
132.000000,-12736.381619,2054.281778,9496.742129,28227.414576,-3865.600093,47397.678780,3264.651092,10455.654318,0.060000,0.858000,0.460000,192.000000,0.000000,0.000000,0.000000,0.000000,0.000000,0.000000,0.000000,0.000000,0.000000,1648618415.016589,0.000000
133.000000,-12745.702296,2044.916397,9493.076443,28223.681834,-3868.796393,47400.428045,3282.130156,10471.613463,0.060000,0.858000,0.460000,192.000000,0.000000,0.000000,0.000000,0.000000,0.000000,0.000000,0.000000,0.000000,0.000000,1648618415.016605,0.000000
134.000000,-12755.514712,2032.913510,9489.097832,28218.496229,-3873.937294,47398.774016,3290.020322,10478.475449,0.060000,0.858000,0.460000,192.000000,0.000000,0.000000,0.000000,0.000000,0.000000,0.000000,0.000000,0.000000,0.000000,1648618415.024391,0.000000
135.000000,-12746.641069,2040.244882,9497.166812,28228.979198,-3865.600093,47402.953792,3291.428482,10470.182952,0.060000,0.858000,0.460000,192.000000,0.000000,0.000000,0.000000,0.000000,0.000000,0.000000,0.000000,0.000000,0.000000,1648618415.024403,0.000000
136.000000,-12746.126979,2038.300280,9499.178469,28230.543820,-3864.683672,47407.021809,3292.479014,10465.019699,0.060000,0.858000,0.460000,192.000000,0.000000,0.000000,0.000000,0.000000,0.000000,0.000000,0.000000,0.000000,0.000000,1648618415.030889,0.000000
137.000000,-12747.445732,2036.065106,9495.848059,28225.358215,-3867.388233,47406.574775,3287.449871,10464.706774,0.060000,0.858000,0.460000,192.000000,0.000000,0.000000,0.000000,0.000000,0.000000,0.000000,0.000000,0.000000,0.000000,1648618415.030902,0.000000
138.000000,-12741.701334,2038.724964,9499.469042,28230.946151,-3862.694366,47411.536862,3299.944496,10473.312196,0.068000,0.872000,0.456000,192.000000,2.000000,32.000000,27.000000,64.000000,14.000000,64.000000,0.000000,0.000000,0.000000,1648618415.038935,0.000000
139.000000,-12744.070619,2037.115638,9495.848059,28227.325169,-3864.996596,47415.180196,3310.472168,10495.932161,0.068000,0.872000,0.456000,192.000000,0.000000,0.000000,0.000000,0.000000,0.000000,0.000000,0.000000,0.000000,0.000000,1648618415.038946,0.000000
140.000000,-12749.032706,2033.695821,9490.170716,28220.194962,-3871.612712,47415.448417,3312.662639,10500.424862,0.068000,0.872000,0.456000,192.000000,0.000000,0.000000,0.000000,0.000000,0.000000,0.000000,0.000000,0.000000,0.000000,1648618415.046085,0.000000
141.000000,-12746.909290,2031.684164,9493.210553,28220.194962,-3870.830401,47420.701077,3316.417732,10498.346150,0.068000,0.872000,0.456000,192.000000,0.000000,0.000000,0.000000,0.000000,0.000000,0.000000,0.000000,0.000000,0.000000,1648618415.053986,0.000000
142.000000,-12752.184302,2024.509254,9487.868486,28212.550665,-3877.066538,47409.122873,3300.302124,10480.487106,0.068000,0.872000,0.456000,192.000000,0.000000,0.000000,0.000000,0.000000,0.000000,0.000000,0.000000,0.000000,0.000000,1648618415.053998,0.000000
143.000000,-12748.160988,2027.325574,9492.763518,28216.931607,-3870.785698,47412.274469,3317.624726,10485.225676,0.068000,0.872000,0.456000,192.000000,0.000000,0.000000,0.000000,0.000000,0.000000,0.000000,0.000000,0.000000,0.000000,1648618415.060461,0.000000
144.000000,-12744.562357,2031.482998,9494.261085,28218.540933,-3870.562180,47410.083998,3310.829796,10482.163487,0.068000,0.872000,0.456000,192.000000,0.000000,0.000000,0.000000,0.000000,0.000000,0.000000,0.000000,0.000000,0.000000,1648618415.060472,0.000000
145.000000,-12728.066770,2046.704536,9507.403911,28234.209506,-3858.626349,47428.479484,3320.552805,10500.648379,0.068000,0.872000,0.456000,192.000000,0.000000,0.000000,0.000000,0.000000,0.000000,0.000000,0.000000,0.000000,0.000000,1648618415.068601,0.000000
146.000000,-12735.867528,2036.445086,9495.803356,28221.781936,-3871.165677,47411.425103,3304.057217,10480.285940,0.068000,0.872000,0.456000,192.000000,0.000000,0.000000,0.000000,0.000000,0.000000,0.000000,0.000000,0.000000,0.000000,1648618415.068618,0.000000
147.000000,-12738.393276,2037.383859,9492.942332,28223.458317,-3869.176372,47412.229766,3314.182557,10498.368501,0.068000,0.872000,0.456000,192.000000,0.000000,0.000000,0.000000,0.000000,0.000000,0.000000,0.000000,0.000000,0.000000,1648618415.076550,0.000000
148.000000,-12741.924851,2034.545187,9497.300923,28231.236724,-3860.794468,47423.226824,3322.028020,10515.869917,0.068000,0.874000,0.448000,192.000000,2.000000,32.000000,27.000000,80.000000,14.000000,0.000000,0.000000,0.000000,0.000000,1648618415.076559,0.000000
149.000000,-12733.520595,2042.278891,9510.711969,28241.786747,-3848.769230,47428.680650,3320.865729,10516.629877,0.068000,0.874000,0.448000,192.000000,0.000000,0.000000,0.000000,0.000000,0.000000,0.000000,0.000000,0.000000,0.000000,1648618415.083200,0.000000
150.000000,-12736.985116,2038.099115,9504.028798,28237.718730,-3854.580683,47414.599051,3300.547993,10491.327702,0.068000,0.874000,0.448000,192.000000,0.000000,0.000000,0.000000,0.000000,0.000000,0.000000,0.000000,0.000000,0.000000,1648618415.083227,0.000000
151.000000,-12741.075485,2033.293490,9498.574972,28230.454413,-3860.839172,47406.753589,3288.545106,10487.662016,0.068000,0.874000,0.448000,192.000000,0.000000,0.000000,0.000000,0.000000,0.000000,0.000000,0.000000,0.000000,0.000000,1648618415.091176,0.000000
152.000000,-12728.200880,2045.654004,9508.320333,28236.578791,-3853.731317,47413.682629,3310.718037,10491.081833,0.068000,0.874000,0.448000,192.000000,0.000000,0.000000,0.000000,0.000000,0.000000,0.000000,0.000000,0.000000,0.000000,1648618415.091187,0.000000
153.000000,-12708.240772,2061.501391,9527.609888,28254.884869,-3835.022907,47438.470714,3338.233034,10529.549185,0.068000,0.874000,0.448000,192.000000,0.000000,0.000000,0.000000,0.000000,0.000000,0.000000,0.000000,0.000000,0.000000,1648618415.099425,0.000000
154.000000,-12727.552679,2041.474228,9510.756673,28236.444680,-3851.071459,47425.506702,3322.922089,10517.859223,0.068000,0.874000,0.448000,192.000000,0.000000,0.000000,0.000000,0.000000,0.000000,0.000000,0.000000,0.000000,0.000000,1648618415.099442,0.000000
155.000000,-12738.281517,2024.844530,9500.743091,28223.637131,-3860.168619,47414.084961,3313.444950,10498.390853,0.068000,0.874000,0.448000,192.000000,0.000000,0.000000,0.000000,0.000000,0.000000,0.000000,0.000000,0.000000,0.000000,1648618415.106596,0.000000
156.000000,-12736.158101,2028.286699,9498.731434,28222.564247,-3860.079212,47409.838129,3305.018342,10489.181934,0.068000,0.874000,0.448000,192.000000,0.000000,0.000000,0.000000,0.000000,0.000000,0.000000,0.000000,0.000000,0.000000,1648618415.112770,0.000000
157.000000,-12734.146444,2033.248786,9503.805280,28228.018073,-3854.558331,47418.197682,3304.995990,10498.882592,0.068000,0.874000,0.448000,192.000000,0.000000,0.000000,0.000000,0.000000,0.000000,0.000000,0.000000,0.000000,0.000000,1648618415.112777,0.000000
158.000000,-12731.151310,2032.131199,9508.230926,28230.476764,-3852.747840,47417.214205,3301.442063,10482.632873,0.070000,0.880000,0.448000,192.000000,2.000000,48.000000,27.000000,128.000000,14.000000,0.000000,0.000000,0.000000,0.000000,1648618415.120909,0.000000
159.000000,-12734.995810,2027.236167,9504.475833,28225.559381,-3858.380480,47412.743856,3293.551897,10487.237333,0.070000,0.880000,0.448000,192.000000,0.000000,0.000000,0.000000,0.000000,0.000000,0.000000,0.000000,0.000000,0.000000,1648618415.120920,0.000000
160.000000,-12731.419531,2035.573368,9509.348513,28233.516602,-3851.652605,47419.404676,3291.137909,10495.418071,0.070000,0.880000,0.448000,192.000000,0.000000,0.000000,0.000000,0.000000,0.000000,0.000000,0.000000,0.000000,0.000000,1648618415.128953,0.000000
161.000000,-12728.022066,2040.289586,9509.750844,28237.070529,-3849.730355,47419.158807,3277.615103,10479.905961,0.070000,0.880000,0.448000,192.000000,0.000000,0.000000,0.000000,0.000000,0.000000,0.000000,0.000000,0.000000,0.000000,1648618415.128966,0.000000
162.000000,-12726.837424,2043.307071,9512.030722,28238.769262,-3847.606939,47429.418257,3308.840490,10508.873821,0.070000,0.880000,0.448000,192.000000,0.000000,0.000000,0.000000,0.000000,0.000000,0.000000,0.000000,0.000000,0.000000,1648618415.136086,0.000000
163.000000,-12725.831595,2044.603472,9511.740149,28242.010265,-3844.924729,47431.698135,3322.855034,10508.516193,0.070000,0.880000,0.448000,192.000000,0.000000,0.000000,0.000000,0.000000,0.000000,0.000000,0.000000,0.000000,0.000000,1648618415.136104,0.000000
164.000000,-12718.790796,2055.086440,9517.171623,28249.319285,-3840.096753,47428.926519,3309.846319,10487.684368,0.070000,0.880000,0.448000,192.000000,0.000000,0.000000,0.000000,0.000000,0.000000,0.000000,0.000000,0.000000,0.000000,1648618415.143479,0.000000
165.000000,-12722.411778,2055.913455,9513.483586,28247.173518,-3842.778962,47420.991650,3284.007702,10472.842809,0.070000,0.880000,0.448000,192.000000,0.000000,0.000000,0.000000,0.000000,0.000000,0.000000,0.000000,0.000000,0.000000,1648618415.143488,0.000000
166.000000,-12720.377770,2060.562618,9517.193975,28252.962619,-3839.068572,47428.524188,3312.483825,10494.747519,0.070000,0.880000,0.448000,192.000000,0.000000,0.000000,0.000000,0.000000,0.000000,0.000000,0.000000,0.000000,0.000000,1648618415.151720,0.000000
167.000000,-12716.600325,2067.223438,9526.760522,28261.813910,-3828.943232,47436.704926,3324.084380,10514.349999,0.070000,0.880000,0.448000,192.000000,0.000000,0.000000,0.000000,0.000000,0.000000,0.000000,0.000000,0.000000,0.000000,1648618415.151737,0.000000
168.000000,-12717.539098,2064.071842,9530.672077,28261.478634,-3829.725543,47434.380345,3315.523662,10507.823289,0.058000,0.888000,0.438000,192.000000,1.000000,208.000000,27.000000,192.000000,13.000000,176.000000,0.000000,0.000000,0.000000,1648618415.159464,0.000000
169.000000,-12713.851060,2065.815278,9533.980135,28262.171538,-3830.820779,47435.944967,3322.877386,10500.268400,0.058000,0.888000,0.438000,192.000000,0.000000,0.000000,0.000000,0.000000,0.000000,0.000000,0.000000,0.000000,0.000000,1648618415.159475,0.000000
170.000000,-12722.411778,2056.159324,9526.760522,28254.124910,-3838.330965,47425.998441,3312.148549,10480.531809,0.058000,0.888000,0.438000,192.000000,0.000000,0.000000,0.000000,0.000000,0.000000,0.000000,0.000000,0.000000,0.000000,1648618415.165599,0.000000
171.000000,-12727.597383,2051.867789,9523.050132,28249.162823,-3843.136590,47418.532958,3308.169938,10473.602769,0.058000,0.888000,0.438000,192.000000,0.000000,0.000000,0.000000,0.000000,0.000000,0.000000,0.000000,0.000000,0.000000,1648618415.165624,0.000000
172.000000,-12725.831595,2054.415888,9530.046228,28254.303724,-3837.213378,47423.942080,3319.278755,10490.724205,0.058000,0.888000,0.438000,192.000000,0.000000,0.000000,0.000000,0.000000,0.000000,0.000000,0.000000,0.000000,0.000000,1648618415.173348,0.000000
173.000000,-12723.819938,2055.533475,9532.594327,28255.488367,-3835.201721,47429.485313,3326.833645,10508.337379,0.058000,0.888000,0.438000,192.000000,0.000000,0.000000,0.000000,0.000000,0.000000,0.000000,0.000000,0.000000,0.000000,1648618415.181230,0.000000
174.000000,-12725.093988,2056.136972,9528.123978,28250.369817,-3839.828532,47422.980955,3318.630555,10499.486089,0.058000,0.888000,0.438000,192.000000,0.000000,0.000000,0.000000,0.000000,0.000000,0.000000,0.000000,0.000000,0.000000,1648618415.181245,0.000000
175.000000,-12733.028857,2053.231246,9521.910193,28244.200736,-3846.914035,47416.141321,3313.780226,10491.484164,0.058000,0.888000,0.438000,192.000000,0.000000,0.000000,0.000000,0.000000,0.000000,0.000000,0.000000,0.000000,0.000000,1648618415.189348,0.000000
176.000000,-12725.563374,2062.194295,9527.498129,28252.582640,-3839.582663,47421.639850,3315.456607,10494.591057,0.058000,0.888000,0.438000,192.000000,0.000000,0.000000,0.000000,0.000000,0.000000,0.000000,0.000000,0.000000,0.000000,1648618415.189360,0.000000
177.000000,-12728.580860,2060.719080,9525.665286,28252.113253,-3839.470904,47419.963470,3316.753008,10492.713510,0.058000,0.888000,0.438000,192.000000,0.000000,0.000000,0.000000,0.000000,0.000000,0.000000,0.000000,0.000000,0.000000,1648618415.195728,0.000000
178.000000,-12725.384560,2062.060185,9528.973344,28254.683704,-3837.883930,47420.902243,3327.548901,10498.726129,0.052000,0.884000,0.440000,192.000000,1.000000,160.000000,27.000000,160.000000,13.000000,192.000000,0.000000,0.000000,0.000000,1648618415.195739,0.000000
179.000000,-12727.731493,2058.618016,9527.118150,28253.454358,-3839.381497,47426.870159,3329.158226,10497.519135,0.052000,0.884000,0.440000,192.000000,0.000000,0.000000,0.000000,0.000000,0.000000,0.000000,0.000000,0.000000,0.000000,1648618415.203765,0.000000
180.000000,-12735.509901,2050.772554,9520.814958,28244.647770,-3847.204607,47418.756475,3318.742313,10485.605655,0.052000,0.884000,0.440000,192.000000,0.000000,0.000000,0.000000,0.000000,0.000000,0.000000,0.000000,0.000000,0.000000,1648618415.203777,0.000000
181.000000,-12725.451616,2060.093231,9529.733304,28251.420349,-3839.672070,47419.471731,3321.871557,10484.108089,0.052000,0.884000,0.440000,192.000000,0.000000,0.000000,0.000000,0.000000,0.000000,0.000000,0.000000,0.000000,0.000000,1648618415.211776,0.000000
182.000000,-12731.307773,2056.427545,9528.883937,28247.084111,-3838.956814,47414.956679,3312.729694,10472.932216,0.052000,0.884000,0.440000,192.000000,0.000000,0.000000,0.000000,0.000000,0.000000,0.000000,0.000000,0.000000,0.000000,1648618415.211787,0.000000
183.000000,-12730.659572,2059.087403,9531.275574,28249.565154,-3835.000555,47416.878929,3315.501310,10478.631911,0.052000,0.884000,0.440000,192.000000,0.000000,0.000000,0.000000,0.000000,0.000000,0.000000,0.000000,0.000000,0.000000,1648618415.218908,0.000000
184.000000,-12724.646953,2065.547057,9535.053019,28255.264849,-3830.954889,47426.289013,3334.299127,10493.629932,0.052000,0.884000,0.440000,192.000000,0.000000,0.000000,0.000000,0.000000,0.000000,0.000000,0.000000,0.000000,0.000000,1648618415.218916,0.000000
185.000000,-12729.676095,2058.841534,9528.906289,28248.425215,-3837.772171,47425.059667,3340.624671,10484.823344,0.052000,0.884000,0.440000,192.000000,0.000000,0.000000,0.000000,0.000000,0.000000,0.000000,0.000000,0.000000,0.000000,1648618415.226376,0.000000
186.000000,-12729.340819,2057.500429,9523.452464,28241.853802,-3845.371764,47414.040257,3323.659697,10461.823399,0.052000,0.884000,0.440000,192.000000,0.000000,0.000000,0.000000,0.000000,0.000000,0.000000,0.000000,0.000000,0.000000,1648618415.226386,0.000000
187.000000,-12731.419531,2051.510161,9520.367923,28238.255172,-3849.171561,47412.274469,3327.794770,10482.431708,0.052000,0.884000,0.440000,192.000000,0.000000,0.000000,0.000000,0.000000,0.000000,0.000000,0.000000,0.000000,0.000000,1648618415.233743,0.000000
188.000000,-12738.549738,2044.759935,9512.097777,28232.443718,-3856.927616,47401.277411,3321.782150,10481.984673,0.058000,0.882000,0.446000,192.000000,1.000000,208.000000,27.000000,144.000000,13.000000,240.000000,0.000000,0.000000,0.000000,1648618415.241502,0.000000
189.000000,-12737.275688,2050.459629,9511.203708,28233.360140,-3859.542770,47398.706961,3319.234052,10471.926388,0.058000,0.882000,0.446000,192.000000,0.000000,0.000000,0.000000,0.000000,0.000000,0.000000,0.000000,0.000000,0.000000,1648618415.241514,0.000000
190.000000,-12742.573052,2039.261405,9514.154138,28235.103576,-3857.441706,47406.015981,3319.748142,10478.184876,0.058000,0.882000,0.446000,192.000000,0.000000,0.000000,0.000000,0.000000,0.000000,0.000000,0.000000,0.000000,0.000000,1648618415.248097,0.000000
191.000000,-12745.054095,2028.711382,9512.813033,28233.203677,-3858.939273,47402.976144,3312.796749,10465.220864,0.058000,0.882000,0.446000,192.000000,0.000000,0.000000,0.000000,0.000000,0.000000,0.000000,0.000000,0.000000,0.000000,1648618415.248109,0.000000
192.000000,-12736.225156,2035.640423,9515.964629,28234.231858,-3857.128782,47396.538841,3303.565479,10454.022640,0.058000,0.882000,0.446000,192.000000,0.000000,0.000000,0.000000,0.000000,0.000000,0.000000,0.000000,0.000000,0.000000,1648618415.256302,0.000000
193.000000,-12729.474930,2039.842551,9522.871318,28240.892677,-3850.579721,47407.178272,3311.813272,10482.901094,0.058000,0.882000,0.446000,192.000000,0.000000,0.000000,0.000000,0.000000,0.000000,0.000000,0.000000,0.000000,0.000000,1648618415.256338,0.000000
194.000000,-12733.766464,2031.930033,9522.781911,28235.014169,-3852.323157,47409.793426,3325.067857,10483.504591,0.058000,0.882000,0.446000,192.000000,0.000000,0.000000,0.000000,0.000000,0.000000,0.000000,0.000000,0.000000,0.000000,1648618415.264173,0.000000
195.000000,-12726.368037,2039.686089,9528.392199,28242.278486,-3846.221131,47419.896414,3339.596491,10498.793185,0.058000,0.882000,0.446000,192.000000,0.000000,0.000000,0.000000,0.000000,0.000000,0.000000,0.000000,0.000000,0.000000,1648618415.264190,0.000000
196.000000,-12725.764540,2041.161304,9526.000562,28238.881020,-3849.663299,47416.297783,3334.030906,10490.187763,0.058000,0.882000,0.446000,192.000000,0.000000,0.000000,0.000000,0.000000,0.000000,0.000000,0.000000,0.000000,0.000000,1648618415.271266,0.000000
197.000000,-12727.686790,2042.725926,9523.921850,28237.070529,-3850.557369,47415.783693,3334.120313,10486.164449,0.058000,0.882000,0.446000,192.000000,0.000000,0.000000,0.000000,0.000000,0.000000,0.000000,0.000000,0.000000,0.000000,1648618415.271278,0.000000
198.000000,-12732.157139,2040.222530,9518.669190,28235.505907,-3853.574855,47413.012077,3330.275813,10489.405452,0.058000,0.882000,0.446000,192.000000,0.000000,0.000000,0.000000,0.000000,0.000000,0.000000,0.000000,0.000000,0.000000,1648618415.278673,0.000000
199.000000,-12730.860738,2042.725926,9515.338780,28238.590448,-3856.927616,47408.161748,3318.831720,10478.251931,0.064000,0.876000,0.444000,192.000000,2.000000,0.000000,27.000000,96.000000,13.000000,224.000000,0.000000,0.000000,0.000000,1648618415.278684,0.000000
200.000000,-12736.493377,2034.925167,9509.840251,28230.990855,-3863.968416,47401.635039,3306.158281,10463.835056,0.064000,0.876000,0.444000,192.000000,0.000000,0.000000,0.000000,0.000000,0.000000,0.000000,0.000000,0.000000,0.000000,1648618415.286777,0.000000
201.000000,-12734.057037,2034.478132,9508.923830,28228.263942,-3864.974244,47403.222013,3321.983316,10471.971091,0.064000,0.876000,0.444000,192.000000,0.000000,0.000000,0.000000,0.000000,0.000000,0.000000,0.000000,0.000000,0.000000,1648618415.286794,0.000000
202.000000,-12727.664438,2038.836722,9510.242583,28232.399015,-3862.426145,47403.266716,3325.693706,10478.631911,0.064000,0.876000,0.444000,192.000000,0.000000,0.000000,0.000000,0.000000,0.000000,0.000000,0.000000,0.000000,0.000000,1648618415.293665,0.000000
203.000000,-12719.416645,2048.805600,9518.356266,28246.100634,-3852.926654,47414.777865,3341.384630,10496.334493,0.064000,0.876000,0.444000,192.000000,0.000000,0.000000,0.000000,0.000000,0.000000,0.000000,0.000000,0.000000,0.000000,1648618415.301137,0.000000
204.000000,-12717.695560,2054.639406,9521.150234,28249.498099,-3850.333852,47413.883795,3331.348697,10486.611484,0.064000,0.876000,0.444000,192.000000,0.000000,0.000000,0.000000,0.000000,0.000000,0.000000,0.000000,0.000000,0.000000,1648618415.301153,0.000000
205.000000,-12721.562412,2049.342042,9517.216327,28243.910163,-3852.300805,47409.279336,3325.894871,10472.552237,0.064000,0.876000,0.444000,192.000000,0.000000,0.000000,0.000000,0.000000,0.000000,0.000000,0.000000,0.000000,0.000000,1648618415.308382,0.000000
206.000000,-12729.765502,2038.322632,9510.711969,28233.963637,-3860.034509,47407.670010,3330.700497,10458.135361,0.064000,0.876000,0.444000,192.000000,0.000000,0.000000,0.000000,0.000000,0.000000,0.000000,0.000000,0.000000,0.000000,1648618415.308392,0.000000
207.000000,-12731.486587,2038.948481,9508.834423,28229.761509,-3862.649663,47404.026676,3329.649965,10472.172257,0.064000,0.876000,0.444000,192.000000,0.000000,0.000000,0.000000,0.000000,0.000000,0.000000,0.000000,0.000000,0.000000,1648618415.316650,0.000000
208.000000,-12731.643049,2040.267234,9510.779024,28232.197849,-3859.922750,47409.480501,3323.257366,10492.534696,0.064000,0.876000,0.444000,192.000000,0.000000,0.000000,0.000000,0.000000,0.000000,0.000000,0.000000,0.000000,0.000000,1648618415.316667,0.000000
209.000000,-12725.719836,2045.251673,9517.573955,28238.255172,-3856.480581,47411.916841,3319.926956,10490.433632,0.066000,0.872000,0.446000,192.000000,2.000000,16.000000,27.000000,64.000000,13.000000,240.000000,0.000000,0.000000,0.000000,1648618415.324481,0.000000
210.000000,-12734.593479,2033.651118,9511.136652,28228.152183,-3866.225942,47400.539804,3312.170900,10473.870990,0.066000,0.872000,0.446000,192.000000,0.000000,0.000000,0.000000,0.000000,0.000000,0.000000,0.000000,0.000000,0.000000,1648618415.324493,0.000000
211.000000,-12731.710104,2035.908644,9514.534118,28229.985026,-3862.761422,47404.473711,3330.946366,10473.625120,0.066000,0.872000,0.446000,192.000000,0.000000,0.000000,0.000000,0.000000,0.000000,0.000000,0.000000,0.000000,0.000000,1648618415.331022,0.000000
212.000000,-12722.612944,2048.112696,9524.502996,28242.054968,-3850.780887,47409.636964,3332.510988,10471.032318,0.066000,0.872000,0.446000,192.000000,0.000000,0.000000,0.000000,0.000000,0.000000,0.000000,0.000000,0.000000,0.000000,1648618415.331036,0.000000
213.000000,-12717.561450,2053.320653,9524.815920,28245.653599,-3846.042317,47410.285164,3327.727715,10478.296635,0.066000,0.872000,0.446000,192.000000,0.000000,0.000000,0.000000,0.000000,0.000000,0.000000,0.000000,0.000000,0.000000,1648618415.339660,0.000000
214.000000,-12725.272802,2044.759935,9516.009333,28235.528259,-3855.340642,47403.132606,3321.446874,10475.659129,0.066000,0.872000,0.446000,192.000000,0.000000,0.000000,0.000000,0.000000,0.000000,0.000000,0.000000,0.000000,0.000000,1648618415.339682,0.000000
215.000000,-12718.232002,2051.376051,9523.363057,28241.563230,-3849.953872,47411.939193,3325.425485,10495.730996,0.066000,0.872000,0.446000,192.000000,0.000000,0.000000,0.000000,0.000000,0.000000,0.000000,0.000000,0.000000,0.000000,1648618415.346149,0.000000
216.000000,-12728.044418,2040.021365,9516.523423,28229.336826,-3859.073384,47404.004324,3325.000802,10483.012853,0.066000,0.872000,0.446000,192.000000,0.000000,0.000000,0.000000,0.000000,0.000000,0.000000,0.000000,0.000000,0.000000,1648618415.346156,0.000000
217.000000,-12730.681924,2037.160341,9511.404873,28226.028767,-3862.537904,47391.397940,3308.102883,10455.877835,0.066000,0.872000,0.446000,192.000000,0.000000,0.000000,0.000000,0.000000,0.000000,0.000000,0.000000,0.000000,0.000000,1648618415.353199,0.000000
218.000000,-12727.664438,2037.205045,9514.355304,28225.537029,-3862.806125,47389.185117,3297.284639,10451.027507,0.066000,0.872000,0.446000,192.000000,0.000000,0.000000,0.000000,0.000000,0.000000,0.000000,0.000000,0.000000,0.000000,1648618415.361430,0.000000
219.000000,-12730.927793,2036.243920,9513.416530,28225.224105,-3863.476677,47401.232708,3303.587830,10460.750516,0.076000,0.870000,0.448000,192.000000,2.000000,96.000000,27.000000,48.000000,14.000000,0.000000,0.000000,0.000000,0.000000,1648618415.361448,0.000000
220.000000,-12727.552679,2038.903777,9517.037513,28231.102613,-3858.291073,47407.178272,3311.433293,10472.194609,0.076000,0.870000,0.448000,192.000000,0.000000,0.000000,0.000000,0.000000,0.000000,0.000000,0.000000,0.000000,0.000000,1648618415.368536,0.000000
221.000000,-12720.467176,2047.531551,9521.776083,28240.110366,-3849.730355,47422.824493,3323.436180,10485.963283,0.076000,0.870000,0.448000,192.000000,0.000000,0.000000,0.000000,0.000000,0.000000,0.000000,0.000000,0.000000,0.000000,1648618415.368554,0.000000
222.000000,-12722.612944,2046.503371,9521.597269,28240.110366,-3846.578759,47426.691345,3322.229185,10482.923446,0.076000,0.870000,0.448000,192.000000,0.000000,0.000000,0.000000,0.000000,0.000000,0.000000,0.000000,0.000000,0.000000,1648618415.375839,0.000000
223.000000,-12735.040514,2029.784266,9509.952010,28224.017110,-3859.296901,47413.257946,3313.400246,10456.123704,0.076000,0.870000,0.448000,192.000000,0.000000,0.000000,0.000000,0.000000,0.000000,0.000000,0.000000,0.000000,0.000000,1648618415.375849,0.000000
224.000000,-12737.543909,2031.885330,9511.091949,28224.620607,-3859.632177,47417.862406,3312.707342,10475.614426,0.076000,0.870000,0.448000,192.000000,0.000000,0.000000,0.000000,0.000000,0.000000,0.000000,0.000000,0.000000,0.000000,1648618415.384171,0.000000
225.000000,-12727.329162,2044.536417,9524.391237,28238.590448,-3843.717735,47438.515417,3341.608148,10511.891307,0.076000,0.870000,0.448000,192.000000,0.000000,0.000000,0.000000,0.000000,0.000000,0.000000,0.000000,0.000000,0.000000,1648618415.384187,0.000000
226.000000,-12734.280555,2039.440219,9517.618658,28235.014169,-3847.919863,47429.440609,3326.587776,10495.775699,0.076000,0.870000,0.448000,192.000000,0.000000,0.000000,0.000000,0.000000,0.000000,0.000000,0.000000,0.000000,0.000000,1648618415.392063,0.000000
227.000000,-12730.950145,2046.883350,9518.669190,28240.736215,-3845.192950,47430.513493,3325.850168,10494.568705,0.076000,0.870000,0.448000,192.000000,0.000000,0.000000,0.000000,0.000000,0.000000,0.000000,0.000000,0.000000,0.000000,1648618415.392078,0.000000
228.000000,-12722.992924,2054.147667,9527.565185,28249.118119,-3836.319308,47439.253025,3341.496389,10504.626990,0.076000,0.870000,0.448000,192.000000,0.000000,0.000000,0.000000,0.000000,0.000000,0.000000,0.000000,0.000000,0.000000,1648618415.398669,0.000000
229.000000,-12726.055113,2045.698708,9527.229908,28246.257096,-3838.621538,47433.374516,3340.557616,10496.110975,0.068000,0.874000,0.452000,192.000000,2.000000,32.000000,27.000000,80.000000,14.000000,32.000000,0.000000,0.000000,0.000000,1648618415.398686,0.000000
230.000000,-12733.878223,2032.622937,9515.986981,28234.656541,-3851.540846,47414.934327,3319.166996,10466.204341,0.068000,0.874000,0.452000,192.000000,0.000000,0.000000,0.000000,0.000000,0.000000,0.000000,0.000000,0.000000,0.000000,1648618415.406419,0.000000
231.000000,-12735.912232,2032.846455,9509.124995,28228.487459,-3859.296901,47408.117045,3304.571307,10451.876873,0.068000,0.874000,0.452000,192.000000,0.000000,0.000000,0.000000,0.000000,0.000000,0.000000,0.000000,0.000000,0.000000,1648618415.406425,0.000000
232.000000,-12731.285421,2042.077725,9516.054036,28231.728462,-3853.664262,47416.856577,3309.488691,10475.614426,0.068000,0.874000,0.452000,192.000000,0.000000,0.000000,0.000000,0.000000,0.000000,0.000000,0.000000,0.000000,0.000000,1648618415.413418,0.000000
233.000000,-12728.156177,2045.251673,9521.530214,28233.829526,-3849.126857,47422.109237,3319.748142,10487.259684,0.068000,0.874000,0.452000,192.000000,0.000000,0.000000,0.000000,0.000000,0.000000,0.000000,0.000000,0.000000,0.000000,1648618415.413423,0.000000
234.000000,-12735.822825,2037.227397,9512.768330,28225.939360,-3856.212360,47423.763266,3336.668412,10496.848583,0.068000,0.874000,0.452000,192.000000,0.000000,0.000000,0.000000,0.000000,0.000000,0.000000,0.000000,0.000000,0.000000,1648618415.421474,0.000000
235.000000,-12743.221252,2029.672507,9506.733359,28221.133735,-3861.688538,47417.080094,3321.782150,10480.688272,0.068000,0.874000,0.452000,192.000000,0.000000,0.000000,0.000000,0.000000,0.000000,0.000000,0.000000,0.000000,0.000000,1648618415.428304,0.000000
236.000000,-12736.001639,2039.574330,9511.538984,28230.163840,-3856.458230,47414.040257,3304.168976,10476.687309,0.068000,0.874000,0.452000,192.000000,0.000000,0.000000,0.000000,0.000000,0.000000,0.000000,0.000000,0.000000,0.000000,1648618415.428314,0.000000
237.000000,-12728.223232,2046.324557,9519.295039,28237.986951,-3847.897511,47422.533920,3331.281642,10504.202307,0.068000,0.874000,0.452000,192.000000,0.000000,0.000000,0.000000,0.000000,0.000000,0.000000,0.000000,0.000000,0.000000,1648618415.436286,0.000000
238.000000,-12747.423380,2022.788170,9513.371827,28228.666273,-3852.591378,47422.869196,3339.864712,10508.002103,0.068000,0.874000,0.452000,192.000000,0.000000,0.000000,0.000000,0.000000,0.000000,0.000000,0.000000,0.000000,0.000000,1648618415.436302,0.000000
239.000000,-12743.489473,2030.678336,9510.443748,28228.442756,-3852.747840,47421.192815,3334.343831,10492.713510,0.072000,0.872000,0.448000,192.000000,2.000000,64.000000,27.000000,64.000000,14.000000,0.000000,0.000000,0.000000,0.000000,1648618415.444174,0.000000
240.000000,-12734.906403,2041.742449,9516.277554,28236.467032,-3845.885854,47427.987746,3332.801560,10490.657150,0.072000,0.872000,0.448000,192.000000,0.000000,0.000000,0.000000,0.000000,0.000000,0.000000,0.000000,0.000000,0.000000,1648618415.444185,0.000000
241.000000,-12737.454502,2039.484923,9517.350437,28237.316398,-3845.103543,47432.167522,3334.053258,10505.163432,0.072000,0.872000,0.448000,192.000000,0.000000,0.000000,0.000000,0.000000,0.000000,0.000000,0.000000,0.000000,0.000000,1648618415.451422,0.000000
242.000000,-12729.407874,2049.073821,9525.553528,28241.451471,-3839.269738,47437.129609,3335.126142,10509.991409,0.072000,0.872000,0.448000,192.000000,0.000000,0.000000,0.000000,0.000000,0.000000,0.000000,0.000000,0.000000,0.000000,1648618415.451435,0.000000
243.000000,-12739.242642,2039.551978,9520.122054,28233.337788,-3846.332889,47430.021755,3325.246671,10495.082795,0.072000,0.872000,0.448000,192.000000,0.000000,0.000000,0.000000,0.000000,0.000000,0.000000,0.000000,0.000000,0.000000,1648618415.459103,0.000000
244.000000,-12739.421456,2039.954309,9517.283382,28233.002512,-3850.847942,47430.379382,3333.829741,10500.402510,0.072000,0.872000,0.448000,192.000000,0.000000,0.000000,0.000000,0.000000,0.000000,0.000000,0.000000,0.000000,0.000000,1648618415.459120,0.000000
245.000000,-12740.829616,2036.445086,9517.171623,28230.946151,-3853.306634,47433.396868,3337.763648,10502.347112,0.072000,0.872000,0.448000,192.000000,0.000000,0.000000,0.000000,0.000000,0.000000,0.000000,0.000000,0.000000,0.000000,1648618415.466822,0.000000
246.000000,-12746.104627,2030.253652,9509.169699,28222.564247,-3859.967453,47423.763266,3332.779209,10484.286902,0.072000,0.872000,0.448000,192.000000,0.000000,0.000000,0.000000,0.000000,0.000000,0.000000,0.000000,0.000000,0.000000,1648618415.466834,0.000000
247.000000,-12742.818921,2036.936824,9512.991847,28226.229933,-3854.044241,47430.558196,3345.407944,10490.612446,0.072000,0.872000,0.448000,192.000000,0.000000,0.000000,0.000000,0.000000,0.000000,0.000000,0.000000,0.000000,0.000000,1648618415.474838,0.000000
248.000000,-12751.044363,2032.824103,9510.756673,28223.994759,-3856.190009,47433.061592,3341.988127,10499.597847,0.072000,0.872000,0.448000,192.000000,0.000000,0.000000,0.000000,0.000000,0.000000,0.000000,0.000000,0.000000,0.000000,1648618415.474851,0.000000
249.000000,-12749.613851,2033.874635,9509.750844,28226.498154,-3856.324119,47427.294842,3334.455590,10484.175144,0.064000,0.880000,0.452000,192.000000,2.000000,0.000000,27.000000,128.000000,14.000000,32.000000,0.000000,0.000000,0.000000,1648618415.481263,0.000000
250.000000,-12751.647860,2029.337231,9507.292152,28226.095823,-3855.295939,47426.445475,3335.528473,10495.552182,0.064000,0.880000,0.452000,192.000000,0.000000,0.000000,0.000000,0.000000,0.000000,0.000000,0.000000,0.000000,0.000000,1648618415.488478,0.000000
251.000000,-12743.556529,2037.137990,9517.506900,28235.438852,-3843.985956,47434.022717,3342.926901,10503.040016,0.064000,0.880000,0.452000,192.000000,0.000000,0.000000,0.000000,0.000000,0.000000,0.000000,0.000000,0.000000,0.000000,1648618415.488489,0.000000
252.000000,-12739.019124,2044.245844,9522.267821,28238.702206,-3839.157979,47434.134475,3342.211645,10506.795109,0.064000,0.880000,0.452000,192.000000,0.000000,0.000000,0.000000,0.000000,0.000000,0.000000,0.000000,0.000000,0.000000,1648618415.496483,0.000000
253.000000,-12741.075485,2039.596682,9516.903402,28230.342654,-3846.355241,47417.661240,3322.117427,10482.521115,0.064000,0.880000,0.452000,192.000000,0.000000,0.000000,0.000000,0.000000,0.000000,0.000000,0.000000,0.000000,0.000000,1648618415.496492,0.000000
254.000000,-12742.818921,2032.958213,9518.535080,28223.614779,-3848.501009,47413.257946,3314.339020,10457.733030,0.064000,0.880000,0.452000,192.000000,0.000000,0.000000,0.000000,0.000000,0.000000,0.000000,0.000000,0.000000,0.000000,1648618415.503587,0.000000
255.000000,-12742.908328,2033.338193,9518.624487,28223.324206,-3847.405773,47417.571833,3309.801615,10467.277225,0.064000,0.880000,0.452000,192.000000,0.000000,0.000000,0.000000,0.000000,0.000000,0.000000,0.000000,0.000000,0.000000,1648618415.503598,0.000000
0.000000,-12746.641069,2028.241995,9511.717798,28220.396128,-3853.396041,47417.281260,3314.763703,10484.264551,0.064000,0.880000,0.452000,192.000000,0.000000,0.000000,0.000000,0.000000,0.000000,0.000000,0.000000,0.000000,0.000000,1648618415.511081,0.000000
1.000000,-12745.054095,2030.924205,9514.534118,28224.911180,-3849.618596,47427.473656,3341.228168,10499.597847,0.064000,0.880000,0.452000,192.000000,0.000000,0.000000,0.000000,0.000000,0.000000,0.000000,0.000000,0.000000,0.000000,1648618415.511103,0.000000
2.000000,-12749.323279,2030.499522,9510.197879,28221.312549,-3853.776020,47425.484350,3337.786000,10491.573571,0.064000,0.880000,0.452000,192.000000,0.000000,0.000000,0.000000,0.000000,0.000000,0.000000,0.000000,0.000000,0.000000,1648618415.519228,0.000000
3.000000,-12754.151255,2028.733734,9506.532193,28219.457354,-3857.128782,47429.485313,3350.906474,10498.390853,0.044000,0.876000,0.456000,192.000000,1.000000,96.000000,27.000000,96.000000,14.000000,64.000000,0.000000,0.000000,0.000000,1648618415.519246,0.000000
4.000000,-12754.106552,2030.566577,9504.341722,28216.931607,-3859.073384,47428.747705,3353.365165,10498.860240,0.044000,0.876000,0.456000,192.000000,0.000000,0.000000,0.000000,0.000000,0.000000,0.000000,0.000000,0.000000,0.000000,1648618415.527148,0.000000
5.000000,-12750.060886,2033.025269,9504.252315,28219.055023,-3857.151134,47422.288051,3335.394363,10492.288827,0.044000,0.876000,0.456000,192.000000,0.000000,0.000000,0.000000,0.000000,0.000000,0.000000,0.000000,0.000000,0.000000,1648618415.527159,0.000000
6.000000,-12741.209595,2040.490751,9518.378618,28226.922837,-3846.221131,47428.412429,3342.122238,10490.925371,0.044000,0.876000,0.456000,192.000000,0.000000,0.000000,0.000000,0.000000,0.000000,0.000000,0.000000,0.000000,0.000000,1648618415.534006,0.000000
7.000000,-12735.219328,2050.146705,9520.256164,28228.398052,-3844.924729,47424.500874,3339.015345,10486.767946,0.044000,0.876000,0.456000,192.000000,0.000000,0.000000,0.000000,0.000000,0.000000,0.000000,0.000000,0.000000,0.000000,1648618415.534022,0.000000
8.000000,-12732.246546,2053.968853,9518.557432,28233.449547,-3843.404811,47433.598034,3351.107639,10499.039054,0.044000,0.876000,0.456000,192.000000,0.000000,0.000000,0.000000,0.000000,0.000000,0.000000,0.000000,0.000000,0.000000,1648618415.540728,0.000000
9.000000,-12731.531290,2051.577217,9520.792606,28236.623494,-3841.102581,47435.833208,3350.772363,10497.854411,0.044000,0.876000,0.456000,192.000000,0.000000,0.000000,0.000000,0.000000,0.000000,0.000000,0.000000,0.000000,0.000000,1648618415.549063,0.000000
10.000000,-12726.971534,2056.986339,9521.306696,28238.746910,-3840.499084,47432.145170,3337.026040,10496.110975,0.044000,0.876000,0.456000,192.000000,0.000000,0.000000,0.000000,0.000000,0.000000,0.000000,0.000000,0.000000,0.000000,1648618415.549080,0.000000
11.000000,-12719.863679,2068.050452,9525.933507,28245.206564,-3835.201721,47437.286071,3332.667450,10501.654208,0.044000,0.876000,0.456000,192.000000,0.000000,0.000000,0.000000,0.000000,0.000000,0.000000,0.000000,0.000000,0.000000,1648618415.556829,0.000000
12.000000,-12728.670267,2057.232208,9515.316429,28232.756642,-3847.159904,47428.658298,3324.017325,10487.505554,0.044000,0.876000,0.456000,192.000000,0.000000,0.000000,0.000000,0.000000,0.000000,0.000000,0.000000,0.000000,0.000000,1648618415.556842,0.000000
13.000000,-12742.953031,2040.088420,9499.692559,28215.031709,-3864.728375,47415.940155,3316.350677,10474.832115,0.040000,0.868000,0.452000,192.000000,1.000000,64.000000,27.000000,32.000000,14.000000,32.000000,0.000000,0.000000,0.000000,1648618415.563449,0.000000
14.000000,-12749.725610,2029.136065,9493.523478,28211.723651,-3867.321177,47408.854653,3301.978505,10464.572664,0.040000,0.868000,0.452000,192.000000,0.000000,0.000000,0.000000,0.000000,0.000000,0.000000,0.000000,0.000000,0.000000,1648618415.563464,0.000000
15.000000,-12749.233872,2030.857149,9491.333007,28210.941340,-3868.550523,47408.586432,3308.885194,10468.461867,0.040000,0.868000,0.452000,192.000000,0.000000,0.000000,0.000000,0.000000,0.000000,0.000000,0.000000,0.000000,0.000000,1648618415.571409,0.000000
16.000000,-12745.992869,2036.087458,9493.724643,28217.624511,-3865.108355,47422.265699,3328.867653,10485.002158,0.040000,0.868000,0.452000,192.000000,0.000000,0.000000,0.000000,0.000000,0.000000,0.000000,0.000000,0.000000,0.000000,1648618415.571420,0.000000
17.000000,-12746.328145,2035.394554,9498.731434,28215.836372,-3864.974244,47425.909034,3337.048392,10490.701853,0.040000,0.868000,0.452000,192.000000,0.000000,0.000000,0.000000,0.000000,0.000000,0.000000,0.000000,0.000000,0.000000,1648618415.579380,0.000000
18.000000,-12756.051154,2027.102056,9482.459364,28199.251377,-3883.101509,47406.775940,3325.090209,10471.680519,0.040000,0.868000,0.452000,192.000000,0.000000,0.000000,0.000000,0.000000,0.000000,0.000000,0.000000,0.000000,0.000000,1648618415.579388,0.000000
19.000000,-12747.132808,2034.589891,9495.266914,28211.567189,-3870.226904,47428.837112,3338.031869,10500.983656,0.040000,0.868000,0.452000,192.000000,0.000000,0.000000,0.000000,0.000000,0.000000,0.000000,0.000000,0.000000,0.000000,1648618415.586439,0.000000
20.000000,-12758.576901,2023.637536,9484.202800,28200.123096,-3880.799279,47419.516435,3327.548901,10496.513307,0.040000,0.868000,0.452000,192.000000,0.000000,0.000000,0.000000,0.000000,0.000000,0.000000,0.000000,0.000000,0.000000,1648618415.586447,0.000000
21.000000,-12750.284404,2036.288623,9487.823783,28206.046308,-3876.619503,47413.704981,3327.481845,10493.540525,0.040000,0.868000,0.452000,192.000000,0.000000,0.000000,0.000000,0.000000,0.000000,0.000000,0.000000,0.000000,0.000000,1648618415.594010,0.000000
22.000000,-12743.824749,2043.150609,9499.357283,28212.505962,-3866.985901,47418.220033,3327.683011,10496.960342,0.040000,0.868000,0.452000,192.000000,0.000000,0.000000,0.000000,0.000000,0.000000,0.000000,0.000000,0.000000,0.000000,1648618415.594029,0.000000
23.000000,-12750.038534,2035.461609,9493.411719,28211.947168,-3868.327006,47412.632097,3317.535319,10484.242199,0.044000,0.880000,0.442000,192.000000,1.000000,96.000000,27.000000,128.000000,13.000000,208.000000,0.000000,0.000000,0.000000,1648618415.601390,0.000000
24.000000,-12746.417552,2038.032059,9496.965646,28221.938398,-3861.129744,47416.186025,3328.845302,10485.516248,0.044000,0.880000,0.442000,192.000000,0.000000,0.000000,0.000000,0.000000,0.000000,0.000000,0.000000,0.000000,0.000000,1648618415.609116,0.000000
25.000000,-12753.212482,2036.065106,9488.315521,28214.517619,-3870.182201,47410.463978,3325.559595,10492.512344,0.044000,0.880000,0.442000,192.000000,0.000000,0.000000,0.000000,0.000000,0.000000,0.000000,0.000000,0.000000,0.000000,1648618415.609127,0.000000
26.000000,-12752.072543,2036.266272,9489.477812,28210.628415,-3871.679768,47412.833263,3324.978450,10492.020606,0.044000,0.880000,0.442000,192.000000,0.000000,0.000000,0.000000,0.000000,0.000000,0.000000,0.000000,0.000000,0.000000,1648618415.616313,0.000000
27.000000,-12745.121151,2039.797847,9497.055053,28215.948131,-3865.197762,47423.763266,3327.392438,10511.868955,0.044000,0.880000,0.442000,192.000000,0.000000,0.000000,0.000000,0.000000,0.000000,0.000000,0.000000,0.000000,0.000000,1648618415.616325,0.000000
28.000000,-12745.612889,2039.797847,9495.445728,28216.350462,-3866.672977,47426.445475,3330.722848,10510.013760,0.044000,0.880000,0.442000,192.000000,0.000000,0.000000,0.000000,0.000000,0.000000,0.000000,0.000000,0.000000,0.000000,1648618415.623853,0.000000
29.000000,-12745.434075,2040.222530,9498.083234,28217.959788,-3864.393099,47427.406600,3332.980374,10505.118728,0.044000,0.880000,0.442000,192.000000,0.000000,0.000000,0.000000,0.000000,0.000000,0.000000,0.000000,0.000000,0.000000,1648618415.623865,0.000000
30.000000,-12741.142540,2043.307071,9499.133766,28217.982139,-3863.074346,47427.607766,3332.622747,10508.270324,0.044000,0.880000,0.442000,192.000000,0.000000,0.000000,0.000000,0.000000,0.000000,0.000000,0.000000,0.000000,0.000000,1648618415.631557,0.000000
31.000000,-12737.476854,2046.235150,9504.721702,28226.721671,-3854.111296,47441.331737,3335.282604,10511.533679,0.044000,0.880000,0.442000,192.000000,0.000000,0.000000,0.000000,0.000000,0.000000,0.000000,0.000000,0.000000,0.000000,1648618415.631564,0.000000
32.000000,-12737.722723,2044.938748,9501.927734,28222.452488,-3857.687576,47428.211263,3321.446874,10492.758214,0.044000,0.880000,0.442000,192.000000,0.000000,0.000000,0.000000,0.000000,0.000000,0.000000,0.000000,0.000000,0.000000,1648618415.639136,0.000000
33.000000,-12730.972496,2052.292472,9507.269801,28228.778032,-3852.949006,47426.892510,3321.759799,10484.912751,0.054000,0.878000,0.444000,192.000000,1.000000,176.000000,27.000000,112.000000,13.000000,224.000000,0.000000,0.000000,0.000000,1648618415.639152,0.000000
34.000000,-12733.319430,2048.336214,9506.062806,28228.219238,-3854.379517,47430.915824,3324.509063,10497.295618,0.054000,0.878000,0.444000,192.000000,0.000000,0.000000,0.000000,0.000000,0.000000,0.000000,0.000000,0.000000,0.000000,1648618415.647756,0.000000
35.000000,-12732.693581,2049.118525,9504.386426,28229.917971,-3855.318291,47427.630118,3317.267098,10489.740728,0.054000,0.878000,0.444000,192.000000,0.000000,0.000000,0.000000,0.000000,0.000000,0.000000,0.000000,0.000000,0.000000,1648618415.647766,0.000000
36.000000,-12719.036665,2062.775441,9513.818862,28242.077320,-3844.298881,47436.906092,3318.831720,10496.736824,0.054000,0.878000,0.444000,192.000000,0.000000,0.000000,0.000000,0.000000,0.000000,0.000000,0.000000,0.000000,0.000000,1648618415.654379,0.000000
37.000000,-12716.510918,2063.244827,9515.249373,28240.669160,-3844.254177,47439.051859,3318.205871,10498.144984,0.054000,0.878000,0.444000,192.000000,0.000000,0.000000,0.000000,0.000000,0.000000,0.000000,0.000000,0.000000,0.000000,1648618415.654391,0.000000
38.000000,-12724.199918,2054.885275,9512.924792,28234.053044,-3849.551541,47441.488199,3327.526549,10508.672656,0.054000,0.878000,0.444000,192.000000,0.000000,0.000000,0.000000,0.000000,0.000000,0.000000,0.000000,0.000000,0.000000,1648618415.661448,0.000000
39.000000,-12729.005543,2049.833781,9510.801376,28234.656541,-3849.059802,47439.789467,3328.644136,10511.556031,0.054000,0.878000,0.444000,192.000000,0.000000,0.000000,0.000000,0.000000,0.000000,0.000000,0.000000,0.000000,0.000000,1648618415.661460,0.000000
40.000000,-12723.104682,2057.992167,9516.165795,28240.378587,-3842.376631,47440.348260,3316.708304,10507.331551,0.054000,0.878000,0.444000,192.000000,0.000000,0.000000,0.000000,0.000000,0.000000,0.000000,0.000000,0.000000,0.000000,1648618415.668584,0.000000
41.000000,-12727.016238,2054.818220,9511.471929,28233.337788,-3848.679823,47427.518359,3300.659752,10492.087661,0.054000,0.878000,0.444000,192.000000,0.000000,0.000000,0.000000,0.000000,0.000000,0.000000,0.000000,0.000000,0.000000,1648618415.675868,0.000000
42.000000,-12714.320447,2068.273970,9524.324182,28247.866422,-3835.894625,47440.124743,3330.342869,10507.420958,0.054000,0.878000,0.444000,192.000000,0.000000,0.000000,0.000000,0.000000,0.000000,0.000000,0.000000,0.000000,0.000000,1648618415.675879,0.000000
43.000000,-12715.303924,2068.341025,9527.900461,28251.107425,-3834.866444,47452.284092,3341.384630,10530.867938,0.050000,0.880000,0.446000,192.000000,1.000000,144.000000,27.000000,128.000000,13.000000,240.000000,0.000000,0.000000,0.000000,1648618415.683962,0.000000
44.000000,-12719.438996,2065.100022,9524.123016,28248.291105,-3839.895587,47446.360880,3333.069781,10512.405397,0.050000,0.880000,0.446000,192.000000,0.000000,0.000000,0.000000,0.000000,0.000000,0.000000,0.000000,0.000000,0.000000,1648618415.683978,0.000000
45.000000,-12727.798549,2056.181676,9514.891745,28238.456337,-3849.685651,47434.514455,3326.006630,10493.719339,0.050000,0.880000,0.446000,192.000000,0.000000,0.000000,0.000000,0.000000,0.000000,0.000000,0.000000,0.000000,0.000000,1648618415.691980,0.000000
46.000000,-12724.535194,2060.249693,9519.518557,28244.111329,-3846.981090,47438.671880,3323.570290,10513.925316,0.050000,0.880000,0.446000,192.000000,0.000000,0.000000,0.000000,0.000000,0.000000,0.000000,0.000000,0.000000,0.000000,1648618415.691992,0.000000
47.000000,-12728.960839,2053.946501,9517.953934,28240.736215,-3851.049107,47433.195702,3318.027057,10505.096377,0.050000,0.880000,0.446000,192.000000,0.000000,0.000000,0.000000,0.000000,0.000000,0.000000,0.000000,0.000000,0.000000,1648618415.698606,0.000000
48.000000,-12730.704275,2055.108792,9516.657533,28238.389282,-3851.384384,47431.541673,3332.980374,10505.722225,0.050000,0.880000,0.446000,192.000000,0.000000,0.000000,0.000000,0.000000,0.000000,0.000000,0.000000,0.000000,0.000000,1648618415.698618,0.000000
49.000000,-12730.436055,2058.327443,9518.222155,28237.964599,-3850.356203,47426.445475,3331.348697,10496.245086,0.050000,0.880000,0.446000,192.000000,0.000000,0.000000,0.000000,0.000000,0.000000,0.000000,0.000000,0.000000,0.000000,1648618415.706789,0.000000
50.000000,-12733.498244,2052.650100,9521.530214,28241.183250,-3849.238616,47432.726316,3329.337040,10492.042958,0.050000,0.880000,0.446000,192.000000,0.000000,0.000000,0.000000,0.000000,0.000000,0.000000,0.000000,0.000000,0.000000,1648618415.706802,0.000000
51.000000,-12723.976400,2058.752127,9531.856719,28250.369817,-3840.320270,47441.555255,3334.746162,10518.418016,0.050000,0.880000,0.446000,192.000000,0.000000,0.000000,0.000000,0.000000,0.000000,0.000000,0.000000,0.000000,0.000000,1648618415.714680,0.000000
52.000000,-12724.199918,2054.907626,9534.226004,28247.821718,-3840.163808,47440.549426,3347.754878,10512.450100,0.050000,0.880000,0.446000,192.000000,0.000000,0.000000,0.000000,0.000000,0.000000,0.000000,0.000000,0.000000,0.000000,1648618415.714694,0.000000
53.000000,-12732.470063,2048.671490,9529.018048,28241.987913,-3846.332889,47435.185007,3342.457514,10510.483147,0.050000,0.880000,0.446000,192.000000,0.000000,0.000000,0.000000,0.000000,0.000000,0.000000,0.000000,0.000000,0.000000,1648618415.721662,0.000000
54.000000,-12722.702351,2061.367281,9536.394124,28251.442701,-3839.560311,47437.688403,3339.551787,10509.745539,0.062000,0.866000,0.448000,192.000000,1.000000,240.000000,27.000000,16.000000,14.000000,0.000000,0.000000,0.000000,0.000000,1648618415.721673,0.000000
55.000000,-12718.701389,2065.815278,9538.428132,28257.388265,-3837.526302,47439.364784,3340.691726,10519.245031,0.062000,0.866000,0.448000,192.000000,0.000000,0.000000,0.000000,0.000000,0.000000,0.000000,0.000000,0.000000,0.000000,1648618415.728188,0.000000
56.000000,-12723.596421,2061.367281,9533.086065,28251.576811,-3843.538921,47430.289975,3331.683973,10518.686237,0.062000,0.866000,0.448000,192.000000,0.000000,0.000000,0.000000,0.000000,0.000000,0.000000,0.000000,0.000000,0.000000,1648618415.736315,0.000000
57.000000,-12719.282534,2066.396423,9536.863510,28254.393131,-3840.230863,47432.681612,3341.362279,10510.639609,0.062000,0.866000,0.448000,192.000000,0.000000,0.000000,0.000000,0.000000,0.000000,0.000000,0.000000,0.000000,0.000000,1648618415.736332,0.000000
58.000000,-12720.467176,2065.278836,9534.337763,28251.889736,-3844.321232,47426.803103,3329.091171,10493.294655,0.062000,0.866000,0.448000,192.000000,0.000000,0.000000,0.000000,0.000000,0.000000,0.000000,0.000000,0.000000,0.000000,1648618415.744650,0.000000
59.000000,-12723.886993,2061.657853,9528.973344,28248.000532,-3845.707041,47423.539749,3331.169883,10493.652283,0.062000,0.866000,0.448000,192.000000,0.000000,0.000000,0.000000,0.000000,0.000000,0.000000,0.000000,0.000000,0.000000,1648618415.744662,0.000000
60.000000,-12719.908383,2064.362414,9532.504920,28252.515585,-3840.297918,47432.391039,3351.957005,10507.689179,0.062000,0.866000,0.448000,192.000000,0.000000,0.000000,0.000000,0.000000,0.000000,0.000000,0.000000,0.000000,0.000000,1648618415.751667,0.000000
61.000000,-12713.582839,2070.889124,9538.249318,28259.310515,-3833.972375,47435.855560,3351.912302,10499.955475,0.062000,0.866000,0.448000,192.000000,0.000000,0.000000,0.000000,0.000000,0.000000,0.000000,0.000000,0.000000,0.000000,1648618415.751685,0.000000
62.000000,-12719.506051,2064.943560,9532.303754,28251.129776,-3840.946119,47428.278318,3345.787924,10490.970074,0.062000,0.866000,0.448000,192.000000,0.000000,0.000000,0.000000,0.000000,0.000000,0.000000,0.000000,0.000000,0.000000,1648618415.758788,0.000000
63.000000,-12719.751921,2066.262313,9531.722609,28252.627343,-3840.230863,47430.602900,3348.872465,10496.356844,0.062000,0.866000,0.448000,192.000000,0.000000,0.000000,0.000000,0.000000,0.000000,0.000000,0.000000,0.000000,0.000000,1648618415.758797,0.000000
64.000000,-12715.885069,2068.676301,9537.534063,28259.042294,-3833.011250,47434.380345,3351.085287,10507.175089,0.060000,0.866000,0.448000,192.000000,1.000000,224.000000,27.000000,16.000000,14.000000,0.000000,0.000000,0.000000,0.000000,1648618415.766904,0.000000
65.000000,-12733.721761,2049.766725,9516.657533,28238.009302,-3852.300805,47416.409542,3325.738409,10477.447269,0.060000,0.866000,0.448000,192.000000,0.000000,0.000000,0.000000,0.000000,0.000000,0.000000,0.000000,0.000000,0.000000,1648618415.766931,0.000000
66.000000,-12725.049284,2062.842496,9520.300868,28246.994704,-3846.198779,47419.918766,3327.481845,10467.612501,0.060000,0.866000,0.448000,192.000000,0.000000,0.000000,0.000000,0.000000,0.000000,0.000000,0.000000,0.000000,0.000000,1648618415.774845,0.000000
67.000000,-12722.434130,2064.205952,9525.039437,28249.565154,-3841.571968,47422.153940,3335.707287,10485.449193,0.060000,0.866000,0.448000,192.000000,0.000000,0.000000,0.000000,0.000000,0.000000,0.000000,0.000000,0.000000,0.000000,1648618415.774856,0.000000
68.000000,-12735.264031,2048.962062,9522.424283,28244.983047,-3844.008308,47429.798237,3350.168866,10515.400531,0.060000,0.866000,0.448000,192.000000,0.000000,0.000000,0.000000,0.000000,0.000000,0.000000,0.000000,0.000000,0.000000,1648618415.781457,0.000000
69.000000,-12731.888918,2053.879446,9520.658496,28242.546707,-3848.210436,47419.359972,3344.133895,10499.687254,0.060000,0.866000,0.448000,192.000000,0.000000,0.000000,0.000000,0.000000,0.000000,0.000000,0.000000,0.000000,0.000000,1648618415.781470,0.000000
70.000000,-12732.514767,2050.414926,9518.244507,28238.366930,-3851.563198,47412.922670,3342.613976,10481.425879,0.060000,0.866000,0.448000,192.000000,0.000000,0.000000,0.000000,0.000000,0.000000,0.000000,0.000000,0.000000,0.000000,1648618415.788532,0.000000
71.000000,-12736.292212,2047.151571,9515.539946,28236.534087,-3852.859599,47414.934327,3346.749049,10506.012798,0.060000,0.866000,0.448000,192.000000,0.000000,0.000000,0.000000,0.000000,0.000000,0.000000,0.000000,0.000000,0.000000,1648618415.796450,0.000000
72.000000,-12733.118264,2053.767688,9516.545775,28239.708035,-3850.400907,47418.398847,3356.337947,10511.824252,0.060000,0.866000,0.448000,192.000000,0.000000,0.000000,0.000000,0.000000,0.000000,0.000000,0.000000,0.000000,0.000000,1648618415.796461,0.000000
73.000000,-12740.114360,2045.542246,9507.918001,28232.220201,-3859.408660,47417.057743,3353.409869,10509.186746,0.060000,0.866000,0.448000,192.000000,0.000000,0.000000,0.000000,0.000000,0.000000,0.000000,0.000000,0.000000,0.000000,1648618415.803566,0.000000
74.000000,-12749.747962,2032.533530,9496.876239,28221.670177,-3872.372672,47406.463016,3334.634404,10493.875801,0.054000,0.868000,0.452000,192.000000,1.000000,176.000000,27.000000,32.000000,14.000000,32.000000,0.000000,0.000000,0.000000,1648618415.803578,0.000000
75.000000,-12743.534177,2035.193388,9507.560373,28230.141488,-3862.292035,47410.039295,3326.207796,10488.913714,0.054000,0.868000,0.452000,192.000000,0.000000,0.000000,0.000000,0.000000,0.000000,0.000000,0.000000,0.000000,0.000000,1648618415.811063,0.000000
76.000000,-12743.601232,2037.316804,9508.342684,28231.437890,-3862.917884,47409.391094,3332.265119,10490.254818,0.054000,0.868000,0.452000,192.000000,0.000000,0.000000,0.000000,0.000000,0.000000,0.000000,0.000000,0.000000,0.000000,1648618415.811072,0.000000
77.000000,-12744.294136,2038.389687,9508.856774,28233.248381,-3860.034509,47418.912938,3357.008500,10496.580362,0.054000,0.868000,0.452000,192.000000,0.000000,0.000000,0.000000,0.000000,0.000000,0.000000,0.000000,0.000000,0.000000,1648618415.819228,0.000000
78.000000,-12738.974421,2046.369260,9512.723626,28238.210468,-3854.021889,47426.244310,3365.546866,10500.760138,0.054000,0.868000,0.452000,192.000000,0.000000,0.000000,0.000000,0.000000,0.000000,0.000000,0.000000,0.000000,0.000000,1648618415.819245,0.000000
79.000000,-12744.852930,2040.110772,9505.369902,28230.342654,-3861.286206,47413.325001,3345.027965,10488.198458,0.054000,0.868000,0.452000,192.000000,0.000000,0.000000,0.000000,0.000000,0.000000,0.000000,0.000000,0.000000,0.000000,1648618415.827175,0.000000
80.000000,-12746.417552,2037.205045,9505.146385,28229.090956,-3861.465020,47409.614612,3334.120313,10480.129478,0.054000,0.868000,0.452000,192.000000,0.000000,0.000000,0.000000,0.000000,0.000000,0.000000,0.000000,0.000000,0.000000,1648618415.827186,0.000000
81.000000,-12744.048267,2041.608339,9506.554545,28230.722634,-3859.386308,47406.775940,3334.030906,10474.787411,0.054000,0.868000,0.452000,192.000000,0.000000,0.000000,0.000000,0.000000,0.000000,0.000000,0.000000,0.000000,0.000000,1648618415.834058,0.000000
82.000000,-12743.467122,2044.312900,9508.856774,28234.254209,-3856.838209,47410.262812,3346.346718,10477.335510,0.054000,0.868000,0.452000,192.000000,0.000000,0.000000,0.000000,0.000000,0.000000,0.000000,0.000000,0.000000,0.000000,1648618415.834074,0.000000
83.000000,-12744.450598,2040.334289,9509.124995,28231.683759,-3858.626349,47410.821606,3342.658680,10481.649397,0.054000,0.868000,0.452000,192.000000,0.000000,0.000000,0.000000,0.000000,0.000000,0.000000,0.000000,0.000000,0.000000,1648618415.841757,0.000000
84.000000,-12740.427284,2042.122429,9514.511766,28236.802308,-3853.753669,47418.667068,3350.928825,10489.874839,0.064000,0.872000,0.456000,192.000000,2.000000,0.000000,27.000000,64.000000,14.000000,64.000000,0.000000,0.000000,0.000000,1648618415.841769,0.000000
85.000000,-12744.428247,2037.361507,9509.415568,28231.057910,-3859.229846,47413.257946,3342.926901,10486.477373,0.064000,0.872000,0.456000,192.000000,0.000000,0.000000,0.000000,0.000000,0.000000,0.000000,0.000000,0.000000,0.000000,1648618415.848799,0.000000
86.000000,-12745.121151,2036.802713,9507.515670,28228.308645,-3861.912055,47408.698190,3340.289395,10476.620254,0.064000,0.872000,0.456000,192.000000,0.000000,0.000000,0.000000,0.000000,0.000000,0.000000,0.000000,0.000000,0.000000,1648618415.856886,0.000000
87.000000,-12743.243604,2040.893083,9509.102644,28228.442756,-3859.520419,47420.231690,3366.887971,10500.760138,0.064000,0.872000,0.456000,192.000000,0.000000,0.000000,0.000000,0.000000,0.000000,0.000000,0.000000,0.000000,0.000000,1648618415.856898,0.000000
88.000000,-12742.237776,2038.032059,9511.091949,28228.755680,-3860.325081,47413.369705,3354.393346,10497.005045,0.064000,0.872000,0.456000,192.000000,0.000000,0.000000,0.000000,0.000000,0.000000,0.000000,0.000000,0.000000,0.000000,1648618415.863458,0.000000
89.000000,-12745.948165,2029.828969,9508.655609,28225.492325,-3863.029642,47402.596164,3336.355488,10477.134344,0.064000,0.872000,0.456000,192.000000,0.000000,0.000000,0.000000,0.000000,0.000000,0.000000,0.000000,0.000000,0.000000,1648618415.863472,0.000000
90.000000,-12753.927738,2018.228414,9500.586629,28215.523447,-3868.930503,47406.217147,3338.903587,10483.415184,0.064000,0.872000,0.456000,192.000000,0.000000,0.000000,0.000000,0.000000,0.000000,0.000000,0.000000,0.000000,0.000000,1648618415.871409,0.000000
91.000000,-12740.471988,2033.226434,9508.901478,28227.503982,-3857.620520,47413.526167,3351.487619,10499.240220,0.064000,0.872000,0.456000,192.000000,0.000000,0.000000,0.000000,0.000000,0.000000,0.000000,0.000000,0.000000,0.000000,1648618415.871420,0.000000
92.000000,-12727.843252,2051.286644,9522.200766,28242.502003,-3843.069535,47418.421199,3352.225226,10487.304388,0.064000,0.872000,0.456000,192.000000,0.000000,0.000000,0.000000,0.000000,0.000000,0.000000,0.000000,0.000000,0.000000,1648618415.879395,0.000000
93.000000,-12728.536156,2050.973719,9525.531176,28245.541840,-3841.303747,47421.393981,3341.943424,10486.522077,0.064000,0.872000,0.456000,192.000000,0.000000,0.000000,0.000000,0.000000,0.000000,0.000000,0.000000,0.000000,0.000000,1648618415.879407,0.000000
94.000000,-12728.357342,2048.693842,9524.547699,28244.334846,-3841.169636,47427.406600,3350.995880,10498.413205,0.064000,0.864000,0.456000,192.000000,2.000000,0.000000,27.000000,0.000000,14.000000,64.000000,0.000000,0.000000,0.000000,1648618415.886629,0.000000
95.000000,-12736.493377,2041.496580,9518.356266,28235.170631,-3849.640948,47422.735086,3352.381689,10484.197495,0.064000,0.864000,0.456000,192.000000,0.000000,0.000000,0.000000,0.000000,0.000000,0.000000,0.000000,0.000000,0.000000,1648618415.886640,0.000000
96.000000,-12740.650802,2040.066068,9514.020027,28232.354311,-3853.843075,47417.460074,3346.816104,10485.784469,0.064000,0.864000,0.456000,192.000000,0.000000,0.000000,0.000000,0.000000,0.000000,0.000000,0.000000,0.000000,0.000000,1648618415.894054,0.000000
97.000000,-12733.118264,2045.922225,9518.110397,28238.836317,-3847.897511,47420.477560,3346.726697,10497.630894,0.064000,0.864000,0.456000,192.000000,0.000000,0.000000,0.000000,0.000000,0.000000,0.000000,0.000000,0.000000,0.000000,1648618415.894067,0.000000
98.000000,-12725.831595,2053.387708,9522.267821,28244.536012,-3844.164770,47430.133513,3358.506067,10506.102205,0.064000,0.864000,0.456000,192.000000,0.000000,0.000000,0.000000,0.000000,0.000000,0.000000,0.000000,0.000000,0.000000,1648618415.902186,0.000000
99.000000,-12734.571127,2044.648176,9514.645876,28233.851878,-3854.714794,47427.563063,3353.789849,10503.487051,0.064000,0.864000,0.456000,192.000000,0.000000,0.000000,0.000000,0.000000,0.000000,0.000000,0.000000,0.000000,0.000000,1648618415.902203,0.000000
100.000000,-12738.572090,2040.513103,9511.136652,28230.320302,-3857.061727,47426.199606,3346.123200,10490.992426,0.064000,0.864000,0.456000,192.000000,0.000000,0.000000,0.000000,0.000000,0.000000,0.000000,0.000000,0.000000,0.000000,1648618415.909053,0.000000
101.000000,-12739.913194,2039.104943,9508.409740,28230.275599,-3858.134610,47424.836150,3345.251482,10471.814629,0.064000,0.864000,0.456000,192.000000,0.000000,0.000000,0.000000,0.000000,0.000000,0.000000,0.000000,0.000000,0.000000,1648618415.909065,0.000000
102.000000,-12741.187244,2037.942652,9506.107510,28228.353349,-3860.302730,47423.137417,3346.637290,10470.138248,0.064000,0.864000,0.456000,192.000000,0.000000,0.000000,0.000000,0.000000,0.000000,0.000000,0.000000,0.000000,0.000000,1648618415.916329,0.000000
103.000000,-12742.684810,2038.054411,9507.470966,28227.325169,-3859.118087,47428.233615,3349.677128,10498.301446,0.064000,0.864000,0.456000,192.000000,0.000000,0.000000,0.000000,0.000000,0.000000,0.000000,0.000000,0.000000,0.000000,1648618415.923799,0.000000
104.000000,-12742.014258,2036.489789,9508.856774,28225.537029,-3858.402831,47423.830321,3342.099886,10493.115842,0.062000,0.864000,0.456000,192.000000,1.000000,240.000000,27.000000,0.000000,14.000000,64.000000,0.000000,0.000000,0.000000,1648618415.923815,0.000000
105.000000,-12734.705238,2045.162266,9515.227022,28234.567134,-3850.155038,47437.196664,3360.025985,10508.359731,0.062000,0.864000,0.456000,192.000000,0.000000,0.000000,0.000000,0.000000,0.000000,0.000000,0.000000,0.000000,0.000000,1648618415.931686,0.000000
106.000000,-12736.023991,2044.983452,9511.091949,28228.934494,-3854.804201,47437.554292,3364.786907,10506.906868,0.062000,0.864000,0.456000,192.000000,0.000000,0.000000,0.000000,0.000000,0.000000,0.000000,0.000000,0.000000,0.000000,1648618415.931698,0.000000
107.000000,-12724.669304,2057.589836,9518.155100,28239.149241,-3847.271663,47439.320080,3364.228113,10500.938952,0.062000,0.864000,0.456000,192.000000,0.000000,0.000000,0.000000,0.000000,0.000000,0.000000,0.000000,0.000000,0.000000,1648618415.939997,0.000000
108.000000,-12728.849081,2053.186542,9515.182318,28237.428157,-3851.026756,47438.984804,3358.506067,10500.357807,0.062000,0.864000,0.456000,192.000000,0.000000,0.000000,0.000000,0.000000,0.000000,0.000000,0.000000,0.000000,0.000000,1648618415.940009,0.000000
109.000000,-12736.538081,2040.803676,9507.672132,28228.398052,-3859.676881,47429.015926,3346.011441,10494.456946,0.062000,0.864000,0.456000,192.000000,0.000000,0.000000,0.000000,0.000000,0.000000,0.000000,0.000000,0.000000,0.000000,1648618415.946288,0.000000
110.000000,-12741.991906,2035.729830,9502.307713,28223.279503,-3861.487372,47422.824493,3330.208758,10497.742653,0.062000,0.864000,0.456000,192.000000,0.000000,0.000000,0.000000,0.000000,0.000000,0.000000,0.000000,0.000000,0.000000,1648618415.946297,0.000000
111.000000,-12745.255261,2030.074838,9498.418510,28215.657558,-3866.091831,47417.370667,3323.279717,10483.616350,0.062000,0.864000,0.456000,192.000000,0.000000,0.000000,0.000000,0.000000,0.000000,0.000000,0.000000,0.000000,0.000000,1648618415.954265,0.000000
112.000000,-12728.267935,2046.838647,9514.064731,28230.342654,-3853.865427,47429.954699,3354.147476,10495.239257,0.062000,0.864000,0.456000,192.000000,0.000000,0.000000,0.000000,0.000000,0.000000,0.000000,0.000000,0.000000,0.000000,1648618415.954276,0.000000
113.000000,-12732.246546,2044.916397,9511.293115,28231.527296,-3854.625387,47432.391039,3359.668357,10499.351978,0.062000,0.864000,0.456000,192.000000,0.000000,0.000000,0.000000,0.000000,0.000000,0.000000,0.000000,0.000000,0.000000,1648618415.962250,0.000000
114.000000,-12728.267935,2043.754106,9521.597269,28237.182288,-3844.321232,47436.906092,3350.168866,10501.006007,0.070000,0.874000,0.458000,192.000000,2.000000,48.000000,27.000000,80.000000,14.000000,80.000000,0.000000,0.000000,0.000000,1648618415.962262,0.000000
115.000000,-12727.999714,2043.418830,9521.440807,28232.734291,-3846.332889,47434.626214,3354.058069,10505.744577,0.070000,0.874000,0.458000,192.000000,0.000000,0.000000,0.000000,0.000000,0.000000,0.000000,0.000000,0.000000,0.000000,1648618415.968952,0.000000
116.000000,-12726.390389,2045.475190,9522.536042,28234.187154,-3843.740087,47437.978976,3353.991014,10495.149850,0.070000,0.874000,0.458000,192.000000,0.000000,0.000000,0.000000,0.000000,0.000000,0.000000,0.000000,0.000000,0.000000,1648618415.968970,0.000000
117.000000,-12721.182432,2053.991205,9525.866452,28239.775090,-3837.481599,47439.320080,3345.810276,10492.042958,0.070000,0.874000,0.458000,192.000000,0.000000,0.000000,0.000000,0.000000,0.000000,0.000000,0.000000,0.000000,0.000000,1648618415.975937,0.000000
118.000000,-12731.866566,2044.782286,9519.406798,28234.365968,-3843.941253,47435.430877,3341.652851,10496.245086,0.070000,0.874000,0.458000,192.000000,0.000000,0.000000,0.000000,0.000000,0.000000,0.000000,0.000000,0.000000,0.000000,1648618415.984732,0.000000
119.000000,-12731.866566,2044.245844,9519.138577,28235.572962,-3842.510741,47438.291900,3355.421526,10502.213002,0.070000,0.874000,0.458000,192.000000,0.000000,0.000000,0.000000,0.000000,0.000000,0.000000,0.000000,0.000000,0.000000,1648618415.984749,0.000000
120.000000,-12734.437017,2040.289586,9518.780949,28235.282390,-3842.555445,47441.219978,3358.930750,10508.762063,0.070000,0.874000,0.458000,192.000000,0.000000,0.000000,0.000000,0.000000,0.000000,0.000000,0.000000,0.000000,0.000000,1648618415.991914,0.000000
121.000000,-12730.860738,2047.620958,9520.390275,28236.489384,-3841.057878,47439.141266,3352.515799,10503.263534,0.070000,0.874000,0.458000,192.000000,0.000000,0.000000,0.000000,0.000000,0.000000,0.000000,0.000000,0.000000,0.000000,1648618415.991922,0.000000
122.000000,-12718.410816,2059.467382,9532.460217,28252.604992,-3826.082209,47442.024641,3351.577026,10506.415129,0.070000,0.874000,0.458000,192.000000,0.000000,0.000000,0.000000,0.000000,0.000000,0.000000,0.000000,0.000000,0.000000,1648618415.998524,0.000000
123.000000,-12715.236868,2060.070879,9534.762446,28253.901393,-3821.790674,47451.524133,3362.283511,10517.747464,0.070000,0.874000,0.458000,192.000000,0.000000,0.000000,0.000000,0.000000,0.000000,0.000000,0.000000,0.000000,0.000000,1648618415.998531,0.000000
124.000000,-12718.701389,2057.299263,9529.286269,28246.771186,-3828.272680,47448.596054,3357.522590,10508.270324,0.062000,0.870000,0.470000,192.000000,1.000000,240.000000,27.000000,48.000000,14.000000,176.000000,0.000000,0.000000,0.000000,1648618416.006515,0.000000
125.000000,-12722.031799,2056.740470,9525.486472,28243.373721,-3832.295994,47440.549426,3344.826799,10494.456946,0.062000,0.870000,0.470000,192.000000,0.000000,0.000000,0.000000,0.000000,0.000000,0.000000,0.000000,0.000000,0.000000,1648618416.006524,0.000000
126.000000,-12718.008485,2057.343967,9528.235737,28241.630285,-3831.312517,47441.376441,3342.233997,10497.809708,0.062000,0.870000,0.470000,192.000000,0.000000,0.000000,0.000000,0.000000,0.000000,0.000000,0.000000,0.000000,0.000000,1648618416.014452,0.000000
127.000000,-12715.259220,2063.133068,9531.744961,28246.167689,-3827.088037,47445.265644,3349.163037,10501.542449,0.062000,0.870000,0.470000,192.000000,0.000000,0.000000,0.000000,0.000000,0.000000,0.000000,0.000000,0.000000,0.000000,1648618416.014460,0.000000
128.000000,-12719.930735,2059.288568,9526.268783,28240.780919,-3833.771209,47440.549426,3340.088229,10500.201345,0.062000,0.870000,0.470000,192.000000,0.000000,0.000000,0.000000,0.000000,0.000000,0.000000,0.000000,0.000000,0.000000,1648618416.021663,0.000000
129.000000,-12717.293229,2065.211781,9530.739132,28248.000532,-3829.166750,47445.355051,3350.772363,10507.756234,0.062000,0.870000,0.470000,192.000000,0.000000,0.000000,0.000000,0.000000,0.000000,0.000000,0.000000,0.000000,0.000000,1648618416.021687,0.000000
130.000000,-12714.566316,2067.357548,9534.851853,28252.068550,-3826.976279,47444.103354,3358.304901,10503.732920,0.062000,0.870000,0.470000,192.000000,0.000000,0.000000,0.000000,0.000000,0.000000,0.000000,0.000000,0.000000,0.000000,1648618416.029260,0.000000
131.000000,-12721.182432,2060.830839,9526.157025,28241.719692,-3837.213378,47431.139342,3346.123200,10495.194554,0.062000,0.870000,0.470000,192.000000,0.000000,0.000000,0.000000,0.000000,0.000000,0.000000,0.000000,0.000000,0.000000,1648618416.029272,0.000000
132.000000,-12713.918115,2067.290493,9530.649725,28242.904334,-3834.240596,47436.235539,3355.980319,10501.028359,0.062000,0.870000,0.470000,192.000000,0.000000,0.000000,0.000000,0.000000,0.000000,0.000000,0.000000,0.000000,0.000000,1648618416.036425,0.000000
133.000000,-12715.080406,2067.983397,9526.402894,28242.099672,-3837.258081,47430.491141,3346.950215,10486.700891,0.062000,0.870000,0.470000,192.000000,0.000000,0.000000,0.000000,0.000000,0.000000,0.000000,0.000000,0.000000,0.000000,1648618416.044056,0.000000
134.000000,-12717.360284,2065.882333,9524.592403,28238.255172,-3840.253215,47422.980955,3335.126142,10470.875856,0.054000,0.866000,0.464000,192.000000,1.000000,176.000000,27.000000,16.000000,14.000000,128.000000,0.000000,0.000000,0.000000,1648618416.044066,0.000000
135.000000,-12707.838441,2074.577162,9532.974307,28245.631247,-3832.519511,47428.948871,3337.562482,10474.720356,0.054000,0.866000,0.464000,192.000000,0.000000,0.000000,0.000000,0.000000,0.000000,0.000000,0.000000,0.000000,0.000000,1648618416.051552,0.000000
136.000000,-12703.323388,2081.483851,9538.249318,28251.912087,-3825.098732,47436.950795,3345.586758,10489.338397,0.054000,0.866000,0.464000,192.000000,0.000000,0.000000,0.000000,0.000000,0.000000,0.000000,0.000000,0.000000,0.000000,1648618416.051569,0.000000
137.000000,-12705.267990,2081.863830,9535.477702,28248.469919,-3826.998630,47437.286071,3356.136782,10493.182897,0.054000,0.866000,0.464000,192.000000,0.000000,0.000000,0.000000,0.000000,0.000000,0.000000,0.000000,0.000000,0.000000,1648618416.058743,0.000000
138.000000,-12705.402101,2082.936714,9534.337763,28248.291105,-3827.892700,47440.191798,3357.030851,10499.799013,0.054000,0.866000,0.464000,192.000000,0.000000,0.000000,0.000000,0.000000,0.000000,0.000000,0.000000,0.000000,0.000000,1648618416.058754,0.000000
139.000000,-12716.265049,2070.218571,9524.637106,28235.438852,-3835.916976,47433.173350,3349.341851,10492.132365,0.054000,0.866000,0.464000,192.000000,0.000000,0.000000,0.000000,0.000000,0.000000,0.000000,0.000000,0.000000,0.000000,1648618416.067180,0.000000
140.000000,-12723.059979,2062.686034,9518.892708,28228.487459,-3842.421334,47429.597071,3344.960909,10498.390853,0.054000,0.866000,0.464000,192.000000,0.000000,0.000000,0.000000,0.000000,0.000000,0.000000,0.000000,0.000000,0.000000,1648618416.067196,0.000000
141.000000,-12715.415682,2070.620903,9524.771216,28236.489384,-3834.665279,47436.302595,3351.532322,10510.483147,0.054000,0.866000,0.464000,192.000000,0.000000,0.000000,0.000000,0.000000,0.000000,0.000000,0.000000,0.000000,0.000000,1648618416.074843,0.000000
142.000000,-12719.729569,2067.804583,9525.106493,28235.684721,-3835.447590,47438.090734,3347.576064,10511.108996,0.054000,0.866000,0.464000,192.000000,0.000000,0.000000,0.000000,0.000000,0.000000,0.000000,0.000000,0.000000,0.000000,1648618416.074854,0.000000
143.000000,-12717.293229,2071.447917,9528.079275,28239.596276,-3833.391229,47439.700060,3345.631462,10506.839813,0.054000,0.866000,0.464000,192.000000,0.000000,0.000000,0.000000,0.000000,0.000000,0.000000,0.000000,0.000000,0.000000,1648618416.081490,0.000000
144.000000,-12712.331142,2078.667531,9531.990830,28244.871288,-3829.725543,47443.008118,3353.588683,10509.074987,0.062000,0.880000,0.458000,192.000000,1.000000,240.000000,27.000000,128.000000,14.000000,80.000000,0.000000,0.000000,0.000000,1648618416.081502,0.000000
145.000000,-12713.247563,2077.482888,9531.744961,28244.804233,-3828.026811,47445.690327,3353.789849,10512.673618,0.062000,0.880000,0.458000,192.000000,0.000000,0.000000,0.000000,0.000000,0.000000,0.000000,0.000000,0.000000,0.000000,1648618416.089837,0.000000
146.000000,-12715.952124,2073.213705,9529.845062,28244.580715,-3829.434971,47443.879836,3350.817067,10507.599772,0.062000,0.880000,0.458000,192.000000,0.000000,0.000000,0.000000,0.000000,0.000000,0.000000,0.000000,0.000000,0.000000,1648618416.089851,0.000000
147.000000,-12709.336008,2079.516897,9537.131731,28251.554460,-3823.735276,47448.372537,3356.315596,10509.365560,0.062000,0.880000,0.458000,192.000000,0.000000,0.000000,0.000000,0.000000,0.000000,0.000000,0.000000,0.000000,0.000000,1648618416.096553,0.000000
148.000000,-12708.777214,2079.114566,9535.321240,28251.688570,-3825.076380,47451.211208,3349.163037,10499.843717,0.062000,0.880000,0.458000,192.000000,0.000000,0.000000,0.000000,0.000000,0.000000,0.000000,0.000000,0.000000,0.000000,1648618416.103695,0.000000
149.000000,-12704.150403,2083.137880,9535.947089,28253.364951,-3821.790674,47452.328795,3358.975453,10498.256743,0.062000,0.880000,0.458000,192.000000,0.000000,0.000000,0.000000,0.000000,0.000000,0.000000,0.000000,0.000000,0.000000,1648618416.103707,0.000000
150.000000,-12699.322426,2093.151461,9539.858644,28259.444625,-3818.214395,47455.301577,3363.043471,10506.079853,0.062000,0.880000,0.458000,192.000000,0.000000,0.000000,0.000000,0.000000,0.000000,0.000000,0.000000,0.000000,0.000000,1648618416.111254,0.000000
151.000000,-12697.735452,2098.247659,9539.076333,28256.248326,-3820.337811,47448.640758,3339.641194,10503.688217,0.062000,0.880000,0.458000,192.000000,0.000000,0.000000,0.000000,0.000000,0.000000,0.000000,0.000000,0.000000,0.000000,1648618416.111265,0.000000
152.000000,-12703.770423,2086.378883,9537.601118,28252.135605,-3820.404866,47452.664072,3348.917168,10509.946705,0.062000,0.880000,0.458000,192.000000,0.000000,0.000000,0.000000,0.000000,0.000000,0.000000,0.000000,0.000000,0.000000,1648618416.119313,0.000000
153.000000,-12713.806357,2074.778327,9529.330972,28243.999570,-3829.077343,47451.367670,3352.314633,10512.986542,0.062000,0.880000,0.458000,192.000000,0.000000,0.000000,0.000000,0.000000,0.000000,0.000000,0.000000,0.000000,0.000000,1648618416.119330,0.000000
154.000000,-12725.719836,2058.774478,9515.092911,28226.766375,-3845.975261,47435.050897,3336.735468,10495.127499,0.062000,0.880000,0.458000,192.000000,0.000000,0.000000,0.000000,0.000000,0.000000,0.000000,0.000000,0.000000,0.000000,1648618416.127148,0.000000
155.000000,-12726.591554,2055.555827,9514.735283,28225.537029,-3847.495180,47429.708830,3327.012459,10474.608597,0.062000,0.874000,0.454000,192.000000,1.000000,240.000000,27.000000,80.000000,14.000000,48.000000,0.000000,0.000000,0.000000,1648618416.127157,0.000000
156.000000,-12729.854909,2050.750202,9512.745978,28220.194962,-3849.283320,47431.049935,3337.316613,10487.729071,0.062000,0.874000,0.454000,192.000000,0.000000,0.000000,0.000000,0.000000,0.000000,0.000000,0.000000,0.000000,0.000000,1648618416.134037,0.000000
157.000000,-12734.191148,2045.475190,9507.962705,28214.942302,-3853.708965,47428.457132,3334.343831,10493.853449,0.062000,0.874000,0.454000,192.000000,0.000000,0.000000,0.000000,0.000000,0.000000,0.000000,0.000000,0.000000,0.000000,1648618416.134053,0.000000
158.000000,-12736.180453,2041.921263,9501.368940,28207.923854,-3861.912055,47417.527129,3311.768569,10475.145039,0.062000,0.874000,0.454000,192.000000,0.000000,0.000000,0.000000,0.000000,0.000000,0.000000,0.000000,0.000000,0.000000,1648618416.141687,0.000000
159.000000,-12730.860738,2048.515028,9505.101681,28213.824715,-3856.257064,47428.121856,3330.298165,10498.144984,0.062000,0.874000,0.454000,192.000000,0.000000,0.000000,0.000000,0.000000,0.000000,0.000000,0.000000,0.000000,0.000000,1648618416.141698,0.000000
160.000000,-12728.983191,2051.286644,9507.627428,28217.490401,-3852.390212,47437.621348,3353.946311,10510.885478,0.062000,0.874000,0.454000,192.000000,0.000000,0.000000,0.000000,0.000000,0.000000,0.000000,0.000000,0.000000,0.000000,1648618416.150101,0.000000
161.000000,-12728.625563,2052.180714,9510.220231,28219.680872,-3850.825590,47439.096563,3353.231055,10509.656132,0.062000,0.874000,0.454000,192.000000,0.000000,0.000000,0.000000,0.000000,0.000000,0.000000,0.000000,0.000000,0.000000,1648618416.150118,0.000000
162.000000,-12741.075485,2040.893083,9498.038530,28207.745040,-3861.174448,47425.663164,3340.334098,10484.733937,0.062000,0.874000,0.454000,192.000000,0.000000,0.000000,0.000000,0.000000,0.000000,0.000000,0.000000,0.000000,0.000000,1648618416.157088,0.000000
163.000000,-12735.711066,2047.151571,9502.128899,28211.723651,-3858.358128,47423.986784,3334.589700,10483.348129,0.062000,0.874000,0.454000,192.000000,0.000000,0.000000,0.000000,0.000000,0.000000,0.000000,0.000000,0.000000,0.000000,1648618416.157100,0.000000
164.000000,-12729.318467,2050.169057,9510.622562,28218.831506,-3850.423259,47433.016888,3346.369069,10511.377217,0.062000,0.874000,0.454000,192.000000,0.000000,0.000000,0.000000,0.000000,0.000000,0.000000,0.000000,0.000000,0.000000,1648618416.163415,0.000000
165.000000,-12718.567278,2062.484868,9520.703199,28230.476764,-3840.409677,47439.253025,3344.692689,10513.679446,0.062000,0.876000,0.452000,192.000000,1.000000,240.000000,27.000000,96.000000,14.000000,32.000000,0.000000,0.000000,0.000000,1648618416.171441,0.000000
