%OpenBCI Raw EEG Data
%Number of channels = 8
%Sample Rate = 256 Hz
%Board = OpenBCI_GUI$BoardCytonSerial
%Channels = Fp1, Fp2, F3, F4, Fz, Pz, O1, O2
%Data recorded at AIMS Lab (http://aimsl.uiu.ac.bd) by Rana Depto (mail@ranadepto.com)
%Brainwaves were obtained via the Ultracortex Mark IV Headset using the OpenBCI Cyton Board
%Recording Application = ConcentrateToday (https://concentrate.today)
%Data type = RAW data with noise
%Day No = 1
%Subject ID = 4
%Session ID = 7
%Record starting timestamp (UTC+6) = 2022-03-08T15:58:48.041921
%Record ending timestamp (UTC+6)   = 2022-03-08T15:59:08.906698
%Recorded durations = ~20 seconds
Sample Index, EXG Channel 0, EXG Channel 1, EXG Channel 2, EXG Channel 3, EXG Channel 4, EXG Channel 5, EXG Channel 6, EXG Channel 7, Accel Channel 0, Accel Channel 1, Accel Channel 2, Other, Other, Other, Other, Other, Other, Other, Analog Channel 0, Analog Channel 1, Analog Channel 2, Timestamp, Timestamp (Formatted)
218.000000,13556.310660,23576.932976,32148.245829,38397.503006,6839.700859,21482.619224,37910.302032,45631.935672,0.006000,0.964000,0.228000,192.000000,0.000000,0.000000,0.000000,0.000000,0.000000,0.000000,0.000000,0.000000,0.000000,1646733528.042203,0.000000
219.000000,13553.382582,23576.798865,32145.429509,38395.334887,6836.325745,21478.953538,37899.595547,45625.677183,0.006000,0.964000,0.228000,192.000000,0.000000,0.000000,0.000000,0.000000,0.000000,0.000000,0.000000,0.000000,0.000000,1646733528.042215,0.000000
220.000000,13556.020088,23580.889235,32137.785213,38396.631288,6831.184844,21478.215930,37902.277756,45626.571253,0.006000,0.964000,0.228000,192.000000,0.000000,0.000000,0.000000,0.000000,0.000000,0.000000,0.000000,0.000000,0.000000,1646733528.049089,0.000000
221.000000,13554.611928,23580.978642,32135.237114,38396.787750,6830.000201,21475.086686,37889.559613,45614.613070,0.006000,0.964000,0.228000,192.000000,0.000000,0.000000,0.000000,0.000000,0.000000,0.000000,0.000000,0.000000,0.000000,1646733528.049096,0.000000
222.000000,13534.450654,23557.911641,32122.138992,38375.106558,6817.304411,21458.412285,37867.677256,45595.569384,0.006000,0.964000,0.228000,192.000000,0.000000,0.000000,0.000000,0.000000,0.000000,0.000000,0.000000,0.000000,0.000000,1646733528.056488,0.000000
223.000000,13524.325314,23541.460757,32109.711422,38361.181421,6804.072178,21441.223793,37865.173860,45574.737558,0.006000,0.960000,0.222000,192.000000,0.000000,48.000000,30.000000,0.000000,6.000000,240.000000,0.000000,0.000000,0.000000,1646733528.056492,0.000000
224.000000,13523.453596,23543.204193,32109.487904,38361.136718,6800.942934,21444.174223,37876.103863,45577.263305,0.006000,0.960000,0.222000,192.000000,0.000000,0.000000,0.000000,0.000000,0.000000,0.000000,0.000000,0.000000,0.000000,1646733528.064502,0.000000
225.000000,13528.907422,23554.849452,32113.175942,38370.815023,6800.585306,21452.533776,37886.117445,45595.323514,0.006000,0.960000,0.222000,192.000000,0.000000,0.000000,0.000000,0.000000,0.000000,0.000000,0.000000,0.000000,0.000000,1646733528.064506,0.000000
226.000000,13533.802454,23557.911641,32114.271178,38374.905393,6803.312219,21456.311221,37886.564480,45604.331267,0.006000,0.960000,0.222000,192.000000,0.000000,0.000000,0.000000,0.000000,0.000000,0.000000,0.000000,0.000000,0.000000,1646733528.072507,0.000000
227.000000,13529.823843,23550.423807,32109.912587,38366.299971,6801.457024,21453.964288,37875.656828,45597.759855,0.006000,0.960000,0.222000,192.000000,0.000000,0.000000,0.000000,0.000000,0.000000,0.000000,0.000000,0.000000,0.000000,1646733528.072511,0.000000
228.000000,13522.648933,23550.870842,32101.016593,38361.784919,6798.528945,21448.130482,37880.305991,45592.618953,0.006000,0.960000,0.222000,192.000000,0.000000,0.000000,0.000000,0.000000,0.000000,0.000000,0.000000,0.000000,0.000000,1646733528.079162,0.000000
229.000000,13526.560489,23552.390760,32105.464590,38364.847108,6799.870050,21455.439503,37898.321497,45606.186462,0.006000,0.960000,0.222000,192.000000,0.000000,0.000000,0.000000,0.000000,0.000000,0.000000,0.000000,0.000000,0.000000,1646733528.079167,0.000000
230.000000,13525.666419,23549.797958,32108.571483,38365.741177,6800.831175,21464.201386,37899.528491,45623.889044,0.006000,0.960000,0.222000,192.000000,0.000000,0.000000,0.000000,0.000000,0.000000,0.000000,0.000000,0.000000,0.000000,1646733528.086164,0.000000
231.000000,13522.537175,23544.679409,32106.716288,38359.974427,6799.579477,21462.390895,37895.683991,45622.860864,0.006000,0.960000,0.222000,192.000000,0.000000,0.000000,0.000000,0.000000,0.000000,0.000000,0.000000,0.000000,0.000000,1646733528.086169,0.000000
232.000000,13524.258259,23542.623048,32105.397535,38357.046349,6799.981809,21461.250956,37897.405076,45627.912358,0.006000,0.960000,0.222000,192.000000,0.000000,0.000000,0.000000,0.000000,0.000000,0.000000,0.000000,0.000000,0.000000,1646733528.094156,0.000000
233.000000,13532.617811,23553.217775,32111.700727,38364.020093,6801.591134,21464.983698,37897.293317,45620.692744,0.012000,0.952000,0.226000,192.000000,0.000000,96.000000,29.000000,192.000000,7.000000,16.000000,0.000000,0.000000,0.000000,1646733528.102142,0.000000
234.000000,13526.940468,23554.760045,32106.381012,38362.254305,6795.042073,21460.133369,37889.939593,45611.260308,0.012000,0.952000,0.226000,192.000000,0.000000,0.000000,0.000000,0.000000,0.000000,0.000000,0.000000,0.000000,0.000000,1646733528.102147,0.000000
235.000000,13525.353494,23555.676467,32106.068087,38364.735349,6794.639742,21457.182939,37887.682067,45610.120369,0.012000,0.952000,0.226000,192.000000,0.000000,0.000000,0.000000,0.000000,0.000000,0.000000,0.000000,0.000000,0.000000,1646733528.108723,0.000000
236.000000,13529.220346,23563.968964,32108.213855,38366.791709,6797.836041,21454.254860,37890.364276,45617.384686,0.012000,0.952000,0.226000,192.000000,0.000000,0.000000,0.000000,0.000000,0.000000,0.000000,0.000000,0.000000,0.000000,1646733528.108727,0.000000
237.000000,13531.164948,23563.946612,32112.505390,38363.818927,6804.385102,21459.619279,37899.752009,45621.989146,0.012000,0.952000,0.226000,192.000000,0.000000,0.000000,0.000000,0.000000,0.000000,0.000000,0.000000,0.000000,0.000000,1646733528.116783,0.000000
238.000000,13536.909346,23566.494711,32115.478172,38371.016189,6807.939030,21458.479340,37894.208776,45615.484788,0.012000,0.952000,0.226000,192.000000,0.000000,0.000000,0.000000,0.000000,0.000000,0.000000,0.000000,0.000000,0.000000,1646733528.116807,0.000000
239.000000,13535.076503,23560.303278,32111.991300,38370.300933,6803.423977,21456.110055,37881.043599,45604.845358,0.012000,0.952000,0.226000,192.000000,0.000000,0.000000,0.000000,0.000000,0.000000,0.000000,0.000000,0.000000,0.000000,1646733528.124770,0.000000
240.000000,13530.270878,23555.810577,32112.259521,38373.318419,6804.340399,21460.490997,37883.077608,45607.371105,0.012000,0.952000,0.226000,192.000000,0.000000,0.000000,0.000000,0.000000,0.000000,0.000000,0.000000,0.000000,0.000000,1646733528.124774,0.000000
241.000000,13534.562413,23558.202214,32114.271178,38376.648829,6809.727169,21462.100322,37892.755913,45614.277794,0.012000,0.952000,0.226000,192.000000,0.000000,0.000000,0.000000,0.000000,0.000000,0.000000,0.000000,0.000000,0.000000,1646733528.132042,0.000000
242.000000,13528.818015,23554.961211,32112.170114,38376.559422,6812.297620,21460.960384,37886.452721,45613.115503,0.012000,0.952000,0.226000,192.000000,0.000000,0.000000,0.000000,0.000000,0.000000,0.000000,0.000000,0.000000,0.000000,1646733528.132045,0.000000
243.000000,13530.114416,23562.180825,32113.846494,38376.961753,6812.051751,21459.641631,37890.431331,45605.739427,0.018000,0.952000,0.224000,192.000000,0.000000,144.000000,29.000000,192.000000,7.000000,0.000000,0.000000,0.000000,0.000000,1646733528.139422,0.000000
244.000000,13526.359323,23562.538452,32109.554959,38373.653695,6809.973038,21466.302450,37890.096055,45607.929898,0.018000,0.952000,0.224000,192.000000,0.000000,0.000000,0.000000,0.000000,0.000000,0.000000,0.000000,0.000000,0.000000,1646733528.139425,0.000000
245.000000,13527.611021,23562.292583,32106.068087,38370.189174,6804.742730,21465.922471,37893.024134,45608.153416,0.018000,0.952000,0.224000,192.000000,0.000000,0.000000,0.000000,0.000000,0.000000,0.000000,0.000000,0.000000,0.000000,1646733528.147423,0.000000
246.000000,13539.993887,23572.730848,32114.651157,38374.637172,6813.459911,21476.137218,37892.130064,45615.842416,0.018000,0.952000,0.224000,192.000000,0.000000,0.000000,0.000000,0.000000,0.000000,0.000000,0.000000,0.000000,0.000000,1646733528.147427,0.000000
247.000000,13539.748018,23571.009764,32111.946596,38369.630381,6809.257783,21470.906910,37883.032904,45610.209776,0.018000,0.952000,0.224000,192.000000,0.000000,0.000000,0.000000,0.000000,0.000000,0.000000,0.000000,0.000000,0.000000,1646733528.154414,0.000000
248.000000,13529.823843,23559.990354,32107.498599,38365.271791,6804.832137,21467.084762,37885.558651,45604.957116,0.018000,0.952000,0.224000,192.000000,0.000000,0.000000,0.000000,0.000000,0.000000,0.000000,0.000000,0.000000,0.000000,1646733528.161037,0.000000
249.000000,13534.830634,23568.551072,32110.873712,38374.145433,6805.279172,21464.693125,37883.792863,45606.611145,0.018000,0.952000,0.224000,192.000000,0.000000,0.000000,0.000000,0.000000,0.000000,0.000000,0.000000,0.000000,0.000000,1646733528.161041,0.000000
250.000000,13538.585727,23575.189540,32113.891198,38378.682837,6807.089663,21474.393782,37887.525605,45618.479922,0.018000,0.952000,0.224000,192.000000,0.000000,0.000000,0.000000,0.000000,0.000000,0.000000,0.000000,0.000000,0.000000,1646733528.169097,0.000000
251.000000,13537.468140,23572.216758,32111.432506,38378.280506,6807.939030,21475.846645,37892.264174,45618.546977,0.018000,0.952000,0.224000,192.000000,0.000000,0.000000,0.000000,0.000000,0.000000,0.000000,0.000000,0.000000,0.000000,1646733528.169100,0.000000
252.000000,13535.121207,23565.801807,32112.728907,38379.398093,6810.107149,21474.416134,37889.291392,45613.227262,0.018000,0.952000,0.224000,192.000000,0.000000,0.000000,0.000000,0.000000,0.000000,0.000000,0.000000,0.000000,0.000000,1646733528.177052,0.000000
253.000000,13530.583803,23568.551072,32109.532608,38372.267887,6805.189765,21466.190692,37887.346791,45606.745256,0.018000,0.952000,0.224000,192.000000,0.000000,0.000000,0.000000,0.000000,0.000000,0.000000,0.000000,0.000000,0.000000,1646733528.177056,0.000000
254.000000,13534.763579,23571.903833,32115.165247,38373.854861,6808.654286,21468.247052,37891.168939,45609.360410,0.024000,0.950000,0.222000,192.000000,0.000000,192.000000,29.000000,176.000000,6.000000,240.000000,0.000000,0.000000,0.000000,1646733528.184197,0.000000
255.000000,13539.412742,23571.210929,32122.183695,38378.146395,6813.974001,21476.405439,37892.264174,45615.753009,0.024000,0.950000,0.222000,192.000000,0.000000,0.000000,0.000000,0.000000,0.000000,0.000000,0.000000,0.000000,0.000000,1646733528.184202,0.000000
0.000000,13538.630431,23568.439313,32121.647253,38379.934535,6814.845719,21474.013802,37893.851148,45617.518797,0.024000,0.950000,0.222000,192.000000,0.000000,0.000000,0.000000,0.000000,0.000000,0.000000,0.000000,0.000000,0.000000,1646733528.192435,0.000000
1.000000,13545.760637,23575.949499,32127.749279,38387.422369,6823.764065,21477.880654,37886.877404,45618.099942,0.024000,0.950000,0.222000,192.000000,0.000000,0.000000,0.000000,0.000000,0.000000,0.000000,0.000000,0.000000,0.000000,1646733528.192445,0.000000
2.000000,13544.844215,23576.351831,32134.432451,38382.929669,6826.200405,21476.204273,37880.753026,45610.053314,0.024000,0.950000,0.222000,192.000000,0.000000,0.000000,0.000000,0.000000,0.000000,0.000000,0.000000,0.000000,0.000000,1646733528.199515,0.000000
3.000000,13549.605137,23584.912549,32135.974721,38383.063779,6825.239280,21472.829160,37886.475073,45608.533395,0.024000,0.950000,0.222000,192.000000,0.000000,0.000000,0.000000,0.000000,0.000000,0.000000,0.000000,0.000000,0.000000,1646733528.199519,0.000000
4.000000,13553.740210,23592.467438,32138.589876,38388.092922,6827.317992,21474.930224,37893.605279,45611.886157,0.024000,0.950000,0.222000,192.000000,0.000000,0.000000,0.000000,0.000000,0.000000,0.000000,0.000000,0.000000,0.000000,1646733528.207039,0.000000
5.000000,13548.308736,23584.845493,32132.018463,38380.783901,6823.786417,21475.489017,37892.755913,45609.203948,0.024000,0.950000,0.222000,192.000000,0.000000,0.000000,0.000000,0.000000,0.000000,0.000000,0.000000,0.000000,0.000000,1646733528.207043,0.000000
6.000000,13552.533216,23593.428563,32132.085518,38380.247459,6827.653268,21475.533721,37902.590680,45610.098017,0.024000,0.950000,0.222000,192.000000,0.000000,0.000000,0.000000,0.000000,0.000000,0.000000,0.000000,0.000000,0.000000,1646733528.214039,0.000000
7.000000,13547.794646,23584.152589,32131.325559,38378.839300,6828.189710,21471.465703,37897.695648,45602.185500,0.024000,0.950000,0.222000,192.000000,0.000000,0.000000,0.000000,0.000000,0.000000,0.000000,0.000000,0.000000,0.000000,1646733528.222037,0.000000
8.000000,13541.312640,23576.418886,32130.878524,38379.934535,6825.485149,21471.845683,37898.880291,45604.443026,0.020000,0.964000,0.208000,192.000000,0.000000,160.000000,30.000000,32.000000,6.000000,128.000000,0.000000,0.000000,0.000000,1646733528.222041,0.000000
9.000000,13541.312640,23581.515083,32124.888256,38383.287297,6820.880690,21465.296622,37897.002744,45599.346828,0.020000,0.964000,0.208000,192.000000,0.000000,0.000000,0.000000,0.000000,0.000000,0.000000,0.000000,0.000000,0.000000,1646733528.228671,0.000000
10.000000,13552.466160,23593.339156,32136.287646,38394.217300,6833.911757,21473.455009,37904.624689,45607.460512,0.020000,0.964000,0.208000,192.000000,0.000000,0.000000,0.000000,0.000000,0.000000,0.000000,0.000000,0.000000,0.000000,1646733528.228674,0.000000
11.000000,13546.900576,23582.230339,32132.890181,38393.613803,6832.436542,21467.934128,37899.707305,45597.469282,0.020000,0.964000,0.208000,192.000000,0.000000,0.000000,0.000000,0.000000,0.000000,0.000000,0.000000,0.000000,0.000000,1646733528.236675,0.000000
12.000000,13547.593480,23584.979604,32128.039852,38390.797483,6824.904004,21461.899157,37896.779227,45591.434311,0.020000,0.964000,0.208000,192.000000,0.000000,0.000000,0.000000,0.000000,0.000000,0.000000,0.000000,0.000000,0.000000,1646733528.236681,0.000000
13.000000,13548.733419,23588.131200,32126.229361,38389.188157,6825.842777,21465.497788,37893.739390,45591.724884,0.020000,0.964000,0.208000,192.000000,0.000000,0.000000,0.000000,0.000000,0.000000,0.000000,0.000000,0.000000,0.000000,1646733528.244673,0.000000
14.000000,13546.252375,23582.275043,32124.888256,38389.389323,6826.647440,21464.581366,37898.746180,45590.674352,0.020000,0.964000,0.208000,192.000000,0.000000,0.000000,0.000000,0.000000,0.000000,0.000000,0.000000,0.000000,0.000000,1646733528.244678,0.000000
15.000000,13552.644974,23588.667642,32132.331387,38397.145378,6835.699896,21471.085724,37908.692707,45603.794826,0.020000,0.964000,0.208000,192.000000,0.000000,0.000000,0.000000,0.000000,0.000000,0.000000,0.000000,0.000000,0.000000,1646733528.251694,0.000000
16.000000,13554.455466,23590.411078,32136.757032,38401.928652,6839.991431,21473.745581,37914.772381,45610.165073,0.020000,0.964000,0.208000,192.000000,0.000000,0.000000,0.000000,0.000000,0.000000,0.000000,0.000000,0.000000,0.000000,1646733528.251698,0.000000
17.000000,13551.616794,23587.438296,32138.411062,38401.503968,6839.857321,21472.605642,37908.826817,45608.131064,0.020000,0.964000,0.208000,192.000000,0.000000,0.000000,0.000000,0.000000,0.000000,0.000000,0.000000,0.000000,0.000000,1646733528.259407,0.000000
18.000000,13557.964689,23591.685127,32143.708425,38405.192006,6842.114847,21472.248014,37903.305936,45604.443026,0.008000,0.964000,0.204000,192.000000,0.000000,64.000000,30.000000,32.000000,6.000000,96.000000,0.000000,0.000000,0.000000,1646733528.259413,0.000000
19.000000,13552.488512,23588.265310,32139.483945,38400.811064,6834.135274,21470.906910,37911.687840,45613.182558,0.008000,0.964000,0.204000,192.000000,0.000000,0.000000,0.000000,0.000000,0.000000,0.000000,0.000000,0.000000,0.000000,1646733528.267321,0.000000
20.000000,13548.688716,23586.879502,32138.411062,38400.721657,6834.425847,21474.393782,37924.808314,45616.580023,0.008000,0.964000,0.204000,192.000000,0.000000,0.000000,0.000000,0.000000,0.000000,0.000000,0.000000,0.000000,0.000000,1646733528.267325,0.000000
21.000000,13549.046343,23590.746354,32141.272085,38402.621556,6833.397667,21473.052677,37931.536190,45615.931823,0.008000,0.964000,0.204000,192.000000,0.000000,0.000000,0.000000,0.000000,0.000000,0.000000,0.000000,0.000000,0.000000,1646733528.274348,0.000000
22.000000,13550.767428,23591.059278,32140.266256,38404.320288,6834.425847,21475.801942,37930.798582,45613.808407,0.008000,0.964000,0.204000,192.000000,0.000000,0.000000,0.000000,0.000000,0.000000,0.000000,0.000000,0.000000,0.000000,1646733528.281414,0.000000
23.000000,13554.567224,23591.349851,32139.483945,38404.230881,6832.145969,21474.572596,37922.483733,45607.147587,0.008000,0.964000,0.204000,192.000000,0.000000,0.000000,0.000000,0.000000,0.000000,0.000000,0.000000,0.000000,0.000000,1646733528.281418,0.000000
24.000000,13556.288309,23592.221569,32133.672492,38401.168692,6828.234414,21473.678526,37916.426410,45602.565480,0.008000,0.964000,0.204000,192.000000,0.000000,0.000000,0.000000,0.000000,0.000000,0.000000,0.000000,0.000000,0.000000,1646733528.289040,0.000000
25.000000,13553.673155,23594.948482,32134.790079,38407.047201,6831.810693,21478.439448,37932.653777,45616.580023,0.008000,0.964000,0.204000,192.000000,0.000000,0.000000,0.000000,0.000000,0.000000,0.000000,0.000000,0.000000,0.000000,1646733528.289043,0.000000
26.000000,13548.711067,23590.433430,32137.427585,38408.388306,6831.386010,21478.372392,37923.042527,45616.557672,0.008000,0.964000,0.204000,192.000000,0.000000,0.000000,0.000000,0.000000,0.000000,0.000000,0.000000,0.000000,0.000000,1646733528.296901,0.000000
27.000000,13545.917099,23585.203121,32137.584047,38405.795503,6827.765027,21471.510407,37929.703346,45610.433294,0.008000,0.964000,0.204000,192.000000,0.000000,0.000000,0.000000,0.000000,0.000000,0.000000,0.000000,0.000000,0.000000,1646733528.296904,0.000000
28.000000,13554.634280,23595.462572,32139.305131,38413.059820,6831.162492,21479.557035,37940.163963,45624.179616,0.004000,0.958000,0.204000,192.000000,0.000000,32.000000,29.000000,240.000000,6.000000,96.000000,0.000000,0.000000,0.000000,1646733528.305040,0.000000
29.000000,13548.152274,23591.908645,32132.309035,38409.662355,6827.072123,21479.959366,37928.384594,45621.787980,0.004000,0.958000,0.204000,192.000000,0.000000,0.000000,0.000000,0.000000,0.000000,0.000000,0.000000,0.000000,0.000000,1646733528.305044,0.000000
30.000000,13550.543910,23588.667642,32130.051509,38404.789675,6823.965230,21473.834988,37923.444858,45617.697611,0.004000,0.958000,0.204000,192.000000,0.000000,0.000000,0.000000,0.000000,0.000000,0.000000,0.000000,0.000000,0.000000,1646733528.311496,0.000000
31.000000,13550.052172,23588.712345,32128.308073,38402.532149,6824.836948,21469.051715,37920.785000,45612.377895,0.004000,0.958000,0.204000,192.000000,0.000000,0.000000,0.000000,0.000000,0.000000,0.000000,0.000000,0.000000,0.000000,1646733528.311500,0.000000
32.000000,13554.790742,23597.429526,32127.324596,38404.722620,6818.354943,21462.212081,37929.166905,45603.928936,0.004000,0.958000,0.204000,192.000000,0.000000,0.000000,0.000000,0.000000,0.000000,0.000000,0.000000,0.000000,0.000000,1646733528.319595,0.000000
33.000000,13556.936509,23604.626787,32130.945579,38410.243501,6823.428789,21467.710610,37937.884085,45606.968773,0.004000,0.958000,0.204000,192.000000,0.000000,0.000000,0.000000,0.000000,0.000000,0.000000,0.000000,0.000000,0.000000,1646733528.319599,0.000000
34.000000,13562.166817,23606.459630,32136.734681,38412.456323,6828.703800,21476.807770,37942.846172,45621.408000,0.004000,0.958000,0.204000,192.000000,0.000000,0.000000,0.000000,0.000000,0.000000,0.000000,0.000000,0.000000,0.000000,1646733528.327623,0.000000
35.000000,13552.130884,23599.195313,32133.583085,38411.830474,6829.307297,21477.768895,37929.926864,45626.370087,0.004000,0.958000,0.204000,192.000000,0.000000,0.000000,0.000000,0.000000,0.000000,0.000000,0.000000,0.000000,0.000000,1646733528.327629,0.000000
36.000000,13550.879186,23596.781325,32126.698747,38402.040410,6822.333553,21457.540567,37908.983279,45599.033904,0.004000,0.958000,0.204000,192.000000,0.000000,0.000000,0.000000,0.000000,0.000000,0.000000,0.000000,0.000000,0.000000,1646733528.334601,0.000000
37.000000,13551.259166,23592.981528,32125.938788,38397.100675,6820.299544,21460.714514,37915.219416,45600.754988,0.004000,0.958000,0.204000,192.000000,0.000000,0.000000,0.000000,0.000000,0.000000,0.000000,0.000000,0.000000,0.000000,1646733528.334605,0.000000
38.000000,13551.147407,23590.187560,32129.917399,38401.079285,6820.366600,21468.939956,37931.759707,45614.702477,0.002000,0.948000,0.208000,192.000000,0.000000,16.000000,29.000000,160.000000,6.000000,128.000000,0.000000,0.000000,0.000000,1646733528.341299,0.000000
39.000000,13555.304832,23592.445087,32128.442184,38405.303765,6815.583326,21464.089628,37928.786925,45616.378858,0.002000,0.948000,0.208000,192.000000,0.000000,0.000000,0.000000,0.000000,0.000000,0.000000,0.000000,0.000000,0.000000,1646733528.349144,0.000000
40.000000,13559.708126,23599.888217,32128.464535,38410.198797,6816.477396,21461.899157,37927.021137,45617.161169,0.002000,0.948000,0.208000,192.000000,0.000000,0.000000,0.000000,0.000000,0.000000,0.000000,0.000000,0.000000,0.000000,1646733528.349147,0.000000
41.000000,13551.415628,23593.026232,32123.480096,38404.566157,6815.315105,21465.497788,37925.277701,45618.949308,0.002000,0.948000,0.208000,192.000000,0.000000,0.000000,0.000000,0.000000,0.000000,0.000000,0.000000,0.000000,0.000000,1646733528.357284,0.000000
42.000000,13546.855872,23584.867845,32116.618111,38394.127893,6808.050788,21460.781570,37913.945367,45611.640288,0.002000,0.948000,0.208000,192.000000,0.000000,0.000000,0.000000,0.000000,0.000000,0.000000,0.000000,0.000000,0.000000,1646733528.357287,0.000000
43.000000,13547.235852,23582.453857,32117.579236,38390.082227,6806.396759,21455.841834,37917.633404,45608.868672,0.002000,0.948000,0.208000,192.000000,0.000000,0.000000,0.000000,0.000000,0.000000,0.000000,0.000000,0.000000,0.000000,1646733528.363895,0.000000
44.000000,13552.622623,23585.113714,32122.004881,38397.413599,6809.011913,21456.937070,37919.689765,45611.394419,0.002000,0.948000,0.208000,192.000000,0.000000,0.000000,0.000000,0.000000,0.000000,0.000000,0.000000,0.000000,0.000000,1646733528.363899,0.000000
45.000000,13549.426323,23581.068049,32119.210913,38392.496215,6805.972076,21452.824349,37912.939538,45606.409980,0.002000,0.948000,0.208000,192.000000,0.000000,0.000000,0.000000,0.000000,0.000000,0.000000,0.000000,0.000000,0.000000,1646733528.371766,0.000000
46.000000,13556.198902,23588.377069,32125.000015,38393.166768,6812.655248,21458.434636,37915.554692,45608.354581,0.002000,0.948000,0.208000,192.000000,0.000000,0.000000,0.000000,0.000000,0.000000,0.000000,0.000000,0.000000,0.000000,1646733528.371769,0.000000
47.000000,13550.700373,23584.756086,32121.334329,38394.060838,6806.419111,21454.679543,37908.692707,45601.447892,0.002000,0.948000,0.208000,192.000000,0.000000,0.000000,0.000000,0.000000,0.000000,0.000000,0.000000,0.000000,0.000000,1646733528.379885,0.000000
48.000000,13555.796570,23589.896988,32124.910608,38396.832454,6809.660114,21455.618317,37907.686878,45599.257421,0.010000,0.956000,0.210000,192.000000,0.000000,80.000000,29.000000,224.000000,6.000000,144.000000,0.000000,0.000000,0.000000,1646733528.379889,0.000000
49.000000,13563.239701,23597.429526,32129.582123,38401.906300,6814.219870,21457.808788,37904.602337,45595.457625,0.010000,0.956000,0.210000,192.000000,0.000000,0.000000,0.000000,0.000000,0.000000,0.000000,0.000000,0.000000,0.000000,1646733528.386907,0.000000
50.000000,13556.869454,23591.998052,32128.643349,38404.856730,6816.477396,21461.809750,37905.652869,45589.757930,0.010000,0.956000,0.210000,192.000000,0.000000,0.000000,0.000000,0.000000,0.000000,0.000000,0.000000,0.000000,0.000000,1646733528.386911,0.000000
51.000000,13550.879186,23581.023345,32122.831896,38397.368896,6812.409379,21458.255822,37901.249576,45588.394474,0.010000,0.956000,0.210000,192.000000,0.000000,0.000000,0.000000,0.000000,0.000000,0.000000,0.000000,0.000000,0.000000,1646733528.394516,0.000000
52.000000,13546.073561,23577.737639,32121.334329,38394.127893,6805.793262,21454.232508,37895.393419,45586.740445,0.010000,0.956000,0.210000,192.000000,0.000000,0.000000,0.000000,0.000000,0.000000,0.000000,0.000000,0.000000,0.000000,1646733528.394519,0.000000
53.000000,13547.146445,23583.012650,32129.738585,38397.637117,6809.078969,21460.692163,37906.792808,45593.736541,0.010000,0.956000,0.210000,192.000000,0.000000,0.000000,0.000000,0.000000,0.000000,0.000000,0.000000,0.000000,0.000000,1646733528.401598,0.000000
54.000000,13549.471027,23587.751220,32130.409137,38399.604070,6811.224736,21462.502654,37908.849169,45594.921183,0.010000,0.956000,0.210000,192.000000,0.000000,0.000000,0.000000,0.000000,0.000000,0.000000,0.000000,0.000000,0.000000,1646733528.409446,0.000000
55.000000,13545.738285,23584.465514,32124.508277,38392.317401,6810.800053,21456.110055,37890.610145,45588.640343,0.010000,0.956000,0.210000,192.000000,0.000000,0.000000,0.000000,0.000000,0.000000,0.000000,0.000000,0.000000,0.000000,1646733528.409450,0.000000
56.000000,13547.571128,23588.555883,32129.023329,38396.832454,6818.779626,21456.065351,37888.665544,45588.975619,0.010000,0.956000,0.210000,192.000000,0.000000,0.000000,0.000000,0.000000,0.000000,0.000000,0.000000,0.000000,0.000000,1646733528.416540,0.000000
57.000000,13547.682887,23587.728868,32128.777460,38399.112332,6816.924431,21458.032305,37897.896814,45598.989200,0.010000,0.956000,0.210000,192.000000,0.000000,0.000000,0.000000,0.000000,0.000000,0.000000,0.000000,0.000000,0.000000,1646733528.416544,0.000000
58.000000,13546.721762,23586.477171,32126.922265,38399.827588,6813.504614,21453.986639,37893.538224,45595.725846,0.014000,0.966000,0.210000,192.000000,0.000000,112.000000,30.000000,48.000000,6.000000,144.000000,0.000000,0.000000,0.000000,1646733528.424173,0.000000
59.000000,13547.794646,23589.472305,32127.190486,38398.553538,6811.381198,21449.896270,37882.138834,45581.174860,0.014000,0.966000,0.210000,192.000000,0.000000,0.000000,0.000000,0.000000,0.000000,0.000000,0.000000,0.000000,0.000000,1646733528.424177,0.000000
60.000000,13540.127997,23582.118581,32119.367375,38390.193986,6809.280134,21446.074122,37884.932802,45582.158337,0.014000,0.966000,0.210000,192.000000,0.000000,0.000000,0.000000,0.000000,0.000000,0.000000,0.000000,0.000000,0.000000,1646733528.432043,0.000000
61.000000,13547.325259,23585.247825,32124.128297,38392.719733,6811.984695,21443.280154,37890.543090,45591.523718,0.014000,0.966000,0.210000,192.000000,0.000000,0.000000,0.000000,0.000000,0.000000,0.000000,0.000000,0.000000,0.000000,1646733528.432047,0.000000
62.000000,13548.934585,23575.211892,32126.117602,38392.272698,6810.755349,21442.833119,37880.082474,45590.719055,0.014000,0.966000,0.210000,192.000000,0.000000,0.000000,0.000000,0.000000,0.000000,0.000000,0.000000,0.000000,0.000000,1646733528.440177,0.000000
63.000000,13554.790742,23583.169113,32129.135088,38395.021963,6815.873899,21451.237375,37894.164073,45598.095131,0.014000,0.966000,0.210000,192.000000,0.000000,0.000000,0.000000,0.000000,0.000000,0.000000,0.000000,0.000000,0.000000,1646733528.440180,0.000000
64.000000,13544.799512,23577.469418,32118.741526,38387.020038,6810.889460,21447.974020,37884.798692,45584.259401,0.014000,0.966000,0.210000,192.000000,0.000000,0.000000,0.000000,0.000000,0.000000,0.000000,0.000000,0.000000,0.000000,1646733528.446849,0.000000
65.000000,13544.844215,23575.524816,32118.093326,38387.534128,6810.285963,21445.068293,37885.156320,45585.980485,0.014000,0.966000,0.210000,192.000000,0.000000,0.000000,0.000000,0.000000,0.000000,0.000000,0.000000,0.000000,0.000000,1646733528.446860,0.000000
66.000000,13552.689678,23583.169113,32130.900875,38394.664335,6819.204309,21454.433674,37886.676238,45589.243840,0.014000,0.966000,0.210000,192.000000,0.000000,0.000000,0.000000,0.000000,0.000000,0.000000,0.000000,0.000000,0.000000,1646733528.454732,0.000000
67.000000,13546.788817,23572.775551,32125.290588,38387.958811,6813.392855,21452.265555,37878.294334,45587.388645,0.014000,0.966000,0.210000,192.000000,0.000000,0.000000,0.000000,0.000000,0.000000,0.000000,0.000000,0.000000,0.000000,1646733528.454736,0.000000
68.000000,13541.603213,23567.031153,32121.155515,38382.169709,6808.430768,21450.544471,37878.853128,45589.243840,0.026000,0.968000,0.196000,192.000000,0.000000,208.000000,30.000000,64.000000,6.000000,32.000000,0.000000,0.000000,0.000000,1646733528.461714,0.000000
69.000000,13535.791759,23563.812502,32114.092364,38376.917050,6803.043998,21448.935145,37884.284602,45588.238011,0.026000,0.968000,0.196000,192.000000,0.000000,0.000000,0.000000,0.000000,0.000000,0.000000,0.000000,0.000000,0.000000,1646733528.469041,0.000000
70.000000,13541.312640,23573.133179,32117.378070,38383.756683,6809.548355,21455.283040,37878.473148,45588.260363,0.026000,0.968000,0.196000,192.000000,0.000000,0.000000,0.000000,0.000000,0.000000,0.000000,0.000000,0.000000,0.000000,1646733528.469045,0.000000
71.000000,13535.814111,23568.841644,32112.661852,38378.436968,6804.116881,21452.332610,37881.870613,45586.293410,0.026000,0.968000,0.196000,192.000000,0.000000,0.000000,0.000000,0.000000,0.000000,0.000000,0.000000,0.000000,0.000000,1646733528.476517,0.000000
72.000000,13538.921003,23573.066124,32112.773611,38379.934535,6801.702893,21458.680506,37896.734523,45598.765683,0.026000,0.968000,0.196000,192.000000,0.000000,0.000000,0.000000,0.000000,0.000000,0.000000,0.000000,0.000000,0.000000,1646733528.476521,0.000000
73.000000,13536.618774,23566.651173,32108.973814,38373.653695,6796.070253,21451.930279,37883.591698,45589.400302,0.026000,0.968000,0.196000,192.000000,0.000000,0.000000,0.000000,0.000000,0.000000,0.000000,0.000000,0.000000,0.000000,1646733528.484391,0.000000
74.000000,13534.316544,23560.035057,32107.789172,38374.771282,6792.404567,21447.437578,37893.001782,45585.846375,0.026000,0.968000,0.196000,192.000000,0.000000,0.000000,0.000000,0.000000,0.000000,0.000000,0.000000,0.000000,0.000000,1646733528.484394,0.000000
75.000000,13525.264087,23552.010781,32104.883445,38374.324247,6794.684445,21450.969154,37891.213643,45585.779319,0.026000,0.968000,0.196000,192.000000,0.000000,0.000000,0.000000,0.000000,0.000000,0.000000,0.000000,0.000000,0.000000,1646733528.492321,0.000000
76.000000,13522.268954,23553.664810,32106.068087,38375.397131,6798.908925,21453.673715,37898.947346,45586.628686,0.026000,0.968000,0.196000,192.000000,0.000000,0.000000,0.000000,0.000000,0.000000,0.000000,0.000000,0.000000,0.000000,1646733528.492325,0.000000
77.000000,13519.363227,23555.520005,32103.117657,38366.791709,6792.829250,21443.973058,37887.167977,45583.275924,0.026000,0.968000,0.196000,192.000000,0.000000,0.000000,0.000000,0.000000,0.000000,0.000000,0.000000,0.000000,0.000000,1646733528.498943,0.000000
78.000000,13524.459425,23556.972868,32107.677413,38368.289276,6797.053730,21442.006104,37887.883233,45582.605372,0.026000,0.958000,0.196000,192.000000,0.000000,208.000000,29.000000,240.000000,6.000000,32.000000,0.000000,0.000000,0.000000,1646733528.498947,0.000000
79.000000,13516.837480,23543.852394,32099.966061,38362.701340,6790.258800,21437.513404,37894.879329,45583.521793,0.026000,0.958000,0.196000,192.000000,0.000000,0.000000,0.000000,0.000000,0.000000,0.000000,0.000000,0.000000,0.000000,1646733528.507040,0.000000
80.000000,13521.441939,23548.725074,32101.418925,38369.585677,6794.036245,21439.234488,37893.426465,45594.675314,0.026000,0.958000,0.196000,192.000000,0.000000,0.000000,0.000000,0.000000,0.000000,0.000000,0.000000,0.000000,0.000000,1646733528.507044,0.000000
81.000000,13510.467233,23535.783414,32093.238186,38357.471032,6790.258800,21433.892421,37883.614049,45582.046578,0.026000,0.958000,0.196000,192.000000,0.000000,0.000000,0.000000,0.000000,0.000000,0.000000,0.000000,0.000000,0.000000,1646733528.515041,0.000000
82.000000,13510.646046,23541.036074,32090.086590,38356.442852,6783.285056,21429.086796,37890.520738,45579.319665,0.026000,0.958000,0.196000,192.000000,0.000000,0.000000,0.000000,0.000000,0.000000,0.000000,0.000000,0.000000,0.000000,1646733528.515045,0.000000
83.000000,13499.894857,23531.603638,32081.078837,38343.143564,6769.359919,21422.604790,37886.832701,45581.532488,0.026000,0.958000,0.196000,192.000000,0.000000,0.000000,0.000000,0.000000,0.000000,0.000000,0.000000,0.000000,0.000000,1646733528.522095,0.000000
84.000000,13493.390500,23527.803842,32075.781474,38338.136773,6763.570817,21422.269514,37879.344866,45578.291485,0.026000,0.958000,0.196000,192.000000,0.000000,0.000000,0.000000,0.000000,0.000000,0.000000,0.000000,0.000000,0.000000,1646733528.529077,0.000000
85.000000,13502.510011,23536.677484,32079.514215,38344.954055,6770.097526,21429.466776,37892.442988,45591.613125,0.026000,0.958000,0.196000,192.000000,0.000000,0.000000,0.000000,0.000000,0.000000,0.000000,0.000000,0.000000,0.000000,1646733528.529094,0.000000
86.000000,13496.028006,23532.050673,32079.067180,38344.931703,6773.047957,21433.937124,37901.003707,45599.704456,0.026000,0.958000,0.196000,192.000000,0.000000,0.000000,0.000000,0.000000,0.000000,0.000000,0.000000,0.000000,0.000000,1646733528.536887,0.000000
87.000000,13486.975549,23523.668769,32073.613354,38335.946302,6764.286073,21424.325874,37885.133968,45582.672427,0.026000,0.958000,0.196000,192.000000,0.000000,0.000000,0.000000,0.000000,0.000000,0.000000,0.000000,0.000000,0.000000,1646733528.536903,0.000000
88.000000,13491.155325,23529.547278,32074.105093,38342.808287,6769.203457,21424.772909,37875.455663,45577.889154,0.020000,0.964000,0.198000,192.000000,0.000000,160.000000,30.000000,32.000000,6.000000,48.000000,0.000000,0.000000,0.000000,1646733528.544868,0.000000
89.000000,13475.442049,23509.698929,32056.737787,38333.822886,6759.703965,21419.408491,37869.532450,45571.742424,0.020000,0.964000,0.198000,192.000000,0.000000,0.000000,0.000000,0.000000,0.000000,0.000000,0.000000,0.000000,0.000000,1646733528.544884,0.000000
90.000000,13487.310825,23519.421937,32064.896174,38345.982235,6766.297730,21428.818575,37899.081457,45582.828889,0.020000,0.964000,0.198000,192.000000,0.000000,0.000000,0.000000,0.000000,0.000000,0.000000,0.000000,0.000000,0.000000,1646733528.552146,0.000000
91.000000,13483.823953,23518.214943,32067.332514,38348.016244,6768.577608,21431.545488,37898.589718,45585.622857,0.020000,0.964000,0.198000,192.000000,0.000000,0.000000,0.000000,0.000000,0.000000,0.000000,0.000000,0.000000,0.000000,1646733528.552162,0.000000
92.000000,13478.280721,23514.795126,32063.756235,38344.283503,6759.994538,21423.230639,37894.342887,45585.734616,0.020000,0.964000,0.198000,192.000000,0.000000,0.000000,0.000000,0.000000,0.000000,0.000000,0.000000,0.000000,0.000000,1646733528.559687,0.000000
93.000000,13479.577122,23516.292693,32066.773721,38343.702357,6757.513494,21422.470680,37892.197119,45582.560668,0.020000,0.964000,0.198000,192.000000,0.000000,0.000000,0.000000,0.000000,0.000000,0.000000,0.000000,0.000000,0.000000,1646733528.559703,0.000000
94.000000,13475.419697,23509.922446,32063.085683,38340.126078,6756.038279,21424.214116,37886.922108,45578.403244,0.020000,0.964000,0.198000,192.000000,0.000000,0.000000,0.000000,0.000000,0.000000,0.000000,0.000000,0.000000,0.000000,1646733528.567712,0.000000
95.000000,13471.351680,23508.626045,32064.315029,38337.913255,6754.428953,21426.136366,37887.838529,45580.884287,0.020000,0.964000,0.198000,192.000000,0.000000,0.000000,0.000000,0.000000,0.000000,0.000000,0.000000,0.000000,0.000000,1646733528.567728,0.000000
96.000000,13475.442049,23519.287827,32071.601697,38340.014319,6759.525151,21428.617409,37893.426465,45587.790976,0.020000,0.964000,0.198000,192.000000,0.000000,0.000000,0.000000,0.000000,0.000000,0.000000,0.000000,0.000000,0.000000,1646733528.575658,0.000000
97.000000,13473.206875,23518.460812,32071.534642,38336.952130,6760.173352,21429.712645,37890.945422,45588.081549,0.020000,0.964000,0.198000,192.000000,0.000000,0.000000,0.000000,0.000000,0.000000,0.000000,0.000000,0.000000,0.000000,1646733528.575675,0.000000
98.000000,13471.865770,23515.331568,32064.717360,38331.766526,6757.222922,21427.566877,37881.937669,45576.637456,0.020000,0.964000,0.198000,192.000000,0.000000,0.000000,0.000000,0.000000,0.000000,0.000000,0.000000,0.000000,0.000000,1646733528.581805,0.000000
99.000000,13484.673319,23528.563801,32071.869918,38340.796630,6762.542637,21430.271438,37886.653887,45585.980485,0.020000,0.964000,0.202000,192.000000,0.000000,160.000000,30.000000,32.000000,6.000000,80.000000,0.000000,0.000000,0.000000,1646733528.581821,0.000000
100.000000,13477.990148,23519.377234,32072.987506,38344.685834,6765.269550,21438.183956,37891.660677,45593.848299,0.020000,0.964000,0.202000,192.000000,0.000000,0.000000,0.000000,0.000000,0.000000,0.000000,0.000000,0.000000,0.000000,1646733528.589390,0.000000
101.000000,13476.783154,23513.543429,32072.138139,38344.641131,6766.521247,21438.474529,37892.241823,45595.927011,0.020000,0.964000,0.202000,192.000000,0.000000,0.000000,0.000000,0.000000,0.000000,0.000000,0.000000,0.000000,0.000000,1646733528.597389,0.000000
102.000000,13473.609206,23506.033242,32064.896174,38340.327244,6763.459058,21436.932258,37891.012477,45588.014494,0.020000,0.964000,0.202000,192.000000,0.000000,0.000000,0.000000,0.000000,0.000000,0.000000,0.000000,0.000000,0.000000,1646733528.597406,0.000000
103.000000,13475.464401,23507.843734,32068.740674,38344.663482,6764.397831,21438.206308,37888.732599,45589.400302,0.020000,0.964000,0.202000,192.000000,0.000000,0.000000,0.000000,0.000000,0.000000,0.000000,0.000000,0.000000,0.000000,1646733528.604402,0.000000
104.000000,13479.554770,23520.606580,32073.725113,38349.469107,6765.515419,21441.849642,37901.182521,45598.139834,0.020000,0.964000,0.202000,192.000000,0.000000,0.000000,0.000000,0.000000,0.000000,0.000000,0.000000,0.000000,0.000000,1646733528.604419,0.000000
105.000000,13482.393441,23525.881592,32075.937936,38348.619741,6767.460020,21441.424959,37903.305936,45597.089302,0.020000,0.964000,0.202000,192.000000,0.000000,0.000000,0.000000,0.000000,0.000000,0.000000,0.000000,0.000000,0.000000,1646733528.611902,0.000000
106.000000,13480.761764,23524.384025,32075.669715,38347.613913,6768.734070,21446.565860,37901.987183,45591.389607,0.020000,0.964000,0.202000,192.000000,0.000000,0.000000,0.000000,0.000000,0.000000,0.000000,0.000000,0.000000,0.000000,1646733528.611918,0.000000
107.000000,13476.872561,23513.386966,32073.233375,38340.148430,6764.621349,21444.196575,37889.693724,45589.377950,0.020000,0.964000,0.202000,192.000000,0.000000,0.000000,0.000000,0.000000,0.000000,0.000000,0.000000,0.000000,0.000000,1646733528.619944,0.000000
108.000000,13476.559636,23513.096394,32072.652229,38336.728613,6767.348262,21451.237375,37895.773398,45596.239936,0.020000,0.964000,0.202000,192.000000,0.000000,0.000000,0.000000,0.000000,0.000000,0.000000,0.000000,0.000000,0.000000,1646733528.619961,0.000000
109.000000,13475.352642,23512.649359,32069.701799,38341.645997,6769.851657,21454.008991,37889.716076,45594.831776,0.020000,0.966000,0.210000,192.000000,0.000000,160.000000,30.000000,48.000000,6.000000,144.000000,0.000000,0.000000,0.000000,1646733528.627843,0.000000
110.000000,13475.598511,23513.878705,32070.685276,38344.663482,6771.997425,21453.338439,37896.555709,45592.976581,0.020000,0.966000,0.210000,192.000000,0.000000,0.000000,0.000000,0.000000,0.000000,0.000000,0.000000,0.000000,0.000000,1646733528.627858,0.000000
111.000000,13476.380822,23517.477336,32071.221718,38342.987101,6770.097526,21449.382180,37889.201986,45590.987276,0.020000,0.966000,0.210000,192.000000,0.000000,0.000000,0.000000,0.000000,0.000000,0.000000,0.000000,0.000000,0.000000,1646733528.634638,0.000000
112.000000,13483.667491,23523.847583,32076.899061,38348.664445,6774.120840,21453.070218,37894.544052,45592.931878,0.020000,0.966000,0.210000,192.000000,0.000000,0.000000,0.000000,0.000000,0.000000,0.000000,0.000000,0.000000,0.000000,1646733528.634654,0.000000
113.000000,13473.944482,23509.989501,32067.399569,38339.030843,6765.448363,21444.196575,37889.246689,45586.338113,0.020000,0.966000,0.210000,192.000000,0.000000,0.000000,0.000000,0.000000,0.000000,0.000000,0.000000,0.000000,0.000000,1646733528.642534,0.000000
114.000000,13473.586854,23510.660054,32069.746503,38339.164953,6766.342433,21441.715532,37888.173805,45582.270096,0.020000,0.966000,0.210000,192.000000,0.000000,0.000000,0.000000,0.000000,0.000000,0.000000,0.000000,0.000000,0.000000,1646733528.642551,0.000000
115.000000,13476.112601,23517.879667,32078.620145,38348.083299,6777.428899,21454.657192,37894.946384,45597.379875,0.020000,0.966000,0.210000,192.000000,0.000000,0.000000,0.000000,0.000000,0.000000,0.000000,0.000000,0.000000,0.000000,1646733528.649750,0.000000
116.000000,13475.598511,23516.851487,32081.592927,38349.983197,6780.491087,21456.802959,37894.924032,45596.061122,0.020000,0.966000,0.210000,192.000000,0.000000,0.000000,0.000000,0.000000,0.000000,0.000000,0.000000,0.000000,0.000000,1646733528.657677,0.000000
117.000000,13476.380822,23513.565780,32078.731904,38347.166878,6775.350186,21448.935145,37892.107712,45590.719055,0.020000,0.966000,0.210000,192.000000,0.000000,0.000000,0.000000,0.000000,0.000000,0.000000,0.000000,0.000000,0.000000,1646733528.657693,0.000000
118.000000,13474.927959,23507.173181,32073.412189,38345.468145,6771.192762,21444.531851,37886.095093,45590.942572,0.020000,0.966000,0.210000,192.000000,0.000000,0.000000,0.000000,0.000000,0.000000,0.000000,0.000000,0.000000,0.000000,1646733528.664130,0.000000
119.000000,13473.050412,23508.871914,32076.183805,38348.798555,6776.490125,21451.706761,37878.607259,45585.913430,0.020000,0.968000,0.210000,192.000000,0.000000,160.000000,30.000000,64.000000,6.000000,144.000000,0.000000,0.000000,0.000000,1646733528.664147,0.000000
120.000000,13479.420659,23517.410280,32078.754256,38351.681930,6780.491087,21453.383142,37895.013439,45580.191383,0.020000,0.968000,0.210000,192.000000,0.000000,0.000000,0.000000,0.000000,0.000000,0.000000,0.000000,0.000000,0.000000,1646733528.672260,0.000000
121.000000,13473.497447,23511.978806,32072.160491,38348.172706,6778.255913,21450.253898,37883.569346,45597.469282,0.020000,0.968000,0.210000,192.000000,0.000000,0.000000,0.000000,0.000000,0.000000,0.000000,0.000000,0.000000,0.000000,1646733528.672276,0.000000
122.000000,13476.604340,23520.383062,32073.881575,38348.217410,6776.937160,21447.303468,37888.933765,45603.012514,0.020000,0.968000,0.210000,192.000000,0.000000,0.000000,0.000000,0.000000,0.000000,0.000000,0.000000,0.000000,0.000000,1646733528.680260,0.000000
123.000000,13483.309863,23522.394719,32081.503520,38357.068700,6782.212172,21454.210157,37900.601375,45605.962945,0.020000,0.968000,0.210000,192.000000,0.000000,0.000000,0.000000,0.000000,0.000000,0.000000,0.000000,0.000000,0.000000,1646733528.680275,0.000000
124.000000,13486.908494,23522.886458,32082.643459,38360.086186,6787.218963,21456.177110,37891.526567,45602.207852,0.020000,0.968000,0.210000,192.000000,0.000000,0.000000,0.000000,0.000000,0.000000,0.000000,0.000000,0.000000,0.000000,1646733528.687321,0.000000
125.000000,13483.734546,23521.612408,32083.001087,38359.572096,6791.108166,21455.797131,37884.753988,45597.715151,0.020000,0.968000,0.210000,192.000000,0.000000,0.000000,0.000000,0.000000,0.000000,0.000000,0.000000,0.000000,0.000000,1646733528.687336,0.000000
126.000000,13483.891008,23523.959342,32083.828102,38358.990950,6789.543544,21445.917660,37886.117445,45588.372122,0.020000,0.968000,0.210000,192.000000,0.000000,0.000000,0.000000,0.000000,0.000000,0.000000,0.000000,0.000000,0.000000,1646733528.694602,0.000000
127.000000,13494.798660,23527.580324,32087.024401,38364.042445,6787.889515,21444.867128,37887.771474,45587.925087,0.020000,0.968000,0.210000,192.000000,0.000000,0.000000,0.000000,0.000000,0.000000,0.000000,0.000000,0.000000,0.000000,1646733528.694618,0.000000
128.000000,13490.998863,23526.932124,32088.320802,38365.964695,6789.677654,21448.041075,37883.301125,45585.131119,0.020000,0.968000,0.210000,192.000000,0.000000,0.000000,0.000000,0.000000,0.000000,0.000000,0.000000,0.000000,0.000000,1646733528.702961,0.000000
129.000000,13480.962930,23522.104147,32082.822273,38361.919029,6788.135384,21449.248069,37885.960983,45592.954229,0.018000,0.964000,0.212000,192.000000,0.000000,144.000000,30.000000,32.000000,6.000000,160.000000,0.000000,0.000000,0.000000,1646733528.702996,0.000000
130.000000,13473.765668,23515.465679,32079.581270,38355.213506,6786.950742,21448.689276,37875.232145,45585.153471,0.018000,0.964000,0.212000,192.000000,0.000000,0.000000,0.000000,0.000000,0.000000,0.000000,0.000000,0.000000,0.000000,1646733528.710016,0.000000
131.000000,13478.526590,23517.902019,32085.258613,38357.627494,6790.884649,21449.426883,37880.261288,45593.893003,0.018000,0.964000,0.212000,192.000000,0.000000,0.000000,0.000000,0.000000,0.000000,0.000000,0.000000,0.000000,0.000000,1646733528.716469,0.000000
132.000000,13479.934750,23515.264513,32087.873767,38361.047311,6791.801070,21451.036209,37878.473148,45590.249668,0.018000,0.964000,0.212000,192.000000,0.000000,0.000000,0.000000,0.000000,0.000000,0.000000,0.000000,0.000000,0.000000,1646733528.716485,0.000000
133.000000,13483.868657,23516.583266,32094.154608,38363.148375,6793.924486,21458.278174,37887.235032,45594.675314,0.018000,0.964000,0.212000,192.000000,0.000000,0.000000,0.000000,0.000000,0.000000,0.000000,0.000000,0.000000,0.000000,1646733528.724598,0.000000
134.000000,13486.953197,23521.657112,32091.874730,38359.460337,6789.230620,21455.461854,37889.939593,45590.607296,0.018000,0.964000,0.212000,192.000000,0.000000,0.000000,0.000000,0.000000,0.000000,0.000000,0.000000,0.000000,0.000000,1646733528.724614,0.000000
135.000000,13490.305959,23525.076929,32089.751314,38359.706206,6788.783585,21454.076046,37890.073704,45591.255497,0.018000,0.964000,0.212000,192.000000,0.000000,0.000000,0.000000,0.000000,0.000000,0.000000,0.000000,0.000000,0.000000,1646733528.732596,0.000000
136.000000,13475.665566,23512.381138,32078.486035,38347.435099,6783.620332,21448.912793,37878.629610,45583.767662,0.018000,0.964000,0.212000,192.000000,0.000000,0.000000,0.000000,0.000000,0.000000,0.000000,0.000000,0.000000,0.000000,1646733528.732612,0.000000
137.000000,13485.723851,23524.987522,32083.559881,38355.638189,6784.737919,21446.297639,37889.380799,45576.570401,0.018000,0.964000,0.212000,192.000000,0.000000,0.000000,0.000000,0.000000,0.000000,0.000000,0.000000,0.000000,0.000000,1646733528.739632,0.000000
138.000000,13490.305959,23533.056502,32089.460741,38363.193078,6786.906038,21450.544471,37894.409942,45584.482918,0.018000,0.964000,0.212000,192.000000,0.000000,0.000000,0.000000,0.000000,0.000000,0.000000,0.000000,0.000000,0.000000,1646733528.739649,0.000000
139.000000,13493.189334,23541.438406,32094.735753,38369.809195,6795.086777,21457.652325,37889.134930,45596.284639,0.018000,0.960000,0.212000,192.000000,0.000000,144.000000,30.000000,0.000000,6.000000,160.000000,0.000000,0.000000,0.000000,1646733528.747086,0.000000
140.000000,13499.626636,23545.841699,32101.150704,38383.376704,6806.150890,21461.988564,37892.487692,45598.676276,0.018000,0.960000,0.212000,192.000000,0.000000,0.000000,0.000000,0.000000,0.000000,0.000000,0.000000,0.000000,0.000000,1646733528.747102,0.000000
141.000000,13499.201953,23538.957362,32101.798904,38380.962715,6808.140195,21455.014820,37883.055256,45588.729750,0.018000,0.960000,0.212000,192.000000,0.000000,0.000000,0.000000,0.000000,0.000000,0.000000,0.000000,0.000000,0.000000,1646733528.755197,0.000000
142.000000,13497.950256,23531.268362,32095.763933,38375.464186,6800.406492,21445.448273,37882.027076,45579.230258,0.018000,0.960000,0.212000,192.000000,0.000000,0.000000,0.000000,0.000000,0.000000,0.000000,0.000000,0.000000,0.000000,1646733528.755212,0.000000
143.000000,13500.163078,23535.962228,32091.561805,38377.229974,6798.193669,21450.052732,37890.207814,45589.847337,0.018000,0.960000,0.212000,192.000000,0.000000,0.000000,0.000000,0.000000,0.000000,0.000000,0.000000,0.000000,0.000000,1646733528.763123,0.000000
144.000000,13492.585837,23529.860202,32083.314011,38366.232916,6793.209230,21455.327744,37886.698590,45594.228279,0.018000,0.960000,0.212000,192.000000,0.000000,0.000000,0.000000,0.000000,0.000000,0.000000,0.000000,0.000000,0.000000,1646733528.763140,0.000000
145.000000,13498.307884,23534.285847,32080.207119,38359.125061,6787.084852,21450.365657,37884.999858,45593.244802,0.018000,0.960000,0.212000,192.000000,0.000000,0.000000,0.000000,0.000000,0.000000,0.000000,0.000000,0.000000,0.000000,1646733528.769112,0.000000
146.000000,13500.543058,23538.398568,32084.655116,38355.973465,6788.425957,21453.405494,37887.279735,45591.277849,0.018000,0.960000,0.212000,192.000000,0.000000,0.000000,0.000000,0.000000,0.000000,0.000000,0.000000,0.000000,0.000000,1646733528.776881,0.000000
147.000000,13505.885125,23537.795071,32088.633727,38353.246552,6786.280189,21448.868090,37886.296259,45585.511099,0.018000,0.960000,0.212000,192.000000,0.000000,0.000000,0.000000,0.000000,0.000000,0.000000,0.000000,0.000000,0.000000,1646733528.776898,0.000000
148.000000,13507.114471,23542.377179,32093.975794,38358.789785,6787.956570,21450.388008,37881.021247,45587.992142,0.018000,0.960000,0.212000,192.000000,0.000000,0.000000,0.000000,0.000000,0.000000,0.000000,0.000000,0.000000,0.000000,1646733528.784881,0.000000
149.000000,13513.171794,23555.363542,32099.697840,38364.288314,6795.176184,21453.874881,37873.913392,45593.423616,0.016000,0.956000,0.212000,192.000000,0.000000,128.000000,29.000000,224.000000,6.000000,160.000000,0.000000,0.000000,0.000000,1646733528.784897,0.000000
150.000000,13523.252430,23569.489845,32109.152628,38370.703265,6802.731073,21462.793227,37899.304974,45602.230203,0.016000,0.956000,0.212000,192.000000,0.000000,0.000000,0.000000,0.000000,0.000000,0.000000,0.000000,0.000000,0.000000,1646733528.792783,0.000000
151.000000,13524.973515,23565.757104,32111.566616,38375.397131,6810.531832,21475.399610,37904.937614,45615.283622,0.016000,0.956000,0.212000,192.000000,0.000000,0.000000,0.000000,0.000000,0.000000,0.000000,0.000000,0.000000,0.000000,1646733528.792799,0.000000
152.000000,13532.215480,23568.931051,32111.879541,38386.215375,6813.795187,21480.451105,37899.707305,45615.730657,0.016000,0.956000,0.212000,192.000000,0.000000,0.000000,0.000000,0.000000,0.000000,0.000000,0.000000,0.000000,0.000000,1646733528.799279,0.000000
153.000000,13531.723741,23568.998107,32110.314919,38388.919936,6816.231527,21480.294642,37896.667468,45607.214642,0.016000,0.956000,0.212000,192.000000,0.000000,0.000000,0.000000,0.000000,0.000000,0.000000,0.000000,0.000000,0.000000,1646733528.799296,0.000000
154.000000,13526.336971,23560.079761,32105.464590,38388.986992,6813.325800,21474.036154,37882.272945,45597.513985,0.016000,0.956000,0.212000,192.000000,0.000000,0.000000,0.000000,0.000000,0.000000,0.000000,0.000000,0.000000,0.000000,1646733528.807462,0.000000
155.000000,13526.336971,23552.681333,32102.335346,38391.535090,6810.598887,21469.766971,37868.124290,45586.315761,0.016000,0.956000,0.212000,192.000000,0.000000,0.000000,0.000000,0.000000,0.000000,0.000000,0.000000,0.000000,0.000000,1646733528.807479,0.000000
156.000000,13515.943410,23542.846566,32097.172093,38376.358256,6804.005123,21463.396724,37868.839546,45581.130157,0.016000,0.956000,0.212000,192.000000,0.000000,0.000000,0.000000,0.000000,0.000000,0.000000,0.000000,0.000000,0.000000,1646733528.815486,0.000000
157.000000,13510.355474,23540.052598,32092.612337,38364.221259,6793.790375,21453.964288,37857.909543,45572.323569,0.016000,0.956000,0.212000,192.000000,0.000000,0.000000,0.000000,0.000000,0.000000,0.000000,0.000000,0.000000,0.000000,1646733528.815502,0.000000
158.000000,13520.525518,23556.101150,32096.523892,38362.500174,6789.811765,21454.008991,37859.675331,45568.546125,0.016000,0.956000,0.212000,192.000000,0.000000,0.000000,0.000000,0.000000,0.000000,0.000000,0.000000,0.000000,0.000000,1646733528.822500,0.000000
159.000000,13525.062922,23558.761008,32099.183750,38367.126985,6792.046939,21460.312183,37866.760834,45576.302180,0.014000,0.956000,0.212000,192.000000,0.000000,112.000000,29.000000,224.000000,6.000000,160.000000,0.000000,0.000000,0.000000,1646733528.822517,0.000000
160.000000,13526.627544,23559.140987,32100.211930,38372.983142,6796.226716,21466.123636,37872.237011,45582.672427,0.014000,0.956000,0.212000,192.000000,0.000000,0.000000,0.000000,0.000000,0.000000,0.000000,0.000000,0.000000,0.000000,1646733528.828814,0.000000
161.000000,13520.525518,23552.211947,32094.847512,38372.334942,6797.970152,21467.129465,37881.133006,45580.146680,0.014000,0.956000,0.212000,192.000000,0.000000,0.000000,0.000000,0.000000,0.000000,0.000000,0.000000,0.000000,0.000000,1646733528.828826,0.000000
162.000000,13525.129977,23557.576365,32095.853340,38378.191099,6799.043035,21464.424904,37878.651962,45576.749215,0.014000,0.956000,0.212000,192.000000,0.000000,0.000000,0.000000,0.000000,0.000000,0.000000,0.000000,0.000000,0.000000,1646733528.837034,0.000000
163.000000,13531.880204,23563.007839,32103.899968,38390.775131,6806.687332,21472.404477,37897.628593,45591.389607,0.014000,0.956000,0.212000,192.000000,0.000000,0.000000,0.000000,0.000000,0.000000,0.000000,0.000000,0.000000,0.000000,1646733528.844820,0.000000
164.000000,13533.444826,23561.800845,32110.381974,38392.607974,6814.555146,21481.993375,37896.801579,45596.642267,0.014000,0.956000,0.212000,192.000000,0.000000,0.000000,0.000000,0.000000,0.000000,0.000000,0.000000,0.000000,0.000000,1646733528.844836,0.000000
165.000000,13533.623640,23562.672563,32107.498599,38387.310611,6808.967210,21476.539549,37888.173805,45592.238974,0.014000,0.956000,0.212000,192.000000,0.000000,0.000000,0.000000,0.000000,0.000000,0.000000,0.000000,0.000000,0.000000,1646733528.851709,0.000000
166.000000,13537.266974,23566.338249,32102.380050,38386.170672,6802.395797,21473.320898,37887.771474,45589.132081,0.014000,0.956000,0.212000,192.000000,0.000000,0.000000,0.000000,0.000000,0.000000,0.000000,0.000000,0.000000,0.000000,1646733528.851725,0.000000
167.000000,13533.400122,23572.395572,32103.341175,38384.784864,6801.524079,21475.801942,37888.509081,45597.715151,0.014000,0.956000,0.212000,192.000000,0.000000,0.000000,0.000000,0.000000,0.000000,0.000000,0.000000,0.000000,0.000000,1646733528.859807,0.000000
168.000000,13534.540061,23575.748333,32103.028250,38384.047256,6800.652361,21480.428753,37892.487692,45600.710285,0.014000,0.956000,0.212000,192.000000,0.000000,0.000000,0.000000,0.000000,0.000000,0.000000,0.000000,0.000000,0.000000,1646733528.859823,0.000000
169.000000,13529.376808,23571.792075,32103.005898,38387.735294,6803.289867,21482.283948,37895.192253,45604.174805,0.016000,0.958000,0.216000,192.000000,0.000000,128.000000,29.000000,240.000000,6.000000,192.000000,0.000000,0.000000,0.000000,1646733528.867709,0.000000
170.000000,13530.069712,23571.054467,32106.626881,38394.999611,6806.262649,21481.591044,37902.836550,45600.665581,0.016000,0.958000,0.216000,192.000000,0.000000,0.000000,0.000000,0.000000,0.000000,0.000000,0.000000,0.000000,0.000000,1646733528.867725,0.000000
171.000000,13524.660590,23565.600641,32107.699765,38392.183291,6812.319972,21490.263521,37900.891948,45610.142721,0.016000,0.958000,0.216000,192.000000,0.000000,0.000000,0.000000,0.000000,0.000000,0.000000,0.000000,0.000000,0.000000,1646733528.874778,0.000000
172.000000,13525.107625,23566.807636,32106.738640,38389.501082,6810.688294,21484.586177,37896.198082,45608.868672,0.016000,0.958000,0.216000,192.000000,0.000000,0.000000,0.000000,0.000000,0.000000,0.000000,0.000000,0.000000,0.000000,1646733528.874795,0.000000
173.000000,13520.659628,23560.929127,32101.642442,38386.505948,6807.648457,21483.133314,37887.458549,45603.571308,0.016000,0.958000,0.216000,192.000000,0.000000,0.000000,0.000000,0.000000,0.000000,0.000000,0.000000,0.000000,0.000000,1646733528.882326,0.000000
174.000000,13526.895765,23568.193444,32104.347003,38387.176500,6806.240297,21482.395706,37890.476035,45604.443026,0.016000,0.958000,0.216000,192.000000,0.000000,0.000000,0.000000,0.000000,0.000000,0.000000,0.000000,0.000000,0.000000,1646733528.882342,0.000000
175.000000,13532.774273,23574.362525,32110.404326,38389.925765,6812.275268,21486.910759,37892.822968,45612.847282,0.016000,0.958000,0.216000,192.000000,0.000000,0.000000,0.000000,0.000000,0.000000,0.000000,0.000000,0.000000,0.000000,1646733528.890383,0.000000
176.000000,13535.881166,23579.168150,32114.405288,38393.412637,6819.383123,21487.894236,37894.722866,45619.172826,0.016000,0.958000,0.216000,192.000000,0.000000,0.000000,0.000000,0.000000,0.000000,0.000000,0.000000,0.000000,0.000000,1646733528.890399,0.000000
177.000000,13546.140617,23592.959177,32122.340157,38400.811064,6823.406437,21488.542436,37894.901680,45612.936689,0.016000,0.958000,0.216000,192.000000,0.000000,0.000000,0.000000,0.000000,0.000000,0.000000,0.000000,0.000000,0.000000,1646733528.897400,0.000000
178.000000,13547.571128,23589.896988,32118.741526,38400.967527,6821.707704,21489.950596,37883.412884,45608.309878,0.016000,0.958000,0.216000,192.000000,0.000000,0.000000,0.000000,0.000000,0.000000,0.000000,0.000000,0.000000,0.000000,1646733528.904421,0.000000
179.000000,13542.497282,23580.844531,32115.388765,38398.374724,6824.322858,21494.175076,37886.340962,45613.003744,0.022000,0.958000,0.212000,192.000000,0.000000,176.000000,29.000000,240.000000,6.000000,160.000000,0.000000,0.000000,0.000000,1646733528.904436,0.000000
180.000000,13547.124093,23586.365412,32115.880503,38398.151207,6823.473492,21493.124544,37896.958041,45617.809369,0.022000,0.958000,0.212000,192.000000,0.000000,0.000000,0.000000,0.000000,0.000000,0.000000,0.000000,0.000000,0.000000,1646733528.911973,0.000000
181.000000,13547.906404,23586.655985,32117.020442,38400.520492,6822.266498,21492.945730,37893.940555,45616.356506,0.022000,0.958000,0.212000,192.000000,0.000000,0.000000,0.000000,0.000000,0.000000,0.000000,0.000000,0.000000,0.000000,1646733528.911989,0.000000
182.000000,13538.272803,23576.418886,32113.555922,38396.787750,6815.471568,21488.363622,37884.575174,45603.548956,0.022000,0.958000,0.212000,192.000000,0.000000,0.000000,0.000000,0.000000,0.000000,0.000000,0.000000,0.000000,0.000000,1646733528.920055,0.000000
183.000000,13535.076503,23576.508293,32111.946596,38396.698343,6811.336495,21488.900064,37890.967773,45603.638363,0.022000,0.958000,0.212000,192.000000,0.000000,0.000000,0.000000,0.000000,0.000000,0.000000,0.000000,0.000000,0.000000,1646733528.920071,0.000000
184.000000,13538.764541,23580.285738,32116.506352,38399.179387,6816.767969,21493.102192,37887.235032,45601.537299,0.022000,0.958000,0.212000,192.000000,0.000000,0.000000,0.000000,0.000000,0.000000,0.000000,0.000000,0.000000,0.000000,1646733528.927805,0.000000
185.000000,13544.799512,23585.136066,32118.249788,38401.235747,6817.907908,21490.710555,37882.362352,45591.970753,0.022000,0.958000,0.212000,192.000000,0.000000,0.000000,0.000000,0.000000,0.000000,0.000000,0.000000,0.000000,0.000000,1646733528.927822,0.000000
186.000000,13550.767428,23592.378031,32122.273102,38406.711925,6822.400608,21495.113849,37884.508119,45602.498424,0.022000,0.958000,0.212000,192.000000,0.000000,0.000000,0.000000,0.000000,0.000000,0.000000,0.000000,0.000000,0.000000,1646733528.934594,0.000000
187.000000,13544.665402,23588.578235,32122.317806,38411.338736,6824.792245,21494.488000,37887.413846,45610.187424,0.022000,0.958000,0.212000,192.000000,0.000000,0.000000,0.000000,0.000000,0.000000,0.000000,0.000000,0.000000,0.000000,1646733528.934610,0.000000
188.000000,13540.865605,23585.292528,32119.546189,38412.299861,6822.020629,21489.436506,37898.008573,45606.342924,0.022000,0.958000,0.212000,192.000000,0.000000,0.000000,0.000000,0.000000,0.000000,0.000000,0.000000,0.000000,0.000000,1646733528.942552,0.000000
189.000000,13541.066771,23584.130238,32120.127335,38407.158960,6822.087684,21484.139143,37884.664581,45595.256459,0.022000,0.952000,0.214000,192.000000,0.000000,176.000000,29.000000,192.000000,6.000000,176.000000,0.000000,0.000000,0.000000,1646733528.942568,0.000000
190.000000,13546.140617,23586.544226,32119.188561,38402.710963,6821.104207,21482.015727,37895.594584,45601.604355,0.022000,0.952000,0.214000,192.000000,0.000000,0.000000,0.000000,0.000000,0.000000,0.000000,0.000000,0.000000,0.000000,1646733528.950655,0.000000
191.000000,13540.642088,23583.303223,32119.747355,38400.319326,6820.992448,21484.429715,37886.296259,45599.145663,0.022000,0.952000,0.214000,192.000000,0.000000,0.000000,0.000000,0.000000,0.000000,0.000000,0.000000,0.000000,0.000000,1646733528.950671,0.000000
192.000000,13544.643050,23592.914473,32127.235189,38405.080248,6825.999239,21483.736811,37889.805483,45590.249668,0.022000,0.952000,0.214000,192.000000,0.000000,0.000000,0.000000,0.000000,0.000000,0.000000,0.000000,0.000000,0.000000,1646733528.957711,0.000000
193.000000,13555.215425,23606.750203,32132.420794,38412.210454,6831.229547,21487.603663,37892.778265,45601.447892,0.022000,0.952000,0.214000,192.000000,0.000000,0.000000,0.000000,0.000000,0.000000,0.000000,0.000000,0.000000,0.000000,1646733528.964266,0.000000
194.000000,13553.628451,23606.392575,32131.057338,38412.568082,6829.419056,21487.089573,37884.418712,45603.571308,0.022000,0.952000,0.214000,192.000000,0.000000,0.000000,0.000000,0.000000,0.000000,0.000000,0.000000,0.000000,0.000000,1646733528.964282,0.000000
195.000000,13539.300983,23588.824104,32118.003919,38400.565195,6822.422960,21484.921454,37886.966811,45594.742369,0.022000,0.952000,0.214000,192.000000,0.000000,0.000000,0.000000,0.000000,0.000000,0.000000,0.000000,0.000000,0.000000,1646733528.972210,0.000000
196.000000,13543.927794,23590.791057,32118.473306,38403.962660,6821.148911,21482.261596,37888.330267,45591.300200,0.022000,0.952000,0.214000,192.000000,0.000000,0.000000,0.000000,0.000000,0.000000,0.000000,0.000000,0.000000,0.000000,1646733528.972226,0.000000
197.000000,13548.398143,23600.335252,32123.569503,38409.707059,6824.412265,21485.301433,37894.052314,45598.005724,0.022000,0.952000,0.214000,192.000000,0.000000,0.000000,0.000000,0.000000,0.000000,0.000000,0.000000,0.000000,0.000000,1646733528.980236,0.000000
198.000000,13554.410762,23604.470325,32125.648215,38410.556425,6826.938012,21487.938939,37899.640250,45601.582003,0.022000,0.952000,0.214000,192.000000,0.000000,0.000000,0.000000,0.000000,0.000000,0.000000,0.000000,0.000000,0.000000,1646733528.980251,0.000000
199.000000,13555.416591,23598.256540,32121.870771,38410.467018,6828.323821,21487.938939,37896.779227,45596.530509,0.022000,0.952000,0.214000,192.000000,0.000000,0.000000,0.000000,0.000000,0.000000,0.000000,0.000000,0.000000,0.000000,1646733528.987270,0.000000
200.000000,13550.521559,23592.065107,32118.585064,38405.884910,6826.692143,21483.982680,37895.885157,45594.027113,0.016000,0.956000,0.212000,192.000000,0.000000,128.000000,29.000000,224.000000,6.000000,160.000000,0.000000,0.000000,0.000000,1646733528.987286,0.000000
201.000000,13553.047306,23593.696784,32122.675433,38400.699306,6825.798074,21482.842741,37894.991087,45592.484843,0.016000,0.956000,0.212000,192.000000,0.000000,0.000000,0.000000,0.000000,0.000000,0.000000,0.000000,0.000000,0.000000,1646733528.994585,0.000000
202.000000,13553.181416,23598.882389,32123.927131,38395.625460,6820.388951,21478.439448,37910.190274,45592.663657,0.016000,0.956000,0.212000,192.000000,0.000000,0.000000,0.000000,0.000000,0.000000,0.000000,0.000000,0.000000,0.000000,1646733528.994601,0.000000
203.000000,13554.790742,23600.268197,32126.475230,38399.268794,6820.187786,21477.567730,37908.737410,45597.424578,0.016000,0.956000,0.212000,192.000000,0.000000,0.000000,0.000000,0.000000,0.000000,0.000000,0.000000,0.000000,0.000000,1646733529.002539,0.000000
204.000000,13556.735344,23593.786191,32127.682224,38396.675992,6821.551242,21477.947709,37906.412829,45591.613125,0.016000,0.956000,0.212000,192.000000,0.000000,0.000000,0.000000,0.000000,0.000000,0.000000,0.000000,0.000000,0.000000,1646733529.002549,0.000000
205.000000,13552.175588,23590.902816,32124.798849,38397.234785,6820.657172,21476.204273,37909.005631,45590.629648,0.016000,0.956000,0.212000,192.000000,0.000000,0.000000,0.000000,0.000000,0.000000,0.000000,0.000000,0.000000,0.000000,1646733529.009901,0.000000
206.000000,13549.292213,23594.054412,32123.122468,38396.720695,6819.941916,21477.500674,37906.971622,45594.742369,0.016000,0.956000,0.212000,192.000000,0.000000,0.000000,0.000000,0.000000,0.000000,0.000000,0.000000,0.000000,0.000000,1646733529.009911,0.000000
207.000000,13547.995811,23592.847418,32122.250750,38397.123027,6817.371466,21471.331593,37901.718962,45587.410997,0.016000,0.956000,0.212000,192.000000,0.000000,0.000000,0.000000,0.000000,0.000000,0.000000,0.000000,0.000000,0.000000,1646733529.016548,0.000000
208.000000,13541.200881,23586.521874,32114.762916,38394.731390,6805.189765,21461.563881,37901.495445,45584.304104,0.016000,0.956000,0.212000,192.000000,0.000000,0.000000,0.000000,0.000000,0.000000,0.000000,0.000000,0.000000,0.000000,1646733529.024495,0.000000
209.000000,13536.618774,23583.347927,32115.455820,38392.026829,6804.273344,21462.323840,37908.044506,45589.400302,0.016000,0.956000,0.212000,192.000000,0.000000,0.000000,0.000000,0.000000,0.000000,0.000000,0.000000,0.000000,0.000000,1646733529.024512,0.000000
210.000000,13541.267936,23588.891159,32120.529666,38398.553538,6808.497823,21462.569709,37916.895797,45590.204965,0.018000,0.950000,0.208000,192.000000,0.000000,144.000000,29.000000,176.000000,6.000000,128.000000,0.000000,0.000000,0.000000,1646733529.032492,0.000000
211.000000,13543.324297,23589.561711,32120.104983,38396.921861,6809.458948,21463.687296,37913.207759,45598.005724,0.018000,0.950000,0.208000,192.000000,0.000000,0.000000,0.000000,0.000000,0.000000,0.000000,0.000000,0.000000,0.000000,1646733529.032508,0.000000
212.000000,13539.971535,23583.727906,32117.400422,38394.262003,6807.067312,21463.776703,37910.436143,45601.850224,0.018000,0.950000,0.208000,192.000000,0.000000,0.000000,0.000000,0.000000,0.000000,0.000000,0.000000,0.000000,0.000000,1646733529.039691,0.000000
213.000000,13533.400122,23573.177883,32108.705593,38386.349486,6800.160623,21460.111017,37906.859864,45597.402227,0.018000,0.950000,0.208000,192.000000,0.000000,0.000000,0.000000,0.000000,0.000000,0.000000,0.000000,0.000000,0.000000,1646733529.039707,0.000000
214.000000,13541.916137,23582.610319,32111.141933,38393.278526,6806.955553,21469.811674,37918.080439,45602.990163,0.018000,0.950000,0.208000,192.000000,0.000000,0.000000,0.000000,0.000000,0.000000,0.000000,0.000000,0.000000,0.000000,1646733529.047044,0.000000
215.000000,13544.754809,23593.294453,32114.315881,38400.878120,6814.309277,21476.718363,37923.064878,45608.645154,0.018000,0.950000,0.208000,192.000000,0.000000,0.000000,0.000000,0.000000,0.000000,0.000000,0.000000,0.000000,0.000000,1646733529.047055,0.000000
216.000000,13541.692620,23585.516046,32110.829009,38396.474826,6812.923469,21469.252881,37910.749067,45599.659753,0.018000,0.950000,0.208000,192.000000,0.000000,0.000000,0.000000,0.000000,0.000000,0.000000,0.000000,0.000000,0.000000,1646733529.054889,0.000000
217.000000,13541.334992,23582.833836,32109.465553,38391.736256,6807.424940,21466.145988,37915.331175,45602.453721,0.018000,0.950000,0.208000,192.000000,0.000000,0.000000,0.000000,0.000000,0.000000,0.000000,0.000000,0.000000,0.000000,1646733529.054900,0.000000
218.000000,13544.732457,23593.003880,32111.276044,38392.742085,6807.357884,21470.035192,37926.395288,45614.769532,0.018000,0.950000,0.208000,192.000000,0.000000,0.000000,0.000000,0.000000,0.000000,0.000000,0.000000,0.000000,0.000000,1646733529.063197,0.000000
219.000000,13542.966669,23596.691918,32111.164285,38392.250346,6808.877803,21470.325764,37906.524587,45608.242823,0.018000,0.950000,0.208000,192.000000,0.000000,0.000000,0.000000,0.000000,0.000000,0.000000,0.000000,0.000000,0.000000,1646733529.063213,0.000000
220.000000,13541.200881,23587.438296,32109.152628,38395.781922,6805.748559,21464.469607,37915.420582,45599.033904,0.018000,0.962000,0.214000,192.000000,0.000000,144.000000,30.000000,16.000000,6.000000,176.000000,0.000000,0.000000,0.000000,1646733529.069952,0.000000
221.000000,13544.754809,23578.542301,32112.147762,38402.509797,6811.202384,21467.017706,37912.604262,45590.227317,0.018000,0.962000,0.214000,192.000000,0.000000,0.000000,0.000000,0.000000,0.000000,0.000000,0.000000,0.000000,0.000000,1646733529.069969,0.000000
222.000000,13546.565300,23579.704592,32112.728907,38406.376649,6811.112977,21463.843759,37910.458494,45593.490671,0.018000,0.962000,0.214000,192.000000,0.000000,0.000000,0.000000,0.000000,0.000000,0.000000,0.000000,0.000000,0.000000,1646733529.076861,0.000000
223.000000,13549.225157,23589.271139,32115.545227,38411.919881,6815.180995,21475.064334,37926.618806,45614.188387,0.018000,0.962000,0.214000,192.000000,0.000000,0.000000,0.000000,0.000000,0.000000,0.000000,0.000000,0.000000,0.000000,1646733529.076878,0.000000
224.000000,13545.112436,23585.806618,32114.718212,38410.154094,6816.633858,21475.399610,37923.310748,45610.992087,0.018000,0.962000,0.214000,192.000000,0.000000,0.000000,0.000000,0.000000,0.000000,0.000000,0.000000,0.000000,0.000000,1646733529.084764,0.000000
225.000000,13542.117303,23584.845493,32119.613244,38411.606957,6815.628030,21472.695049,37921.947291,45601.716113,0.018000,0.962000,0.214000,192.000000,0.000000,0.000000,0.000000,0.000000,0.000000,0.000000,0.000000,0.000000,0.000000,1646733529.091887,0.000000
226.000000,13547.325259,23589.226435,32123.971835,38410.936405,6814.175166,21471.800980,37917.231073,45600.129139,0.018000,0.962000,0.214000,192.000000,0.000000,0.000000,0.000000,0.000000,0.000000,0.000000,0.000000,0.000000,0.000000,1646733529.091903,0.000000
227.000000,13553.494341,23593.316805,32124.262407,38408.701230,6811.783530,21470.571634,37915.688803,45600.039732,0.018000,0.962000,0.214000,192.000000,0.000000,0.000000,0.000000,0.000000,0.000000,0.000000,0.000000,0.000000,0.000000,1646733529.099499,0.000000
228.000000,13553.293175,23595.350813,32119.881465,38405.817855,6812.118806,21474.729058,37922.059050,45608.980430,0.018000,0.962000,0.214000,192.000000,0.000000,0.000000,0.000000,0.000000,0.000000,0.000000,0.000000,0.000000,0.000000,1646733529.099515,0.000000
229.000000,13555.036611,23596.624863,32121.155515,38406.399000,6818.466701,21482.574520,37922.684899,45613.339020,0.018000,0.962000,0.214000,192.000000,0.000000,0.000000,0.000000,0.000000,0.000000,0.000000,0.000000,0.000000,0.000000,1646733529.107369,0.000000
230.000000,13560.892768,23604.716194,32122.116640,38409.371782,6817.215004,21480.875788,37922.595492,45603.101921,0.014000,0.962000,0.208000,192.000000,0.000000,112.000000,30.000000,16.000000,6.000000,128.000000,0.000000,0.000000,0.000000,1646733529.107385,0.000000
231.000000,13560.959823,23604.336215,32120.641425,38408.142437,6816.119768,21479.668794,37914.884140,45601.716113,0.014000,0.962000,0.208000,192.000000,0.000000,0.000000,0.000000,0.000000,0.000000,0.000000,0.000000,0.000000,0.000000,1646733529.115489,0.000000
232.000000,13558.635242,23598.033023,32123.658910,38410.377611,6816.209175,21481.434581,37925.009480,45609.941555,0.014000,0.962000,0.208000,192.000000,0.000000,0.000000,0.000000,0.000000,0.000000,0.000000,0.000000,0.000000,0.000000,1646733529.115505,0.000000
233.000000,13558.858759,23598.100078,32126.743451,38412.679841,6814.778663,21484.854398,37928.183428,45615.641250,0.014000,0.962000,0.208000,192.000000,0.000000,0.000000,0.000000,0.000000,0.000000,0.000000,0.000000,0.000000,0.000000,1646733529.121878,0.000000
234.000000,13562.122114,23607.264293,32133.381919,38420.100620,6825.731018,21490.688204,37933.793716,45618.949308,0.014000,0.962000,0.208000,192.000000,0.000000,0.000000,0.000000,0.000000,0.000000,0.000000,0.000000,0.000000,0.000000,1646733529.121894,0.000000
235.000000,13560.110457,23609.231247,32130.565599,38423.967472,6832.324783,21491.872846,37925.300053,45608.041657,0.014000,0.962000,0.208000,192.000000,0.000000,0.000000,0.000000,0.000000,0.000000,0.000000,0.000000,0.000000,0.000000,1646733529.129746,0.000000
236.000000,13566.704222,23615.087404,32130.990282,38432.237617,6833.129446,21488.475381,37924.897721,45608.533395,0.014000,0.962000,0.208000,192.000000,0.000000,0.000000,0.000000,0.000000,0.000000,0.000000,0.000000,0.000000,0.000000,1646733529.129758,0.000000
237.000000,13566.681870,23613.343968,32134.432451,38434.808068,6837.264518,21492.588102,37919.354489,45612.601413,0.014000,0.962000,0.208000,192.000000,0.000000,0.000000,0.000000,0.000000,0.000000,0.000000,0.000000,0.000000,0.000000,1646733529.137852,0.000000
238.000000,13573.141524,23613.098098,32136.779384,38433.913998,6840.147893,21495.627939,37919.868579,45616.222395,0.014000,0.962000,0.208000,192.000000,0.000000,0.000000,0.000000,0.000000,0.000000,0.000000,0.000000,0.000000,0.000000,1646733529.137868,0.000000
239.000000,13574.393222,23618.216648,32135.348873,38430.382422,6838.717382,21491.626977,37924.942425,45609.963907,0.014000,0.962000,0.208000,192.000000,0.000000,0.000000,0.000000,0.000000,0.000000,0.000000,0.000000,0.000000,0.000000,1646733529.145129,0.000000
240.000000,13573.901483,23620.407119,32131.258503,38427.253178,6836.124579,21487.693070,37928.988091,45608.622802,0.012000,0.958000,0.202000,192.000000,0.000000,96.000000,29.000000,240.000000,6.000000,80.000000,0.000000,0.000000,0.000000,1646733529.151548,0.000000
241.000000,13574.393222,23614.193334,32129.023329,38428.504876,6832.414190,21486.866055,37930.932692,45614.523663,0.012000,0.958000,0.202000,192.000000,0.000000,0.000000,0.000000,0.000000,0.000000,0.000000,0.000000,0.000000,0.000000,1646733529.151565,0.000000
242.000000,13571.040460,23610.393537,32134.499506,38419.966509,6827.340344,21483.781515,37935.783021,45614.121331,0.012000,0.958000,0.202000,192.000000,0.000000,0.000000,0.000000,0.000000,0.000000,0.000000,0.000000,0.000000,0.000000,1646733529.159681,0.000000
243.000000,13567.419477,23606.951369,32136.265294,38418.603053,6827.094475,21486.195503,37932.094983,45610.098017,0.012000,0.958000,0.202000,192.000000,0.000000,0.000000,0.000000,0.000000,0.000000,0.000000,0.000000,0.000000,0.000000,1646733529.159697,0.000000
244.000000,13572.940358,23612.360491,32139.416890,38426.470867,6836.973946,21494.733869,37929.792753,45617.764666,0.012000,0.958000,0.202000,192.000000,0.000000,0.000000,0.000000,0.000000,0.000000,0.000000,0.000000,0.000000,0.000000,1646733529.167823,0.000000
245.000000,13566.257187,23610.348834,32136.131184,38424.168637,6835.364620,21489.972948,37917.812218,45611.707343,0.012000,0.958000,0.202000,192.000000,0.000000,0.000000,0.000000,0.000000,0.000000,0.000000,0.000000,0.000000,0.000000,1646733529.167840,0.000000
246.000000,13572.493323,23609.499468,32135.415928,38424.190989,6831.877748,21485.435544,37920.181503,45607.326401,0.012000,0.958000,0.202000,192.000000,0.000000,0.000000,0.000000,0.000000,0.000000,0.000000,0.000000,0.000000,0.000000,1646733529.174936,0.000000
247.000000,13567.821809,23608.247770,32133.404271,38423.498085,6829.195539,21481.456933,37915.040602,45604.755951,0.012000,0.958000,0.202000,192.000000,0.000000,0.000000,0.000000,0.000000,0.000000,0.000000,0.000000,0.000000,0.000000,1646733529.174951,0.000000
248.000000,13564.580806,23610.438241,32131.571428,38421.732297,6824.792245,21474.460837,37908.737410,45599.637401,0.012000,0.958000,0.202000,192.000000,0.000000,0.000000,0.000000,0.000000,0.000000,0.000000,0.000000,0.000000,0.000000,1646733529.182311,0.000000
249.000000,13566.346594,23614.975645,32137.449937,38427.297882,6830.626050,21474.013802,37902.948308,45598.497462,0.012000,0.958000,0.202000,192.000000,0.000000,0.000000,0.000000,0.000000,0.000000,0.000000,0.000000,0.000000,0.000000,1646733529.182327,0.000000
250.000000,13568.313547,23614.260389,32138.031082,38430.203608,6834.939937,21476.181922,37907.306899,45597.156357,0.008000,0.962000,0.206000,192.000000,0.000000,64.000000,30.000000,16.000000,6.000000,112.000000,0.000000,0.000000,0.000000,1646733529.190472,0.000000
251.000000,13565.184303,23610.281779,32134.052471,38428.750745,6832.593004,21473.969099,37911.374916,45597.692799,0.008000,0.962000,0.206000,192.000000,0.000000,0.000000,0.000000,0.000000,0.000000,0.000000,0.000000,0.000000,0.000000,1646733529.190488,0.000000
252.000000,13566.212483,23608.985377,32131.973759,38428.057841,6830.246071,21470.348116,37903.708268,45586.449872,0.008000,0.962000,0.206000,192.000000,0.000000,0.000000,0.000000,0.000000,0.000000,0.000000,0.000000,0.000000,0.000000,1646733529.197512,0.000000
253.000000,13563.127942,23605.185581,32130.833820,38423.788658,6831.609527,21477.970061,37904.714096,45594.496500,0.008000,0.962000,0.206000,192.000000,0.000000,0.000000,0.000000,0.000000,0.000000,0.000000,0.000000,0.000000,0.000000,1646733529.197529,0.000000
254.000000,13560.155160,23604.827953,32128.598646,38416.569044,6827.094475,21476.271328,37913.632442,45605.001820,0.008000,0.962000,0.206000,192.000000,0.000000,0.000000,0.000000,0.000000,0.000000,0.000000,0.000000,0.000000,0.000000,1646733529.203986,0.000000
255.000000,13556.511826,23598.815334,32129.760936,38409.662355,6828.502635,21481.054602,37918.572178,45605.448855,0.008000,0.962000,0.206000,192.000000,0.000000,0.000000,0.000000,0.000000,0.000000,0.000000,0.000000,0.000000,0.000000,1646733529.212059,0.000000
0.000000,13552.801437,23591.439258,32121.602550,38397.547710,6815.695085,21469.275232,37900.243747,45587.455700,0.008000,0.962000,0.206000,192.000000,0.000000,0.000000,0.000000,0.000000,0.000000,0.000000,0.000000,0.000000,0.000000,1646733529.212074,0.000000
1.000000,13552.890843,23588.935863,32115.768744,38394.396114,6809.078969,21466.660078,37905.786980,45594.362389,0.008000,0.962000,0.206000,192.000000,0.000000,0.000000,0.000000,0.000000,0.000000,0.000000,0.000000,0.000000,0.000000,1646733529.220066,0.000000
2.000000,13546.833521,23583.079706,32112.393631,38397.078323,6809.704817,21470.214006,37918.974509,45603.772474,0.008000,0.962000,0.206000,192.000000,0.000000,0.000000,0.000000,0.000000,0.000000,0.000000,0.000000,0.000000,0.000000,1646733529.220083,0.000000
3.000000,13545.313602,23582.967947,32119.076803,38403.359163,6816.656210,21473.231491,37913.543035,45605.962945,0.008000,0.962000,0.206000,192.000000,0.000000,0.000000,0.000000,0.000000,0.000000,0.000000,0.000000,0.000000,0.000000,1646733529.227060,0.000000
4.000000,13537.714009,23575.636575,32117.132201,38401.392210,6816.700914,21467.978831,37904.110599,45605.851186,0.010000,0.964000,0.204000,192.000000,0.000000,80.000000,30.000000,32.000000,6.000000,96.000000,0.000000,0.000000,0.000000,1646733529.227077,0.000000
5.000000,13536.842291,23580.822179,32117.623939,38405.773152,6821.998277,21469.722267,37903.171826,45604.375971,0.010000,0.964000,0.204000,192.000000,0.000000,0.000000,0.000000,0.000000,0.000000,0.000000,0.000000,0.000000,0.000000,1646733529.234659,0.000000
6.000000,13525.018218,23571.590909,32110.717250,38406.019021,6822.378257,21467.867073,37900.713134,45593.647134,0.010000,0.964000,0.204000,192.000000,0.000000,0.000000,0.000000,0.000000,0.000000,0.000000,0.000000,0.000000,0.000000,1646733529.234675,0.000000
7.000000,13511.562468,23553.441292,32102.089477,38403.113294,6819.226661,21471.823331,37907.284547,45601.045561,0.010000,0.964000,0.204000,192.000000,0.000000,0.000000,0.000000,0.000000,0.000000,0.000000,0.000000,0.000000,0.000000,1646733529.242598,0.000000
8.000000,13489.143668,23528.407339,32088.477264,38389.031695,6806.195594,21468.761142,37903.820026,45599.302125,0.010000,0.964000,0.204000,192.000000,0.000000,0.000000,0.000000,0.000000,0.000000,0.000000,0.000000,0.000000,0.000000,1646733529.242614,0.000000
9.000000,13481.052337,23519.109013,32085.817407,38387.198852,6799.601829,21464.290793,37905.451704,45594.787073,0.010000,0.964000,0.204000,192.000000,0.000000,0.000000,0.000000,0.000000,0.000000,0.000000,0.000000,0.000000,0.000000,1646733529.250653,0.000000
10.000000,13475.933787,23514.459850,32082.017610,38384.695457,6792.941009,21461.742695,37903.372991,45593.893003,0.010000,0.964000,0.204000,192.000000,0.000000,0.000000,0.000000,0.000000,0.000000,0.000000,0.000000,0.000000,0.000000,1646733529.250669,0.000000
11.000000,13454.520816,23490.655242,32073.009857,38374.681875,6787.308370,21464.223738,37902.367163,45596.396398,0.010000,0.964000,0.204000,192.000000,0.000000,0.000000,0.000000,0.000000,0.000000,0.000000,0.000000,0.000000,0.000000,1646733529.257036,0.000000
12.000000,13440.953307,23471.723315,32067.667790,38372.022017,6784.961436,21463.955517,37903.350640,45602.274907,0.010000,0.964000,0.204000,192.000000,0.000000,0.000000,0.000000,0.000000,0.000000,0.000000,0.000000,0.000000,0.000000,1646733529.257052,0.000000
13.000000,13430.850319,23466.425951,32065.879651,38370.546802,6786.235486,21463.799055,37904.155303,45601.649058,0.010000,0.964000,0.204000,192.000000,0.000000,0.000000,0.000000,0.000000,0.000000,0.000000,0.000000,0.000000,0.000000,1646733529.264334,0.000000
14.000000,13415.271153,23454.490120,32059.643514,38361.740215,6784.782622,21459.552224,37906.055201,45593.669485,0.014000,0.966000,0.202000,192.000000,0.000000,112.000000,30.000000,48.000000,6.000000,80.000000,0.000000,0.000000,0.000000,1646733529.272260,0.000000
15.000000,13410.242010,23453.104312,32061.074026,38354.341788,6778.792355,21457.093532,37906.703401,45590.786110,0.014000,0.966000,0.202000,192.000000,0.000000,0.000000,0.000000,0.000000,0.000000,0.000000,0.000000,0.000000,0.000000,1646733529.272276,0.000000
16.000000,13396.540391,23446.622306,32059.822328,38348.060947,6778.390024,21460.625107,37900.288451,45586.516927,0.014000,0.966000,0.202000,192.000000,0.000000,0.000000,0.000000,0.000000,0.000000,0.000000,0.000000,0.000000,0.000000,1646733529.280469,0.000000
17.000000,13390.013682,23429.232649,32055.486090,38350.944322,6774.679634,21454.456026,37894.544052,45584.862898,0.014000,0.966000,0.202000,192.000000,0.000000,0.000000,0.000000,0.000000,0.000000,0.000000,0.000000,0.000000,0.000000,1646733529.280485,0.000000
18.000000,13394.126403,23427.377454,32058.525927,38355.526430,6776.601884,21456.579442,37902.456570,45598.966849,0.014000,0.966000,0.202000,192.000000,0.000000,0.000000,0.000000,0.000000,0.000000,0.000000,0.000000,0.000000,0.000000,1646733529.286863,0.000000
19.000000,13404.028225,23439.357989,32058.280058,38350.027901,6783.307407,21458.434636,37888.419674,45593.602430,0.014000,0.966000,0.202000,192.000000,0.000000,0.000000,0.000000,0.000000,0.000000,0.000000,0.000000,0.000000,0.000000,1646733529.286879,0.000000
20.000000,13402.150679,23442.531936,32059.799976,38352.106613,6783.888553,21458.479340,37880.708323,45589.936744,0.014000,0.966000,0.202000,192.000000,0.000000,0.000000,0.000000,0.000000,0.000000,0.000000,0.000000,0.000000,0.000000,1646733529.294681,0.000000
21.000000,13408.610333,23441.369646,32060.649343,38346.295160,6783.441518,21460.893328,37910.279681,45611.953212,0.014000,0.966000,0.202000,192.000000,0.000000,0.000000,0.000000,0.000000,0.000000,0.000000,0.000000,0.000000,0.000000,1646733529.294697,0.000000
22.000000,13414.153566,23453.685457,32060.135252,38351.369006,6782.815669,21464.000221,37924.450687,45616.691782,0.014000,0.966000,0.202000,192.000000,0.000000,0.000000,0.000000,0.000000,0.000000,0.000000,0.000000,0.000000,0.000000,1646733529.302874,0.000000
23.000000,13403.581191,23439.268582,32061.252840,38361.650808,6780.424032,21458.948727,37905.049372,45597.759855,0.014000,0.966000,0.202000,192.000000,0.000000,0.000000,0.000000,0.000000,0.000000,0.000000,0.000000,0.000000,0.000000,1646733529.302890,0.000000
24.000000,13414.310028,23433.010093,32061.923392,38361.114366,6781.049881,21452.891404,37902.076590,45593.557727,0.018000,0.962000,0.206000,192.000000,0.000000,144.000000,30.000000,16.000000,6.000000,112.000000,0.000000,0.000000,0.000000,1646733529.309982,0.000000
25.000000,13423.138967,23439.961486,32061.074026,38352.508945,6778.680596,21445.314162,37896.399247,45590.026151,0.018000,0.962000,0.206000,192.000000,0.000000,0.000000,0.000000,0.000000,0.000000,0.000000,0.000000,0.000000,0.000000,1646733529.309999,0.000000
26.000000,13433.823101,23452.836091,32065.834947,38360.220296,6782.368634,21448.152834,37896.443951,45595.904660,0.018000,0.962000,0.206000,192.000000,0.000000,0.000000,0.000000,0.000000,0.000000,0.000000,0.000000,0.000000,0.000000,1646733529.317540,0.000000
27.000000,13431.051484,23453.528995,32074.552128,38367.618724,6787.867163,21457.652325,37896.399247,45594.496500,0.018000,0.962000,0.206000,192.000000,0.000000,0.000000,0.000000,0.000000,0.000000,0.000000,0.000000,0.000000,0.000000,1646733529.317556,0.000000
28.000000,13432.929031,23462.469693,32080.944727,38376.201794,6794.326817,21466.369506,37906.278718,45600.822044,0.018000,0.962000,0.206000,192.000000,0.000000,0.000000,0.000000,0.000000,0.000000,0.000000,0.000000,0.000000,0.000000,1646733529.324448,0.000000
29.000000,13430.738560,23466.560062,32078.731904,38379.263983,6795.802032,21464.134331,37898.232090,45597.916317,0.018000,0.962000,0.206000,192.000000,0.000000,0.000000,0.000000,0.000000,0.000000,0.000000,0.000000,0.000000,0.000000,1646733529.324466,0.000000
30.000000,13443.724924,23483.189760,32080.475340,38379.688666,6795.064425,21465.184863,37902.501273,45594.608259,0.018000,0.962000,0.206000,192.000000,0.000000,0.000000,0.000000,0.000000,0.000000,0.000000,0.000000,0.000000,0.000000,1646733529.332240,0.000000
31.000000,13449.961060,23493.382155,32074.194500,38374.592468,6787.956570,21463.396724,37901.048410,45600.330305,0.018000,0.962000,0.206000,192.000000,0.000000,0.000000,0.000000,0.000000,0.000000,0.000000,0.000000,0.000000,0.000000,1646733529.339059,0.000000
32.000000,13456.174845,23499.283016,32077.949593,38381.499157,6794.729149,21467.464741,37910.927881,45605.985296,0.018000,0.962000,0.206000,192.000000,0.000000,0.000000,0.000000,0.000000,0.000000,0.000000,0.000000,0.000000,0.000000,1646733529.339070,0.000000
33.000000,13445.602470,23488.509475,32076.250860,38386.751817,6799.333608,21470.035192,37904.110599,45603.392494,0.018000,0.962000,0.206000,192.000000,0.000000,0.000000,0.000000,0.000000,0.000000,0.000000,0.000000,0.000000,0.000000,1646733529.347155,0.000000
34.000000,13455.370182,23499.931216,32085.124503,38392.071532,6802.351094,21460.088665,37903.127122,45598.139834,0.018000,0.962000,0.206000,192.000000,0.000000,0.000000,0.000000,0.000000,0.000000,0.000000,0.000000,0.000000,0.000000,1646733529.347171,0.000000
35.000000,13465.428467,23509.073080,32090.198349,38392.786788,6804.876841,21460.312183,37912.268986,45602.207852,0.014000,0.962000,0.208000,192.000000,0.000000,112.000000,30.000000,16.000000,6.000000,128.000000,0.000000,0.000000,0.000000,1646733529.355154,0.000000
36.000000,13465.853151,23505.385042,32090.488921,38387.422369,6801.702893,21460.312183,37904.781151,45590.830814,0.014000,0.962000,0.208000,192.000000,0.000000,0.000000,0.000000,0.000000,0.000000,0.000000,0.000000,0.000000,0.000000,1646733529.355170,0.000000
37.000000,13463.729735,23503.552199,32088.969003,38381.990896,6798.193669,21457.853491,37891.995954,45589.199136,0.014000,0.962000,0.208000,192.000000,0.000000,0.000000,0.000000,0.000000,0.000000,0.000000,0.000000,0.000000,0.000000,1646733529.362154,0.000000
38.000000,13471.083459,23509.833039,32097.261500,38390.529262,6804.452158,21466.257747,37905.630518,45601.716113,0.014000,0.962000,0.208000,192.000000,0.000000,0.000000,0.000000,0.000000,0.000000,0.000000,0.000000,0.000000,0.000000,1646733529.362170,0.000000
39.000000,13475.039718,23514.258684,32096.143913,38390.037524,6805.122710,21464.670773,37899.774361,45593.982410,0.014000,0.962000,0.208000,192.000000,0.000000,0.000000,0.000000,0.000000,0.000000,0.000000,0.000000,0.000000,0.000000,1646733529.369708,0.000000
40.000000,13478.861866,23519.757214,32091.114770,38389.054047,6803.200460,21460.580404,37902.769494,45588.997971,0.014000,0.962000,0.208000,192.000000,0.000000,0.000000,0.000000,0.000000,0.000000,0.000000,0.000000,0.000000,0.000000,1646733529.369724,0.000000
41.000000,13478.928921,23521.388891,32085.951517,38384.740160,6798.596001,21461.653288,37901.987183,45585.511099,0.014000,0.962000,0.208000,192.000000,0.000000,0.000000,0.000000,0.000000,0.000000,0.000000,0.000000,0.000000,0.000000,1646733529.377665,0.000000
42.000000,13484.338043,23528.563801,32087.203215,38386.997686,6798.685407,21470.504578,37912.090172,45593.043636,0.014000,0.962000,0.208000,192.000000,0.000000,0.000000,0.000000,0.000000,0.000000,0.000000,0.000000,0.000000,0.000000,1646733529.377681,0.000000
43.000000,13485.433279,23532.408301,32089.907776,38391.937422,6801.635838,21479.981718,37912.336041,45613.339020,0.014000,0.962000,0.208000,192.000000,0.000000,0.000000,0.000000,0.000000,0.000000,0.000000,0.000000,0.000000,0.000000,1646733529.385828,0.000000
44.000000,13487.623750,23530.262533,32086.398552,38387.221204,6801.524079,21478.975890,37910.883178,45609.539224,0.014000,0.962000,0.208000,192.000000,0.000000,0.000000,0.000000,0.000000,0.000000,0.000000,0.000000,0.000000,0.000000,1646733529.385844,0.000000
45.000000,13485.656796,23528.653208,32083.515177,38383.868442,6797.389006,21477.455971,37912.604262,45598.475110,0.008000,0.966000,0.208000,192.000000,0.000000,64.000000,30.000000,48.000000,6.000000,128.000000,0.000000,0.000000,0.000000,1646733529.391903,0.000000
46.000000,13483.220456,23527.088586,32077.390799,38375.620648,6787.554239,21463.709648,37895.683991,45582.493613,0.008000,0.966000,0.208000,192.000000,0.000000,0.000000,0.000000,0.000000,0.000000,0.000000,0.000000,0.000000,0.000000,1646733529.399454,0.000000
47.000000,13489.970683,23534.598772,32085.370372,38381.610916,6793.879782,21468.492921,37898.857939,45589.445006,0.008000,0.966000,0.208000,192.000000,0.000000,0.000000,0.000000,0.000000,0.000000,0.000000,0.000000,0.000000,0.000000,1646733529.399470,0.000000
48.000000,13498.397291,23544.746464,32095.741581,38390.730428,6801.166451,21472.806808,37905.496407,45600.844395,0.008000,0.966000,0.208000,192.000000,0.000000,0.000000,0.000000,0.000000,0.000000,0.000000,0.000000,0.000000,0.000000,1646733529.407473,0.000000
49.000000,13506.510974,23549.954420,32103.207064,38394.999611,6807.737864,21475.623128,37915.398230,45610.254480,0.008000,0.966000,0.208000,192.000000,0.000000,0.000000,0.000000,0.000000,0.000000,0.000000,0.000000,0.000000,0.000000,1646733529.407489,0.000000
50.000000,13506.063939,23547.294563,32101.843608,38391.780960,6803.222812,21473.834988,37911.106695,45607.996953,0.008000,0.966000,0.208000,192.000000,0.000000,0.000000,0.000000,0.000000,0.000000,0.000000,0.000000,0.000000,0.000000,1646733529.415531,0.000000
51.000000,13502.085328,23544.590002,32096.255672,38387.176500,6795.802032,21465.542491,37898.589718,45596.217584,0.008000,0.966000,0.208000,192.000000,0.000000,0.000000,0.000000,0.000000,0.000000,0.000000,0.000000,0.000000,0.000000,1646733529.415547,0.000000
52.000000,13493.099927,23538.398568,32084.029267,38382.102654,6792.493974,21464.447256,37890.341924,45591.501366,0.008000,0.966000,0.208000,192.000000,0.000000,0.000000,0.000000,0.000000,0.000000,0.000000,0.000000,0.000000,0.000000,1646733529.421899,0.000000
53.000000,13500.677168,23546.266382,32084.096323,38385.298954,6792.538678,21465.184863,37895.348715,45588.014494,0.008000,0.966000,0.208000,192.000000,0.000000,0.000000,0.000000,0.000000,0.000000,0.000000,0.000000,0.000000,0.000000,1646733529.421915,0.000000
54.000000,13498.754918,23547.652191,32084.565709,38386.930631,6795.220887,21464.737828,37883.055256,45586.628686,0.008000,0.966000,0.208000,192.000000,0.000000,0.000000,0.000000,0.000000,0.000000,0.000000,0.000000,0.000000,0.000000,1646733529.430090,0.000000
55.000000,13507.807375,23553.955383,32086.331497,38387.131797,6794.952666,21458.836968,37895.751047,45589.824985,0.016000,0.962000,0.212000,192.000000,0.000000,128.000000,30.000000,16.000000,6.000000,160.000000,0.000000,0.000000,0.000000,1646733529.430106,0.000000
56.000000,13510.578991,23550.133234,32085.549186,38384.851919,6795.489108,21465.296622,37893.426465,45597.670448,0.016000,0.962000,0.212000,192.000000,0.000000,0.000000,0.000000,0.000000,0.000000,0.000000,0.000000,0.000000,0.000000,1646733529.438107,0.000000
57.000000,13505.125166,23547.808653,32081.704686,38381.923840,6790.750538,21463.329668,37890.185462,45591.166090,0.016000,0.962000,0.212000,192.000000,0.000000,0.000000,0.000000,0.000000,0.000000,0.000000,0.000000,0.000000,0.000000,1646733529.438123,0.000000
58.000000,13514.714064,23562.784322,32089.684259,38389.970468,6794.662093,21469.029363,37903.618861,45593.937706,0.016000,0.962000,0.212000,192.000000,0.000000,0.000000,0.000000,0.000000,0.000000,0.000000,0.000000,0.000000,0.000000,1646733529.445061,0.000000
59.000000,13517.306866,23557.755179,32095.361602,38396.139550,6802.284038,21473.834988,37902.970660,45594.004761,0.016000,0.962000,0.212000,192.000000,0.000000,0.000000,0.000000,0.000000,0.000000,0.000000,0.000000,0.000000,0.000000,1646733529.445078,0.000000
60.000000,13515.608134,23556.011743,32096.367430,38397.480654,6802.552259,21470.102247,37891.571270,45584.684084,0.016000,0.962000,0.212000,192.000000,0.000000,0.000000,0.000000,0.000000,0.000000,0.000000,0.000000,0.000000,0.000000,1646733529.451650,0.000000
61.000000,13514.647009,23558.604545,32096.658003,38397.212433,6803.222812,21472.940919,37883.703456,45588.059197,0.016000,0.962000,0.212000,192.000000,0.000000,0.000000,0.000000,0.000000,0.000000,0.000000,0.000000,0.000000,0.000000,1646733529.459765,0.000000
62.000000,13513.127090,23559.096284,32092.791151,38396.519529,6803.334570,21472.113904,37889.470206,45587.031017,0.016000,0.962000,0.212000,192.000000,0.000000,0.000000,0.000000,0.000000,0.000000,0.000000,0.000000,0.000000,0.000000,1646733529.459783,0.000000
63.000000,13517.172756,23566.360601,32095.652174,38398.799407,6806.866146,21468.090590,37888.978468,45579.632590,0.016000,0.962000,0.212000,192.000000,0.000000,0.000000,0.000000,0.000000,0.000000,0.000000,0.000000,0.000000,0.000000,1646733529.467658,0.000000
64.000000,13521.598401,23569.288679,32103.229416,38400.945175,6815.248050,21471.800980,37889.626669,45586.695741,0.016000,0.962000,0.212000,192.000000,0.000000,0.000000,0.000000,0.000000,0.000000,0.000000,0.000000,0.000000,0.000000,1646733529.467674,0.000000
65.000000,13525.062922,23568.729886,32104.771686,38400.207567,6811.537661,21463.352020,37888.151454,45581.867764,0.022000,0.962000,0.216000,192.000000,0.000000,176.000000,30.000000,16.000000,6.000000,192.000000,0.000000,0.000000,0.000000,1646733529.474478,0.000000
66.000000,13528.326276,23573.960194,32108.213855,38406.622518,6816.767969,21472.918567,37896.063971,45596.754026,0.022000,0.962000,0.216000,192.000000,0.000000,0.000000,0.000000,0.000000,0.000000,0.000000,0.000000,0.000000,0.000000,1646733529.474494,0.000000
67.000000,13532.215480,23579.525778,32107.923282,38407.337774,6820.254841,21476.986584,37900.757837,45602.498424,0.022000,0.962000,0.216000,192.000000,0.000000,0.000000,0.000000,0.000000,0.000000,0.000000,0.000000,0.000000,0.000000,1646733529.482275,0.000000
68.000000,13531.567279,23574.787208,32107.252730,38405.124951,6819.807806,21474.416134,37904.155303,45595.703494,0.022000,0.962000,0.216000,192.000000,0.000000,0.000000,0.000000,0.000000,0.000000,0.000000,0.000000,0.000000,0.000000,1646733529.482291,0.000000
69.000000,13519.832613,23566.047676,32100.860131,38397.413599,6815.672733,21470.169302,37881.378875,45588.707398,0.022000,0.962000,0.216000,192.000000,0.000000,0.000000,0.000000,0.000000,0.000000,0.000000,0.000000,0.000000,0.000000,1646733529.491818,0.000000
70.000000,13526.024047,23577.938804,32109.219683,38404.320288,6816.410341,21474.863169,37887.771474,45591.881346,0.022000,0.962000,0.216000,192.000000,0.000000,0.000000,0.000000,0.000000,0.000000,0.000000,0.000000,0.000000,0.000000,1646733529.491834,0.000000
71.000000,13525.934640,23573.356697,32110.650195,38403.381515,6814.063408,21470.906910,37885.670410,45592.775416,0.022000,0.962000,0.216000,192.000000,0.000000,0.000000,0.000000,0.000000,0.000000,0.000000,0.000000,0.000000,0.000000,1646733529.497836,0.000000
72.000000,13529.466215,23574.295470,32108.929111,38401.302803,6813.437559,21465.296622,37898.746180,45601.425541,0.022000,0.962000,0.216000,192.000000,0.000000,0.000000,0.000000,0.000000,0.000000,0.000000,0.000000,0.000000,0.000000,1646733529.497852,0.000000
73.000000,13530.047361,23576.284775,32106.179846,38399.581718,6813.169338,21467.576500,37904.043544,45602.096093,0.022000,0.962000,0.216000,192.000000,0.000000,0.000000,0.000000,0.000000,0.000000,0.000000,0.000000,0.000000,0.000000,1646733529.504996,0.000000
74.000000,13525.867584,23571.836778,32106.470419,38398.330021,6811.001219,21461.809750,37893.649983,45589.042674,0.022000,0.962000,0.216000,192.000000,0.000000,0.000000,0.000000,0.000000,0.000000,0.000000,0.000000,0.000000,0.000000,1646733529.505012,0.000000
75.000000,13524.772349,23566.897043,32106.917454,38400.945175,6810.643591,21458.054657,37889.559613,45584.102939,0.026000,0.960000,0.214000,192.000000,0.000000,208.000000,30.000000,0.000000,6.000000,176.000000,0.000000,0.000000,0.000000,1646733529.511964,0.000000
76.000000,13526.404026,23566.651173,32105.464590,38402.219224,6811.560012,21456.601793,37883.949326,45585.488747,0.026000,0.960000,0.214000,192.000000,0.000000,0.000000,0.000000,0.000000,0.000000,0.000000,0.000000,0.000000,0.000000,1646733529.520035,0.000000
77.000000,13527.812186,23573.691973,32106.202198,38402.174521,6815.873899,21462.055619,37894.007611,45592.663657,0.026000,0.960000,0.214000,192.000000,0.000000,0.000000,0.000000,0.000000,0.000000,0.000000,0.000000,0.000000,0.000000,1646733529.520052,0.000000
78.000000,13532.394294,23582.275043,32108.459724,38403.985012,6819.047847,21464.581366,37893.962907,45601.023209,0.026000,0.960000,0.214000,192.000000,0.000000,0.000000,0.000000,0.000000,0.000000,0.000000,0.000000,0.000000,0.000000,1646733529.527084,0.000000
79.000000,13534.517710,23585.136066,32111.499561,38409.751762,6823.339382,21466.347154,37892.398285,45597.044599,0.026000,0.960000,0.214000,192.000000,0.000000,0.000000,0.000000,0.000000,0.000000,0.000000,0.000000,0.000000,0.000000,1646733529.527101,0.000000
80.000000,13536.551718,23583.973775,32118.406250,38411.450495,6827.407399,21474.863169,37905.071724,45602.967811,0.026000,0.960000,0.214000,192.000000,0.000000,0.000000,0.000000,0.000000,0.000000,0.000000,0.000000,0.000000,0.000000,1646733529.534723,0.000000
81.000000,13539.166872,23580.866883,32118.406250,38406.309593,6824.680486,21471.353945,37898.723829,45593.781244,0.026000,0.960000,0.214000,192.000000,0.000000,0.000000,0.000000,0.000000,0.000000,0.000000,0.000000,0.000000,0.000000,1646733529.534739,0.000000
82.000000,13544.397181,23584.353755,32123.614207,38406.063724,6826.692143,21472.829160,37904.736448,45602.006686,0.026000,0.960000,0.214000,192.000000,0.000000,0.000000,0.000000,0.000000,0.000000,0.000000,0.000000,0.000000,0.000000,1646733529.542694,0.000000
83.000000,13547.258204,23586.030136,32129.202143,38405.639041,6828.927318,21482.686279,37912.917186,45614.054276,0.026000,0.960000,0.214000,192.000000,0.000000,0.000000,0.000000,0.000000,0.000000,0.000000,0.000000,0.000000,0.000000,1646733529.542709,0.000000
84.000000,13548.845178,23586.544226,32125.603512,38403.225053,6826.423922,21480.719326,37906.457532,45607.862843,0.026000,0.960000,0.214000,192.000000,0.000000,0.000000,0.000000,0.000000,0.000000,0.000000,0.000000,0.000000,0.000000,1646733529.550580,0.000000
85.000000,13545.112436,23583.258520,32122.049585,38402.018059,6821.819463,21470.638689,37887.302087,45591.635477,0.020000,0.956000,0.220000,192.000000,0.000000,160.000000,29.000000,224.000000,6.000000,224.000000,0.000000,0.000000,0.000000,1646733529.550596,0.000000
86.000000,13545.961803,23582.006822,32124.016538,38405.192006,6824.009934,21468.045887,37877.601430,45585.511099,0.020000,0.956000,0.220000,192.000000,0.000000,0.000000,0.000000,0.000000,0.000000,0.000000,0.000000,0.000000,0.000000,1646733529.557199,0.000000
87.000000,13545.179492,23581.112752,32122.071936,38404.409695,6818.377294,21456.802959,37875.455663,45570.267209,0.020000,0.956000,0.220000,192.000000,0.000000,0.000000,0.000000,0.000000,0.000000,0.000000,0.000000,0.000000,0.000000,1646733529.557216,0.000000
88.000000,13541.267936,23573.513159,32119.523838,38399.648774,6818.444350,21456.758256,37876.193270,45569.037863,0.020000,0.956000,0.220000,192.000000,0.000000,0.000000,0.000000,0.000000,0.000000,0.000000,0.000000,0.000000,0.000000,1646733529.565374,0.000000
89.000000,13539.010410,23569.266328,32114.047660,38392.764436,6816.477396,21450.745636,37874.561593,45564.008720,0.020000,0.956000,0.220000,192.000000,0.000000,0.000000,0.000000,0.000000,0.000000,0.000000,0.000000,0.000000,0.000000,1646733529.565391,0.000000
90.000000,13534.696524,23569.065162,32110.314919,38391.378628,6811.314143,21447.974020,37868.414863,45565.618046,0.020000,0.956000,0.220000,192.000000,0.000000,0.000000,0.000000,0.000000,0.000000,0.000000,0.000000,0.000000,0.000000,1646733529.572329,0.000000
91.000000,13528.907422,23566.181787,32104.123486,38386.394189,6803.580440,21446.722322,37865.106805,45557.102031,0.020000,0.956000,0.220000,192.000000,0.000000,0.000000,0.000000,0.000000,0.000000,0.000000,0.000000,0.000000,0.000000,1646733529.572345,0.000000
92.000000,13528.885070,23569.556900,32102.469456,38383.376704,6801.859355,21443.347209,37871.052369,45549.815363,0.020000,0.956000,0.220000,192.000000,0.000000,0.000000,0.000000,0.000000,0.000000,0.000000,0.000000,0.000000,0.000000,1646733529.579476,0.000000
93.000000,13531.276707,23567.567595,32104.995204,38386.751817,6806.821442,21449.583346,37879.568384,45565.796860,0.020000,0.956000,0.220000,192.000000,0.000000,0.000000,0.000000,0.000000,0.000000,0.000000,0.000000,0.000000,0.000000,1646733529.586907,0.000000
94.000000,13532.953087,23565.980621,32106.403364,38388.271736,6806.150890,21453.830177,37883.368180,45577.822098,0.020000,0.956000,0.220000,192.000000,0.000000,0.000000,0.000000,0.000000,0.000000,0.000000,0.000000,0.000000,0.000000,1646733529.586924,0.000000
95.000000,13528.192166,23563.678391,32102.067125,38387.176500,6801.926410,21454.187805,37878.383741,45572.927066,0.020000,0.958000,0.218000,192.000000,0.000000,160.000000,29.000000,240.000000,6.000000,208.000000,0.000000,0.000000,0.000000,1646733529.594729,0.000000
96.000000,13530.360285,23567.858168,32102.089477,38391.535090,6805.569745,21458.322878,37876.774416,45576.413939,0.020000,0.958000,0.218000,192.000000,0.000000,0.000000,0.000000,0.000000,0.000000,0.000000,0.000000,0.000000,0.000000,1646733529.594745,0.000000
97.000000,13541.424399,23577.938804,32105.978680,38400.252271,6809.637762,21460.222776,37885.715113,45583.164165,0.020000,0.958000,0.218000,192.000000,0.000000,0.000000,0.000000,0.000000,0.000000,0.000000,0.000000,0.000000,0.000000,1646733529.602779,0.000000
98.000000,13538.764541,23578.363488,32110.158457,38401.481617,6814.845719,21468.984660,37890.364276,45594.340038,0.020000,0.958000,0.218000,192.000000,0.000000,0.000000,0.000000,0.000000,0.000000,0.000000,0.000000,0.000000,0.000000,1646733529.602795,0.000000
99.000000,13532.371942,23572.507330,32106.246901,38396.340715,6815.560975,21467.531796,37894.275831,45588.193308,0.020000,0.958000,0.218000,192.000000,0.000000,0.000000,0.000000,0.000000,0.000000,0.000000,0.000000,0.000000,0.000000,1646733529.609503,0.000000
100.000000,13530.516747,23567.947575,32101.307166,38390.953945,6811.247088,21464.603718,37892.487692,45583.499442,0.020000,0.958000,0.218000,192.000000,0.000000,0.000000,0.000000,0.000000,0.000000,0.000000,0.000000,0.000000,0.000000,1646733529.609518,0.000000
101.000000,13530.583803,23567.567595,32101.418925,38394.574928,6810.308315,21464.469607,37886.899756,45581.532488,0.020000,0.958000,0.218000,192.000000,0.000000,0.000000,0.000000,0.000000,0.000000,0.000000,0.000000,0.000000,0.000000,1646733529.617605,0.000000
102.000000,13540.709143,23579.257557,32105.956329,38401.481617,6816.253879,21463.396724,37882.719980,45584.237049,0.020000,0.958000,0.218000,192.000000,0.000000,0.000000,0.000000,0.000000,0.000000,0.000000,0.000000,0.000000,0.000000,1646733529.617622,0.000000
103.000000,13533.958916,23572.797903,32102.156532,38395.156073,6815.180995,21461.429770,37877.176747,45580.034921,0.020000,0.958000,0.218000,192.000000,0.000000,0.000000,0.000000,0.000000,0.000000,0.000000,0.000000,0.000000,0.000000,1646733529.625551,0.000000
104.000000,13526.493433,23565.801807,32099.340212,38387.891756,6810.196556,21455.573613,37874.986276,45573.999950,0.020000,0.958000,0.218000,192.000000,0.000000,0.000000,0.000000,0.000000,0.000000,0.000000,0.000000,0.000000,0.000000,1646733529.625567,0.000000
105.000000,13525.621715,23566.137083,32102.581215,38393.904375,6810.353018,21458.635802,37879.277811,45575.586924,0.018000,0.958000,0.218000,192.000000,0.000000,144.000000,29.000000,240.000000,6.000000,208.000000,0.000000,0.000000,0.000000,1646733529.632626,0.000000
106.000000,13532.282535,23568.260499,32102.156532,38399.045277,6811.560012,21461.608584,37887.279735,45573.731729,0.018000,0.958000,0.218000,192.000000,0.000000,0.000000,0.000000,0.000000,0.000000,0.000000,0.000000,0.000000,0.000000,1646733529.632642,0.000000
107.000000,13539.546852,23571.970889,32101.798904,38401.861596,6814.443387,21464.402552,37876.617953,45572.658846,0.018000,0.958000,0.218000,192.000000,0.000000,0.000000,0.000000,0.000000,0.000000,0.000000,0.000000,0.000000,0.000000,1646733529.639107,0.000000
108.000000,13542.519634,23575.077781,32105.308128,38404.968489,6816.387989,21466.034230,37872.080549,45576.145718,0.018000,0.958000,0.218000,192.000000,0.000000,0.000000,0.000000,0.000000,0.000000,0.000000,0.000000,0.000000,0.000000,1646733529.647240,0.000000
109.000000,13535.009448,23568.439313,32106.693936,38400.185215,6817.729094,21465.654250,37877.623782,45574.737558,0.018000,0.958000,0.218000,192.000000,0.000000,0.000000,0.000000,0.000000,0.000000,0.000000,0.000000,0.000000,0.000000,1646733529.647256,0.000000
110.000000,13532.282535,23564.058371,32102.424753,38395.468997,6811.850585,21459.015782,37865.777357,45568.523773,0.018000,0.958000,0.218000,192.000000,0.000000,0.000000,0.000000,0.000000,0.000000,0.000000,0.000000,0.000000,0.000000,1646733529.655046,0.000000
111.000000,13536.194090,23572.797903,32101.418925,38399.335849,6812.722303,21465.296622,37882.943497,45580.705474,0.018000,0.958000,0.218000,192.000000,0.000000,0.000000,0.000000,0.000000,0.000000,0.000000,0.000000,0.000000,0.000000,1646733529.655057,0.000000
112.000000,13541.379695,23580.643365,32103.721154,38401.571024,6815.359809,21463.910814,37889.179634,45577.129194,0.018000,0.958000,0.218000,192.000000,0.000000,0.000000,0.000000,0.000000,0.000000,0.000000,0.000000,0.000000,0.000000,1646733529.662284,0.000000
113.000000,13540.105646,23576.910624,32101.396573,38398.374724,6812.767006,21462.837930,37885.558651,45577.531526,0.018000,0.958000,0.218000,192.000000,0.000000,0.000000,0.000000,0.000000,0.000000,0.000000,0.000000,0.000000,0.000000,1646733529.662300,0.000000
114.000000,13538.764541,23571.814426,32101.307166,38400.475788,6811.001219,21459.932203,37880.887137,45582.001875,0.018000,0.958000,0.218000,192.000000,0.000000,0.000000,0.000000,0.000000,0.000000,0.000000,0.000000,0.000000,0.000000,1646733529.669796,0.000000
115.000000,13532.930736,23562.784322,32095.339250,38396.921861,6807.290829,21457.875843,37872.304067,45582.068930,0.018000,0.960000,0.210000,192.000000,0.000000,144.000000,30.000000,0.000000,6.000000,144.000000,0.000000,0.000000,0.000000,1646733529.669814,0.000000
116.000000,13534.964744,23562.672563,32091.874730,38392.362105,6801.434672,21457.629974,37879.903660,45579.029093,0.018000,0.960000,0.210000,192.000000,0.000000,0.000000,0.000000,0.000000,0.000000,0.000000,0.000000,0.000000,0.000000,1646733529.677681,0.000000
117.000000,13541.156178,23568.931051,32100.390744,38397.279489,6808.117844,21466.883596,37885.849224,45589.109729,0.018000,0.960000,0.210000,192.000000,0.000000,0.000000,0.000000,0.000000,0.000000,0.000000,0.000000,0.000000,0.000000,1646733529.677698,0.000000
118.000000,13539.748018,23570.383915,32099.362564,38396.854806,6805.502690,21459.708686,37876.908526,45580.638418,0.018000,0.960000,0.210000,192.000000,0.000000,0.000000,0.000000,0.000000,0.000000,0.000000,0.000000,0.000000,0.000000,1646733529.685815,0.000000
119.000000,13543.100779,23579.056392,32103.072954,38402.263928,6808.274306,21458.993430,37885.737465,45587.120424,0.018000,0.960000,0.210000,192.000000,0.000000,0.000000,0.000000,0.000000,0.000000,0.000000,0.000000,0.000000,0.000000,1646733529.685831,0.000000
120.000000,13541.334992,23578.877578,32103.810561,38405.303765,6808.408416,21461.943860,37883.323477,45587.478052,0.018000,0.960000,0.210000,192.000000,0.000000,0.000000,0.000000,0.000000,0.000000,0.000000,0.000000,0.000000,0.000000,1646733529.692374,0.000000
121.000000,13544.665402,23584.376107,32106.179846,38411.606957,6810.420073,21466.078933,37881.803558,45583.030055,0.018000,0.960000,0.210000,192.000000,0.000000,0.000000,0.000000,0.000000,0.000000,0.000000,0.000000,0.000000,0.000000,1646733529.692391,0.000000
122.000000,13540.910308,23584.599624,32108.347965,38412.903358,6819.852509,21471.890387,37884.396360,45587.701570,0.018000,0.960000,0.210000,192.000000,0.000000,0.000000,0.000000,0.000000,0.000000,0.000000,0.000000,0.000000,0.000000,1646733529.699458,0.000000
123.000000,13543.994849,23584.420810,32115.254654,38422.067573,6828.413228,21479.333517,37893.784093,45597.983372,0.018000,0.960000,0.210000,192.000000,0.000000,0.000000,0.000000,0.000000,0.000000,0.000000,0.000000,0.000000,0.000000,1646733529.707494,0.000000
124.000000,13546.364134,23584.420810,32118.652119,38424.235693,6828.770856,21481.725154,37893.225300,45599.682105,0.018000,0.960000,0.210000,192.000000,0.000000,0.000000,0.000000,0.000000,0.000000,0.000000,0.000000,0.000000,0.000000,1646733529.707510,0.000000
125.000000,13551.996774,23589.293491,32114.271178,38424.012175,6826.870957,21479.467628,37877.355561,45591.479014,0.018000,0.968000,0.214000,192.000000,0.000000,144.000000,30.000000,64.000000,6.000000,176.000000,0.000000,0.000000,0.000000,1646733529.714512,0.000000
126.000000,13546.297079,23584.644328,32106.157494,38418.647756,6823.875823,21478.752372,37878.786073,45595.167052,0.018000,0.968000,0.214000,192.000000,0.000000,0.000000,0.000000,0.000000,0.000000,0.000000,0.000000,0.000000,0.000000,1646733529.714528,0.000000
127.000000,13544.888919,23580.397496,32107.319785,38414.915015,6823.674658,21475.019631,37872.259363,45589.601468,0.018000,0.968000,0.214000,192.000000,0.000000,0.000000,0.000000,0.000000,0.000000,0.000000,0.000000,0.000000,0.000000,1646733529.722033,0.000000
128.000000,13551.505035,23581.716249,32115.768744,38422.268739,6826.759199,21475.958404,37880.663619,45584.214697,0.018000,0.968000,0.214000,192.000000,0.000000,0.000000,0.000000,0.000000,0.000000,0.000000,0.000000,0.000000,0.000000,1646733529.722049,0.000000
129.000000,13552.756733,23583.504389,32120.194390,38429.756573,6830.894271,21481.412230,37896.734523,45593.133043,0.018000,0.968000,0.214000,192.000000,0.000000,0.000000,0.000000,0.000000,0.000000,0.000000,0.000000,0.000000,0.000000,1646733529.730001,0.000000
130.000000,13552.712030,23581.112752,32121.736660,38430.225960,6829.463760,21477.411267,37898.120332,45587.992142,0.018000,0.968000,0.214000,192.000000,0.000000,0.000000,0.000000,0.000000,0.000000,0.000000,0.000000,0.000000,0.000000,1646733529.730017,0.000000
131.000000,13558.076448,23587.348889,32122.742489,38434.048108,6833.442370,21479.445276,37895.058143,45584.281753,0.018000,0.968000,0.214000,192.000000,0.000000,0.000000,0.000000,0.000000,0.000000,0.000000,0.000000,0.000000,0.000000,1646733529.738036,0.000000
132.000000,13559.395201,23588.086496,32117.914512,38430.874161,6828.972021,21473.902044,37893.225300,45588.483881,0.018000,0.968000,0.214000,192.000000,0.000000,0.000000,0.000000,0.000000,0.000000,0.000000,0.000000,0.000000,0.000000,1646733529.738052,0.000000
133.000000,13560.222216,23588.868807,32119.725003,38433.578722,6828.748504,21476.137218,37893.985259,45585.533450,0.018000,0.968000,0.214000,192.000000,0.000000,0.000000,0.000000,0.000000,0.000000,0.000000,0.000000,0.000000,0.000000,1646733529.744503,0.000000
134.000000,13552.734381,23588.667642,32118.182733,38429.354242,6826.155701,21473.857340,37893.605279,45576.168069,0.018000,0.968000,0.214000,192.000000,0.000000,0.000000,0.000000,0.000000,0.000000,0.000000,0.000000,0.000000,0.000000,1646733529.744519,0.000000
135.000000,13545.157140,23584.063182,32112.483038,38421.441724,6820.925393,21469.386991,37890.297221,45585.667561,0.020000,0.966000,0.214000,192.000000,0.000000,160.000000,30.000000,48.000000,6.000000,176.000000,0.000000,0.000000,0.000000,1646733529.752669,0.000000
136.000000,13548.979288,23586.633633,32110.538436,38418.156018,6818.667867,21468.716439,37898.857939,45589.310895,0.020000,0.966000,0.214000,192.000000,0.000000,0.000000,0.000000,0.000000,0.000000,0.000000,0.000000,0.000000,0.000000,1646733529.752685,0.000000
137.000000,13555.774219,23591.729831,32112.147762,38418.871274,6821.171262,21470.057544,37892.979430,45585.242878,0.020000,0.966000,0.214000,192.000000,0.000000,0.000000,0.000000,0.000000,0.000000,0.000000,0.000000,0.000000,0.000000,1646733529.759651,0.000000
138.000000,13557.383544,23599.999976,32115.098192,38423.855713,6823.451140,21472.560939,37892.644154,45588.126253,0.020000,0.966000,0.214000,192.000000,0.000000,0.000000,0.000000,0.000000,0.000000,0.000000,0.000000,0.000000,0.000000,1646733529.767727,0.000000
139.000000,13563.664384,23604.447973,32123.681262,38429.331890,6828.860262,21479.311166,37899.595547,45591.546070,0.020000,0.966000,0.214000,192.000000,0.000000,0.000000,0.000000,0.000000,0.000000,0.000000,0.000000,0.000000,0.000000,1646733529.767743,0.000000
140.000000,13565.072544,23598.457706,32122.518971,38431.343547,6828.145007,21478.707669,37907.843340,45584.125290,0.020000,0.966000,0.214000,192.000000,0.000000,0.000000,0.000000,0.000000,0.000000,0.000000,0.000000,0.000000,0.000000,1646733529.774320,0.000000
141.000000,13558.031745,23587.371241,32114.785268,38424.414506,6820.880690,21472.717401,37899.729657,45580.884287,0.020000,0.966000,0.214000,192.000000,0.000000,0.000000,0.000000,0.000000,0.000000,0.000000,0.000000,0.000000,0.000000,1646733529.774336,0.000000
142.000000,13558.255262,23580.710421,32112.103058,38423.386326,6818.801977,21464.514311,37895.907509,45568.300255,0.020000,0.966000,0.214000,192.000000,0.000000,0.000000,0.000000,0.000000,0.000000,0.000000,0.000000,0.000000,0.000000,1646733529.782348,0.000000
143.000000,13558.232910,23580.442200,32114.539398,38428.191951,6821.171262,21465.810712,37900.936651,45581.376026,0.020000,0.966000,0.214000,192.000000,0.000000,0.000000,0.000000,0.000000,0.000000,0.000000,0.000000,0.000000,0.000000,1646733529.782364,0.000000
144.000000,13551.236814,23576.105961,32110.449029,38421.821704,6817.147948,21465.028401,37895.125198,45586.293410,0.020000,0.966000,0.214000,192.000000,0.000000,0.000000,0.000000,0.000000,0.000000,0.000000,0.000000,0.000000,0.000000,1646733529.790385,0.000000
145.000000,13554.120189,23578.452895,32110.851361,38419.206550,6812.968172,21461.496825,37898.947346,45577.911505,0.020000,0.966000,0.214000,192.000000,0.000000,0.000000,0.000000,0.000000,0.000000,0.000000,0.000000,0.000000,0.000000,1646733529.790401,0.000000
146.000000,13556.757695,23578.452895,32110.784305,38416.703155,6809.928335,21461.161549,37901.718962,45578.582058,0.022000,0.966000,0.216000,192.000000,0.000000,176.000000,30.000000,48.000000,6.000000,192.000000,0.000000,0.000000,0.000000,1646733529.797526,0.000000
147.000000,13555.885977,23575.301299,32112.058355,38415.943195,6810.889460,21462.010916,37899.081457,45583.432386,0.022000,0.966000,0.216000,192.000000,0.000000,0.000000,0.000000,0.000000,0.000000,0.000000,0.000000,0.000000,0.000000,1646733529.797544,0.000000
148.000000,13556.690640,23586.074839,32116.394593,38414.490332,6813.638725,21462.457950,37893.649983,45576.436290,0.022000,0.966000,0.216000,192.000000,0.000000,0.000000,0.000000,0.000000,0.000000,0.000000,0.000000,0.000000,0.000000,1646733529.804650,0.000000
149.000000,13556.802399,23588.980566,32118.965044,38418.424239,6819.852509,21471.599814,37905.384648,45578.738520,0.022000,0.966000,0.216000,192.000000,0.000000,0.000000,0.000000,0.000000,0.000000,0.000000,0.000000,0.000000,0.000000,1646733529.804657,0.000000
150.000000,13552.823788,23580.777476,32114.539398,38416.569044,6812.163509,21463.620241,37897.919166,45564.567514,0.022000,0.966000,0.216000,192.000000,0.000000,0.000000,0.000000,0.000000,0.000000,0.000000,0.000000,0.000000,0.000000,1646733529.812914,0.000000
151.000000,13552.041477,23581.135104,32116.595759,38416.591396,6809.704817,21463.150854,37894.499349,45557.750232,0.022000,0.966000,0.216000,192.000000,0.000000,0.000000,0.000000,0.000000,0.000000,0.000000,0.000000,0.000000,0.000000,1646733529.812930,0.000000
152.000000,13553.941375,23582.856188,32117.266311,38417.843094,6813.750483,21462.681468,37894.320535,45569.887229,0.022000,0.966000,0.216000,192.000000,0.000000,0.000000,0.000000,0.000000,0.000000,0.000000,0.000000,0.000000,0.000000,1646733529.820064,0.000000
153.000000,13560.222216,23588.913511,32118.339195,38423.878065,6819.137254,21466.660078,37902.791846,45574.581096,0.022000,0.966000,0.216000,192.000000,0.000000,0.000000,0.000000,0.000000,0.000000,0.000000,0.000000,0.000000,0.000000,1646733529.820080,0.000000
154.000000,13560.624547,23592.310976,32116.707518,38429.376594,6819.517233,21471.733924,37905.116428,45584.617029,0.022000,0.966000,0.216000,192.000000,0.000000,0.000000,0.000000,0.000000,0.000000,0.000000,0.000000,0.000000,0.000000,1646733529.826727,0.000000
155.000000,13558.702297,23590.411078,32114.248826,38429.510704,6819.517233,21473.969099,37908.849169,45583.275924,0.022000,0.966000,0.216000,192.000000,0.000000,0.000000,0.000000,0.000000,0.000000,0.000000,0.000000,0.000000,0.000000,1646733529.834590,0.000000
156.000000,13558.501131,23589.204084,32114.271178,38426.381460,6816.946783,21471.331593,37908.938576,45577.553878,0.018000,0.962000,0.210000,192.000000,0.000000,144.000000,30.000000,16.000000,6.000000,144.000000,0.000000,0.000000,0.000000,1646733529.834606,0.000000
157.000000,13557.875283,23586.186598,32116.729869,38420.480599,6816.298582,21470.661041,37902.814198,45578.515003,0.018000,0.962000,0.210000,192.000000,0.000000,0.000000,0.000000,0.000000,0.000000,0.000000,0.000000,0.000000,0.000000,1646733529.842680,0.000000
158.000000,13550.655669,23581.626842,32110.761954,38415.071477,6811.761178,21466.078933,37899.886119,45570.870706,0.018000,0.962000,0.210000,192.000000,0.000000,0.000000,0.000000,0.000000,0.000000,0.000000,0.000000,0.000000,0.000000,1646733529.842697,0.000000
159.000000,13549.091047,23583.549092,32109.957291,38414.557387,6808.542527,21459.708686,37903.574157,45572.480032,0.018000,0.962000,0.210000,192.000000,0.000000,0.000000,0.000000,0.000000,0.000000,0.000000,0.000000,0.000000,0.000000,1646733529.849758,0.000000
160.000000,13550.029820,23577.871749,32108.370317,38415.451457,6808.855451,21457.495863,37903.618861,45567.406186,0.018000,0.962000,0.210000,192.000000,0.000000,0.000000,0.000000,0.000000,0.000000,0.000000,0.000000,0.000000,0.000000,1646733529.849774,0.000000
161.000000,13557.808227,23582.856188,32113.377108,38421.709945,6814.890422,21462.659116,37902.993012,45567.875572,0.018000,0.962000,0.210000,192.000000,0.000000,0.000000,0.000000,0.000000,0.000000,0.000000,0.000000,0.000000,0.000000,1646733529.857293,0.000000
162.000000,13551.952070,23575.614223,32112.997128,38416.658451,6817.013838,21466.414209,37901.987183,45577.620933,0.018000,0.962000,0.210000,192.000000,0.000000,0.000000,0.000000,0.000000,0.000000,0.000000,0.000000,0.000000,0.000000,1646733529.857309,0.000000
