%OpenBCI Raw EEG Data
%Number of channels = 8
%Sample Rate = 256 Hz
%Board = OpenBCI_GUI$BoardCytonSerial
%Channels = Fp1, Fp2, F3, F4, Fz, Pz, O1, O2
%Data recorded at AIMS Lab (http://aimsl.uiu.ac.bd) by Rana Depto (mail@ranadepto.com)
%Brainwaves were obtained via the Ultracortex Mark IV Headset using the OpenBCI Cyton Board
%Recording Application = ConcentrateToday (https://concentrate.today)
%Data type = RAW data with noise
%Day No = 1
%Subject ID = 3
%Session ID = 7
%Record starting timestamp (UTC+6) = 2022-03-05T17:17:40.238276
%Record ending timestamp (UTC+6)   = 2022-03-05T17:18:06.141340
%Recorded durations = ~25 seconds
Sample Index, EXG Channel 0, EXG Channel 1, EXG Channel 2, EXG Channel 3, EXG Channel 4, EXG Channel 5, EXG Channel 6, EXG Channel 7, Accel Channel 0, Accel Channel 1, Accel Channel 2, Other, Other, Other, Other, Other, Other, Other, Analog Channel 0, Analog Channel 1, Analog Channel 2, Timestamp, Timestamp (Formatted)
219.000000,38077.716598,41023.900035,31468.037542,47703.271830,-760.495753,13528.639201,10446.400696,15815.736749,-0.064000,0.972000,0.102000,192.000000,0.000000,0.000000,0.000000,0.000000,0.000000,0.000000,0.000000,0.000000,0.000000,1646479060.240335,0.000000
220.000000,38066.943057,41022.000137,31449.843222,47692.632400,-720.709648,13527.946297,10436.163597,15798.458850,-0.064000,0.972000,0.102000,192.000000,0.000000,0.000000,0.000000,0.000000,0.000000,0.000000,0.000000,0.000000,0.000000,1646479060.240344,0.000000
221.000000,38045.641845,40994.887471,31427.469126,47664.402147,-776.723120,13491.535305,10398.702073,15763.768943,-0.064000,0.972000,0.102000,192.000000,0.000000,0.000000,0.000000,0.000000,0.000000,0.000000,0.000000,0.000000,0.000000,1646479060.247405,0.000000
222.000000,38055.431909,40993.769883,31441.886001,47672.448775,-823.304155,13486.930846,10409.699131,15800.917542,-0.058000,0.966000,0.094000,192.000000,254.000000,48.000000,30.000000,48.000000,2.000000,240.000000,0.000000,0.000000,0.000000,1646479060.247410,0.000000
223.000000,38074.430892,41007.583261,31464.573021,47690.486633,-825.271109,13505.214573,10438.510530,15837.529700,-0.058000,0.966000,0.094000,192.000000,0.000000,0.000000,0.000000,0.000000,0.000000,0.000000,0.000000,0.000000,0.000000,1646479060.253936,0.000000
224.000000,38073.983857,41021.754267,31459.454472,47694.398188,-761.389823,13523.274782,10450.491065,15823.939839,-0.058000,0.966000,0.094000,192.000000,0.000000,0.000000,0.000000,0.000000,0.000000,0.000000,0.000000,0.000000,0.000000,1646479060.261864,0.000000
225.000000,38065.601953,41024.235311,31444.210582,47689.525508,-719.189730,13523.118320,10440.745704,15809.299446,-0.058000,0.966000,0.094000,192.000000,0.000000,0.000000,0.000000,0.000000,0.000000,0.000000,0.000000,0.000000,0.000000,1646479060.261869,0.000000
226.000000,38059.566982,41014.087619,31440.455489,47680.271885,-764.831992,13505.773366,10424.652448,15821.659961,-0.058000,0.966000,0.094000,192.000000,0.000000,0.000000,0.000000,0.000000,0.000000,0.000000,0.000000,0.000000,0.000000,1646479060.269890,0.000000
227.000000,38059.745796,41005.281032,31446.624571,47674.393377,-819.079676,13494.418680,10408.335675,15820.765891,-0.058000,0.966000,0.094000,192.000000,0.000000,0.000000,0.000000,0.000000,0.000000,0.000000,0.000000,0.000000,0.000000,1646479060.269894,0.000000
228.000000,38069.357046,41010.287823,31459.074492,47680.920086,-826.791027,13500.766575,10420.517376,15832.299391,-0.058000,0.966000,0.094000,192.000000,0.000000,0.000000,0.000000,0.000000,0.000000,0.000000,0.000000,0.000000,0.000000,1646479060.276985,0.000000
229.000000,38071.636924,41021.709564,31453.665370,47688.698493,-759.668739,13519.564393,10432.319097,15824.208060,-0.058000,0.966000,0.094000,192.000000,0.000000,0.000000,0.000000,0.000000,0.000000,0.000000,0.000000,0.000000,0.000000,1646479060.276989,0.000000
230.000000,38061.846860,41020.681384,31440.500193,47681.568287,-717.535701,13522.805395,10431.469730,15802.526868,-0.058000,0.966000,0.094000,192.000000,0.000000,0.000000,0.000000,0.000000,0.000000,0.000000,0.000000,0.000000,0.000000,1646479060.285961,0.000000
231.000000,38046.088880,41002.062381,31429.950169,47664.692720,-774.845573,13498.173773,10419.735064,15804.985560,-0.058000,0.966000,0.094000,192.000000,0.000000,0.000000,0.000000,0.000000,0.000000,0.000000,0.000000,0.000000,0.000000,1646479060.285967,0.000000
232.000000,38053.509659,41001.816511,31442.310684,47670.459470,-823.885301,13491.065918,10418.729236,15821.682313,-0.048000,0.976000,0.098000,192.000000,254.000000,128.000000,30.000000,128.000000,3.000000,16.000000,0.000000,0.000000,0.000000,1646479060.292460,0.000000
233.000000,38073.179194,41019.787314,31465.198870,47691.045426,-816.039838,13508.410872,10439.315193,15843.810540,-0.048000,0.976000,0.098000,192.000000,0.000000,0.000000,0.000000,0.000000,0.000000,0.000000,0.000000,0.000000,0.000000,1646479060.292466,0.000000
234.000000,38072.486290,41031.298462,31457.688684,47695.627534,-754.796059,13525.241736,10452.860350,15838.468473,-0.048000,0.976000,0.098000,192.000000,0.000000,0.000000,0.000000,0.000000,0.000000,0.000000,0.000000,0.000000,0.000000,1646479060.300563,0.000000
235.000000,38060.572810,41030.158523,31439.270847,47685.301028,-719.748523,13521.888974,10438.689344,15817.971923,-0.048000,0.976000,0.098000,192.000000,0.000000,0.000000,0.000000,0.000000,0.000000,0.000000,0.000000,0.000000,0.000000,1646479060.300575,0.000000
236.000000,38046.737080,41009.326698,31427.089146,47660.915275,-783.003960,13492.317616,10406.972218,15802.303350,-0.048000,0.976000,0.098000,192.000000,0.000000,0.000000,0.000000,0.000000,0.000000,0.000000,0.000000,0.000000,0.000000,1646479060.307100,0.000000
237.000000,38052.034444,41003.671706,31436.566286,47656.400222,-834.323565,13483.823953,10409.654428,15815.088548,-0.048000,0.976000,0.098000,192.000000,0.000000,0.000000,0.000000,0.000000,0.000000,0.000000,0.000000,0.000000,0.000000,1646479060.307104,0.000000
238.000000,38071.234592,41020.748439,31459.655638,47675.533316,-820.063152,13503.828764,10430.128626,15837.574403,-0.048000,0.976000,0.098000,192.000000,0.000000,0.000000,0.000000,0.000000,0.000000,0.000000,0.000000,0.000000,0.000000,1646479060.314064,0.000000
239.000000,38070.117005,41031.812552,31452.279562,47677.075586,-757.657082,13517.195108,10431.425027,15830.645362,-0.048000,0.976000,0.098000,192.000000,0.000000,0.000000,0.000000,0.000000,0.000000,0.000000,0.000000,0.000000,0.000000,1646479060.322117,0.000000
240.000000,38060.438700,41033.980672,31437.102728,47670.973560,-720.061448,13519.877317,10435.560100,15819.625952,-0.048000,0.976000,0.098000,192.000000,0.000000,0.000000,0.000000,0.000000,0.000000,0.000000,0.000000,0.000000,0.000000,1646479060.322121,0.000000
241.000000,38041.573827,41009.483160,31420.964768,47647.012490,-789.173041,13489.903628,10409.520317,15802.906847,-0.048000,0.976000,0.098000,192.000000,0.000000,0.000000,0.000000,0.000000,0.000000,0.000000,0.000000,0.000000,0.000000,1646479060.330188,0.000000
242.000000,38051.252133,41005.482197,31432.453565,47646.297234,-837.430458,13480.314729,10412.336637,15813.211002,-0.054000,0.978000,0.094000,192.000000,254.000000,80.000000,30.000000,144.000000,2.000000,240.000000,0.000000,0.000000,0.000000,1646479060.330192,0.000000
243.000000,38067.725368,41019.496741,31449.709111,47661.451717,-819.817283,13495.491564,10429.458073,15825.169185,-0.054000,0.978000,0.094000,192.000000,0.000000,0.000000,0.000000,0.000000,0.000000,0.000000,0.000000,0.000000,0.000000,1646479060.336723,0.000000
244.000000,38068.328866,41031.991366,31446.378701,47666.503211,-756.248922,13510.757805,10431.045047,15817.681350,-0.054000,0.978000,0.094000,192.000000,0.000000,0.000000,0.000000,0.000000,0.000000,0.000000,0.000000,0.000000,0.000000,1646479060.336727,0.000000
245.000000,38052.123851,41024.905863,31424.295178,47651.192266,-729.627994,13504.141689,10427.088788,15803.108013,-0.054000,0.978000,0.094000,192.000000,0.000000,0.000000,0.000000,0.000000,0.000000,0.000000,0.000000,0.000000,0.000000,1646479060.344804,0.000000
246.000000,38048.704034,41016.412201,31425.502172,47640.374022,-786.848460,13483.309863,10410.392035,15792.245065,-0.054000,0.978000,0.094000,192.000000,0.000000,0.000000,0.000000,0.000000,0.000000,0.000000,0.000000,0.000000,0.000000,1646479060.344808,0.000000
247.000000,38055.700130,41014.758171,31439.829640,47645.045536,-829.853216,13483.108697,10409.900297,15821.145871,-0.054000,0.978000,0.094000,192.000000,0.000000,0.000000,0.000000,0.000000,0.000000,0.000000,0.000000,0.000000,0.000000,1646479060.352794,0.000000
248.000000,38070.519337,41030.225579,31454.648847,47664.759775,-806.294478,13505.572200,10438.085847,15841.441255,-0.054000,0.978000,0.094000,192.000000,0.000000,0.000000,0.000000,0.000000,0.000000,0.000000,0.000000,0.000000,0.000000,1646479060.352797,0.000000
249.000000,38070.519337,41040.999119,31448.658579,47668.313702,-748.537570,13521.330180,10449.909919,15826.867917,-0.054000,0.978000,0.094000,192.000000,0.000000,0.000000,0.000000,0.000000,0.000000,0.000000,0.000000,0.000000,0.000000,1646479060.359372,0.000000
250.000000,38059.477575,41038.026337,31433.906428,47658.858914,-718.183901,13520.816090,10438.398771,15812.987484,-0.054000,0.978000,0.094000,192.000000,0.000000,0.000000,0.000000,0.000000,0.000000,0.000000,0.000000,0.000000,0.000000,1646479060.359376,0.000000
251.000000,38054.135508,41023.475352,31430.017225,47649.873513,-779.740605,13499.000788,10413.878907,15820.520022,-0.054000,0.978000,0.094000,192.000000,0.000000,0.000000,0.000000,0.000000,0.000000,0.000000,0.000000,0.000000,0.000000,1646479060.367378,0.000000
252.000000,38057.376511,41015.361669,31434.174649,47646.341937,-830.970804,13486.282645,10397.942114,15826.286772,-0.050000,0.986000,0.098000,192.000000,254.000000,112.000000,30.000000,208.000000,3.000000,16.000000,0.000000,0.000000,0.000000,1646479060.367383,0.000000
253.000000,38072.799214,41027.677480,31448.703283,47662.435193,-801.332390,13509.416701,10425.591222,15840.234261,-0.050000,0.986000,0.098000,192.000000,0.000000,0.000000,0.000000,0.000000,0.000000,0.000000,0.000000,0.000000,0.000000,1646479060.374478,0.000000
254.000000,38066.160746,41029.644433,31436.186306,47660.602350,-747.330576,13523.766520,10435.649507,15830.600659,-0.050000,0.986000,0.098000,192.000000,0.000000,0.000000,0.000000,0.000000,0.000000,0.000000,0.000000,0.000000,0.000000,1646479060.382461,0.000000
255.000000,38049.329883,41022.916558,31414.393355,47643.838542,-729.091552,13513.484718,10433.816663,15805.052615,-0.050000,0.986000,0.098000,192.000000,0.000000,0.000000,0.000000,0.000000,0.000000,0.000000,0.000000,0.000000,0.000000,1646479060.382467,0.000000
0.000000,38038.824563,41007.382096,31407.531370,47629.466370,-797.912574,13484.472154,10408.939172,15798.838830,-0.050000,0.986000,0.098000,192.000000,0.000000,0.000000,0.000000,0.000000,0.000000,0.000000,0.000000,0.000000,0.000000,1646479060.389105,0.000000
1.000000,38052.816755,41012.120666,31423.848143,47635.188417,-839.687984,13480.806468,10404.312361,15810.081757,-0.050000,0.986000,0.098000,192.000000,0.000000,0.000000,0.000000,0.000000,0.000000,0.000000,0.000000,0.000000,0.000000,1646479060.389114,0.000000
2.000000,38068.686493,41024.682346,31440.768414,47650.029975,-800.594783,13505.661607,10426.462940,15827.963153,-0.050000,0.986000,0.098000,192.000000,0.000000,0.000000,0.000000,0.000000,0.000000,0.000000,0.000000,0.000000,0.000000,1646479060.396999,0.000000
3.000000,38064.305552,41030.873779,31438.153260,47653.695661,-742.279082,13523.587707,10440.298669,15830.578307,-0.050000,0.986000,0.098000,192.000000,0.000000,0.000000,0.000000,0.000000,0.000000,0.000000,0.000000,0.000000,0.000000,1646479060.397002,0.000000
4.000000,38041.238551,41019.005003,31409.073640,47632.908539,-734.411268,13510.713102,10422.953716,15802.213943,-0.050000,0.986000,0.098000,192.000000,0.000000,0.000000,0.000000,0.000000,0.000000,0.000000,0.000000,0.000000,0.000000,1646479060.405022,0.000000
5.000000,38030.397955,40994.082808,31397.517788,47608.053399,-811.860062,13478.303072,10395.014035,15787.037109,-0.050000,0.986000,0.098000,192.000000,0.000000,0.000000,0.000000,0.000000,0.000000,0.000000,0.000000,0.000000,0.000000,1646479060.405026,0.000000
6.000000,38035.896484,40986.483215,31406.883169,47609.126283,-859.804554,13473.542151,10394.209372,15803.689158,-0.054000,0.986000,0.094000,192.000000,254.000000,80.000000,30.000000,208.000000,2.000000,240.000000,0.000000,0.000000,0.000000,1646479060.412087,0.000000
7.000000,38050.782746,41003.582299,31419.623663,47629.980460,-817.783274,13498.643160,10425.501815,15826.309124,-0.054000,0.986000,0.094000,192.000000,0.000000,0.000000,0.000000,0.000000,0.000000,0.000000,0.000000,0.000000,0.000000,1646479060.412091,0.000000
8.000000,38053.844935,41019.407334,31413.052251,47637.289481,-759.802849,13509.327294,10428.072265,15819.804766,-0.054000,0.986000,0.094000,192.000000,0.000000,0.000000,0.000000,0.000000,0.000000,0.000000,0.000000,0.000000,0.000000,1646479060.419686,0.000000
9.000000,38035.985891,41008.834959,31389.538215,47619.341030,-746.458858,13494.843363,10411.129643,15793.764984,-0.054000,0.986000,0.094000,192.000000,0.000000,0.000000,0.000000,0.000000,0.000000,0.000000,0.000000,0.000000,0.000000,1646479060.419691,0.000000
10.000000,38029.615644,40994.798064,31389.605271,47607.561661,-810.898937,13470.971700,10396.623361,15787.126516,-0.054000,0.986000,0.094000,192.000000,0.000000,0.000000,0.000000,0.000000,0.000000,0.000000,0.000000,0.000000,0.000000,1646479060.427670,0.000000
11.000000,38039.875095,40998.284936,31404.111553,47614.490701,-852.294368,13471.642252,10405.988742,15807.198382,-0.054000,0.986000,0.094000,192.000000,0.000000,0.000000,0.000000,0.000000,0.000000,0.000000,0.000000,0.000000,0.000000,1646479060.427675,0.000000
12.000000,38048.659330,41014.020564,31412.113477,47627.611175,-808.037914,13501.750052,10427.088788,15829.036037,-0.054000,0.986000,0.094000,192.000000,0.000000,0.000000,0.000000,0.000000,0.000000,0.000000,0.000000,0.000000,0.000000,1646479060.434782,0.000000
13.000000,38035.807077,41011.673631,31393.270957,47618.648126,-764.630826,13503.091157,10411.464919,15810.551144,-0.054000,0.986000,0.094000,192.000000,0.000000,0.000000,0.000000,0.000000,0.000000,0.000000,0.000000,0.000000,0.000000,1646479060.441875,0.000000
14.000000,38025.547627,41007.918538,31379.412875,47611.607326,-751.331538,13497.413814,10411.979009,15793.876743,-0.054000,0.986000,0.094000,192.000000,0.000000,0.000000,0.000000,0.000000,0.000000,0.000000,0.000000,0.000000,0.000000,1646479060.441879,0.000000
15.000000,38020.630243,40994.351029,31381.648050,47607.338143,-815.078713,13479.085383,10391.527163,15789.764022,-0.054000,0.986000,0.094000,192.000000,0.000000,0.000000,0.000000,0.000000,0.000000,0.000000,0.000000,0.000000,0.000000,1646479060.449273,0.000000
16.000000,38032.409612,40999.827206,31397.741306,47618.782236,-853.657824,13476.894912,10387.414442,15805.499650,-0.052000,0.982000,0.088000,192.000000,254.000000,96.000000,30.000000,176.000000,2.000000,192.000000,0.000000,0.000000,0.000000,1646479060.449277,0.000000
17.000000,38046.267694,41020.122590,31408.984233,47638.675289,-798.314905,13503.940523,10414.392998,15817.882516,-0.052000,0.982000,0.088000,192.000000,0.000000,0.000000,0.000000,0.000000,0.000000,0.000000,0.000000,0.000000,0.000000,1646479060.457349,0.000000
18.000000,38040.545647,41025.799933,31398.747134,47638.004737,-744.961291,13510.131956,10418.662181,15803.443289,-0.052000,0.982000,0.088000,192.000000,0.000000,0.000000,0.000000,0.000000,0.000000,0.000000,0.000000,0.000000,0.000000,1646479060.457353,0.000000
19.000000,38022.306624,41014.266433,31377.334163,47619.117513,-741.653233,13495.111584,10399.327922,15795.843696,-0.052000,0.982000,0.088000,192.000000,0.000000,0.000000,0.000000,0.000000,0.000000,0.000000,0.000000,0.000000,0.000000,1646479060.465348,0.000000
20.000000,38025.815848,41007.829131,31385.626660,47614.580108,-802.449978,13480.404136,10388.822602,15804.449118,-0.052000,0.982000,0.088000,192.000000,0.000000,0.000000,0.000000,0.000000,0.000000,0.000000,0.000000,0.000000,0.000000,1646479060.465352,0.000000
21.000000,38032.320205,41004.811645,31394.969689,47615.429475,-847.309929,13472.983357,10377.043233,15809.500612,-0.052000,0.982000,0.088000,192.000000,0.000000,0.000000,0.000000,0.000000,0.000000,0.000000,0.000000,0.000000,0.000000,1646479060.471949,0.000000
22.000000,38044.434851,41027.051631,31406.525541,47635.031955,-789.240097,13501.370073,10413.297762,15813.613333,-0.052000,0.982000,0.088000,192.000000,0.000000,0.000000,0.000000,0.000000,0.000000,0.000000,0.000000,0.000000,0.000000,1646479060.471959,0.000000
23.000000,38033.638958,41045.268303,31391.371058,47630.472199,-742.726117,13504.499317,10416.762282,15805.142022,-0.052000,0.982000,0.088000,192.000000,0.000000,0.000000,0.000000,0.000000,0.000000,0.000000,0.000000,0.000000,0.000000,1646479060.480019,0.000000
24.000000,38017.031612,41045.804744,31377.177701,47618.402257,-742.212026,13490.417718,10404.781747,15789.272283,-0.052000,0.982000,0.088000,192.000000,0.000000,0.000000,0.000000,0.000000,0.000000,0.000000,0.000000,0.000000,0.000000,1646479060.480023,0.000000
25.000000,38009.744943,41028.079811,31377.512977,47605.259431,-810.138978,13467.328366,10379.703090,15788.020586,-0.052000,0.982000,0.088000,192.000000,0.000000,0.000000,0.000000,0.000000,0.000000,0.000000,0.000000,0.000000,0.000000,1646479060.487976,0.000000
26.000000,38023.759487,41032.572512,31394.969689,47615.585937,-844.448906,13469.921168,10390.700148,15807.287789,-0.048000,0.984000,0.082000,192.000000,254.000000,128.000000,30.000000,192.000000,2.000000,144.000000,0.000000,0.000000,0.000000,1646479060.487979,0.000000
27.000000,38032.253150,41049.604541,31402.569282,47631.366269,-784.635637,13498.486697,10416.315248,15817.748406,-0.048000,0.984000,0.082000,192.000000,0.000000,0.000000,0.000000,0.000000,0.000000,0.000000,0.000000,0.000000,0.000000,1646479060.495123,0.000000
28.000000,38025.637034,41057.450003,31392.086314,47632.372097,-734.388916,13509.126128,10414.884736,15803.666807,-0.048000,0.984000,0.082000,192.000000,0.000000,0.000000,0.000000,0.000000,0.000000,0.000000,0.000000,0.000000,0.000000,1646479060.495127,0.000000
29.000000,38005.207539,41041.312044,31368.348762,47610.400332,-747.934073,13491.714119,10387.637959,15786.478315,-0.048000,0.984000,0.082000,192.000000,0.000000,0.000000,0.000000,0.000000,0.000000,0.000000,0.000000,0.000000,0.000000,1646479060.501632,0.000000
30.000000,38007.532121,41031.410221,31375.121340,47606.242908,-810.943641,13481.655834,10387.459145,15792.915618,-0.048000,0.984000,0.082000,192.000000,0.000000,0.000000,0.000000,0.000000,0.000000,0.000000,0.000000,0.000000,0.000000,1646479060.509721,0.000000
31.000000,38018.551531,41034.315948,31390.074657,47616.390600,-843.644243,13489.478944,10401.741910,15813.188650,-0.048000,0.984000,0.082000,192.000000,0.000000,0.000000,0.000000,0.000000,0.000000,0.000000,0.000000,0.000000,0.000000,1646479060.509725,0.000000
32.000000,38021.524313,41046.698814,31391.907500,47627.901748,-788.010751,13509.483756,10414.258887,15819.357731,-0.048000,0.984000,0.082000,192.000000,0.000000,0.000000,0.000000,0.000000,0.000000,0.000000,0.000000,0.000000,0.000000,1646479060.517650,0.000000
33.000000,38011.510731,41047.101146,31378.876433,47624.280766,-741.675585,13514.065863,10407.039274,15805.879629,-0.048000,0.984000,0.082000,192.000000,0.000000,0.000000,0.000000,0.000000,0.000000,0.000000,0.000000,0.000000,0.000000,1646479060.517653,0.000000
34.000000,37994.076370,41034.494762,31365.398331,47610.400332,-753.387899,13496.407985,10380.887733,15786.813591,-0.048000,0.984000,0.082000,192.000000,0.000000,0.000000,0.000000,0.000000,0.000000,0.000000,0.000000,0.000000,0.000000,1646479060.524821,0.000000
35.000000,37987.929641,41021.731916,31366.806491,47602.867794,-816.710391,13478.325424,10369.913026,15794.256722,-0.048000,0.984000,0.082000,192.000000,0.000000,0.000000,0.000000,0.000000,0.000000,0.000000,0.000000,0.000000,0.000000,1646479060.524825,0.000000
36.000000,38000.446618,41027.208093,31383.659707,47610.780312,-849.455696,13481.365261,10387.637959,15816.831984,-0.060000,0.978000,0.086000,192.000000,254.000000,32.000000,30.000000,144.000000,2.000000,176.000000,0.000000,0.000000,0.000000,1646479060.532315,0.000000
37.000000,38007.934452,41045.089489,31388.800608,47625.152484,-787.049626,13510.377826,10413.856556,15826.532641,-0.060000,0.978000,0.086000,192.000000,0.000000,0.000000,0.000000,0.000000,0.000000,0.000000,0.000000,0.000000,0.000000,1646479060.532319,0.000000
38.000000,37998.703182,41047.324663,31374.316677,47622.537329,-743.217855,13515.831651,10412.314285,15813.523926,-0.060000,0.978000,0.086000,192.000000,0.000000,0.000000,0.000000,0.000000,0.000000,0.000000,0.000000,0.000000,0.000000,1646479060.540253,0.000000
39.000000,37979.346571,41027.856294,31354.758901,47600.967896,-770.665797,13493.569314,10390.342521,15795.329606,-0.060000,0.978000,0.086000,192.000000,0.000000,0.000000,0.000000,0.000000,0.000000,0.000000,0.000000,0.000000,0.000000,1646479060.540257,0.000000
40.000000,37979.257164,41018.960299,31361.263259,47596.452844,-829.696754,13482.639311,10383.525238,15805.589057,-0.060000,0.978000,0.086000,192.000000,0.000000,0.000000,0.000000,0.000000,0.000000,0.000000,0.000000,0.000000,0.000000,1646479060.547371,0.000000
41.000000,37989.226042,41021.351936,31376.261279,47605.237079,-857.412917,13488.137840,10390.923666,15820.631781,-0.060000,0.978000,0.086000,192.000000,0.000000,0.000000,0.000000,0.000000,0.000000,0.000000,0.000000,0.000000,0.000000,1646479060.547375,0.000000
42.000000,37991.572975,41035.478239,31378.362343,47615.317716,-793.352818,13512.367131,10407.083977,15823.425749,-0.060000,0.978000,0.086000,192.000000,0.000000,0.000000,0.000000,0.000000,0.000000,0.000000,0.000000,0.000000,0.000000,1646479060.554823,0.000000
43.000000,37985.336838,41041.669672,31371.857985,47612.702562,-742.860227,13519.854965,10406.391073,15808.338321,-0.060000,0.978000,0.086000,192.000000,0.000000,0.000000,0.000000,0.000000,0.000000,0.000000,0.000000,0.000000,0.000000,1646479060.554832,0.000000
44.000000,37968.170699,41025.978747,31354.334218,47594.664704,-770.710501,13498.419642,10391.191887,15794.368481,-0.060000,0.978000,0.086000,192.000000,0.000000,0.000000,0.000000,0.000000,0.000000,0.000000,0.000000,0.000000,0.000000,1646479060.561979,0.000000
45.000000,37969.824728,41017.440381,31362.224384,47593.167137,-826.656917,13486.908494,10379.233704,15804.739690,-0.060000,0.978000,0.086000,192.000000,0.000000,0.000000,0.000000,0.000000,0.000000,0.000000,0.000000,0.000000,0.000000,1646479060.569945,0.000000
46.000000,37983.124016,41025.285843,31382.139788,47606.377018,-849.187475,13494.105756,10390.409576,15816.161432,-0.060000,0.978000,0.086000,192.000000,0.000000,0.000000,0.000000,0.000000,0.000000,0.000000,0.000000,0.000000,0.000000,1646479060.569949,0.000000
47.000000,37989.360152,41045.022433,31384.710239,47622.067943,-780.768786,13521.866622,10414.907088,15826.912621,-0.056000,0.976000,0.086000,192.000000,254.000000,64.000000,30.000000,128.000000,2.000000,176.000000,0.000000,0.000000,0.000000,1646479060.576977,0.000000
48.000000,37982.721684,41053.583152,31374.763712,47621.866777,-732.041983,13528.750959,10427.379361,15819.178917,-0.056000,0.976000,0.086000,192.000000,0.000000,0.000000,0.000000,0.000000,0.000000,0.000000,0.000000,0.000000,0.000000,1646479060.576980,0.000000
49.000000,37970.137652,41040.596788,31362.693770,47608.411027,-763.736756,13509.371997,10399.350274,15802.102185,-0.056000,0.976000,0.086000,192.000000,0.000000,0.000000,0.000000,0.000000,0.000000,0.000000,0.000000,0.000000,0.000000,1646479060.584525,0.000000
50.000000,37967.343684,41028.213922,31362.649067,47601.303172,-825.360516,13494.575142,10383.927570,15801.319873,-0.056000,0.976000,0.086000,192.000000,0.000000,0.000000,0.000000,0.000000,0.000000,0.000000,0.000000,0.000000,0.000000,1646479060.584528,0.000000
51.000000,37974.920925,41027.252797,31373.266145,47606.399370,-851.802629,13498.844325,10385.603951,15810.506440,-0.056000,0.976000,0.086000,192.000000,0.000000,0.000000,0.000000,0.000000,0.000000,0.000000,0.000000,0.000000,0.000000,1646479060.592424,0.000000
52.000000,37969.087120,41030.292634,31363.789006,47607.069922,-794.582164,13511.785985,10394.701111,15802.213943,-0.056000,0.976000,0.086000,192.000000,0.000000,0.000000,0.000000,0.000000,0.000000,0.000000,0.000000,0.000000,0.000000,1646479060.592428,0.000000
53.000000,37958.246524,41027.811590,31349.059206,47598.419797,-752.382070,13507.472099,10390.767204,15776.308271,-0.056000,0.976000,0.086000,192.000000,0.000000,0.000000,0.000000,0.000000,0.000000,0.000000,0.000000,0.000000,0.000000,1646479060.600549,0.000000
54.000000,37947.987073,41015.987517,31340.632598,47583.488832,-786.714350,13483.108697,10365.755602,15763.880702,-0.056000,0.976000,0.086000,192.000000,0.000000,0.000000,0.000000,0.000000,0.000000,0.000000,0.000000,0.000000,0.000000,1646479060.600553,0.000000
55.000000,37951.295132,41008.298517,31348.746282,47578.839669,-839.866798,13468.803581,10356.591386,15768.328699,-0.056000,0.976000,0.086000,192.000000,0.000000,0.000000,0.000000,0.000000,0.000000,0.000000,0.000000,0.000000,0.000000,1646479060.607123,0.000000
56.000000,37961.688693,41011.964203,31362.134977,47584.338198,-857.099993,13477.207837,10364.436849,15783.259664,-0.056000,0.976000,0.086000,192.000000,0.000000,0.000000,0.000000,0.000000,0.000000,0.000000,0.000000,0.000000,0.000000,1646479060.607127,0.000000
57.000000,37960.057015,41025.576416,31360.570355,47593.100082,-795.073902,13500.543058,10385.671006,15805.410243,-0.066000,0.970000,0.092000,192.000000,253.000000,240.000000,30.000000,80.000000,2.000000,224.000000,0.000000,0.000000,0.000000,1646479060.615179,0.000000
58.000000,37952.435071,41035.478239,31352.926058,47594.687056,-748.671681,13513.618828,10396.779823,15804.337359,-0.066000,0.970000,0.092000,192.000000,0.000000,0.000000,0.000000,0.000000,0.000000,0.000000,0.000000,0.000000,0.000000,1646479060.615182,0.000000
59.000000,37938.800506,41022.447172,31343.068939,47582.460652,-789.821242,13499.738395,10379.725442,15797.073042,-0.066000,0.970000,0.092000,192.000000,0.000000,0.000000,0.000000,0.000000,0.000000,0.000000,0.000000,0.000000,0.000000,1646479060.622226,0.000000
60.000000,37944.746070,41018.714430,31354.937715,47583.131204,-840.984385,13495.402157,10381.155954,15814.149775,-0.066000,0.970000,0.092000,192.000000,0.000000,0.000000,0.000000,0.000000,0.000000,0.000000,0.000000,0.000000,0.000000,1646479060.630177,0.000000
61.000000,37953.239733,41019.340279,31365.934773,47589.434396,-856.004757,13499.514878,10389.180230,15818.575420,-0.066000,0.970000,0.092000,192.000000,0.000000,0.000000,0.000000,0.000000,0.000000,0.000000,0.000000,0.000000,0.000000,1646479060.630180,0.000000
62.000000,37958.023007,41032.840733,31365.823014,47601.817262,-786.200259,13516.792776,10402.077186,15819.849470,-0.066000,0.970000,0.092000,192.000000,0.000000,0.000000,0.000000,0.000000,0.000000,0.000000,0.000000,0.000000,0.000000,1646479060.636901,0.000000
63.000000,37950.825745,41033.667747,31354.423625,47596.944582,-741.452067,13515.675189,10404.133547,15800.045824,-0.066000,0.970000,0.092000,192.000000,0.000000,0.000000,0.000000,0.000000,0.000000,0.000000,0.000000,0.000000,0.000000,1646479060.636919,0.000000
64.000000,37942.332082,41022.782448,31349.372131,47584.137033,-786.222611,13490.149497,10380.619512,15785.830115,-0.066000,0.970000,0.092000,192.000000,0.000000,0.000000,0.000000,0.000000,0.000000,0.000000,0.000000,0.000000,0.000000,1646479060.644776,0.000000
65.000000,37947.048300,41019.675555,31358.223421,47578.794966,-838.905673,13476.492581,10369.890674,15797.117746,-0.066000,0.970000,0.092000,192.000000,0.000000,0.000000,0.000000,0.000000,0.000000,0.000000,0.000000,0.000000,0.000000,1646479060.644786,0.000000
66.000000,37962.068672,41026.850465,31377.222404,47587.512146,-842.683118,13489.858924,10383.681701,15819.290676,-0.066000,0.970000,0.092000,192.000000,0.000000,0.000000,0.000000,0.000000,0.000000,0.000000,0.000000,0.000000,0.000000,1646479060.652751,0.000000
67.000000,37960.034664,41032.840733,31375.791893,47593.033027,-774.756166,13516.055169,10406.994570,15821.078816,-0.060000,0.980000,0.094000,192.000000,254.000000,32.000000,30.000000,160.000000,2.000000,240.000000,0.000000,0.000000,0.000000,1646479060.652754,0.000000
68.000000,37945.841306,41029.398564,31360.570355,47583.488832,-735.461800,13516.546907,10425.837091,15799.084699,-0.060000,0.980000,0.094000,192.000000,0.000000,0.000000,0.000000,0.000000,0.000000,0.000000,0.000000,0.000000,0.000000,1646479060.659924,0.000000
69.000000,37929.211608,41010.332526,31343.873601,47564.132221,-792.525803,13484.762726,10390.119003,15776.509437,-0.060000,0.980000,0.094000,192.000000,0.000000,0.000000,0.000000,0.000000,0.000000,0.000000,0.000000,0.000000,0.000000,1646479060.659927,0.000000
70.000000,37931.178562,41003.738761,31348.969799,47562.142916,-847.399336,13469.652947,10370.717689,15784.868990,-0.060000,0.980000,0.094000,192.000000,0.000000,0.000000,0.000000,0.000000,0.000000,0.000000,0.000000,0.000000,0.000000,1646479060.667373,0.000000
71.000000,37947.227114,41016.546311,31370.695695,47581.812451,-844.091278,13486.729680,10391.191887,15811.825193,-0.060000,0.980000,0.094000,192.000000,0.000000,0.000000,0.000000,0.000000,0.000000,0.000000,0.000000,0.000000,0.000000,1646479060.667377,0.000000
72.000000,37955.184335,41036.864047,31374.875471,47596.788120,-770.218762,13509.930791,10405.094672,15814.865031,-0.060000,0.980000,0.094000,192.000000,0.000000,0.000000,0.000000,0.000000,0.000000,0.000000,0.000000,0.000000,0.000000,1646479060.675422,0.000000
73.000000,37949.216419,41040.328567,31363.006695,47594.687056,-728.175131,13513.618828,10405.809928,15800.470507,-0.060000,0.980000,0.094000,192.000000,0.000000,0.000000,0.000000,0.000000,0.000000,0.000000,0.000000,0.000000,0.000000,1646479060.675425,0.000000
74.000000,37934.330158,41020.793142,31351.093215,47576.179811,-788.927172,13487.400232,10388.666140,15787.506495,-0.060000,0.980000,0.094000,192.000000,0.000000,0.000000,0.000000,0.000000,0.000000,0.000000,0.000000,0.000000,0.000000,1646479060.682358,0.000000
75.000000,37937.526457,41015.048744,31360.391541,47576.492736,-838.548045,13481.611130,10388.710843,15806.438423,-0.060000,0.980000,0.094000,192.000000,0.000000,0.000000,0.000000,0.000000,0.000000,0.000000,0.000000,0.000000,0.000000,1646479060.689596,0.000000
76.000000,37946.645969,41023.631814,31372.752055,47587.690960,-836.379926,13492.071747,10396.444547,15827.784339,-0.060000,0.980000,0.094000,192.000000,0.000000,0.000000,0.000000,0.000000,0.000000,0.000000,0.000000,0.000000,0.000000,1646479060.689600,0.000000
77.000000,37946.981245,41039.210980,31367.789968,47593.234193,-772.498640,13507.650913,10407.732178,15821.861127,-0.050000,0.978000,0.088000,192.000000,254.000000,112.000000,30.000000,144.000000,2.000000,192.000000,0.000000,0.000000,0.000000,1646479060.697627,0.000000
78.000000,37935.671262,41039.434497,31349.126261,47586.729835,-739.351003,13503.091157,10397.718596,15801.655150,-0.050000,0.978000,0.088000,192.000000,0.000000,0.000000,0.000000,0.000000,0.000000,0.000000,0.000000,0.000000,0.000000,1646479060.697631,0.000000
79.000000,37929.099849,41024.749401,31342.644255,47575.151631,-797.309076,13477.096078,10377.378509,15787.953530,-0.050000,0.978000,0.088000,192.000000,0.000000,0.000000,0.000000,0.000000,0.000000,0.000000,0.000000,0.000000,0.000000,1646479060.705025,0.000000
80.000000,37937.593512,41023.520055,31353.730721,47580.024312,-846.058231,13470.971700,10363.811000,15798.034167,-0.050000,0.978000,0.088000,192.000000,0.000000,0.000000,0.000000,0.000000,0.000000,0.000000,0.000000,0.000000,0.000000,1646479060.705028,0.000000
81.000000,37958.157117,41040.529733,31380.575166,47602.644277,-825.494626,13496.407985,10393.494116,15813.054539,-0.050000,0.978000,0.088000,192.000000,0.000000,0.000000,0.000000,0.000000,0.000000,0.000000,0.000000,0.000000,0.000000,1646479060.712206,0.000000
82.000000,37966.427263,41059.640474,31384.531425,47616.211786,-754.326672,13519.698503,10403.664160,15806.952513,-0.050000,0.978000,0.088000,192.000000,0.000000,0.000000,0.000000,0.000000,0.000000,0.000000,0.000000,0.000000,0.000000,1646479060.712210,0.000000
83.000000,37948.635274,41050.431556,31364.481910,47602.756036,-727.146951,13516.770424,10397.137451,15804.404414,-0.050000,0.978000,0.088000,192.000000,0.000000,0.000000,0.000000,0.000000,0.000000,0.000000,0.000000,0.000000,0.000000,1646479060.719649,0.000000
84.000000,37934.576027,41032.237236,31355.630619,47581.477175,-794.202184,13486.573218,10356.971366,15786.970054,-0.050000,0.978000,0.088000,192.000000,0.000000,0.000000,0.000000,0.000000,0.000000,0.000000,0.000000,0.000000,0.000000,1646479060.719652,0.000000
85.000000,37941.505068,41029.107991,31365.443035,47580.739567,-843.085449,13479.666529,10357.798381,15798.145926,-0.050000,0.978000,0.088000,192.000000,0.000000,0.000000,0.000000,0.000000,0.000000,0.000000,0.000000,0.000000,0.000000,1646479060.727991,0.000000
86.000000,37953.686768,41040.127401,31380.485759,47593.368303,-826.209882,13498.084366,10398.255038,15813.590981,-0.050000,0.978000,0.088000,192.000000,0.000000,0.000000,0.000000,0.000000,0.000000,0.000000,0.000000,0.000000,0.000000,1646479060.728006,0.000000
87.000000,37957.844193,41056.533582,31382.497416,47602.621925,-762.261541,13519.631448,10411.509623,15808.405376,-0.044000,0.984000,0.088000,192.000000,254.000000,160.000000,30.000000,192.000000,2.000000,192.000000,0.000000,0.000000,0.000000,1646479060.735817,0.000000
88.000000,37947.428280,41055.259532,31370.025142,47593.949448,-735.238282,13522.760692,10409.497966,15796.916580,-0.044000,0.984000,0.088000,192.000000,0.000000,0.000000,0.000000,0.000000,0.000000,0.000000,0.000000,0.000000,0.000000,1646479060.735827,0.000000
89.000000,37936.699442,41035.835866,31365.197166,47578.325579,-799.879527,13500.990093,10387.034462,15791.149830,-0.044000,0.984000,0.088000,192.000000,0.000000,0.000000,0.000000,0.000000,0.000000,0.000000,0.000000,0.000000,0.000000,1646479060.742226,0.000000
90.000000,37933.614902,41023.900035,31371.120378,47575.755128,-850.595635,13494.061052,10387.794422,15790.635740,-0.044000,0.984000,0.088000,192.000000,0.000000,0.000000,0.000000,0.000000,0.000000,0.000000,0.000000,0.000000,0.000000,1646479060.742243,0.000000
91.000000,37948.367053,41039.210980,31389.269994,47594.105911,-823.058286,13516.122224,10413.409521,15816.675522,-0.044000,0.984000,0.088000,192.000000,0.000000,0.000000,0.000000,0.000000,0.000000,0.000000,0.000000,0.000000,0.000000,1646479060.749585,0.000000
92.000000,37954.245562,41056.645341,31389.292346,47608.746303,-758.394689,13538.272803,10423.713675,15815.446176,-0.044000,0.984000,0.088000,192.000000,0.000000,0.000000,0.000000,0.000000,0.000000,0.000000,0.000000,0.000000,0.000000,1646479060.757709,0.000000
93.000000,37934.151344,41048.554009,31363.431378,47594.083559,-739.261596,13527.633372,10401.697207,15789.249931,-0.044000,0.984000,0.088000,192.000000,0.000000,0.000000,0.000000,0.000000,0.000000,0.000000,0.000000,0.000000,0.000000,1646479060.757726,0.000000
94.000000,37919.890931,41028.415087,31352.411968,47576.515088,-810.183681,13498.307884,10380.977140,15782.790277,-0.044000,0.984000,0.088000,192.000000,0.000000,0.000000,0.000000,0.000000,0.000000,0.000000,0.000000,0.000000,0.000000,1646479060.765818,0.000000
95.000000,37925.858846,41024.905863,31364.526613,47580.851326,-856.965882,13495.223343,10389.202582,15799.889362,-0.044000,0.984000,0.088000,192.000000,0.000000,0.000000,0.000000,0.000000,0.000000,0.000000,0.000000,0.000000,0.000000,1646479060.765835,0.000000
96.000000,37941.259198,41042.586093,31385.246680,47599.582088,-820.040801,13523.788872,10423.020771,15816.899039,-0.044000,0.984000,0.088000,192.000000,0.000000,0.000000,0.000000,0.000000,0.000000,0.000000,0.000000,0.000000,0.000000,1646479060.772362,0.000000
97.000000,37929.636291,41046.050614,31370.740398,47593.368303,-769.548210,13534.428303,10409.363855,15804.873801,-0.052000,0.986000,0.084000,192.000000,254.000000,96.000000,30.000000,208.000000,2.000000,160.000000,0.000000,0.000000,0.000000,1646479060.772377,0.000000
98.000000,37916.292300,41041.781430,31352.881354,47583.578239,-751.353890,13528.058055,10396.086919,15793.005025,-0.052000,0.986000,0.084000,192.000000,0.000000,0.000000,0.000000,0.000000,0.000000,0.000000,0.000000,0.000000,0.000000,1646479060.780296,0.000000
99.000000,37907.530416,41024.704698,31348.902744,47573.587009,-819.906690,13504.991055,10378.384337,15785.941873,-0.052000,0.986000,0.084000,192.000000,0.000000,0.000000,0.000000,0.000000,0.000000,0.000000,0.000000,0.000000,0.000000,1646479060.780312,0.000000
100.000000,37919.823875,41025.777581,31365.241869,47582.348893,-861.235066,13504.767538,10386.833297,15808.003045,-0.052000,0.986000,0.084000,192.000000,0.000000,0.000000,0.000000,0.000000,0.000000,0.000000,0.000000,0.000000,0.000000,1646479060.788422,0.000000
101.000000,37932.698480,41037.556951,31378.250584,47595.156443,-824.801722,13527.856890,10423.870137,15820.296505,-0.052000,0.986000,0.084000,192.000000,0.000000,0.000000,0.000000,0.000000,0.000000,0.000000,0.000000,0.000000,0.000000,1646479060.788438,0.000000
102.000000,37929.278663,41045.245951,31371.723875,47593.636524,-771.604570,13541.536157,10435.068361,15816.608467,-0.052000,0.986000,0.084000,192.000000,0.000000,0.000000,0.000000,0.000000,0.000000,0.000000,0.000000,0.000000,0.000000,1646479060.795403,0.000000
103.000000,37914.101829,41037.445192,31353.194279,47575.218686,-758.260579,13527.566317,10416.091730,15792.200362,-0.052000,0.986000,0.084000,192.000000,0.000000,0.000000,0.000000,0.000000,0.000000,0.000000,0.000000,0.000000,0.000000,1646479060.795420,0.000000
104.000000,37906.837512,41016.747477,31350.869697,47559.103079,-828.757981,13501.258314,10386.520372,15770.295652,-0.052000,0.986000,0.084000,192.000000,0.000000,0.000000,0.000000,0.000000,0.000000,0.000000,0.000000,0.000000,0.000000,1646479060.802935,0.000000
105.000000,37916.426410,41016.635718,31367.678209,47568.736681,-869.304045,13504.946352,10392.465936,15796.491897,-0.052000,0.986000,0.084000,192.000000,0.000000,0.000000,0.000000,0.000000,0.000000,0.000000,0.000000,0.000000,0.000000,1646479060.802950,0.000000
106.000000,37925.903550,41031.231407,31378.787026,47588.696788,-825.986365,13532.483701,10410.302628,15826.711455,-0.052000,0.986000,0.084000,192.000000,0.000000,0.000000,0.000000,0.000000,0.000000,0.000000,0.000000,0.000000,0.000000,1646479060.809975,0.000000
107.000000,37916.895797,41034.405355,31367.991134,47588.987361,-775.024387,13539.725666,10416.449358,15806.796051,-0.048000,0.980000,0.082000,192.000000,254.000000,128.000000,30.000000,160.000000,2.000000,144.000000,0.000000,0.000000,0.000000,1646479060.817976,0.000000
108.000000,37901.495445,41028.191570,31352.031988,47578.392634,-761.501582,13525.219384,10395.371663,15786.657129,-0.048000,0.980000,0.082000,192.000000,0.000000,0.000000,0.000000,0.000000,0.000000,0.000000,0.000000,0.000000,0.000000,1646479060.817993,0.000000
109.000000,37894.029962,41016.233387,31351.003808,47568.446108,-825.584033,13503.292323,10390.744852,15785.226617,-0.048000,0.980000,0.082000,192.000000,0.000000,0.000000,0.000000,0.000000,0.000000,0.000000,0.000000,0.000000,0.000000,1646479060.825096,0.000000
110.000000,37905.339945,41017.954471,31367.454692,47575.062224,-867.158278,13507.114471,10405.876983,15811.042882,-0.048000,0.980000,0.082000,192.000000,0.000000,0.000000,0.000000,0.000000,0.000000,0.000000,0.000000,0.000000,0.000000,1646479060.825113,0.000000
111.000000,37913.118352,41029.398564,31373.400256,47585.835765,-823.415914,13528.460387,10419.064512,15819.447138,-0.048000,0.980000,0.082000,192.000000,0.000000,0.000000,0.000000,0.000000,0.000000,0.000000,0.000000,0.000000,0.000000,1646479060.832713,0.000000
112.000000,37909.005631,41035.433535,31367.946430,47588.361512,-770.308169,13537.736361,10414.594163,15810.148813,-0.048000,0.980000,0.082000,192.000000,0.000000,0.000000,0.000000,0.000000,0.000000,0.000000,0.000000,0.000000,0.000000,1646479060.832729,0.000000
113.000000,37891.973602,41024.794105,31349.796814,47572.983512,-761.546285,13527.566317,10397.986817,15791.015719,-0.048000,0.980000,0.082000,192.000000,0.000000,0.000000,0.000000,0.000000,0.000000,0.000000,0.000000,0.000000,0.000000,1646479060.840594,0.000000
114.000000,37882.675276,41003.917575,31344.342988,47554.833896,-833.116571,13500.476003,10379.501924,15787.081812,-0.048000,0.980000,0.082000,192.000000,0.000000,0.000000,0.000000,0.000000,0.000000,0.000000,0.000000,0.000000,0.000000,1646479060.840610,0.000000
115.000000,37899.237919,41009.259642,31364.079578,47566.479154,-870.533391,13498.285532,10381.223009,15804.560876,-0.048000,0.980000,0.082000,192.000000,0.000000,0.000000,0.000000,0.000000,0.000000,0.000000,0.000000,0.000000,0.000000,1646479060.848687,0.000000
116.000000,37918.460419,41035.120611,31379.301116,47588.227402,-812.351800,13526.962820,10412.202527,15825.571516,-0.048000,0.980000,0.082000,192.000000,0.000000,0.000000,0.000000,0.000000,0.000000,0.000000,0.000000,0.000000,0.000000,1646479060.848703,0.000000
117.000000,37903.171826,41033.533637,31364.750131,47580.694864,-769.615265,13528.370980,10412.850727,15807.734824,-0.038000,0.982000,0.084000,192.000000,254.000000,208.000000,30.000000,176.000000,2.000000,160.000000,0.000000,0.000000,0.000000,1646479060.855198,0.000000
118.000000,37886.877404,41022.178951,31346.108776,47564.847477,-769.436451,13509.595514,10390.297817,15779.795144,-0.038000,0.982000,0.084000,192.000000,0.000000,0.000000,0.000000,0.000000,0.000000,0.000000,0.000000,0.000000,0.000000,1646479060.855214,0.000000
119.000000,37884.105788,41008.432628,31347.740453,47556.599683,-834.032993,13485.723851,10366.202637,15777.068231,-0.038000,0.982000,0.084000,192.000000,0.000000,0.000000,0.000000,0.000000,0.000000,0.000000,0.000000,0.000000,0.000000,1646479060.863310,0.000000
120.000000,37885.357485,40999.961317,31355.518860,47554.543323,-880.703435,13477.900741,10368.884846,15791.798030,-0.038000,0.982000,0.084000,192.000000,0.000000,0.000000,0.000000,0.000000,0.000000,0.000000,0.000000,0.000000,0.000000,1646479060.863325,0.000000
121.000000,37902.233053,41023.229483,31371.880337,47573.654064,-821.627774,13508.075596,10414.817681,15809.366501,-0.038000,0.982000,0.084000,192.000000,0.000000,0.000000,0.000000,0.000000,0.000000,0.000000,0.000000,0.000000,0.000000,1646479060.870262,0.000000
122.000000,37897.136855,41030.516151,31361.978514,47572.357663,-770.397576,13517.329218,10408.223916,15799.174106,-0.038000,0.982000,0.084000,192.000000,0.000000,0.000000,0.000000,0.000000,0.000000,0.000000,0.000000,0.000000,0.000000,1646479060.878420,0.000000
123.000000,37882.228241,41018.982651,31343.158346,47555.951483,-775.784347,13499.805450,10384.128736,15776.285920,-0.038000,0.982000,0.084000,192.000000,0.000000,0.000000,0.000000,0.000000,0.000000,0.000000,0.000000,0.000000,0.000000,1646479060.878436,0.000000
124.000000,37873.265192,41000.765979,31339.962046,47540.618186,-847.064060,13474.279758,10349.327069,15765.825303,-0.038000,0.982000,0.084000,192.000000,0.000000,0.000000,0.000000,0.000000,0.000000,0.000000,0.000000,0.000000,0.000000,1646479060.884823,0.000000
125.000000,37881.334171,41000.296593,31352.233154,47545.468515,-887.163089,13477.297244,10358.223064,15791.641568,-0.038000,0.982000,0.084000,192.000000,0.000000,0.000000,0.000000,0.000000,0.000000,0.000000,0.000000,0.000000,0.000000,1646479060.884838,0.000000
126.000000,37894.789922,41022.894206,31364.258392,47563.975759,-825.651088,13509.796680,10412.917782,15805.030263,-0.038000,0.982000,0.084000,192.000000,0.000000,0.000000,0.000000,0.000000,0.000000,0.000000,0.000000,0.000000,0.000000,1646479060.892681,0.000000
127.000000,37897.002744,41036.193494,31361.240907,47569.943675,-770.554038,13523.543003,10419.556251,15801.297522,-0.042000,0.990000,0.096000,192.000000,254.000000,176.000000,30.000000,240.000000,3.000000,0.000000,0.000000,0.000000,0.000000,1646479060.892697,0.000000
128.000000,37877.847299,41021.284881,31340.744357,47551.838762,-780.567620,13507.561506,10387.615608,15773.670766,-0.042000,0.990000,0.096000,192.000000,0.000000,0.000000,0.000000,0.000000,0.000000,0.000000,0.000000,0.000000,0.000000,1646479060.900955,0.000000
129.000000,37873.421654,41005.593956,31340.185564,47540.953462,-846.214693,13486.237942,10368.884846,15768.731030,-0.042000,0.990000,0.096000,192.000000,0.000000,0.000000,0.000000,0.000000,0.000000,0.000000,0.000000,0.000000,0.000000,1646479060.900989,0.000000
130.000000,37883.211718,41005.146921,31353.998942,47547.547227,-881.709264,13489.031910,10371.835276,15799.889362,-0.042000,0.990000,0.096000,192.000000,0.000000,0.000000,0.000000,0.000000,0.000000,0.000000,0.000000,0.000000,0.000000,1646479060.907496,0.000000
131.000000,37893.270003,41023.855331,31362.202032,47560.377128,-820.018449,13514.445843,10395.461070,15805.924333,-0.042000,0.990000,0.096000,192.000000,0.000000,0.000000,0.000000,0.000000,0.000000,0.000000,0.000000,0.000000,0.000000,1646479060.907511,0.000000
132.000000,37884.038733,41026.872817,31348.790985,47555.727965,-773.236248,13517.731549,10393.203544,15788.892304,-0.042000,0.990000,0.096000,192.000000,0.000000,0.000000,0.000000,0.000000,0.000000,0.000000,0.000000,0.000000,0.000000,1646479060.915586,0.000000
133.000000,37869.912430,41013.975860,31331.423680,47539.992337,-788.949524,13504.834593,10381.111250,15781.873856,-0.042000,0.990000,0.096000,192.000000,0.000000,0.000000,0.000000,0.000000,0.000000,0.000000,0.000000,0.000000,0.000000,1646479060.915603,0.000000
134.000000,37870.359465,41005.124570,31335.111718,47534.851436,-848.718089,13489.903628,10369.845971,15780.957434,-0.042000,0.990000,0.096000,192.000000,0.000000,0.000000,0.000000,0.000000,0.000000,0.000000,0.000000,0.000000,0.000000,1646479060.923475,0.000000
135.000000,37890.073704,41015.808703,31359.050436,47551.279968,-871.025130,13500.654817,10379.859552,15801.565743,-0.042000,0.990000,0.096000,192.000000,0.000000,0.000000,0.000000,0.000000,0.000000,0.000000,0.000000,0.000000,0.000000,1646479060.923490,0.000000
136.000000,37896.220433,41030.806724,31363.520785,47562.880524,-806.495643,13526.895765,10399.774957,15802.839792,-0.042000,0.990000,0.096000,192.000000,0.000000,0.000000,0.000000,0.000000,0.000000,0.000000,0.000000,0.000000,0.000000,1646479060.930696,0.000000
137.000000,37886.005686,41031.030241,31349.282724,47554.319805,-762.954445,13533.400122,10401.138413,15792.870914,-0.048000,0.988000,0.096000,192.000000,254.000000,128.000000,30.000000,224.000000,3.000000,0.000000,0.000000,0.000000,0.000000,1646479060.937225,0.000000
138.000000,37873.935744,41017.038049,31334.217648,47537.600701,-786.043797,13517.284515,10388.464974,15776.598844,-0.048000,0.988000,0.096000,192.000000,0.000000,0.000000,0.000000,0.000000,0.000000,0.000000,0.000000,0.000000,0.000000,1646479060.937240,0.000000
139.000000,37870.247706,41002.710581,31338.285665,47529.263500,-847.756964,13498.799622,10366.962596,15771.122667,-0.048000,0.988000,0.096000,192.000000,0.000000,0.000000,0.000000,0.000000,0.000000,0.000000,0.000000,0.000000,0.000000,1646479060.945191,0.000000
140.000000,37887.011515,41010.712506,31358.581049,47543.456858,-869.527563,13508.612038,10374.271616,15796.737766,-0.048000,0.988000,0.096000,192.000000,0.000000,0.000000,0.000000,0.000000,0.000000,0.000000,0.000000,0.000000,0.000000,1646479060.945207,0.000000
141.000000,37892.934727,41026.224616,31358.469291,47557.002015,-805.825091,13537.177567,10404.692340,15802.303350,-0.048000,0.988000,0.096000,192.000000,0.000000,0.000000,0.000000,0.000000,0.000000,0.000000,0.000000,0.000000,0.000000,1646479060.953250,0.000000
142.000000,37880.373046,41024.838808,31340.587895,47549.335366,-767.022463,13538.093989,10395.081090,15782.544408,-0.048000,0.988000,0.096000,192.000000,0.000000,0.000000,0.000000,0.000000,0.000000,0.000000,0.000000,0.000000,0.000000,1646479060.953266,0.000000
143.000000,37861.239953,41003.001154,31315.956273,47517.797055,-807.792045,13503.381730,10360.681756,15751.833111,-0.048000,0.988000,0.096000,192.000000,0.000000,0.000000,0.000000,0.000000,0.000000,0.000000,0.000000,0.000000,0.000000,1646479060.960327,0.000000
144.000000,37873.667523,41009.259642,31327.176848,47521.060410,-859.893961,13485.589741,10355.742020,15764.506550,-0.048000,0.988000,0.096000,192.000000,0.000000,0.000000,0.000000,0.000000,0.000000,0.000000,0.000000,0.000000,0.000000,1646479060.960343,0.000000
145.000000,37889.581965,41027.051631,31356.748206,47551.883465,-865.325435,13506.309808,10384.419308,15798.190629,-0.048000,0.988000,0.096000,192.000000,0.000000,0.000000,0.000000,0.000000,0.000000,0.000000,0.000000,0.000000,0.000000,1646479060.967886,0.000000
146.000000,37888.196157,41037.579302,31363.610192,47574.168154,-788.301323,13546.297079,10420.450320,15814.820327,-0.048000,0.988000,0.096000,192.000000,0.000000,0.000000,0.000000,0.000000,0.000000,0.000000,0.000000,0.000000,0.000000,1646479060.967901,0.000000
147.000000,37877.914355,41035.947625,31343.627732,47564.534553,-749.096364,13542.877262,10383.905218,15797.497725,-0.060000,0.964000,0.094000,192.000000,254.000000,32.000000,30.000000,32.000000,2.000000,240.000000,0.000000,0.000000,0.000000,1646479060.975697,0.000000
148.000000,37861.239953,41016.926291,31322.818258,47539.880579,-790.871774,13514.311733,10366.448506,15775.660071,-0.060000,0.964000,0.094000,192.000000,0.000000,0.000000,0.000000,0.000000,0.000000,0.000000,0.000000,0.000000,0.000000,1646479060.975713,0.000000
149.000000,37861.262305,41009.505511,31328.070918,47536.438410,-848.002833,13505.460442,10384.128736,15786.321853,-0.060000,0.964000,0.094000,192.000000,0.000000,0.000000,0.000000,0.000000,0.000000,0.000000,0.000000,0.000000,0.000000,1646479060.983840,0.000000
150.000000,37870.784148,41012.791218,31344.275933,47548.776573,-866.912409,13512.724759,10383.212314,15800.917542,-0.060000,0.964000,0.094000,192.000000,0.000000,0.000000,0.000000,0.000000,0.000000,0.000000,0.000000,0.000000,0.000000,1646479060.983875,0.000000
151.000000,37884.597526,41039.590960,31353.462500,47569.295474,-790.536498,13547.146445,10424.630097,15812.763967,-0.060000,0.964000,0.094000,192.000000,0.000000,0.000000,0.000000,0.000000,0.000000,0.000000,0.000000,0.000000,0.000000,1646479060.989974,0.000000
152.000000,37875.701532,41043.413108,31339.336197,47563.595779,-747.397631,13553.784913,10418.013980,15802.772737,-0.060000,0.964000,0.094000,192.000000,0.000000,0.000000,0.000000,0.000000,0.000000,0.000000,0.000000,0.000000,0.000000,1646479060.989985,0.000000
153.000000,37851.025206,41019.139113,31317.587950,47538.561826,-793.844556,13527.253393,10386.788593,15791.596865,-0.060000,0.964000,0.094000,192.000000,0.000000,0.000000,0.000000,0.000000,0.000000,0.000000,0.000000,0.000000,0.000000,1646479060.997484,0.000000
154.000000,37856.546087,41011.293651,31326.036909,47536.617224,-848.271054,13514.602305,10380.552456,15798.414147,-0.060000,0.964000,0.094000,192.000000,0.000000,0.000000,0.000000,0.000000,0.000000,0.000000,0.000000,0.000000,0.000000,1646479061.005505,0.000000
155.000000,37873.444006,41022.938910,31345.617037,47552.710480,-859.804554,13519.586744,10373.399898,15804.829097,-0.060000,0.964000,0.094000,192.000000,0.000000,0.000000,0.000000,0.000000,0.000000,0.000000,0.000000,0.000000,0.000000,1646479061.005516,0.000000
156.000000,37880.864785,41043.927198,31350.959104,47569.429585,-788.994228,13547.504073,10421.903184,15823.515156,-0.060000,0.964000,0.094000,192.000000,0.000000,0.000000,0.000000,0.000000,0.000000,0.000000,0.000000,0.000000,0.000000,1646479061.013451,0.000000
157.000000,37875.008628,41049.045747,31339.850287,47567.015596,-744.737774,13554.366059,10431.894413,15817.211964,-0.060000,0.964000,0.094000,192.000000,0.000000,0.000000,0.000000,0.000000,0.000000,0.000000,0.000000,0.000000,0.000000,1646479061.013467,0.000000
158.000000,37852.589828,41026.381079,31318.884351,47543.143933,-796.884393,13521.754863,10400.020826,15798.972940,-0.058000,0.982000,0.094000,192.000000,254.000000,48.000000,30.000000,176.000000,2.000000,240.000000,0.000000,0.000000,0.000000,1646479061.020174,0.000000
159.000000,37859.988255,41020.994308,31331.066052,47542.048698,-846.013528,13510.713102,10390.320169,15807.600714,-0.058000,0.982000,0.094000,192.000000,0.000000,0.000000,0.000000,0.000000,0.000000,0.000000,0.000000,0.000000,0.000000,1646479061.020190,0.000000
160.000000,37872.348770,41028.057459,31344.566505,47548.597759,-857.569380,13516.368093,10405.429948,15820.609429,-0.058000,0.982000,0.094000,192.000000,0.000000,0.000000,0.000000,0.000000,0.000000,0.000000,0.000000,0.000000,0.000000,1646479061.028192,0.000000
161.000000,37881.512985,41047.928160,31349.126261,47559.840686,-788.591896,13540.686791,10408.939172,15821.972885,-0.058000,0.982000,0.094000,192.000000,0.000000,0.000000,0.000000,0.000000,0.000000,0.000000,0.000000,0.000000,0.000000,1646479061.028208,0.000000
162.000000,37872.974619,41046.654111,31334.195296,47554.744489,-749.476343,13543.570166,10407.039274,15805.499650,-0.058000,0.982000,0.094000,192.000000,0.000000,0.000000,0.000000,0.000000,0.000000,0.000000,0.000000,0.000000,0.000000,1646479061.035885,0.000000
163.000000,37861.597581,41028.169218,31321.901837,47538.539474,-797.152614,13519.989076,10391.013073,15798.414147,-0.058000,0.982000,0.094000,192.000000,0.000000,0.000000,0.000000,0.000000,0.000000,0.000000,0.000000,0.000000,0.000000,1646479061.035900,0.000000
164.000000,37869.085415,41026.537541,31332.965950,47543.367451,-841.856103,13513.998808,10391.683625,15819.558897,-0.058000,0.982000,0.094000,192.000000,0.000000,0.000000,0.000000,0.000000,0.000000,0.000000,0.000000,0.000000,0.000000,1646479061.043273,0.000000
165.000000,37880.753026,41033.108954,31348.790985,47558.633692,-845.924121,13524.392369,10387.369739,15829.460720,-0.058000,0.982000,0.094000,192.000000,0.000000,0.000000,0.000000,0.000000,0.000000,0.000000,0.000000,0.000000,0.000000,1646479061.043289,0.000000
166.000000,37879.233107,41041.803782,31343.694787,47563.752242,-783.473347,13544.732457,10410.570849,15830.913583,-0.058000,0.982000,0.094000,192.000000,0.000000,0.000000,0.000000,0.000000,0.000000,0.000000,0.000000,0.000000,0.000000,1646479061.050600,0.000000
167.000000,37874.293372,41045.715337,31334.262351,47562.455840,-738.836913,13549.292213,10416.829338,15812.138118,-0.058000,0.982000,0.094000,192.000000,0.000000,0.000000,0.000000,0.000000,0.000000,0.000000,0.000000,0.000000,0.000000,1646479061.050615,0.000000
168.000000,37867.565497,41033.287768,31326.796869,47544.887369,-790.760015,13521.061959,10375.255093,15795.240199,-0.054000,0.980000,0.106000,192.000000,254.000000,80.000000,30.000000,160.000000,3.000000,80.000000,0.000000,0.000000,0.000000,1646479061.057692,0.000000
169.000000,37874.248668,41031.633738,31336.564581,47543.345099,-840.894978,13512.948276,10372.170552,15804.762042,-0.054000,0.980000,0.106000,192.000000,0.000000,0.000000,0.000000,0.000000,0.000000,0.000000,0.000000,0.000000,0.000000,1646479061.065923,0.000000
170.000000,37889.112579,41042.742555,31355.272991,47556.107945,-838.570397,13528.415683,10372.103497,15815.043845,-0.054000,0.980000,0.106000,192.000000,0.000000,0.000000,0.000000,0.000000,0.000000,0.000000,0.000000,0.000000,0.000000,1646479061.065939,0.000000
171.000000,37894.767570,41061.495669,31356.077654,47564.512201,-772.543344,13548.867529,10403.306532,15819.380083,-0.054000,0.980000,0.106000,192.000000,0.000000,0.000000,0.000000,0.000000,0.000000,0.000000,0.000000,0.000000,0.000000,1646479061.072491,0.000000
172.000000,37883.167014,41060.221620,31342.286628,47557.538457,-734.679489,13548.286384,10412.157823,15798.615312,-0.054000,0.980000,0.106000,192.000000,0.000000,0.000000,0.000000,0.000000,0.000000,0.000000,0.000000,0.000000,0.000000,1646479061.072508,0.000000
173.000000,37868.973657,41042.474335,31329.233209,47540.417020,-790.491794,13513.618828,10370.337709,15770.854446,-0.054000,0.980000,0.106000,192.000000,0.000000,0.000000,0.000000,0.000000,0.000000,0.000000,0.000000,0.000000,0.000000,1646479061.080357,0.000000
174.000000,37878.629610,41041.848486,31341.951351,47543.747430,-831.507245,13505.460442,10374.204561,15796.894228,-0.054000,0.980000,0.106000,192.000000,0.000000,0.000000,0.000000,0.000000,0.000000,0.000000,0.000000,0.000000,0.000000,1646479061.080373,0.000000
175.000000,37899.573195,41057.405300,31362.716122,47560.332425,-817.090370,13528.214518,10415.398826,15824.565688,-0.054000,0.980000,0.106000,192.000000,0.000000,0.000000,0.000000,0.000000,0.000000,0.000000,0.000000,0.000000,0.000000,1646479061.088404,0.000000
176.000000,37897.986221,41068.491765,31356.167061,47563.707538,-755.868942,13545.894747,10415.398826,15821.503499,-0.054000,0.980000,0.106000,192.000000,0.000000,0.000000,0.000000,0.000000,0.000000,0.000000,0.000000,0.000000,0.000000,1646479061.088418,0.000000
177.000000,37887.100922,41066.189535,31339.850287,47555.213875,-722.721305,13545.917099,10402.814794,15801.319873,-0.054000,0.980000,0.106000,192.000000,0.000000,0.000000,0.000000,0.000000,0.000000,0.000000,0.000000,0.000000,0.000000,1646479061.095498,0.000000
178.000000,37873.712227,41044.798916,31329.724947,47532.012764,-785.887335,13517.798605,10370.337709,15788.713490,-0.054000,0.974000,0.108000,192.000000,254.000000,80.000000,30.000000,112.000000,3.000000,96.000000,0.000000,0.000000,0.000000,1646479061.095514,0.000000
179.000000,37875.433311,41036.215846,31336.206953,47525.016668,-837.385754,13505.080462,10362.693413,15794.815516,-0.054000,0.974000,0.108000,192.000000,0.000000,0.000000,0.000000,0.000000,0.000000,0.000000,0.000000,0.000000,0.000000,1646479061.104445,0.000000
180.000000,37892.577099,41049.604541,31355.496509,47539.008860,-821.873644,13524.258259,10382.362948,15819.849470,-0.054000,0.974000,0.108000,192.000000,0.000000,0.000000,0.000000,0.000000,0.000000,0.000000,0.000000,0.000000,0.000000,1646479061.104460,0.000000
181.000000,37889.783131,41058.411128,31346.958142,47540.618186,-764.496716,13539.882128,10390.163707,15811.042882,-0.054000,0.974000,0.108000,192.000000,0.000000,0.000000,0.000000,0.000000,0.000000,0.000000,0.000000,0.000000,0.000000,1646479061.111062,0.000000
182.000000,37887.302087,41067.597695,31339.291494,47543.345099,-726.074067,13543.570166,10394.075262,15803.063310,-0.054000,0.974000,0.108000,192.000000,0.000000,0.000000,0.000000,0.000000,0.000000,0.000000,0.000000,0.000000,0.000000,1646479061.111078,0.000000
183.000000,37880.149529,41053.963131,31332.720081,47528.503541,-785.663818,13519.765558,10371.075317,15801.699853,-0.054000,0.974000,0.108000,192.000000,0.000000,0.000000,0.000000,0.000000,0.000000,0.000000,0.000000,0.000000,0.000000,1646479061.117976,0.000000
184.000000,37873.086378,41038.339262,31330.462555,47514.399590,-846.527618,13499.626636,10365.643843,15799.419975,-0.054000,0.974000,0.108000,192.000000,0.000000,0.000000,0.000000,0.000000,0.000000,0.000000,0.000000,0.000000,0.000000,1646479061.125167,0.000000
185.000000,37893.158244,41054.544277,31350.959104,47532.862131,-823.281804,13519.854965,10389.403747,15818.351903,-0.054000,0.974000,0.108000,192.000000,0.000000,0.000000,0.000000,0.000000,0.000000,0.000000,0.000000,0.000000,0.000000,1646479061.125184,0.000000
186.000000,37903.998840,41077.097187,31356.994075,47549.827105,-750.996262,13546.744114,10398.389149,15819.849470,-0.054000,0.974000,0.108000,192.000000,0.000000,0.000000,0.000000,0.000000,0.000000,0.000000,0.000000,0.000000,0.000000,1646479061.132577,0.000000
187.000000,37890.364276,41074.862012,31337.726872,47538.673584,-727.079895,13544.710105,10388.934361,15805.119670,-0.054000,0.974000,0.108000,192.000000,0.000000,0.000000,0.000000,0.000000,0.000000,0.000000,0.000000,0.000000,0.000000,1646479061.132592,0.000000
188.000000,37870.359465,41045.558875,31324.695805,47509.169282,-802.472329,13512.054206,10365.375622,15789.920484,-0.042000,0.980000,0.112000,192.000000,254.000000,176.000000,30.000000,160.000000,3.000000,128.000000,0.000000,0.000000,0.000000,1646479061.140648,0.000000
189.000000,37877.824948,41042.295521,31336.765747,47509.951593,-850.349766,13505.080462,10375.344500,15808.383025,-0.042000,0.980000,0.112000,192.000000,0.000000,0.000000,0.000000,0.000000,0.000000,0.000000,0.000000,0.000000,0.000000,1646479061.140664,0.000000
190.000000,37887.838529,41051.795012,31344.924133,47522.893253,-830.412010,13520.659628,10393.181192,15822.755196,-0.042000,0.980000,0.112000,192.000000,0.000000,0.000000,0.000000,0.000000,0.000000,0.000000,0.000000,0.000000,0.000000,1646479061.148574,0.000000
191.000000,37888.218509,41061.406262,31338.263314,47525.798979,-775.784347,13532.036666,10384.128736,15815.423824,-0.042000,0.980000,0.112000,192.000000,0.000000,0.000000,0.000000,0.000000,0.000000,0.000000,0.000000,0.000000,0.000000,1646479061.148590,0.000000
192.000000,37874.896869,41057.226486,31322.706499,47514.086665,-749.096364,13531.947259,10395.259904,15809.120632,-0.042000,0.980000,0.112000,192.000000,0.000000,0.000000,0.000000,0.000000,0.000000,0.000000,0.000000,0.000000,0.000000,1646479061.155209,0.000000
193.000000,37853.305084,41028.370384,31307.529665,47487.488090,-825.338164,13498.509049,10376.439735,15798.861182,-0.042000,0.980000,0.112000,192.000000,0.000000,0.000000,0.000000,0.000000,0.000000,0.000000,0.000000,0.000000,0.000000,1646479061.155244,0.000000
194.000000,37864.950343,41031.969015,31325.858095,47496.227622,-866.711243,13498.285532,10371.634110,15818.821289,-0.042000,0.980000,0.112000,192.000000,0.000000,0.000000,0.000000,0.000000,0.000000,0.000000,0.000000,0.000000,0.000000,1646479061.162914,0.000000
195.000000,37886.787997,41055.974788,31349.193317,47522.692087,-823.550024,13528.862718,10399.998474,15830.354790,-0.042000,0.980000,0.112000,192.000000,0.000000,0.000000,0.000000,0.000000,0.000000,0.000000,0.000000,0.000000,0.000000,1646479061.162924,0.000000
196.000000,37892.979430,41073.230335,31351.048511,47530.157570,-758.528800,13547.101742,10405.251134,15832.925240,-0.042000,0.980000,0.112000,192.000000,0.000000,0.000000,0.000000,0.000000,0.000000,0.000000,0.000000,0.000000,0.000000,1646479061.171164,0.000000
197.000000,37884.597526,41076.337227,31336.497526,47519.384029,-734.590082,13542.407875,10392.242419,15807.153679,-0.042000,0.980000,0.112000,192.000000,0.000000,0.000000,0.000000,0.000000,0.000000,0.000000,0.000000,0.000000,0.000000,1646479061.171180,0.000000
198.000000,37874.002799,41056.757099,31328.652063,47501.457930,-804.126359,13518.513861,10371.522352,15790.680443,-0.052000,0.980000,0.122000,192.000000,254.000000,96.000000,30.000000,160.000000,3.000000,208.000000,0.000000,0.000000,0.000000,1646479061.178407,0.000000
199.000000,37891.325401,41062.210925,31351.182622,47510.331572,-843.197208,13523.990038,10370.963558,15815.669693,-0.052000,0.980000,0.122000,192.000000,0.000000,0.000000,0.000000,0.000000,0.000000,0.000000,0.000000,0.000000,0.000000,1646479061.184888,0.000000
200.000000,37914.235939,41090.351771,31373.154387,47533.867959,-796.750283,13558.992870,10399.238515,15841.217737,-0.052000,0.980000,0.122000,192.000000,0.000000,0.000000,0.000000,0.000000,0.000000,0.000000,0.000000,0.000000,0.000000,1646479061.184905,0.000000
201.000000,37908.111561,41096.789074,31361.285610,47532.638613,-744.693070,13569.431134,10413.275410,15831.897060,-0.052000,0.980000,0.122000,192.000000,0.000000,0.000000,0.000000,0.000000,0.000000,0.000000,0.000000,0.000000,0.000000,1646479061.192984,0.000000
202.000000,37885.938631,41081.411073,31336.564581,47510.108055,-736.892311,13550.365096,10391.013073,15796.760118,-0.052000,0.980000,0.122000,192.000000,0.000000,0.000000,0.000000,0.000000,0.000000,0.000000,0.000000,0.000000,0.000000,1646479061.193001,0.000000
203.000000,37873.935744,41059.439309,31330.641369,47492.450177,-810.429550,13517.373922,10360.949977,15782.946740,-0.052000,0.980000,0.122000,192.000000,0.000000,0.000000,0.000000,0.000000,0.000000,0.000000,0.000000,0.000000,0.000000,1646479061.200922,0.000000
204.000000,37881.870613,41057.762928,31341.929000,47495.400607,-856.429441,13512.881221,10355.742020,15793.273245,-0.052000,0.980000,0.122000,192.000000,0.000000,0.000000,0.000000,0.000000,0.000000,0.000000,0.000000,0.000000,0.000000,1646479061.200937,0.000000
205.000000,37892.241823,41072.738597,31349.506241,47505.101264,-818.431475,13529.197994,10351.875168,15791.641568,-0.052000,0.980000,0.122000,192.000000,0.000000,0.000000,0.000000,0.000000,0.000000,0.000000,0.000000,0.000000,0.000000,1646479061.207882,0.000000
206.000000,37887.279735,41078.594754,31339.470308,47503.201366,-768.274160,13535.367076,10346.086066,15776.598844,-0.052000,0.980000,0.122000,192.000000,0.000000,0.000000,0.000000,0.000000,0.000000,0.000000,0.000000,0.000000,0.000000,1646479061.207897,0.000000
207.000000,37873.198136,41071.553954,31325.701633,47493.634819,-753.522009,13535.121207,10366.627320,15765.646489,-0.052000,0.980000,0.122000,192.000000,0.000000,0.000000,0.000000,0.000000,0.000000,0.000000,0.000000,0.000000,0.000000,1646479061.215488,0.000000
208.000000,37868.146642,41056.600637,31326.729813,47483.062444,-819.347896,13516.166927,10345.840197,15773.044917,-0.052000,0.978000,0.132000,192.000000,254.000000,96.000000,30.000000,144.000000,4.000000,32.000000,0.000000,0.000000,0.000000,1646479061.215504,0.000000
209.000000,37878.137872,41054.097242,31341.571372,47485.699950,-859.938664,13517.731549,10347.091895,15805.834926,-0.052000,0.978000,0.132000,192.000000,0.000000,0.000000,0.000000,0.000000,0.000000,0.000000,0.000000,0.000000,0.000000,1646479061.223551,0.000000
210.000000,37898.075628,41079.578230,31358.715160,47510.666849,-803.768731,13552.712030,10378.563151,15825.929144,-0.052000,0.978000,0.132000,192.000000,0.000000,0.000000,0.000000,0.000000,0.000000,0.000000,0.000000,0.000000,0.000000,1646479061.223567,0.000000
211.000000,37899.930823,41093.883347,31358.223421,47520.568671,-746.928244,13570.325204,10404.178250,15824.431577,-0.052000,0.978000,0.132000,192.000000,0.000000,0.000000,0.000000,0.000000,0.000000,0.000000,0.000000,0.000000,0.000000,1646479061.231582,0.000000
212.000000,37888.173805,41091.871690,31344.857078,47511.203290,-737.316994,13561.809190,10398.433852,15800.828135,-0.052000,0.978000,0.132000,192.000000,0.000000,0.000000,0.000000,0.000000,0.000000,0.000000,0.000000,0.000000,0.000000,1646479061.231598,0.000000
213.000000,37885.491596,41080.807576,31347.069901,47498.462796,-802.405274,13540.843253,10379.345462,15802.213943,-0.052000,0.978000,0.132000,192.000000,0.000000,0.000000,0.000000,0.000000,0.000000,0.000000,0.000000,0.000000,0.000000,1646479061.237713,0.000000
214.000000,37893.381762,41080.405245,31355.563564,47498.932183,-847.376984,13531.254355,10376.082108,15816.608467,-0.052000,0.978000,0.132000,192.000000,0.000000,0.000000,0.000000,0.000000,0.000000,0.000000,0.000000,0.000000,0.000000,1646479061.237747,0.000000
215.000000,37906.613994,41104.388667,31365.666552,47517.573538,-793.106949,13562.949129,10412.962486,15842.648249,-0.052000,0.978000,0.132000,192.000000,0.000000,0.000000,0.000000,0.000000,0.000000,0.000000,0.000000,0.000000,0.000000,1646479061.245008,0.000000
216.000000,37893.180596,41102.689934,31349.863869,47509.526910,-749.096364,13574.370870,10414.348294,15838.624935,-0.052000,0.978000,0.132000,192.000000,0.000000,0.000000,0.000000,0.000000,0.000000,0.000000,0.000000,0.000000,0.000000,1646479061.252930,0.000000
217.000000,37874.516889,41088.585983,31326.349834,47491.354941,-755.176038,13554.835445,10378.719613,15821.078816,-0.052000,0.978000,0.132000,192.000000,0.000000,0.000000,0.000000,0.000000,0.000000,0.000000,0.000000,0.000000,0.000000,1646479061.252943,0.000000
218.000000,37872.102901,41077.834794,31328.897933,47486.325799,-816.643335,13535.411779,10365.621491,15810.595847,-0.054000,0.978000,0.144000,192.000000,254.000000,80.000000,30.000000,144.000000,4.000000,128.000000,0.000000,0.000000,0.000000,1646479061.259992,0.000000
219.000000,37884.441064,41081.075797,31348.746282,47498.865127,-850.483877,13537.848119,10371.634110,15828.857223,-0.054000,0.978000,0.144000,192.000000,0.000000,0.000000,0.000000,0.000000,0.000000,0.000000,0.000000,0.000000,0.000000,1646479061.260002,0.000000
220.000000,37900.422561,41107.406152,31360.525651,47519.272270,-790.178870,13568.447658,10397.897410,15841.083627,-0.054000,0.978000,0.144000,192.000000,0.000000,0.000000,0.000000,0.000000,0.000000,0.000000,0.000000,0.000000,0.000000,1646479061.267773,0.000000
221.000000,37896.868634,41115.944519,31352.948410,47520.725134,-737.942843,13586.083184,10413.007189,15835.272173,-0.054000,0.978000,0.144000,192.000000,0.000000,0.000000,0.000000,0.000000,0.000000,0.000000,0.000000,0.000000,0.000000,1646479061.267790,0.000000
222.000000,37882.272945,41105.081571,31333.815316,47504.318953,-745.229512,13572.269806,10388.420270,15812.428690,-0.054000,0.978000,0.144000,192.000000,0.000000,0.000000,0.000000,0.000000,0.000000,0.000000,0.000000,0.000000,0.000000,1646479061.275711,0.000000
223.000000,37873.220488,41082.886289,31327.579180,47485.096453,-820.241966,13544.307774,10366.314395,15812.071063,-0.054000,0.978000,0.144000,192.000000,0.000000,0.000000,0.000000,0.000000,0.000000,0.000000,0.000000,0.000000,0.000000,1646479061.275728,0.000000
224.000000,37886.005686,41089.614164,31345.013540,47492.494880,-855.758888,13548.308736,10374.562189,15829.192499,-0.054000,0.978000,0.144000,192.000000,0.000000,0.000000,0.000000,0.000000,0.000000,0.000000,0.000000,0.000000,0.000000,1646479061.283846,0.000000
225.000000,37895.214605,41113.798751,31349.059206,47506.151796,-798.694885,13573.342690,10387.414442,15832.366447,-0.054000,0.978000,0.144000,192.000000,0.000000,0.000000,0.000000,0.000000,0.000000,0.000000,0.000000,0.000000,0.000000,1646479061.283862,0.000000
226.000000,37890.051352,41118.582024,31337.704520,47502.821386,-752.829105,13575.644919,10387.101518,15817.256667,-0.054000,0.978000,0.144000,192.000000,0.000000,0.000000,0.000000,0.000000,0.000000,0.000000,0.000000,0.000000,0.000000,1646479061.290473,0.000000
227.000000,37879.344866,41111.541225,31325.478116,47491.779624,-760.294588,13561.272748,10370.516523,15801.878667,-0.054000,0.978000,0.144000,192.000000,0.000000,0.000000,0.000000,0.000000,0.000000,0.000000,0.000000,0.000000,0.000000,1646479061.290490,0.000000
228.000000,37879.456625,41101.192367,31328.897933,47479.642627,-824.153522,13545.112436,10371.254131,15810.037054,-0.058000,0.962000,0.148000,192.000000,254.000000,48.000000,30.000000,16.000000,4.000000,160.000000,0.000000,0.000000,0.000000,1646479061.298425,0.000000
229.000000,37886.408017,41095.246803,31339.515011,47478.994427,-865.034862,13538.988058,10364.347442,15816.496708,-0.058000,0.962000,0.148000,192.000000,0.000000,0.000000,0.000000,0.000000,0.000000,0.000000,0.000000,0.000000,0.000000,1646479061.298441,0.000000
230.000000,37890.118407,41112.792923,31341.280799,47488.628028,-809.401370,13559.462256,10384.307550,15816.630818,-0.058000,0.962000,0.148000,192.000000,0.000000,0.000000,0.000000,0.000000,0.000000,0.000000,0.000000,0.000000,0.000000,1646479061.305487,0.000000
231.000000,37893.091189,41132.596568,31339.224439,47497.524023,-751.622111,13574.326166,10403.999436,15822.397569,-0.058000,0.962000,0.148000,192.000000,0.000000,0.000000,0.000000,0.000000,0.000000,0.000000,0.000000,0.000000,0.000000,1646479061.313602,0.000000
232.000000,37876.170918,41120.548978,31322.572389,47483.174203,-766.910704,13556.690640,10377.177343,15803.711510,-0.058000,0.962000,0.148000,192.000000,0.000000,0.000000,0.000000,0.000000,0.000000,0.000000,0.000000,0.000000,0.000000,1646479061.313618,0.000000
233.000000,37876.059160,41110.893024,31325.723985,47475.775775,-830.501417,13535.948221,10357.194883,15801.252818,-0.058000,0.962000,0.148000,192.000000,0.000000,0.000000,0.000000,0.000000,0.000000,0.000000,0.000000,0.000000,0.000000,1646479061.320080,0.000000
234.000000,37888.084398,41113.530530,31340.856116,47486.437558,-858.552856,13538.831596,10370.896503,15826.219717,-0.058000,0.962000,0.148000,192.000000,0.000000,0.000000,0.000000,0.000000,0.000000,0.000000,0.000000,0.000000,0.000000,1646479061.320096,0.000000
235.000000,37899.327326,41132.753030,31350.109738,47504.542471,-791.519975,13570.772239,10412.515451,15847.565633,-0.058000,0.962000,0.148000,192.000000,0.000000,0.000000,0.000000,0.000000,0.000000,0.000000,0.000000,0.000000,0.000000,1646479061.327898,0.000000
236.000000,37884.731637,41127.187446,31330.283741,47491.176127,-756.315977,13569.229969,10401.138413,15823.045769,-0.058000,0.962000,0.148000,192.000000,0.000000,0.000000,0.000000,0.000000,0.000000,0.000000,0.000000,0.000000,0.000000,1646479061.327913,0.000000
237.000000,37866.537317,41106.735600,31308.446086,47467.684444,-786.222611,13542.318468,10371.388241,15795.664882,-0.058000,0.962000,0.148000,192.000000,0.000000,0.000000,0.000000,0.000000,0.000000,0.000000,0.000000,0.000000,0.000000,1646479061.336176,0.000000
238.000000,37871.275886,41104.142797,31322.237113,47471.171316,-836.446981,13530.829672,10364.861532,15803.085661,-0.040000,0.972000,0.152000,192.000000,254.000000,192.000000,30.000000,96.000000,4.000000,192.000000,0.000000,0.000000,0.000000,1646479061.336192,0.000000
239.000000,37890.498387,41116.860940,31346.891087,47490.997313,-853.836638,13540.105646,10367.923721,15823.693970,-0.040000,0.972000,0.152000,192.000000,0.000000,0.000000,0.000000,0.000000,0.000000,0.000000,0.000000,0.000000,0.000000,1646479061.342975,0.000000
240.000000,37905.630518,41138.162153,31359.229250,47509.616317,-783.652161,13573.677966,10400.646675,15835.048656,-0.040000,0.972000,0.152000,192.000000,0.000000,0.000000,0.000000,0.000000,0.000000,0.000000,0.000000,0.000000,0.000000,1646479061.342986,0.000000
241.000000,37892.912375,41135.815219,31341.794889,47500.027418,-742.189675,13572.940358,10384.553419,15814.507403,-0.040000,0.972000,0.152000,192.000000,0.000000,0.000000,0.000000,0.000000,0.000000,0.000000,0.000000,0.000000,0.000000,1646479061.350610,0.000000
242.000000,37886.475073,41130.361394,31332.585970,47490.080892,-766.374262,13550.566262,10363.922759,15797.184801,-0.040000,0.972000,0.152000,192.000000,0.000000,0.000000,0.000000,0.000000,0.000000,0.000000,0.000000,0.000000,0.000000,1646479061.350626,0.000000
243.000000,37884.105788,41120.928958,31333.658854,47488.248049,-823.304155,13540.597384,10373.645767,15809.008874,-0.040000,0.972000,0.152000,192.000000,0.000000,0.000000,0.000000,0.000000,0.000000,0.000000,0.000000,0.000000,0.000000,1646479061.358662,0.000000
244.000000,37898.567366,41126.963929,31353.708369,47502.799034,-842.750173,13555.617756,10389.247285,15833.059351,-0.040000,0.972000,0.152000,192.000000,0.000000,0.000000,0.000000,0.000000,0.000000,0.000000,0.000000,0.000000,0.000000,1646479061.358679,0.000000
245.000000,37908.826817,41148.399252,31360.950334,47519.048753,-772.498640,13588.072489,10411.420216,15841.687124,-0.040000,0.972000,0.152000,192.000000,0.000000,0.000000,0.000000,0.000000,0.000000,0.000000,0.000000,0.000000,0.000000,1646479061.365785,0.000000
246.000000,37896.913337,41146.499353,31343.091290,47509.057523,-732.578425,13591.559361,10409.162689,15823.492804,-0.040000,0.972000,0.152000,192.000000,0.000000,0.000000,0.000000,0.000000,0.000000,0.000000,0.000000,0.000000,0.000000,1646479061.372813,0.000000
247.000000,37879.948363,41130.450801,31326.930979,47492.785453,-770.174059,13566.815980,10380.686567,15801.744557,-0.040000,0.972000,0.152000,192.000000,0.000000,0.000000,0.000000,0.000000,0.000000,0.000000,0.000000,0.000000,0.000000,1646479061.372830,0.000000
248.000000,37885.715113,41125.041679,31338.844459,47493.835985,-820.890167,13558.881111,10374.159858,15821.302333,-0.024000,0.974000,0.150000,192.000000,255.000000,64.000000,30.000000,112.000000,4.000000,176.000000,0.000000,0.000000,0.000000,1646479061.380457,0.000000
249.000000,37896.779227,41127.187446,31355.496509,47506.151796,-839.062135,13566.368945,10380.038366,15835.696856,-0.024000,0.974000,0.150000,192.000000,0.000000,0.000000,0.000000,0.000000,0.000000,0.000000,0.000000,0.000000,0.000000,1646479061.380474,0.000000
250.000000,37907.485712,41146.097022,31359.363360,47520.903947,-772.610399,13592.475783,10405.809928,15834.959249,-0.024000,0.974000,0.150000,192.000000,0.000000,0.000000,0.000000,0.000000,0.000000,0.000000,0.000000,0.000000,0.000000,1646479061.388372,0.000000
251.000000,37904.356468,41151.707310,31350.243849,47517.908814,-724.688259,13602.355254,10422.372570,15839.362543,-0.024000,0.974000,0.150000,192.000000,0.000000,0.000000,0.000000,0.000000,0.000000,0.000000,0.000000,0.000000,0.000000,1646479061.388388,0.000000
252.000000,37881.356523,41123.767629,31329.277912,47494.797110,-772.073957,13568.604120,10389.694320,15816.496708,-0.024000,0.974000,0.150000,192.000000,0.000000,0.000000,0.000000,0.000000,0.000000,0.000000,0.000000,0.000000,0.000000,1646479061.396481,0.000000
253.000000,37880.350695,41112.301184,31333.882372,47490.729092,-830.479065,13551.058000,10370.628282,15808.181859,-0.024000,0.974000,0.150000,192.000000,0.000000,0.000000,0.000000,0.000000,0.000000,0.000000,0.000000,0.000000,0.000000,1646479061.396497,0.000000
254.000000,37899.372029,41126.427487,31355.854136,47509.146930,-838.682155,13562.546797,10386.609779,15838.423769,-0.024000,0.974000,0.150000,192.000000,0.000000,0.000000,0.000000,0.000000,0.000000,0.000000,0.000000,0.000000,0.000000,1646479061.403024,0.000000
255.000000,37904.267061,41144.442993,31355.049474,47520.389857,-771.537515,13586.150239,10406.972218,15838.021438,-0.024000,0.974000,0.150000,192.000000,0.000000,0.000000,0.000000,0.000000,0.000000,0.000000,0.000000,0.000000,0.000000,1646479061.403040,0.000000
0.000000,37891.303049,41141.470211,31335.312883,47509.325744,-735.528855,13580.875228,10398.411500,15818.038978,-0.024000,0.974000,0.150000,192.000000,0.000000,0.000000,0.000000,0.000000,0.000000,0.000000,0.000000,0.000000,0.000000,1646479061.410724,0.000000
1.000000,37884.731637,41129.959062,31328.272084,47495.758235,-780.433509,13552.779085,10376.417384,15809.634722,-0.024000,0.974000,0.150000,192.000000,0.000000,0.000000,0.000000,0.000000,0.000000,0.000000,0.000000,0.000000,0.000000,1646479061.410757,0.000000
2.000000,37886.050390,41121.040716,31335.983436,47491.980790,-833.362440,13538.429265,10374.942169,15816.720225,-0.018000,0.962000,0.136000,192.000000,255.000000,112.000000,30.000000,16.000000,4.000000,64.000000,0.000000,0.000000,0.000000,1646479061.418976,0.000000
3.000000,37892.599451,41122.381821,31345.035892,47500.787377,-846.348804,13541.223233,10371.008262,15831.561784,-0.018000,0.962000,0.136000,192.000000,0.000000,0.000000,0.000000,0.000000,0.000000,0.000000,0.000000,0.000000,0.000000,1646479061.418992,0.000000
4.000000,37893.918204,41133.401231,31342.845421,47507.917584,-785.015617,13557.696469,10369.220122,15820.229449,-0.018000,0.962000,0.136000,192.000000,0.000000,0.000000,0.000000,0.000000,0.000000,0.000000,0.000000,0.000000,0.000000,1646479061.424745,0.000000
5.000000,37883.234070,41133.781211,31327.378014,47503.626049,-743.329614,13564.022012,10393.248247,15813.076891,-0.018000,0.962000,0.136000,192.000000,0.000000,0.000000,0.000000,0.000000,0.000000,0.000000,0.000000,0.000000,0.000000,1646479061.432827,0.000000
6.000000,37875.478014,41119.945481,31320.158401,47492.874860,-789.776539,13542.474931,10379.166648,15809.075929,-0.018000,0.962000,0.136000,192.000000,0.000000,0.000000,0.000000,0.000000,0.000000,0.000000,0.000000,0.000000,0.000000,1646479061.432843,0.000000
7.000000,37877.467320,41112.792923,31327.288607,47490.036188,-843.152504,13528.661553,10368.683680,15811.065234,-0.018000,0.962000,0.136000,192.000000,0.000000,0.000000,0.000000,0.000000,0.000000,0.000000,0.000000,0.000000,0.000000,1646479061.440688,0.000000
8.000000,37886.363314,41115.832760,31340.207915,47493.835985,-851.847333,13533.690695,10378.272579,15819.089510,-0.018000,0.962000,0.136000,192.000000,0.000000,0.000000,0.000000,0.000000,0.000000,0.000000,0.000000,0.000000,0.000000,1646479061.440704,0.000000
9.000000,37892.755913,41134.563522,31341.593723,47503.447235,-784.099195,13555.684812,10392.309474,15831.137101,-0.018000,0.962000,0.136000,192.000000,0.000000,0.000000,0.000000,0.000000,0.000000,0.000000,0.000000,0.000000,0.000000,1646479061.448783,0.000000
10.000000,37878.182575,41131.858961,31324.405232,47496.093511,-747.889369,13552.801437,10377.378509,15814.395644,-0.018000,0.962000,0.136000,192.000000,0.000000,0.000000,0.000000,0.000000,0.000000,0.000000,0.000000,0.000000,0.000000,1646479061.448799,0.000000
11.000000,37858.960075,41112.256481,31310.725964,47476.848659,-804.841614,13521.821919,10361.017032,15798.011815,-0.018000,0.962000,0.136000,192.000000,0.000000,0.000000,0.000000,0.000000,0.000000,0.000000,0.000000,0.000000,0.000000,1646479061.455798,0.000000
12.000000,37865.509136,41111.407114,31324.494639,47482.011912,-851.243836,13510.087253,10365.219160,15810.349978,-0.002000,0.962000,0.126000,192.000000,255.000000,240.000000,30.000000,16.000000,3.000000,240.000000,0.000000,0.000000,0.000000,1646479061.455813,0.000000
13.000000,37882.809387,41122.493580,31345.997017,47495.959401,-846.773487,13523.163023,10383.681701,15830.466548,-0.002000,0.962000,0.126000,192.000000,0.000000,0.000000,0.000000,0.000000,0.000000,0.000000,0.000000,0.000000,0.000000,1646479061.463284,0.000000
14.000000,37883.211718,41130.964891,31339.291494,47499.535680,-791.497623,13534.830634,10386.408613,15818.731882,-0.002000,0.962000,0.126000,192.000000,0.000000,0.000000,0.000000,0.000000,0.000000,0.000000,0.000000,0.000000,0.000000,1646479061.463299,0.000000
15.000000,37867.945477,41127.790943,31323.108831,47495.311200,-763.647349,13530.047361,10380.284236,15802.012778,-0.002000,0.962000,0.126000,192.000000,0.000000,0.000000,0.000000,0.000000,0.000000,0.000000,0.000000,0.000000,0.000000,1646479061.471256,0.000000
16.000000,37856.993122,41112.792923,31316.604473,47481.788395,-827.930966,13501.079500,10367.364927,15803.756214,-0.002000,0.962000,0.126000,192.000000,0.000000,0.000000,0.000000,0.000000,0.000000,0.000000,0.000000,0.000000,0.000000,1646479061.471271,0.000000
17.000000,37862.670465,41109.015478,31325.478116,47483.732996,-881.038711,13491.468250,10365.308567,15814.619161,-0.002000,0.962000,0.126000,192.000000,0.000000,0.000000,0.000000,0.000000,0.000000,0.000000,0.000000,0.000000,0.000000,1646479061.478523,0.000000
18.000000,37884.105788,41128.305033,31348.723930,47509.616317,-864.118441,13518.156233,10383.927570,15836.635630,-0.002000,0.962000,0.126000,192.000000,0.000000,0.000000,0.000000,0.000000,0.000000,0.000000,0.000000,0.000000,0.000000,1646479061.478538,0.000000
19.000000,37884.061084,41140.576141,31343.001883,47516.970040,-799.700713,13540.552681,10387.570904,15834.400455,-0.002000,0.962000,0.126000,192.000000,0.000000,0.000000,0.000000,0.000000,0.000000,0.000000,0.000000,0.000000,0.000000,1646479061.484864,0.000000
20.000000,37872.840509,41137.491600,31328.450898,47506.308258,-765.189620,13539.792721,10387.615608,15816.742577,-0.002000,0.962000,0.126000,192.000000,0.000000,0.000000,0.000000,0.000000,0.000000,0.000000,0.000000,0.000000,0.000000,1646479061.484881,0.000000
21.000000,37860.479994,41116.011574,31322.035947,47486.862241,-830.166141,13509.081424,10378.764317,15808.383025,-0.002000,0.962000,0.126000,192.000000,0.000000,0.000000,0.000000,0.000000,0.000000,0.000000,0.000000,0.000000,0.000000,1646479061.492944,0.000000
22.000000,37872.482881,41117.665603,31339.537363,47498.328686,-874.690816,13507.516802,10388.822602,15825.571516,-0.002000,0.962000,0.126000,192.000000,0.000000,0.000000,0.000000,0.000000,0.000000,0.000000,0.000000,0.000000,0.000000,1646479061.500910,0.000000
23.000000,37878.920183,41119.610205,31347.718101,47508.386971,-864.878400,13519.854965,10406.748701,15836.166243,0.006000,0.974000,0.112000,192.000000,0.000000,48.000000,30.000000,112.000000,3.000000,128.000000,0.000000,0.000000,0.000000,1646479061.500926,0.000000
24.000000,37882.608221,41133.043603,31346.354645,47516.500654,-801.220632,13533.578936,10407.821585,15827.002028,0.006000,0.974000,0.112000,192.000000,0.000000,0.000000,0.000000,0.000000,0.000000,0.000000,0.000000,0.000000,0.000000,1646479061.508016,0.000000
25.000000,37869.912430,41130.964891,31332.429508,47507.492901,-771.112832,13535.054151,10397.025692,15807.913638,0.006000,0.974000,0.112000,192.000000,0.000000,0.000000,0.000000,0.000000,0.000000,0.000000,0.000000,0.000000,0.000000,1646479061.508033,0.000000
26.000000,37862.692817,41116.503312,31328.629712,47495.512366,-834.100048,13515.406968,10378.786669,15809.165336,0.006000,0.974000,0.112000,192.000000,0.000000,0.000000,0.000000,0.000000,0.000000,0.000000,0.000000,0.000000,0.000000,1646479061.515572,0.000000
27.000000,37871.141776,41110.513045,31335.446994,47494.595944,-889.733540,13501.481831,10361.911102,15815.893211,0.006000,0.974000,0.112000,192.000000,0.000000,0.000000,0.000000,0.000000,0.000000,0.000000,0.000000,0.000000,0.000000,1646479061.515587,0.000000
28.000000,37882.697628,41115.832760,31349.908572,47506.978811,-876.680121,13513.641180,10388.822602,15815.423824,0.006000,0.974000,0.112000,192.000000,0.000000,0.000000,0.000000,0.000000,0.000000,0.000000,0.000000,0.000000,0.000000,1646479061.523589,0.000000
29.000000,37882.384703,41127.567426,31344.879430,47511.650325,-816.084542,13537.088160,10423.914841,15837.082665,0.006000,0.974000,0.112000,192.000000,0.000000,0.000000,0.000000,0.000000,0.000000,0.000000,0.000000,0.000000,0.000000,1646479061.523605,0.000000
30.000000,37872.147604,41126.136914,31330.797831,47500.608563,-788.927172,13541.893785,10414.191832,15832.947592,0.006000,0.974000,0.112000,192.000000,0.000000,0.000000,0.000000,0.000000,0.000000,0.000000,0.000000,0.000000,0.000000,1646479061.531505,0.000000
31.000000,37860.256476,41103.539300,31318.280854,47477.988598,-866.510077,13514.334084,10384.933398,15817.726054,0.006000,0.974000,0.112000,192.000000,0.000000,0.000000,0.000000,0.000000,0.000000,0.000000,0.000000,0.000000,0.000000,1646479061.531521,0.000000
32.000000,37868.280753,41100.320649,31332.027177,47483.107148,-919.684877,13505.125166,10382.251189,15824.006894,0.006000,0.974000,0.112000,192.000000,0.000000,0.000000,0.000000,0.000000,0.000000,0.000000,0.000000,0.000000,0.000000,1646479061.538253,0.000000
33.000000,37886.408017,41119.252577,31351.696712,47507.917584,-896.394360,13534.316544,10409.341503,15843.028229,0.002000,0.974000,0.092000,192.000000,0.000000,16.000000,30.000000,112.000000,2.000000,224.000000,0.000000,0.000000,0.000000,1646479061.538269,0.000000
34.000000,37879.188404,41126.494542,31339.962046,47509.459854,-847.891074,13546.766466,10411.911954,15832.992295,0.002000,0.974000,0.092000,192.000000,0.000000,0.000000,0.000000,0.000000,0.000000,0.000000,0.000000,0.000000,0.000000,1646479061.546019,0.000000
35.000000,37868.884250,41125.064030,31322.393575,47501.457930,-829.473237,13539.032762,10394.343483,15811.467565,0.002000,0.974000,0.092000,192.000000,0.000000,0.000000,0.000000,0.000000,0.000000,0.000000,0.000000,0.000000,0.000000,1646479061.546036,0.000000
36.000000,37867.498442,41109.753085,31327.378014,47492.517232,-894.717979,13517.798605,10374.964520,15809.321798,0.002000,0.974000,0.092000,192.000000,0.000000,0.000000,0.000000,0.000000,0.000000,0.000000,0.000000,0.000000,0.000000,1646479061.553269,0.000000
37.000000,37875.030980,41103.807521,31340.029101,47497.188747,-944.428258,13511.495413,10395.818698,15824.208060,0.002000,0.974000,0.092000,192.000000,0.000000,0.000000,0.000000,0.000000,0.000000,0.000000,0.000000,0.000000,0.000000,1646479061.561220,0.000000
38.000000,37889.470206,41122.292414,31353.306038,47514.511349,-919.036677,13526.158157,10411.353160,15830.354790,0.002000,0.974000,0.092000,192.000000,0.000000,0.000000,0.000000,0.000000,0.000000,0.000000,0.000000,0.000000,0.000000,1646479061.561236,0.000000
39.000000,37890.073704,41134.429411,31348.478061,47518.311145,-872.545048,13537.356381,10412.649561,15816.161432,0.002000,0.974000,0.092000,192.000000,0.000000,0.000000,0.000000,0.000000,0.000000,0.000000,0.000000,0.000000,0.000000,1646479061.567780,0.000000
40.000000,37865.822061,41119.140818,31322.974720,47500.787377,-876.210734,13527.901593,10399.171460,15799.062347,0.002000,0.974000,0.092000,192.000000,0.000000,0.000000,0.000000,0.000000,0.000000,0.000000,0.000000,0.000000,0.000000,1646479061.567795,0.000000
41.000000,37854.400319,41107.115579,31318.727889,47484.716473,-979.162869,13498.464346,10377.043233,15791.976844,0.002000,0.974000,0.092000,192.000000,0.000000,0.000000,0.000000,0.000000,0.000000,0.000000,0.000000,0.000000,0.000000,1646479061.575694,0.000000
42.000000,37858.535392,41134.317653,31329.277912,47482.950685,-1068.726309,13484.561561,10363.900407,15800.962246,0.002000,0.974000,0.092000,192.000000,0.000000,0.000000,0.000000,0.000000,0.000000,0.000000,0.000000,0.000000,0.000000,1646479061.575710,0.000000
43.000000,37873.712227,41188.163005,31346.354645,47501.368523,-1065.664120,13512.076558,10395.461070,15821.794071,-0.004000,0.990000,0.086000,192.000000,255.000000,224.000000,30.000000,240.000000,2.000000,176.000000,0.000000,0.000000,0.000000,1646479061.583574,0.000000
44.000000,37879.054294,41226.295081,31343.650084,47513.393761,-1028.403762,13534.540061,10410.056759,15810.037054,-0.004000,0.990000,0.086000,192.000000,0.000000,0.000000,0.000000,0.000000,0.000000,0.000000,0.000000,0.000000,0.000000,1646479061.583589,0.000000
45.000000,37861.910506,41229.089049,31314.369299,47500.407398,-1030.840103,13524.749997,10384.709881,15801.252818,-0.004000,0.990000,0.086000,192.000000,0.000000,0.000000,0.000000,0.000000,0.000000,0.000000,0.000000,0.000000,0.000000,1646479061.591210,0.000000
46.000000,37856.859011,41219.053116,31317.923226,47486.526964,-1108.087731,13502.644122,10370.181247,15799.889362,-0.004000,0.990000,0.086000,192.000000,0.000000,0.000000,0.000000,0.000000,0.000000,0.000000,0.000000,0.000000,0.000000,1646479061.591216,0.000000
47.000000,37866.514965,41220.707145,31334.642331,47490.527927,-1158.468563,13499.984264,10373.064622,15807.846583,-0.004000,0.990000,0.086000,192.000000,0.000000,0.000000,0.000000,0.000000,0.000000,0.000000,0.000000,0.000000,0.000000,1646479061.598653,0.000000
48.000000,37877.467320,41238.812058,31342.085462,47509.370447,-1118.615403,13524.727645,10413.990666,15838.289659,-0.004000,0.990000,0.086000,192.000000,0.000000,0.000000,0.000000,0.000000,0.000000,0.000000,0.000000,0.000000,0.000000,1646479061.598658,0.000000
49.000000,37871.119424,41247.708052,31328.294436,47512.097360,-1070.760318,13534.875337,10421.858480,15832.321743,-0.004000,0.990000,0.086000,192.000000,0.000000,0.000000,0.000000,0.000000,0.000000,0.000000,0.000000,0.000000,0.000000,1646479061.605265,0.000000
50.000000,37847.203058,41232.978253,31305.003918,47489.812671,-1070.514449,13518.960895,10394.365835,15800.179935,-0.004000,0.990000,0.086000,192.000000,0.000000,0.000000,0.000000,0.000000,0.000000,0.000000,0.000000,0.000000,0.000000,1646479061.605270,0.000000
51.000000,37836.496572,41214.538063,31297.158456,47468.846735,-1148.007947,13492.854058,10379.904256,15795.106089,-0.004000,0.990000,0.086000,192.000000,0.000000,0.000000,0.000000,0.000000,0.000000,0.000000,0.000000,0.000000,0.000000,1646479061.612325,0.000000
52.000000,37853.193325,41224.573997,31316.179790,47478.592095,-1189.246915,13493.479907,10374.696299,15806.796051,-0.004000,0.990000,0.086000,192.000000,0.000000,0.000000,0.000000,0.000000,0.000000,0.000000,0.000000,0.000000,0.000000,1646479061.620395,0.000000
53.000000,37871.477052,41250.457317,31337.212782,47500.653267,-1126.483217,13534.428303,10412.738968,15837.015609,-0.006000,0.988000,0.074000,192.000000,255.000000,208.000000,30.000000,224.000000,2.000000,80.000000,0.000000,0.000000,0.000000,1646479061.620399,0.000000
54.000000,37863.720997,41253.340692,31323.041776,47498.127520,-1072.839030,13543.681925,10423.043123,15818.553068,-0.006000,0.988000,0.074000,192.000000,0.000000,0.000000,0.000000,0.000000,0.000000,0.000000,0.000000,0.000000,0.000000,1646479061.628391,0.000000
55.000000,37849.974674,41245.897561,31308.781363,47485.297619,-1063.898333,13528.147462,10403.485346,15799.419975,-0.006000,0.988000,0.074000,192.000000,0.000000,0.000000,0.000000,0.000000,0.000000,0.000000,0.000000,0.000000,0.000000,1646479061.628395,0.000000
56.000000,37849.952322,41234.006433,31310.949482,47469.405528,-1131.512360,13510.355474,10387.861477,15810.752310,-0.006000,0.988000,0.074000,192.000000,0.000000,0.000000,0.000000,0.000000,0.000000,0.000000,0.000000,0.000000,0.000000,1646479061.634904,0.000000
57.000000,37857.238991,41233.246473,31324.315825,47474.367616,-1172.348997,13507.673264,10389.403747,15823.425749,-0.006000,0.988000,0.074000,192.000000,0.000000,0.000000,0.000000,0.000000,0.000000,0.000000,0.000000,0.000000,0.000000,1646479061.634909,0.000000
58.000000,37862.312837,41245.875209,31324.695805,47484.850584,-1124.583319,13527.678076,10419.109216,15831.584135,-0.006000,0.988000,0.074000,192.000000,0.000000,0.000000,0.000000,0.000000,0.000000,0.000000,0.000000,0.000000,0.000000,1646479061.642977,0.000000
59.000000,37852.925104,41246.590465,31308.446086,47477.698025,-1080.639789,13525.062922,10398.456204,15807.846583,-0.006000,0.988000,0.074000,192.000000,0.000000,0.000000,0.000000,0.000000,0.000000,0.000000,0.000000,0.000000,0.000000,1646479061.642980,0.000000
60.000000,37845.616084,41246.054023,31294.856226,47467.013892,-1077.063510,13508.209706,10372.192904,15779.392812,-0.006000,0.988000,0.074000,192.000000,0.000000,0.000000,0.000000,0.000000,0.000000,0.000000,0.000000,0.000000,0.000000,1646479061.651004,0.000000
61.000000,37841.212790,41228.999642,31294.588005,47455.390984,-1144.051688,13486.282645,10366.023823,15773.246082,-0.006000,0.988000,0.074000,192.000000,0.000000,0.000000,0.000000,0.000000,0.000000,0.000000,0.000000,0.000000,0.000000,1646479061.651007,0.000000
62.000000,37858.624799,41235.124020,31320.404270,47467.684444,-1177.020511,13493.971645,10381.625340,15804.315007,-0.006000,0.988000,0.074000,192.000000,0.000000,0.000000,0.000000,0.000000,0.000000,0.000000,0.000000,0.000000,0.000000,1646479061.658056,0.000000
63.000000,37868.750139,41253.698320,31327.735642,47484.157680,-1121.074095,13525.956991,10407.933343,15829.706589,-0.012000,0.990000,0.068000,192.000000,255.000000,160.000000,30.000000,240.000000,2.000000,32.000000,0.000000,0.000000,0.000000,1646479061.658060,0.000000
64.000000,37868.683084,41267.377587,31321.611264,47491.399645,-1065.395899,13539.926832,10402.434814,15815.468528,-0.012000,0.990000,0.068000,192.000000,0.000000,0.000000,0.000000,0.000000,0.000000,0.000000,0.000000,0.000000,0.000000,1646479061.666153,0.000000
65.000000,37853.238029,41258.772166,31305.741525,47477.765081,-1071.699091,13528.661553,10394.924628,15804.873801,-0.012000,0.990000,0.068000,192.000000,0.000000,0.000000,0.000000,0.000000,0.000000,0.000000,0.000000,0.000000,0.000000,1646479061.666186,0.000000
66.000000,37856.210811,41247.819811,31310.256578,47471.685406,-1139.648395,13508.120299,10367.566093,15808.651246,-0.012000,0.990000,0.068000,192.000000,0.000000,0.000000,0.000000,0.000000,0.000000,0.000000,0.000000,0.000000,0.000000,1646479061.673205,0.000000
67.000000,37869.174822,41254.815907,31328.741470,47485.141156,-1172.103127,13512.031855,10368.840142,15817.994275,-0.012000,0.990000,0.068000,192.000000,0.000000,0.000000,0.000000,0.000000,0.000000,0.000000,0.000000,0.000000,0.000000,1646479061.681152,0.000000
68.000000,37876.617953,41274.574849,31335.178773,47506.218851,-1108.333601,13544.687753,10408.872117,15828.790167,-0.012000,0.990000,0.068000,192.000000,0.000000,0.000000,0.000000,0.000000,0.000000,0.000000,0.000000,0.000000,0.000000,1646479061.681168,0.000000
69.000000,37873.555764,41280.833337,31326.752165,47507.045866,-1059.360928,13557.338841,10409.117986,15824.543336,-0.012000,0.990000,0.068000,192.000000,0.000000,0.000000,0.000000,0.000000,0.000000,0.000000,0.000000,0.000000,0.000000,1646479061.688161,0.000000
70.000000,37860.591753,41265.947076,31309.697784,47485.677598,-1075.364777,13541.267936,10387.369739,15799.375272,-0.012000,0.990000,0.068000,192.000000,0.000000,0.000000,0.000000,0.000000,0.000000,0.000000,0.000000,0.000000,0.000000,1646479061.688178,0.000000
71.000000,37852.366311,41245.003491,31306.032098,47470.478412,-1148.745555,13515.585782,10374.271616,15794.301426,-0.012000,0.990000,0.068000,192.000000,0.000000,0.000000,0.000000,0.000000,0.000000,0.000000,0.000000,0.000000,0.000000,1646479061.695695,0.000000
72.000000,37861.396415,41245.763450,31322.393575,47478.525040,-1182.720206,13520.771387,10383.234666,15826.934973,-0.012000,0.990000,0.068000,192.000000,0.000000,0.000000,0.000000,0.000000,0.000000,0.000000,0.000000,0.000000,0.000000,1646479061.695711,0.000000
73.000000,37875.835642,41267.802270,31335.201125,47497.367561,-1117.453112,13551.035649,10410.950829,15840.413075,-0.004000,0.978000,0.066000,192.000000,255.000000,224.000000,30.000000,144.000000,2.000000,16.000000,0.000000,0.000000,0.000000,1646479061.703805,0.000000
74.000000,37876.126215,41279.112253,31326.193372,47499.379218,-1065.105327,13558.188207,10417.812814,15834.109883,-0.004000,0.978000,0.066000,192.000000,0.000000,0.000000,0.000000,0.000000,0.000000,0.000000,0.000000,0.000000,0.000000,1646479061.703822,0.000000
75.000000,37860.859974,41265.991779,31308.669604,47484.403549,-1080.528030,13539.368038,10388.956712,15817.167260,-0.004000,0.978000,0.066000,192.000000,0.000000,0.000000,0.000000,0.000000,0.000000,0.000000,0.000000,0.000000,0.000000,1646479061.710880,0.000000
76.000000,37852.768642,41246.746927,31306.456781,47467.907961,-1148.454982,13510.869564,10377.333805,15809.590019,-0.004000,0.978000,0.066000,192.000000,0.000000,0.000000,0.000000,0.000000,0.000000,0.000000,0.000000,0.000000,0.000000,1646479061.710898,0.000000
77.000000,37857.328398,41239.840238,31315.509238,47465.493973,-1184.865974,13501.101852,10384.911047,15804.449118,-0.004000,0.978000,0.066000,192.000000,0.000000,0.000000,0.000000,0.000000,0.000000,0.000000,0.000000,0.000000,0.000000,1646479061.718281,0.000000
78.000000,37859.116537,41249.160916,31314.995148,47476.580438,-1125.030354,13522.023084,10400.914896,15803.957379,-0.004000,0.978000,0.066000,192.000000,0.000000,0.000000,0.000000,0.000000,0.000000,0.000000,0.000000,0.000000,0.000000,1646479061.718296,0.000000
79.000000,37846.934837,41247.216314,31300.958252,47469.338473,-1083.679626,13528.147462,10410.526146,15799.911714,-0.004000,0.978000,0.066000,192.000000,0.000000,0.000000,0.000000,0.000000,0.000000,0.000000,0.000000,0.000000,0.000000,1646479061.726373,0.000000
80.000000,37832.830886,41230.676023,31286.049639,47450.607711,-1116.626098,13506.578029,10382.832334,15780.689213,-0.004000,0.978000,0.066000,192.000000,0.000000,0.000000,0.000000,0.000000,0.000000,0.000000,0.000000,0.000000,0.000000,1646479061.726389,0.000000
81.000000,37849.170011,41232.397107,31305.026270,47457.134421,-1175.165316,13501.705349,10381.312416,15804.605580,-0.004000,0.978000,0.066000,192.000000,0.000000,0.000000,0.000000,0.000000,0.000000,0.000000,0.000000,0.000000,0.000000,1646479061.733318,0.000000
82.000000,37853.729767,41234.811096,31317.543246,47465.270456,-1209.788169,13503.895820,10383.704052,15821.794071,-0.004000,0.978000,0.066000,192.000000,0.000000,0.000000,0.000000,0.000000,0.000000,0.000000,0.000000,0.000000,0.000000,1646479061.733334,0.000000
83.000000,37864.458604,41261.387320,31330.149630,47485.364674,-1139.938967,13535.501186,10412.046064,15828.745464,0.004000,0.996000,0.070000,192.000000,0.000000,32.000000,31.000000,32.000000,2.000000,48.000000,0.000000,0.000000,0.000000,1646479061.740357,0.000000
84.000000,37854.556782,41262.124927,31314.436354,47478.368578,-1099.191737,13540.597384,10413.431873,15806.907810,0.004000,0.996000,0.070000,192.000000,0.000000,0.000000,0.000000,0.000000,0.000000,0.000000,0.000000,0.000000,0.000000,1646479061.747962,0.000000
85.000000,37839.692872,41243.528276,31296.890235,47458.296711,-1137.457924,13516.613962,10385.022805,15790.546333,0.004000,0.996000,0.070000,192.000000,0.000000,0.000000,0.000000,0.000000,0.000000,0.000000,0.000000,0.000000,0.000000,1646479061.747978,0.000000
86.000000,37840.251665,41232.017128,31302.277005,47453.334624,-1197.695875,13501.660645,10367.901369,15800.358748,0.004000,0.996000,0.070000,192.000000,0.000000,0.000000,0.000000,0.000000,0.000000,0.000000,0.000000,0.000000,0.000000,1646479061.756070,0.000000
87.000000,37857.507212,41237.336843,31324.785212,47469.383176,-1216.314878,13510.936619,10376.372680,15824.051598,0.004000,0.996000,0.070000,192.000000,0.000000,0.000000,0.000000,0.000000,0.000000,0.000000,0.000000,0.000000,0.000000,1646479061.756086,0.000000
88.000000,37861.463471,41253.184230,31325.723985,47482.458947,-1146.689194,13539.323335,10399.529087,15834.176938,0.004000,0.996000,0.070000,192.000000,0.000000,0.000000,0.000000,0.000000,0.000000,0.000000,0.000000,0.000000,0.000000,1646479061.764096,0.000000
89.000000,37849.862915,41255.754680,31310.971834,47479.262648,-1102.320981,13545.604175,10407.508660,15822.844603,0.004000,0.996000,0.070000,192.000000,0.000000,0.000000,0.000000,0.000000,0.000000,0.000000,0.000000,0.000000,0.000000,1646479061.764111,0.000000
90.000000,37846.107822,41249.026805,31306.590892,47473.853525,-1131.892339,13527.029875,10364.727421,15801.901019,0.004000,0.996000,0.070000,192.000000,0.000000,0.000000,0.000000,0.000000,0.000000,0.000000,0.000000,0.000000,0.000000,1646479061.770569,0.000000
91.000000,37850.086433,41237.694471,31313.050546,47470.634874,-1185.692988,13520.369055,10355.764372,15808.181859,0.004000,0.996000,0.070000,192.000000,0.000000,0.000000,0.000000,0.000000,0.000000,0.000000,0.000000,0.000000,0.000000,1646479061.770584,0.000000
92.000000,37872.773453,41248.780936,31336.877505,47485.454081,-1197.293543,13539.524500,10397.673893,15819.871821,0.004000,0.996000,0.070000,192.000000,0.000000,0.000000,0.000000,0.000000,0.000000,0.000000,0.000000,0.000000,0.000000,1646479061.778680,0.000000
93.000000,37882.317648,41268.294009,31339.939694,47492.114901,-1127.913729,13560.244567,10405.631114,15782.834981,0.006000,0.980000,0.080000,192.000000,0.000000,48.000000,30.000000,160.000000,2.000000,128.000000,0.000000,0.000000,0.000000,1646479061.778696,0.000000
94.000000,37875.478014,41271.870288,31330.171982,47483.732996,-1080.773900,13565.072544,10385.156916,15785.427783,0.006000,0.980000,0.080000,192.000000,0.000000,0.000000,0.000000,0.000000,0.000000,0.000000,0.000000,0.000000,0.000000,1646479061.786698,0.000000
95.000000,37851.807517,41242.991834,31306.456781,47452.149982,-1134.574549,13527.611021,10345.974308,15748.815626,0.006000,0.980000,0.080000,192.000000,0.000000,0.000000,0.000000,0.000000,0.000000,0.000000,0.000000,0.000000,0.000000,1646479061.786714,0.000000
96.000000,37845.616084,41223.143485,31305.249787,47438.984804,-1195.594811,13503.225267,10333.837311,15705.654407,0.006000,0.980000,0.080000,192.000000,0.000000,0.000000,0.000000,0.000000,0.000000,0.000000,0.000000,0.000000,0.000000,1646479061.793673,0.000000
97.000000,37858.021302,41227.546779,31323.578217,47448.059612,-1203.574384,13527.275744,10373.735174,15836.255650,0.006000,0.980000,0.080000,192.000000,0.000000,0.000000,0.000000,0.000000,0.000000,0.000000,0.000000,0.000000,0.000000,1646479061.793688,0.000000
98.000000,37852.567476,41236.286311,31313.564636,47445.556217,-1144.990461,13542.094951,10373.981044,15844.861072,0.006000,0.980000,0.080000,192.000000,0.000000,0.000000,0.000000,0.000000,0.000000,0.000000,0.000000,0.000000,0.000000,1646479061.800274,0.000000
99.000000,37852.433366,41249.786764,31305.808581,47447.903150,-1090.541612,13548.085218,10373.332843,15802.437461,0.006000,0.980000,0.080000,192.000000,0.000000,0.000000,0.000000,0.000000,0.000000,0.000000,0.000000,0.000000,0.000000,1646479061.808384,0.000000
100.000000,37839.357595,41235.436944,31291.056429,47428.188911,-1131.378249,13525.331143,10350.489360,15778.610501,0.006000,0.980000,0.080000,192.000000,0.000000,0.000000,0.000000,0.000000,0.000000,0.000000,0.000000,0.000000,0.000000,1646479061.808401,0.000000
101.000000,37846.778375,41225.535122,31302.589929,47427.674821,-1177.825174,13523.230079,10349.684697,15810.372330,0.006000,0.980000,0.080000,192.000000,0.000000,0.000000,0.000000,0.000000,0.000000,0.000000,0.000000,0.000000,0.000000,1646479061.816186,0.000000
102.000000,37858.021302,41224.864569,31322.058299,47436.280243,-1179.590962,13537.021105,10358.558340,15826.376179,0.006000,0.980000,0.080000,192.000000,0.000000,0.000000,0.000000,0.000000,0.000000,0.000000,0.000000,0.000000,0.000000,1646479061.816202,0.000000
103.000000,37853.774471,41233.469991,31315.263369,47438.515417,-1111.708714,13555.170721,10368.527218,15811.199345,-0.004000,0.954000,0.084000,192.000000,255.000000,224.000000,29.000000,208.000000,2.000000,160.000000,0.000000,0.000000,0.000000,1646479061.823264,0.000000
104.000000,37840.139906,41226.764468,31296.443200,47424.098542,-1074.358949,13560.669251,10400.221992,15781.471524,-0.004000,0.954000,0.084000,192.000000,0.000000,0.000000,0.000000,0.000000,0.000000,0.000000,0.000000,0.000000,0.000000,1646479061.823279,0.000000
105.000000,37830.372194,41209.128941,31284.641479,47405.278373,-1114.055647,13536.395256,10367.946073,15786.053632,-0.004000,0.954000,0.084000,192.000000,0.000000,0.000000,0.000000,0.000000,0.000000,0.000000,0.000000,0.000000,0.000000,1646479061.830944,0.000000
106.000000,37841.123383,41212.839331,31299.997127,47413.459112,-1111.708714,13527.566317,10344.297927,15804.024435,-0.004000,0.954000,0.084000,192.000000,0.000000,0.000000,0.000000,0.000000,0.000000,0.000000,0.000000,0.000000,0.000000,1646479061.830960,0.000000
107.000000,37857.931895,41222.495284,31319.241979,47424.836150,-1074.694225,13539.211576,10380.574808,15820.944705,-0.004000,0.954000,0.084000,192.000000,0.000000,0.000000,0.000000,0.000000,0.000000,0.000000,0.000000,0.000000,0.000000,1646479061.838900,0.000000
108.000000,37860.077662,41236.196904,31316.224494,47426.914862,-996.552527,13557.137675,10395.550477,15811.668731,-0.004000,0.954000,0.084000,192.000000,0.000000,0.000000,0.000000,0.000000,0.000000,0.000000,0.000000,0.000000,0.000000,1646479061.838915,0.000000
109.000000,37850.064081,41238.253264,31300.511217,47423.316231,-950.373822,13555.461294,10389.247285,15792.043900,-0.004000,0.954000,0.084000,192.000000,0.000000,0.000000,0.000000,0.000000,0.000000,0.000000,0.000000,0.000000,0.000000,1646479061.846871,0.000000
110.000000,37837.167124,41217.913177,31287.860130,47402.998495,-1004.800320,13517.686846,10338.888805,15767.747553,-0.004000,0.954000,0.084000,192.000000,0.000000,0.000000,0.000000,0.000000,0.000000,0.000000,0.000000,0.000000,0.000000,1646479061.846886,0.000000
111.000000,37836.384813,41203.853930,31295.057392,47397.499966,-1054.667062,13502.621770,10340.721648,15753.800065,-0.004000,0.954000,0.084000,192.000000,0.000000,0.000000,0.000000,0.000000,0.000000,0.000000,0.000000,0.000000,0.000000,1646479061.853556,0.000000
112.000000,37855.920238,41216.795590,31317.833819,47416.051914,-1045.480495,13524.615887,10375.098631,15793.832039,-0.004000,0.954000,0.084000,192.000000,0.000000,0.000000,0.000000,0.000000,0.000000,0.000000,0.000000,0.000000,0.000000,1646479061.853572,0.000000
113.000000,37851.405186,41224.149313,31307.082630,47417.191853,-983.364997,13542.094951,10391.393053,15821.525850,-0.014000,0.972000,0.086000,192.000000,255.000000,144.000000,30.000000,96.000000,2.000000,176.000000,0.000000,0.000000,0.000000,1646479061.860560,0.000000
114.000000,37836.809496,41218.091991,31285.356734,47404.451359,-946.059936,13538.965707,10388.062643,15802.392757,-0.014000,0.972000,0.086000,192.000000,0.000000,0.000000,0.000000,0.000000,0.000000,0.000000,0.000000,0.000000,0.000000,1646479061.868485,0.000000
115.000000,37824.426630,41198.198938,31271.744522,47380.087957,-1003.123939,13502.152384,10351.271671,15774.050745,-0.014000,0.972000,0.086000,192.000000,0.000000,0.000000,0.000000,0.000000,0.000000,0.000000,0.000000,0.000000,0.000000,1646479061.868500,0.000000
116.000000,37835.378985,41198.847139,31290.855264,47385.027693,-1036.942129,13500.900686,10366.068526,15788.981711,-0.014000,0.972000,0.086000,192.000000,0.000000,0.000000,0.000000,0.000000,0.000000,0.000000,0.000000,0.000000,0.000000,1646479061.875475,0.000000
117.000000,37854.266209,41214.873340,31312.961139,47403.579641,-1016.356172,13520.413759,10385.648654,15808.628894,-0.014000,0.972000,0.086000,192.000000,0.000000,0.000000,0.000000,0.000000,0.000000,0.000000,0.000000,0.000000,0.000000,1646479061.875492,0.000000
118.000000,37861.865802,41230.430154,31315.039851,47412.989725,-943.109506,13541.513806,10388.196753,15806.036092,-0.014000,0.972000,0.086000,192.000000,0.000000,0.000000,0.000000,0.000000,0.000000,0.000000,0.000000,0.000000,0.000000,1646479061.882975,0.000000
119.000000,37849.237066,41228.664366,31297.136104,47404.764283,-908.643116,13538.921003,10376.149163,15780.353937,-0.014000,0.972000,0.086000,192.000000,0.000000,0.000000,0.000000,0.000000,0.000000,0.000000,0.000000,0.000000,0.000000,1646479061.882991,0.000000
120.000000,37834.529619,41207.407857,31283.188615,47383.865402,-971.652683,13505.929828,10348.656517,15763.321908,-0.014000,0.972000,0.086000,192.000000,0.000000,0.000000,0.000000,0.000000,0.000000,0.000000,0.000000,0.000000,0.000000,1646479061.890998,0.000000
121.000000,37846.040767,41206.804360,31299.728906,47389.229821,-1012.824597,13505.505145,10360.279424,15797.631836,-0.014000,0.972000,0.086000,192.000000,0.000000,0.000000,0.000000,0.000000,0.000000,0.000000,0.000000,0.000000,0.000000,1646479061.891014,0.000000
122.000000,37855.964941,41217.130866,31313.586988,47405.032504,-999.838233,13523.878279,10380.932436,15817.502536,-0.014000,0.972000,0.086000,192.000000,0.000000,0.000000,0.000000,0.000000,0.000000,0.000000,0.000000,0.000000,0.000000,1646479061.899173,0.000000
123.000000,37863.855107,41234.140543,31317.096212,47418.801179,-929.921976,13550.387448,10400.490212,15811.355807,-0.024000,0.980000,0.094000,192.000000,255.000000,64.000000,30.000000,160.000000,2.000000,240.000000,0.000000,0.000000,0.000000,1646479061.899190,0.000000
124.000000,37860.323532,41239.259093,31309.496618,47416.633060,-889.733540,13558.523483,10394.857573,15804.225600,-0.024000,0.980000,0.094000,192.000000,0.000000,0.000000,0.000000,0.000000,0.000000,0.000000,0.000000,0.000000,0.000000,1646479061.905798,0.000000
125.000000,37848.097127,41217.130866,31299.013650,47396.404731,-952.720756,13533.645992,10357.373697,15790.635740,-0.024000,0.980000,0.094000,192.000000,0.000000,0.000000,0.000000,0.000000,0.000000,0.000000,0.000000,0.000000,0.000000,1646479061.905814,0.000000
126.000000,37850.846392,41206.960822,31306.412078,47392.113196,-1002.945125,13515.272858,10331.199805,15780.510399,-0.024000,0.980000,0.094000,192.000000,0.000000,0.000000,0.000000,0.000000,0.000000,0.000000,0.000000,0.000000,0.000000,1646479061.913817,0.000000
127.000000,37873.444006,41226.920930,31333.703558,47416.901281,-968.322273,13545.045381,10373.712823,15797.765946,-0.024000,0.980000,0.094000,192.000000,0.000000,0.000000,0.000000,0.000000,0.000000,0.000000,0.000000,0.000000,0.000000,1646479061.913833,0.000000
128.000000,37873.421654,41238.923817,31327.378014,47425.506702,-906.117368,13566.033669,10394.187021,15802.660978,-0.024000,0.980000,0.094000,192.000000,0.000000,0.000000,0.000000,0.000000,0.000000,0.000000,0.000000,0.000000,0.000000,1646479061.920862,0.000000
129.000000,37867.900773,41240.868418,31317.520895,47420.008173,-873.260304,13566.793629,10397.875058,15810.551144,-0.024000,0.980000,0.094000,192.000000,0.000000,0.000000,0.000000,0.000000,0.000000,0.000000,0.000000,0.000000,0.000000,1646479061.928835,0.000000
130.000000,37854.355616,41215.789761,31307.999052,47398.528147,-943.176561,13538.071637,10374.450430,15798.011815,-0.024000,0.980000,0.094000,192.000000,0.000000,0.000000,0.000000,0.000000,0.000000,0.000000,0.000000,0.000000,0.000000,1646479061.928850,0.000000
131.000000,37851.628703,41200.389409,31308.379031,47389.296876,-1002.498091,13520.212593,10356.569035,15796.737766,-0.024000,0.980000,0.094000,192.000000,0.000000,0.000000,0.000000,0.000000,0.000000,0.000000,0.000000,0.000000,0.000000,1646479061.935327,0.000000
132.000000,37862.692817,41212.459351,31319.912531,47402.394998,-981.867430,13537.781064,10388.755547,15804.784394,-0.024000,0.980000,0.094000,192.000000,0.000000,0.000000,0.000000,0.000000,0.000000,0.000000,0.000000,0.000000,0.000000,1646479061.935345,0.000000
133.000000,37868.861898,41230.988947,31322.885313,47415.671935,-921.383610,13557.607062,10411.733140,15801.163411,-0.028000,0.992000,0.106000,192.000000,255.000000,32.000000,31.000000,0.000000,3.000000,80.000000,0.000000,0.000000,0.000000,1646479061.943483,0.000000
134.000000,37856.546087,41225.177494,31305.026270,47402.864385,-903.435159,13554.678983,10397.830355,15794.502591,-0.028000,0.992000,0.106000,192.000000,0.000000,0.000000,0.000000,0.000000,0.000000,0.000000,0.000000,0.000000,0.000000,1646479061.943500,0.000000
135.000000,37842.777412,41203.898633,31293.492769,47386.525260,-980.414567,13529.265050,10383.234666,15795.575475,-0.028000,0.992000,0.106000,192.000000,0.000000,0.000000,0.000000,0.000000,0.000000,0.000000,0.000000,0.000000,0.000000,1646479061.951446,0.000000
136.000000,37856.166107,41207.743133,31310.971834,47402.193833,-1026.839140,13530.315582,10380.686567,15803.130365,-0.028000,0.992000,0.106000,192.000000,0.000000,0.000000,0.000000,0.000000,0.000000,0.000000,0.000000,0.000000,0.000000,1646479061.951462,0.000000
137.000000,37872.192308,41224.194017,31328.897933,47425.372592,-993.803262,13555.617756,10395.215201,15813.501574,-0.028000,0.992000,0.106000,192.000000,0.000000,0.000000,0.000000,0.000000,0.000000,0.000000,0.000000,0.000000,0.000000,1646479061.958442,0.000000
138.000000,37869.308933,41230.988947,31323.309997,47429.708830,-940.270834,13569.900521,10405.742872,15802.415109,-0.028000,0.992000,0.106000,192.000000,0.000000,0.000000,0.000000,0.000000,0.000000,0.000000,0.000000,0.000000,0.000000,1646479061.958460,0.000000
139.000000,37850.041729,41219.611909,31299.170113,47411.156882,-927.306822,13562.725611,10383.636997,15782.767926,-0.028000,0.992000,0.106000,192.000000,0.000000,0.000000,0.000000,0.000000,0.000000,0.000000,0.000000,0.000000,0.000000,1646479061.966062,0.000000
140.000000,37833.412031,41188.475929,31284.328554,47384.938286,-1004.934431,13529.488567,10367.096706,15761.891396,-0.028000,0.992000,0.106000,192.000000,0.000000,0.000000,0.000000,0.000000,0.000000,0.000000,0.000000,0.000000,0.000000,1646479061.966078,0.000000
141.000000,37857.708378,41198.020124,31308.401383,47399.243402,-1043.670004,13532.886032,10380.284236,15787.484144,-0.028000,0.992000,0.106000,192.000000,0.000000,0.000000,0.000000,0.000000,0.000000,0.000000,0.000000,0.000000,0.000000,1646479061.974125,0.000000
142.000000,37872.192308,41220.841255,31323.891142,47425.998441,-1003.056884,13565.988966,10402.725387,15806.527830,-0.028000,0.992000,0.106000,192.000000,0.000000,0.000000,0.000000,0.000000,0.000000,0.000000,0.000000,0.000000,0.000000,1646479061.974141,0.000000
143.000000,37865.419729,41229.938415,31319.264331,47438.269548,-946.730488,13592.989873,10425.323001,15819.245973,-0.028000,0.992000,0.106000,192.000000,0.000000,0.000000,0.000000,0.000000,0.000000,0.000000,0.000000,0.000000,0.000000,1646479061.981169,0.000000
144.000000,37848.186534,41217.466142,31302.388764,47424.433818,-940.896683,13580.450544,10392.421233,15790.389870,-0.020000,0.984000,0.114000,192.000000,255.000000,96.000000,30.000000,192.000000,3.000000,144.000000,0.000000,0.000000,0.000000,1646479061.981185,0.000000
145.000000,37847.225409,41205.038572,31299.997127,47412.252118,-1014.053942,13550.141579,10361.508770,15774.698946,-0.020000,0.984000,0.114000,192.000000,0.000000,0.000000,0.000000,0.000000,0.000000,0.000000,0.000000,0.000000,0.000000,1646479061.988303,0.000000
146.000000,37851.896924,41201.618755,31309.764839,47415.537824,-1063.294835,13541.670268,10372.774049,15786.925350,-0.020000,0.984000,0.114000,192.000000,0.000000,0.000000,0.000000,0.000000,0.000000,0.000000,0.000000,0.000000,0.000000,1646479061.995662,0.000000
147.000000,37868.660732,41220.930662,31327.512124,47438.224845,-1014.523329,13570.571073,10401.451338,15814.038016,-0.020000,0.984000,0.114000,192.000000,0.000000,0.000000,0.000000,0.000000,0.000000,0.000000,0.000000,0.000000,0.000000,1646479061.995678,0.000000
148.000000,37866.157337,41227.077392,31319.912531,47437.733106,-967.204686,13582.126925,10412.314285,15809.634722,-0.020000,0.984000,0.114000,192.000000,0.000000,0.000000,0.000000,0.000000,0.000000,0.000000,0.000000,0.000000,0.000000,1646479062.003434,0.000000
149.000000,37851.584000,41217.376735,31304.914511,47420.544615,-968.031701,13571.263977,10399.663198,15789.406394,-0.020000,0.984000,0.114000,192.000000,0.000000,0.000000,0.000000,0.000000,0.000000,0.000000,0.000000,0.000000,0.000000,1646479062.003446,0.000000
150.000000,37835.893075,41190.599345,31290.721153,47397.097635,-1055.270559,13533.891861,10364.503904,15773.424896,-0.020000,0.984000,0.114000,192.000000,0.000000,0.000000,0.000000,0.000000,0.000000,0.000000,0.000000,0.000000,0.000000,1646479062.011797,0.000000
151.000000,37849.237066,41193.438017,31307.440258,47406.910051,-1101.091635,13533.534233,10380.999491,15803.935028,-0.020000,0.984000,0.114000,192.000000,0.000000,0.000000,0.000000,0.000000,0.000000,0.000000,0.000000,0.000000,0.000000,1646479062.011812,0.000000
152.000000,37868.660732,41214.940395,31324.338177,47429.395906,-1050.017899,13563.351460,10396.913933,15809.590019,-0.020000,0.984000,0.114000,192.000000,0.000000,0.000000,0.000000,0.000000,0.000000,0.000000,0.000000,0.000000,0.000000,1646479062.018347,0.000000
153.000000,37863.363369,41220.930662,31312.581159,47427.004269,-1000.754654,13570.861646,10393.963503,15777.068231,-0.020000,0.984000,0.114000,192.000000,0.000000,0.000000,0.000000,0.000000,0.000000,0.000000,0.000000,0.000000,0.000000,1646479062.018363,0.000000
154.000000,37847.001892,41211.408819,31293.202197,47412.542690,-994.697332,13566.257187,10384.307550,15798.838830,-0.016000,0.980000,0.118000,192.000000,255.000000,128.000000,30.000000,160.000000,3.000000,176.000000,0.000000,0.000000,0.000000,1646479062.026275,0.000000
155.000000,37840.430479,41192.678057,31290.229415,47399.422216,-1064.993568,13543.793684,10363.542779,15789.473449,-0.016000,0.980000,0.118000,192.000000,0.000000,0.000000,0.000000,0.000000,0.000000,0.000000,0.000000,0.000000,0.000000,1646479062.026290,0.000000
156.000000,37851.919276,41194.443845,31307.797886,47406.395961,-1103.147996,13539.993887,10358.111305,15791.216885,-0.016000,0.980000,0.118000,192.000000,0.000000,0.000000,0.000000,0.000000,0.000000,0.000000,0.000000,0.000000,0.000000,1646479062.034391,0.000000
157.000000,37856.255514,41202.848101,31312.357642,47414.397885,-1056.477553,13559.261091,10382.228837,15796.715414,-0.016000,0.980000,0.118000,192.000000,0.000000,0.000000,0.000000,0.000000,0.000000,0.000000,0.000000,0.000000,0.000000,1646479062.034406,0.000000
158.000000,37859.697683,41215.722706,31311.776496,47423.092714,-1000.844061,13573.923835,10396.310436,15795.173144,-0.016000,0.980000,0.118000,192.000000,0.000000,0.000000,0.000000,0.000000,0.000000,0.000000,0.000000,0.000000,0.000000,1646479062.041408,0.000000
159.000000,37852.098090,41213.666345,31300.891197,47418.242385,-992.842137,13569.431134,10383.257018,15778.856370,-0.016000,0.980000,0.118000,192.000000,0.000000,0.000000,0.000000,0.000000,0.000000,0.000000,0.000000,0.000000,0.000000,1646479062.041425,0.000000
160.000000,37846.420747,41199.316525,31301.449990,47408.944059,-1054.152972,13552.264995,10365.241511,15788.914655,-0.016000,0.980000,0.118000,192.000000,0.000000,0.000000,0.000000,0.000000,0.000000,0.000000,0.000000,0.000000,0.000000,1646479062.048038,0.000000
161.000000,37851.516944,41195.248508,31312.581159,47413.056780,-1092.217993,13550.499207,10373.802230,15806.572533,-0.016000,0.980000,0.118000,192.000000,0.000000,0.000000,0.000000,0.000000,0.000000,0.000000,0.000000,0.000000,0.000000,1646479062.055963,0.000000
