%OpenBCI Raw EEG Data
%Number of channels = 8
%Sample Rate = 256 Hz
%Board = OpenBCI_GUI$BoardCytonSerial
%Channels = Fp1, Fp2, F3, F4, Fz, Pz, O1, O2
%Data recorded at AIMS Lab (http://aimsl.uiu.ac.bd) by Rana Depto (mail@ranadepto.com)
%Brainwaves were obtained via the Ultracortex Mark IV Headset using the OpenBCI Cyton Board
%Recording Application = ConcentrateToday (https://concentrate.today)
%Data type = RAW data with noise
%Day No = 10
%Subject ID = 9
%Session ID = 7
%Record starting timestamp (UTC+6) = 2022-03-31T12:07:49.825320
%Record ending timestamp (UTC+6)   = 2022-03-31T12:08:40.699031
%Recorded durations = ~50 seconds
Sample Index, EXG Channel 0, EXG Channel 1, EXG Channel 2, EXG Channel 3, EXG Channel 4, EXG Channel 5, EXG Channel 6, EXG Channel 7, Accel Channel 0, Accel Channel 1, Accel Channel 2, Other, Other, Other, Other, Other, Other, Other, Analog Channel 0, Analog Channel 1, Analog Channel 2, Timestamp, Timestamp (Formatted)
229.000000,54778.291855,52769.786450,43270.809146,66632.807747,-4355.863256,50560.741193,11369.639500,4481.815336,0.092000,1.000000,-0.084000,192.000000,0.000000,0.000000,0.000000,0.000000,0.000000,0.000000,0.000000,0.000000,0.000000,1648706869.824838,0.000000
230.000000,54786.159669,52763.840886,43276.754710,66649.951535,-4348.509532,50581.237743,11309.401549,4514.605345,0.092000,1.000000,-0.084000,192.000000,0.000000,0.000000,0.000000,0.000000,0.000000,0.000000,0.000000,0.000000,0.000000,1648706869.824855,0.000000
231.000000,54770.602855,52753.983766,43270.809146,66633.612410,-4359.774811,50574.018130,11244.335621,4506.536365,0.092000,1.000000,-0.084000,192.000000,0.000000,0.000000,0.000000,0.000000,0.000000,0.000000,0.000000,0.000000,0.000000,1648706869.832574,0.000000
232.000000,54780.236456,52760.689290,43269.959780,66628.784433,-4365.720375,50571.537086,11189.193867,4505.575240,0.092000,1.000000,-0.084000,192.000000,0.000000,0.000000,0.000000,0.000000,0.000000,0.000000,0.000000,0.000000,0.000000,1648706869.832579,0.000000
233.000000,54828.739742,52798.508441,43270.742091,66654.086608,-4351.839942,50590.983104,11133.090989,4539.259319,0.086000,1.002000,-0.054000,192.000000,2.000000,176.000000,31.000000,80.000000,254.000000,80.000000,0.000000,0.000000,0.000000,1648706869.840601,0.000000
234.000000,54829.007963,52801.548279,43261.153193,66653.773684,-4350.007099,50607.009304,11096.635294,4542.433267,0.086000,1.002000,-0.054000,192.000000,0.000000,0.000000,0.000000,0.000000,0.000000,0.000000,0.000000,0.000000,0.000000,1648706869.840607,0.000000
235.000000,54807.013846,52791.288828,43270.496222,66636.540489,-4348.531884,50621.314421,11062.325366,4548.736459,0.086000,1.002000,-0.054000,192.000000,0.000000,0.000000,0.000000,0.000000,0.000000,0.000000,0.000000,0.000000,0.000000,1648706869.847206,0.000000
236.000000,54804.555154,52778.816554,43286.902402,66631.399588,-4353.561026,50626.544729,10986.977635,4552.245683,0.086000,1.002000,-0.054000,192.000000,0.000000,0.000000,0.000000,0.000000,0.000000,0.000000,0.000000,0.000000,0.000000,1648706869.847211,0.000000
237.000000,54817.340352,52773.563894,43292.736208,66634.953515,-4356.265587,50635.284261,10917.977800,4568.338939,0.086000,1.002000,-0.054000,192.000000,0.000000,0.000000,0.000000,0.000000,0.000000,0.000000,0.000000,0.000000,0.000000,1648706869.855192,0.000000
238.000000,54833.344201,52774.904999,43291.752731,66635.557012,-4351.795238,50633.831398,10874.146029,4548.267072,0.086000,1.002000,-0.054000,192.000000,0.000000,0.000000,0.000000,0.000000,0.000000,0.000000,0.000000,0.000000,0.000000,1648706869.855197,0.000000
239.000000,54840.876739,52786.617313,43277.067635,66646.934050,-4357.271416,50620.643869,10821.731189,4516.438188,0.086000,1.002000,-0.054000,192.000000,0.000000,0.000000,0.000000,0.000000,0.000000,0.000000,0.000000,0.000000,0.000000,1648706869.863215,0.000000
240.000000,54843.827169,52782.258723,43263.835402,66655.785341,-4365.340396,50631.484465,10765.225979,4593.976390,0.086000,1.002000,-0.054000,192.000000,0.000000,0.000000,0.000000,0.000000,0.000000,0.000000,0.000000,0.000000,0.000000,1648706869.863219,0.000000
241.000000,54822.883585,52772.289845,43269.289228,66649.683315,-4359.528942,50639.642851,10714.867498,4643.664318,0.086000,1.002000,-0.054000,192.000000,0.000000,0.000000,0.000000,0.000000,0.000000,0.000000,0.000000,0.000000,0.000000,1648706869.870395,0.000000
242.000000,54823.196509,52764.444383,43259.633274,66660.859187,-4349.247140,50634.881930,10648.795742,4674.397966,0.086000,1.002000,-0.054000,192.000000,0.000000,0.000000,0.000000,0.000000,0.000000,0.000000,0.000000,0.000000,0.000000,1648706869.876805,0.000000
243.000000,54825.610498,52755.101354,43270.630332,66666.111847,-4342.698078,50636.513607,10610.864831,4711.770083,0.086000,1.002000,-0.054000,192.000000,0.000000,0.000000,0.000000,0.000000,0.000000,0.000000,0.000000,0.000000,0.000000,1648706869.876810,0.000000
244.000000,54831.109027,52730.894414,43284.041379,66669.241091,-4333.757381,50643.263834,10570.162305,4707.746769,0.100000,0.990000,-0.058000,192.000000,3.000000,32.000000,30.000000,240.000000,254.000000,48.000000,0.000000,0.000000,0.000000,1648706869.884845,0.000000
245.000000,54809.472538,52701.904202,43251.296073,66643.782454,-4349.694174,50635.843055,10531.203214,4717.246260,0.100000,0.990000,-0.058000,192.000000,0.000000,0.000000,0.000000,0.000000,0.000000,0.000000,0.000000,0.000000,0.000000,1648706869.884850,0.000000
246.000000,54805.046893,52699.512565,43271.323236,66651.694972,-4341.491084,50644.359069,10510.863127,4757.926435,0.100000,0.990000,-0.058000,192.000000,0.000000,0.000000,0.000000,0.000000,0.000000,0.000000,0.000000,0.000000,0.000000,1648706869.892842,0.000000
247.000000,54803.594029,52707.738007,43287.930583,66686.049603,-4324.973145,50651.489276,10459.230597,4779.987607,0.100000,0.990000,-0.058000,192.000000,0.000000,0.000000,0.000000,0.000000,0.000000,0.000000,0.000000,0.000000,0.000000,1648706869.892846,0.000000
248.000000,54786.450241,52714.376475,43282.543812,66663.876672,-4333.802084,50640.000479,10422.305515,4778.758261,0.100000,0.990000,-0.058000,192.000000,0.000000,0.000000,0.000000,0.000000,0.000000,0.000000,0.000000,0.000000,0.000000,1648706869.900346,0.000000
249.000000,54802.521146,52746.898263,43287.237678,66661.149759,-4326.828340,50655.333776,10412.984838,4758.664043,0.100000,0.990000,-0.058000,192.000000,0.000000,0.000000,0.000000,0.000000,0.000000,0.000000,0.000000,0.000000,0.000000,1648706869.900352,0.000000
250.000000,54802.297628,52723.384228,43275.525364,66661.909719,-4333.600918,50646.214264,10369.398936,4791.811680,0.100000,0.990000,-0.058000,192.000000,0.000000,0.000000,0.000000,0.000000,0.000000,0.000000,0.000000,0.000000,0.000000,1648706869.907492,0.000000
251.000000,54799.593067,52707.268620,43294.949030,66671.677431,-4322.268584,50659.401793,10337.726514,4838.169198,0.100000,0.990000,-0.058000,192.000000,0.000000,0.000000,0.000000,0.000000,0.000000,0.000000,0.000000,0.000000,0.000000,1648706869.907496,0.000000
252.000000,54790.004169,52708.497966,43284.980152,66655.405361,-4333.131532,50644.739049,10271.900627,4828.490892,0.100000,0.990000,-0.058000,192.000000,0.000000,0.000000,0.000000,0.000000,0.000000,0.000000,0.000000,0.000000,0.000000,1648706869.915551,0.000000
253.000000,54785.645579,52712.878908,43284.510766,66648.051637,-4336.864273,50644.224959,10284.037624,4827.485064,0.100000,0.990000,-0.058000,192.000000,0.000000,0.000000,0.000000,0.000000,0.000000,0.000000,0.000000,0.000000,0.000000,1648706869.915555,0.000000
254.000000,54798.944867,52714.220013,43285.807167,66663.831969,-4334.249119,50645.342546,10280.640159,4849.747401,0.096000,0.986000,-0.046000,192.000000,3.000000,0.000000,30.000000,208.000000,254.000000,144.000000,0.000000,0.000000,0.000000,1648706869.923636,0.000000
255.000000,54818.793216,52713.840033,43274.519536,66652.142006,-4345.782619,50641.341584,10238.820045,4880.034015,0.096000,0.986000,-0.046000,192.000000,0.000000,0.000000,0.000000,0.000000,0.000000,0.000000,0.000000,0.000000,0.000000,1648706869.923640,0.000000
0.000000,54796.866154,52682.145260,43258.426280,66639.043884,-4362.568779,50632.087962,10180.906675,4894.048559,0.096000,0.986000,-0.046000,192.000000,0.000000,0.000000,0.000000,0.000000,0.000000,0.000000,0.000000,0.000000,0.000000,1648706869.929782,0.000000
1.000000,54768.524142,52661.983986,43268.596324,66642.351942,-4354.320986,50634.636061,10162.466486,4919.037809,0.096000,0.986000,-0.046000,192.000000,0.000000,0.000000,0.000000,0.000000,0.000000,0.000000,0.000000,0.000000,0.000000,1648706869.937164,0.000000
2.000000,54757.951767,52669.069489,43286.701237,66642.821329,-4352.599901,50636.915938,10145.769733,4955.694670,0.096000,0.986000,-0.046000,192.000000,0.000000,0.000000,0.000000,0.000000,0.000000,0.000000,0.000000,0.000000,0.000000,1648706869.937168,0.000000
3.000000,54784.125660,52694.751644,43286.030684,66656.478245,-4342.586320,50649.008232,10178.202114,4978.806374,0.096000,0.986000,-0.046000,192.000000,0.000000,0.000000,0.000000,0.000000,0.000000,0.000000,0.000000,0.000000,0.000000,1648706869.945157,0.000000
4.000000,54791.926419,52691.309475,43277.224097,66646.598774,-4348.218959,50630.657450,10153.637547,4980.929790,0.096000,0.986000,-0.046000,192.000000,0.000000,0.000000,0.000000,0.000000,0.000000,0.000000,0.000000,0.000000,0.000000,1648706869.945160,0.000000
5.000000,54793.848669,52671.259960,43268.909248,66639.245050,-4357.696099,50613.536014,10100.038064,4987.322389,0.096000,0.986000,-0.046000,192.000000,0.000000,0.000000,0.000000,0.000000,0.000000,0.000000,0.000000,0.000000,0.000000,1648706869.952356,0.000000
6.000000,54791.009997,52666.811963,43283.974324,66652.209062,-4345.469695,50624.935403,10078.468630,5034.819846,0.096000,0.986000,-0.046000,192.000000,0.000000,0.000000,0.000000,0.000000,0.000000,0.000000,0.000000,0.000000,0.000000,1648706869.952359,0.000000
7.000000,54771.765145,52658.452411,43287.125920,66649.683315,-4341.848712,50620.845034,10042.728191,5062.044270,0.096000,0.986000,-0.046000,192.000000,0.000000,0.000000,0.000000,0.000000,0.000000,0.000000,0.000000,0.000000,0.000000,1648706869.959781,0.000000
8.000000,54783.656273,52684.022806,43282.901440,66645.727056,-4348.621291,50617.626383,10045.388048,5088.419329,0.094000,0.990000,-0.050000,192.000000,2.000000,240.000000,30.000000,240.000000,254.000000,112.000000,0.000000,0.000000,0.000000,1648706869.959785,0.000000
9.000000,54807.103253,52686.660312,43278.364036,66652.477283,-4342.094581,50642.928558,10055.938072,5168.170353,0.094000,0.990000,-0.050000,192.000000,0.000000,0.000000,0.000000,0.000000,0.000000,0.000000,0.000000,0.000000,0.000000,1648706869.967793,0.000000
10.000000,54795.681512,52688.224934,43279.056940,66675.164303,-4332.483331,50646.907168,10033.362810,5201.407397,0.094000,0.990000,-0.050000,192.000000,0.000000,0.000000,0.000000,0.000000,0.000000,0.000000,0.000000,0.000000,0.000000,1648706869.967797,0.000000
11.000000,54786.673759,52705.592240,43282.454405,66670.023402,-4333.712677,50639.978127,10017.716589,5218.417074,0.094000,0.990000,-0.050000,192.000000,0.000000,0.000000,0.000000,0.000000,0.000000,0.000000,0.000000,0.000000,0.000000,1648706869.975823,0.000000
12.000000,54769.731137,52665.090879,43260.035605,66634.819404,-4358.232541,50614.832415,9965.882893,5231.269328,0.094000,0.990000,-0.050000,192.000000,0.000000,0.000000,0.000000,0.000000,0.000000,0.000000,0.000000,0.000000,0.000000,1648706869.975827,0.000000
13.000000,54757.124753,52628.724590,43246.266931,66641.927259,-4368.335529,50615.391209,9977.304635,5249.731868,0.094000,0.990000,-0.050000,192.000000,0.000000,0.000000,0.000000,0.000000,0.000000,0.000000,0.000000,0.000000,0.000000,1648706869.982488,0.000000
14.000000,54777.598951,52632.971422,43264.394196,66652.767855,-4358.768983,50625.404790,9967.291053,5284.645293,0.094000,0.990000,-0.050000,192.000000,0.000000,0.000000,0.000000,0.000000,0.000000,0.000000,0.000000,0.000000,0.000000,1648706869.982492,0.000000
15.000000,54796.664989,52655.077297,43277.693484,66665.933033,-4351.884645,50640.022831,9963.357146,5318.977573,0.094000,0.990000,-0.050000,192.000000,0.000000,0.000000,0.000000,0.000000,0.000000,0.000000,0.000000,0.000000,0.000000,1648706869.989435,0.000000
16.000000,54808.287896,52655.881960,43283.862565,66674.270233,-4345.380288,50640.983956,9911.657561,5370.006605,0.094000,0.990000,-0.050000,192.000000,0.000000,0.000000,0.000000,0.000000,0.000000,0.000000,0.000000,0.000000,0.000000,1648706869.989438,0.000000
17.000000,54822.034219,52648.818809,43298.815882,66661.350925,-4335.389058,50649.075287,9938.189082,5381.875382,0.094000,0.990000,-0.050000,192.000000,0.000000,0.000000,0.000000,0.000000,0.000000,0.000000,0.000000,0.000000,0.000000,1648706869.997441,0.000000
18.000000,54785.086785,52645.823675,43306.482530,66671.342155,-4325.219014,50660.295863,9958.328004,5418.822815,0.076000,0.996000,-0.016000,192.000000,2.000000,96.000000,31.000000,32.000000,255.000000,128.000000,0.000000,0.000000,0.000000,1648706870.005471,0.000000
19.000000,54758.085878,52651.478666,43288.847004,66679.612300,-4335.500817,50635.999517,9899.207640,5434.357278,0.076000,0.996000,-0.016000,192.000000,0.000000,0.000000,0.000000,0.000000,0.000000,0.000000,0.000000,0.000000,0.000000,1648706870.005476,0.000000
20.000000,54792.999303,52680.245361,43300.559318,66691.883408,-4329.465846,50649.254101,9894.692587,5463.749822,0.076000,0.996000,-0.016000,192.000000,0.000000,0.000000,0.000000,0.000000,0.000000,0.000000,0.000000,0.000000,0.000000,1648706870.012012,0.000000
21.000000,54776.369605,52667.348405,43313.746847,66672.347983,-4330.784599,50650.125819,9882.242666,5478.747842,0.076000,0.996000,-0.016000,192.000000,0.000000,0.000000,0.000000,0.000000,0.000000,0.000000,0.000000,0.000000,0.000000,1648706870.012016,0.000000
22.000000,54750.575692,52645.980137,43313.322164,66672.459742,-4335.389058,50653.277415,9917.625477,5494.751691,0.076000,0.996000,-0.016000,192.000000,0.000000,0.000000,0.000000,0.000000,0.000000,0.000000,0.000000,0.000000,0.000000,1648706870.020046,0.000000
23.000000,54782.315169,52643.767314,43308.538891,66675.499579,-4330.896357,50659.312386,9898.715901,5502.843023,0.076000,0.996000,-0.016000,192.000000,0.000000,0.000000,0.000000,0.000000,0.000000,0.000000,0.000000,0.000000,0.000000,1648706870.020051,0.000000
24.000000,54823.956469,52655.703146,43303.241527,66679.232321,-4327.856520,50667.068442,9877.749965,5509.615601,0.076000,0.996000,-0.016000,192.000000,0.000000,0.000000,0.000000,0.000000,0.000000,0.000000,0.000000,0.000000,0.000000,1648706870.028049,0.000000
25.000000,54821.207204,52664.040347,43295.686638,66664.837797,-4329.689363,50673.259875,9873.391375,5581.319997,0.076000,0.996000,-0.016000,192.000000,0.000000,0.000000,0.000000,0.000000,0.000000,0.000000,0.000000,0.000000,0.000000,1648706870.028068,0.000000
26.000000,54804.264582,52667.482515,43304.247356,66667.341193,-4335.076134,50685.843907,9854.727668,5595.625114,0.076000,0.996000,-0.016000,192.000000,0.000000,0.000000,0.000000,0.000000,0.000000,0.000000,0.000000,0.000000,0.000000,1648706870.035280,0.000000
27.000000,54843.670707,52674.813887,43288.355266,66674.627861,-4339.434724,50688.146137,9846.412819,5590.595971,0.076000,0.996000,-0.016000,192.000000,0.000000,0.000000,0.000000,0.000000,0.000000,0.000000,0.000000,0.000000,0.000000,1648706870.035284,0.000000
28.000000,54864.502533,52658.228893,43271.949085,66675.030193,-4351.817590,50679.361901,9838.545005,5588.360797,0.074000,0.976000,-0.014000,192.000000,2.000000,80.000000,30.000000,128.000000,255.000000,144.000000,0.000000,0.000000,0.000000,1648706870.042636,0.000000
29.000000,54763.450296,52598.661494,43291.059827,66664.033134,-4352.555198,50664.877971,9816.327371,5571.529933,0.074000,0.976000,-0.014000,192.000000,0.000000,0.000000,0.000000,0.000000,0.000000,0.000000,0.000000,0.000000,0.000000,1648706870.042639,0.000000
30.000000,54737.432866,52583.350549,43312.517501,66677.243015,-4331.924538,50669.750651,9798.490679,5594.216954,0.074000,0.976000,-0.014000,192.000000,0.000000,0.000000,0.000000,0.000000,0.000000,0.000000,0.000000,0.000000,0.000000,1648706870.050638,0.000000
31.000000,54746.462971,52590.972494,43291.842138,66686.742507,-4338.339488,50657.859523,9783.336196,5591.154765,0.074000,0.976000,-0.014000,192.000000,0.000000,0.000000,0.000000,0.000000,0.000000,0.000000,0.000000,0.000000,0.000000,1648706870.050642,0.000000
32.000000,54771.228703,52596.158099,43282.230888,66681.489847,-4343.279224,50645.923692,9772.942635,5577.251980,0.074000,0.976000,-0.014000,192.000000,0.000000,0.000000,0.000000,0.000000,0.000000,0.000000,0.000000,0.000000,0.000000,1648706870.057660,0.000000
33.000000,54773.083898,52599.086177,43303.353286,66665.575405,-4331.164578,50661.704023,9777.211818,5628.526882,0.074000,0.976000,-0.014000,192.000000,0.000000,0.000000,0.000000,0.000000,0.000000,0.000000,0.000000,0.000000,0.000000,1648706870.064920,0.000000
34.000000,54764.590235,52605.702294,43313.031592,66654.399533,-4335.836093,50643.465000,9677.388928,5668.357690,0.074000,0.976000,-0.014000,192.000000,0.000000,0.000000,0.000000,0.000000,0.000000,0.000000,0.000000,0.000000,0.000000,1648706870.064923,0.000000
35.000000,54725.497034,52576.399157,43285.963629,66656.813521,-4350.632948,50642.637985,9756.737620,5645.134228,0.074000,0.976000,-0.014000,192.000000,0.000000,0.000000,0.000000,0.000000,0.000000,0.000000,0.000000,0.000000,0.000000,1648706870.072395,0.000000
36.000000,54728.402761,52564.038642,43289.294039,66668.950518,-4343.636852,50653.970320,9796.970760,5652.219731,0.074000,0.976000,-0.014000,192.000000,0.000000,0.000000,0.000000,0.000000,0.000000,0.000000,0.000000,0.000000,0.000000,1648706870.072399,0.000000
37.000000,54771.005186,52591.911267,43311.936356,66674.203178,-4326.828340,50661.346395,9761.140914,5668.804725,0.074000,0.976000,-0.014000,192.000000,0.000000,0.000000,0.000000,0.000000,0.000000,0.000000,0.000000,0.000000,0.000000,1648706870.080340,0.000000
38.000000,54788.886582,52586.569200,43300.604022,66659.674544,-4334.629099,50648.203569,9725.311068,5648.017603,0.078000,0.984000,-0.018000,192.000000,2.000000,112.000000,30.000000,192.000000,255.000000,112.000000,0.000000,0.000000,0.000000,1648706870.080344,0.000000
39.000000,54786.092613,52577.807317,43270.607981,66651.382047,-4344.776791,50647.577721,9706.446195,5664.244969,0.078000,0.984000,-0.018000,192.000000,0.000000,0.000000,0.000000,0.000000,0.000000,0.000000,0.000000,0.000000,0.000000,1648706870.088123,0.000000
40.000000,54779.297683,52578.544924,43294.501995,66667.140027,-4341.781657,50658.127744,9728.127388,5639.434533,0.078000,0.984000,-0.018000,192.000000,0.000000,0.000000,0.000000,0.000000,0.000000,0.000000,0.000000,0.000000,0.000000,1648706870.088129,0.000000
41.000000,54775.430831,52581.718872,43308.270670,66657.931108,-4332.192759,50663.939198,9720.796015,5652.443248,0.078000,0.984000,-0.018000,192.000000,0.000000,0.000000,0.000000,0.000000,0.000000,0.000000,0.000000,0.000000,0.000000,1648706870.095619,0.000000
42.000000,54760.052831,52578.477869,43301.095760,66665.195425,-4328.594128,50661.368747,9706.356788,5654.589016,0.078000,0.984000,-0.018000,192.000000,0.000000,0.000000,0.000000,0.000000,0.000000,0.000000,0.000000,0.000000,0.000000,1648706870.095623,0.000000
43.000000,54767.831238,52555.410869,43296.871280,66681.221626,-4326.269546,50659.133572,9691.895210,5656.153638,0.078000,0.984000,-0.018000,192.000000,0.000000,0.000000,0.000000,0.000000,0.000000,0.000000,0.000000,0.000000,0.000000,1648706870.102782,0.000000
44.000000,54765.998395,52540.502255,43304.225004,66666.849454,-4317.887642,50657.121915,9676.316044,5647.190588,0.078000,0.984000,-0.018000,192.000000,0.000000,0.000000,0.000000,0.000000,0.000000,0.000000,0.000000,0.000000,0.000000,1648706870.102785,0.000000
45.000000,54759.561093,52546.045488,43318.865397,66662.110884,-4309.841014,50664.162715,9671.845695,5652.934987,0.078000,0.984000,-0.018000,192.000000,0.000000,0.000000,0.000000,0.000000,0.000000,0.000000,0.000000,0.000000,0.000000,1648706870.110264,0.000000
46.000000,54770.021709,52561.825819,43311.601080,66673.242053,-4310.109235,50666.464945,9674.259683,5662.479182,0.078000,0.984000,-0.018000,192.000000,0.000000,0.000000,0.000000,0.000000,0.000000,0.000000,0.000000,0.000000,0.000000,1648706870.110267,0.000000
47.000000,54779.521201,52563.949235,43289.986943,66675.186655,-4322.983840,50652.025718,9647.705811,5653.382022,0.078000,0.984000,-0.018000,192.000000,0.000000,0.000000,0.000000,0.000000,0.000000,0.000000,0.000000,0.000000,0.000000,1648706870.117286,0.000000
48.000000,54792.641675,52578.433165,43302.995658,66679.813466,-4310.869194,50665.660282,9637.714581,5665.764888,0.096000,0.998000,-0.014000,192.000000,3.000000,0.000000,31.000000,48.000000,255.000000,144.000000,0.000000,0.000000,0.000000,1648706870.125240,0.000000
49.000000,54814.434625,52566.564389,43307.756580,66671.297451,-4308.768130,50675.048015,9642.743724,5681.679330,0.096000,0.998000,-0.014000,192.000000,0.000000,0.000000,0.000000,0.000000,0.000000,0.000000,0.000000,0.000000,0.000000,1648706870.125243,0.000000
50.000000,54796.262657,52547.453648,43295.932507,66671.565672,-4313.529052,50659.737070,9611.339523,5678.304217,0.096000,0.998000,-0.014000,192.000000,0.000000,0.000000,0.000000,0.000000,0.000000,0.000000,0.000000,0.000000,0.000000,1648706870.132381,0.000000
51.000000,54775.274369,52539.250557,43287.483548,66665.508350,-4321.866253,50642.593282,9563.327976,5681.120536,0.096000,0.998000,-0.014000,192.000000,0.000000,0.000000,0.000000,0.000000,0.000000,0.000000,0.000000,0.000000,0.000000,1648706870.132385,0.000000
52.000000,54775.520238,52530.466322,43309.544719,66685.043774,-4309.438683,50642.928558,9530.537967,5673.900923,0.096000,0.998000,-0.014000,192.000000,0.000000,0.000000,0.000000,0.000000,0.000000,0.000000,0.000000,0.000000,0.000000,1648706870.139890,0.000000
53.000000,54756.588311,52517.815234,43307.130731,66679.165265,-4302.576697,50649.388212,9574.436793,5652.711469,0.096000,0.998000,-0.014000,192.000000,0.000000,0.000000,0.000000,0.000000,0.000000,0.000000,0.000000,0.000000,0.000000,1648706870.139893,0.000000
54.000000,54757.348270,52510.327400,43296.871280,66674.024364,-4304.431892,50648.069459,9568.424173,5663.529714,0.096000,0.998000,-0.014000,192.000000,0.000000,0.000000,0.000000,0.000000,0.000000,0.000000,0.000000,0.000000,0.000000,1648706870.147921,0.000000
55.000000,54761.505695,52512.875499,43294.837272,66665.530701,-4306.041218,50650.036412,9538.405781,5666.077812,0.096000,0.998000,-0.014000,192.000000,0.000000,0.000000,0.000000,0.000000,0.000000,0.000000,0.000000,0.000000,0.000000,1648706870.147925,0.000000
56.000000,54736.918776,52509.321572,43290.590440,66647.783416,-4320.972183,50627.192930,9500.050187,5644.597786,0.096000,0.998000,-0.014000,192.000000,0.000000,0.000000,0.000000,0.000000,0.000000,0.000000,0.000000,0.000000,0.000000,1648706870.155914,0.000000
57.000000,54749.614567,52529.460493,43293.272649,66660.814483,-4317.485311,50636.848883,9503.537059,5668.357690,0.096000,0.998000,-0.014000,192.000000,0.000000,0.000000,0.000000,0.000000,0.000000,0.000000,0.000000,0.000000,0.000000,1648706870.155917,0.000000
58.000000,54783.969198,52536.702458,43301.609850,66667.341193,-4306.085921,50661.234636,9491.623579,5694.285714,0.102000,1.010000,-0.016000,192.000000,3.000000,48.000000,31.000000,144.000000,255.000000,128.000000,0.000000,0.000000,0.000000,1648706870.162538,0.000000
59.000000,54788.953637,52511.154415,43291.149234,66653.728980,-4317.351200,50651.377517,9497.323274,5657.003004,0.102000,1.010000,-0.016000,192.000000,0.000000,0.000000,0.000000,0.000000,0.000000,0.000000,0.000000,0.000000,0.000000,1648706870.162541,0.000000
60.000000,54774.760279,52487.685083,43282.834385,66662.356754,-4320.569851,50648.918825,9516.679885,5631.164388,0.102000,1.010000,-0.016000,192.000000,0.000000,0.000000,0.000000,0.000000,0.000000,0.000000,0.000000,0.000000,0.000000,1648706870.170542,0.000000
61.000000,54779.409442,52491.417824,43294.479644,66668.257614,-4311.807968,50654.909093,9494.037568,5653.851408,0.102000,1.010000,-0.016000,192.000000,0.000000,0.000000,0.000000,0.000000,0.000000,0.000000,0.000000,0.000000,0.000000,1648706870.170545,0.000000
62.000000,54783.790384,52503.644228,43294.390237,66651.560861,-4310.086883,50654.573817,9462.856884,5666.837772,0.102000,1.010000,-0.016000,192.000000,0.000000,0.000000,0.000000,0.000000,0.000000,0.000000,0.000000,0.000000,0.000000,1648706870.177580,0.000000
63.000000,54765.752526,52498.793900,43298.100626,66648.923355,-4313.998439,50650.975186,9478.771326,5622.961297,0.102000,1.010000,-0.016000,192.000000,0.000000,0.000000,0.000000,0.000000,0.000000,0.000000,0.000000,0.000000,0.000000,1648706870.184795,0.000000
64.000000,54762.310357,52485.606371,43303.688562,66666.290661,-4311.852671,50651.757497,9463.862713,5613.260640,0.102000,1.010000,-0.016000,192.000000,0.000000,0.000000,0.000000,0.000000,0.000000,0.000000,0.000000,0.000000,0.000000,1648706870.184799,0.000000
65.000000,54769.597026,52479.772565,43299.374676,66670.246919,-4308.768130,50656.563122,9463.616844,5640.194492,0.102000,1.010000,-0.016000,192.000000,0.000000,0.000000,0.000000,0.000000,0.000000,0.000000,0.000000,0.000000,0.000000,1648706870.192185,0.000000
66.000000,54757.772953,52487.640379,43293.876147,66656.455893,-4321.709790,50648.181218,9463.952120,5599.648428,0.102000,1.010000,-0.016000,192.000000,0.000000,0.000000,0.000000,0.000000,0.000000,0.000000,0.000000,0.000000,0.000000,1648706870.192190,0.000000
67.000000,54795.234477,52526.890043,43288.534080,66681.601606,-4305.862404,50666.062613,9469.025966,5589.634846,0.102000,1.010000,-0.016000,192.000000,0.000000,0.000000,0.000000,0.000000,0.000000,0.000000,0.000000,0.000000,0.000000,1648706870.200217,0.000000
68.000000,54801.649428,52519.961002,43300.335801,66677.399478,-4298.195755,50670.398852,9465.092059,5572.893390,0.084000,0.988000,-0.020000,192.000000,2.000000,160.000000,30.000000,224.000000,255.000000,96.000000,0.000000,0.000000,0.000000,1648706870.200221,0.000000
69.000000,54770.513448,52485.785185,43323.782781,66677.846513,-4297.882831,50669.951817,9450.563425,5556.353099,0.084000,0.988000,-0.020000,192.000000,0.000000,0.000000,0.000000,0.000000,0.000000,0.000000,0.000000,0.000000,0.000000,1648706870.208215,0.000000
70.000000,54746.708840,52464.103992,43316.920795,66661.105056,-4311.942078,50660.944064,9436.303012,5541.377430,0.084000,0.988000,-0.020000,192.000000,0.000000,0.000000,0.000000,0.000000,0.000000,0.000000,0.000000,0.000000,0.000000,1648706870.208219,0.000000
71.000000,54755.426020,52465.847429,43310.394086,66661.306222,-4315.250136,50659.580607,9421.729675,5509.570898,0.084000,0.988000,-0.020000,192.000000,0.000000,0.000000,0.000000,0.000000,0.000000,0.000000,0.000000,0.000000,0.000000,1648706870.214811,0.000000
72.000000,54777.889523,52470.809516,43308.650650,66673.152646,-4310.690380,50671.114108,9458.610053,5505.189956,0.084000,0.988000,-0.020000,192.000000,0.000000,0.000000,0.000000,0.000000,0.000000,0.000000,0.000000,0.000000,0.000000,1648706870.214815,0.000000
73.000000,54774.246189,52476.710376,43305.789626,66656.277079,-4313.752569,50665.123840,9446.987146,5467.326101,0.084000,0.988000,-0.020000,192.000000,0.000000,0.000000,0.000000,0.000000,0.000000,0.000000,0.000000,0.000000,0.000000,1648706870.222864,0.000000
74.000000,54768.501791,52476.129231,43304.515577,66661.485036,-4316.390075,50656.764288,9405.211735,5472.176429,0.084000,0.988000,-0.020000,192.000000,0.000000,0.000000,0.000000,0.000000,0.000000,0.000000,0.000000,0.000000,0.000000,1648706870.222868,0.000000
75.000000,54781.018767,52475.212809,43305.454350,66666.335364,-4315.093674,50668.253084,9422.646096,5460.911150,0.084000,0.988000,-0.020000,192.000000,0.000000,0.000000,0.000000,0.000000,0.000000,0.000000,0.000000,0.000000,0.000000,1648706870.230847,0.000000
76.000000,54796.173250,52476.665673,43309.902347,66649.415094,-4319.921651,50673.282227,9434.134893,5443.186217,0.084000,0.988000,-0.020000,192.000000,0.000000,0.000000,0.000000,0.000000,0.000000,0.000000,0.000000,0.000000,0.000000,1648706870.230851,0.000000
77.000000,54825.118759,52490.166127,43297.139501,66638.730960,-4331.008116,50662.933369,9394.393491,5445.868426,0.084000,0.988000,-0.020000,192.000000,0.000000,0.000000,0.000000,0.000000,0.000000,0.000000,0.000000,0.000000,0.000000,1648706870.238042,0.000000
78.000000,54841.703754,52489.070891,43283.214364,66658.802826,-4316.054799,50674.153945,9430.223337,5431.138626,0.090000,0.982000,-0.018000,192.000000,2.000000,208.000000,30.000000,176.000000,255.000000,112.000000,0.000000,0.000000,0.000000,1648706870.238046,0.000000
79.000000,54795.681512,52475.503382,43301.833368,66674.449047,-4308.499909,50682.379387,9439.387553,5424.835435,0.090000,0.982000,-0.018000,192.000000,0.000000,0.000000,0.000000,0.000000,0.000000,0.000000,0.000000,0.000000,0.000000,1648706870.244493,0.000000
80.000000,54762.690337,52463.701661,43303.174472,66668.011745,-4309.841014,50670.287093,9414.353599,5412.005533,0.090000,0.982000,-0.018000,192.000000,0.000000,0.000000,0.000000,0.000000,0.000000,0.000000,0.000000,0.000000,0.000000,1648706870.252465,0.000000
81.000000,54769.172343,52474.341091,43313.657440,66662.647326,-4294.597124,50680.457137,9417.572250,5421.013286,0.090000,0.982000,-0.018000,192.000000,0.000000,0.000000,0.000000,0.000000,0.000000,0.000000,0.000000,0.000000,0.000000,1648706870.252469,0.000000
82.000000,54778.895352,52491.328417,43312.003411,66658.534605,-4299.872136,50681.105337,9412.341942,5414.352466,0.090000,0.982000,-0.018000,192.000000,0.000000,0.000000,0.000000,0.000000,0.000000,0.000000,0.000000,0.000000,0.000000,1648706870.260567,0.000000
83.000000,54806.767977,52515.110673,43320.877054,66658.467550,-4302.666104,50681.887648,9408.720959,5403.266001,0.090000,0.982000,-0.018000,192.000000,0.000000,0.000000,0.000000,0.000000,0.000000,0.000000,0.000000,0.000000,0.000000,1648706870.260571,0.000000
84.000000,54799.838936,52474.318740,43321.905234,66663.049658,-4297.949886,50693.711721,9447.389477,5397.856879,0.090000,0.982000,-0.018000,192.000000,0.000000,0.000000,0.000000,0.000000,0.000000,0.000000,0.000000,0.000000,0.000000,1648706870.267630,0.000000
85.000000,54759.069354,52413.164367,43313.545682,66661.283870,-4305.549479,50677.953741,9433.151416,5359.054251,0.090000,0.982000,-0.018000,192.000000,0.000000,0.000000,0.000000,0.000000,0.000000,0.000000,0.000000,0.000000,0.000000,1648706870.267634,0.000000
86.000000,54768.412384,52419.176986,43334.198694,66682.070992,-4290.663217,50686.670922,9427.831701,5369.291350,0.090000,0.982000,-0.018000,192.000000,0.000000,0.000000,0.000000,0.000000,0.000000,0.000000,0.000000,0.000000,0.000000,1648706870.275093,0.000000
87.000000,54785.533820,52433.862082,43345.307511,66680.327556,-4285.835241,50687.587343,9391.130136,5378.008530,0.090000,0.982000,-0.018000,192.000000,0.000000,0.000000,0.000000,0.000000,0.000000,0.000000,0.000000,0.000000,0.000000,1648706870.275096,0.000000
88.000000,54798.564887,52457.398469,43333.550493,66685.133181,-4287.623380,50699.322009,9417.460491,5391.777204,0.090000,0.982000,-0.018000,192.000000,0.000000,0.000000,0.000000,0.000000,0.000000,0.000000,0.000000,0.000000,0.000000,1648706870.283187,0.000000
89.000000,54819.620230,52476.330397,43319.312432,66689.000033,-4298.955715,50709.313239,9504.855812,5352.862817,0.080000,0.980000,-0.020000,192.000000,2.000000,128.000000,30.000000,160.000000,255.000000,96.000000,0.000000,0.000000,0.000000,1648706870.283191,0.000000
90.000000,54830.349067,52467.099126,43311.578728,66668.414076,-4312.344410,50687.296770,9476.647911,5309.835709,0.080000,0.980000,-0.020000,192.000000,0.000000,0.000000,0.000000,0.000000,0.000000,0.000000,0.000000,0.000000,0.000000,1648706870.290297,0.000000
91.000000,54832.561890,52457.063193,43333.237569,66659.071047,-4288.942133,50711.771931,9466.723736,5368.889018,0.080000,0.980000,-0.020000,192.000000,0.000000,0.000000,0.000000,0.000000,0.000000,0.000000,0.000000,0.000000,0.000000,1648706870.290301,0.000000
92.000000,54787.567829,52425.256661,43313.836254,66643.044846,-4297.167575,50706.474567,9467.729565,5371.817097,0.080000,0.980000,-0.020000,192.000000,0.000000,0.000000,0.000000,0.000000,0.000000,0.000000,0.000000,0.000000,0.000000,1648706870.297879,0.000000
93.000000,54778.560076,52411.175062,43313.769199,66651.583213,-4298.598087,50704.284096,9469.741222,5363.256379,0.080000,0.980000,-0.020000,192.000000,0.000000,0.000000,0.000000,0.000000,0.000000,0.000000,0.000000,0.000000,0.000000,1648706870.297898,0.000000
94.000000,54799.481308,52422.507396,43318.351307,66660.926242,-4297.994590,50708.061541,9479.106603,5373.091146,0.080000,0.980000,-0.020000,192.000000,0.000000,0.000000,0.000000,0.000000,0.000000,0.000000,0.000000,0.000000,0.000000,1648706870.304794,0.000000
95.000000,54795.435643,52436.276071,43311.936356,66659.026344,-4300.520337,50710.676695,9480.626521,5366.720899,0.080000,0.980000,-0.020000,192.000000,0.000000,0.000000,0.000000,0.000000,0.000000,0.000000,0.000000,0.000000,0.000000,1648706870.312793,0.000000
96.000000,54784.148012,52441.796952,43297.966516,66652.857262,-4305.035389,50704.462910,9480.805335,5372.577056,0.080000,0.980000,-0.020000,192.000000,0.000000,0.000000,0.000000,0.000000,0.000000,0.000000,0.000000,0.000000,0.000000,1648706870.312796,0.000000
97.000000,54789.020692,52459.410126,43305.096722,66664.949556,-4294.306552,50712.241317,9498.977303,5377.695605,0.080000,0.980000,-0.020000,192.000000,0.000000,0.000000,0.000000,0.000000,0.000000,0.000000,0.000000,0.000000,0.000000,1648706870.319917,0.000000
98.000000,54782.851611,52440.031164,43300.447559,66676.795981,-4291.020845,50712.576593,9508.812071,5369.000777,0.080000,0.980000,-0.020000,192.000000,0.000000,0.000000,0.000000,0.000000,0.000000,0.000000,0.000000,0.000000,0.000000,1648706870.319920,0.000000
99.000000,54792.529916,52422.686210,43303.509748,66680.193446,-4281.007264,50722.657230,9525.553528,5385.026978,0.092000,0.986000,-0.034000,192.000000,2.000000,224.000000,30.000000,208.000000,254.000000,240.000000,0.000000,0.000000,0.000000,1648706870.327699,0.000000
100.000000,54784.192715,52404.156614,43288.511728,66652.410227,-4294.328903,50704.284096,9524.033609,5368.866666,0.092000,0.986000,-0.034000,192.000000,0.000000,0.000000,0.000000,0.000000,0.000000,0.000000,0.000000,0.000000,0.000000,1648706870.327706,0.000000
101.000000,54779.767070,52399.507451,43295.127844,66645.704704,-4296.988761,50700.327838,9531.141464,5344.547968,0.092000,0.986000,-0.034000,192.000000,0.000000,0.000000,0.000000,0.000000,0.000000,0.000000,0.000000,0.000000,0.000000,1648706870.335889,0.000000
102.000000,54794.720387,52410.325695,43303.956783,66660.479207,-4282.616589,50715.705838,9533.846025,5367.927893,0.092000,0.986000,-0.034000,192.000000,0.000000,0.000000,0.000000,0.000000,0.000000,0.000000,0.000000,0.000000,0.000000,1648706870.335905,0.000000
103.000000,54822.213033,52429.659954,43310.371734,66672.146818,-4267.819735,50734.078972,9544.105475,5368.397280,0.092000,0.986000,-0.034000,192.000000,0.000000,0.000000,0.000000,0.000000,0.000000,0.000000,0.000000,0.000000,0.000000,1648706870.343826,0.000000
104.000000,54811.640657,52417.992344,43304.582632,66658.780475,-4275.933418,50727.596966,9543.323164,5343.855064,0.092000,0.986000,-0.034000,192.000000,0.000000,0.000000,0.000000,0.000000,0.000000,0.000000,0.000000,0.000000,0.000000,1648706870.343842,0.000000
105.000000,54798.877811,52430.285803,43305.230833,66663.384934,-4278.392110,50729.698030,9550.319260,5338.736515,0.092000,0.986000,-0.034000,192.000000,0.000000,0.000000,0.000000,0.000000,0.000000,0.000000,0.000000,0.000000,0.000000,1648706870.350254,0.000000
106.000000,54810.590125,52443.093353,43304.292059,66663.809617,-4279.666159,50728.245166,9554.946071,5335.294346,0.092000,0.986000,-0.034000,192.000000,0.000000,0.000000,0.000000,0.000000,0.000000,0.000000,0.000000,0.000000,0.000000,1648706870.350271,0.000000
107.000000,54809.494890,52414.527823,43304.739094,66658.959288,-4282.013092,50728.155759,9557.315356,5332.612137,0.092000,0.986000,-0.034000,192.000000,0.000000,0.000000,0.000000,0.000000,0.000000,0.000000,0.000000,0.000000,0.000000,1648706870.358442,0.000000
108.000000,54813.831128,52417.522957,43316.362001,66654.310126,-4278.839145,50738.437562,9586.283217,5333.372096,0.092000,0.986000,-0.034000,192.000000,0.000000,0.000000,0.000000,0.000000,0.000000,0.000000,0.000000,0.000000,0.000000,1648706870.358458,0.000000
109.000000,54805.203355,52414.483120,43311.802246,66638.127463,-4289.188002,50735.330669,9586.238514,5328.253547,0.072000,0.990000,-0.042000,192.000000,2.000000,64.000000,30.000000,240.000000,254.000000,176.000000,0.000000,0.000000,0.000000,1648706870.365514,0.000000
110.000000,54803.974009,52421.345105,43312.830426,66646.464663,-4288.271581,50734.905986,9580.561171,5323.582032,0.072000,0.990000,-0.042000,192.000000,0.000000,0.000000,0.000000,0.000000,0.000000,0.000000,0.000000,0.000000,0.000000,1648706870.373542,0.000000
111.000000,54781.354044,52420.853367,43303.219176,66649.236280,-4294.083034,50730.815617,9580.337653,5316.563584,0.072000,0.990000,-0.042000,192.000000,0.000000,0.000000,0.000000,0.000000,0.000000,0.000000,0.000000,0.000000,0.000000,1648706870.373558,0.000000
112.000000,54763.785573,52403.955448,43304.761446,66655.919451,-4296.497023,50729.250995,9579.823563,5306.795872,0.072000,0.990000,-0.042000,192.000000,0.000000,0.000000,0.000000,0.000000,0.000000,0.000000,0.000000,0.000000,0.000000,1648706870.380087,0.000000
113.000000,54776.146087,52399.105120,43312.025763,66653.840739,-4295.446491,50730.457989,9575.174400,5276.330444,0.072000,0.990000,-0.042000,192.000000,0.000000,0.000000,0.000000,0.000000,0.000000,0.000000,0.000000,0.000000,0.000000,1648706870.380103,0.000000
114.000000,54778.157744,52392.131375,43303.062714,66630.751387,-4302.129662,50725.965288,9570.368775,5258.560808,0.072000,0.990000,-0.042000,192.000000,0.000000,0.000000,0.000000,0.000000,0.000000,0.000000,0.000000,0.000000,0.000000,1648706870.388113,0.000000
115.000000,54774.179134,52385.515259,43297.228908,66631.958381,-4298.463976,50725.026515,9557.002432,5243.831008,0.072000,0.990000,-0.042000,192.000000,0.000000,0.000000,0.000000,0.000000,0.000000,0.000000,0.000000,0.000000,0.000000,1648706870.388129,0.000000
116.000000,54789.981817,52387.638675,43305.990792,66657.282908,-4277.699206,50743.466704,9573.475668,5263.455840,0.072000,0.990000,-0.042000,192.000000,0.000000,0.000000,0.000000,0.000000,0.000000,0.000000,0.000000,0.000000,0.000000,1648706870.396160,0.000000
117.000000,54797.871983,52387.437509,43313.456275,66664.167245,-4276.916895,50744.517236,9572.112211,5253.598720,0.072000,0.990000,-0.042000,192.000000,0.000000,0.000000,0.000000,0.000000,0.000000,0.000000,0.000000,0.000000,0.000000,1648706870.396177,0.000000
118.000000,54812.668838,52403.150785,43316.853740,66668.682297,-4277.140412,50751.178056,9573.363909,5252.905816,0.072000,0.990000,-0.042000,192.000000,0.000000,0.000000,0.000000,0.000000,0.000000,0.000000,0.000000,0.000000,0.000000,1648706870.403151,0.000000
119.000000,54823.755303,52414.863099,43287.796472,66653.639573,-4292.116081,50742.594986,9579.264769,5224.653211,0.080000,1.006000,-0.052000,192.000000,2.000000,128.000000,31.000000,112.000000,254.000000,96.000000,0.000000,0.000000,0.000000,1648706870.403168,0.000000
120.000000,54825.185815,52435.761981,43286.723588,66650.242108,-4296.206450,50745.880693,9571.665176,5249.798924,0.080000,1.006000,-0.052000,192.000000,0.000000,0.000000,0.000000,0.000000,0.000000,0.000000,0.000000,0.000000,0.000000,1648706870.410731,0.000000
121.000000,54808.556117,52438.779466,43299.329972,66651.404399,-4286.550496,50757.593007,9587.199639,5244.568616,0.080000,1.006000,-0.052000,192.000000,0.000000,0.000000,0.000000,0.000000,0.000000,0.000000,0.000000,0.000000,0.000000,1648706870.410747,0.000000
122.000000,54801.872945,52429.592899,43336.746792,66665.441294,-4260.935397,50768.277141,9614.312305,5236.521988,0.080000,1.006000,-0.052000,192.000000,0.000000,0.000000,0.000000,0.000000,0.000000,0.000000,0.000000,0.000000,0.000000,1648706870.418713,0.000000
123.000000,54786.718462,52417.053570,43341.708880,66667.207082,-4259.840162,50758.934111,9625.979915,5202.770853,0.080000,1.006000,-0.052000,192.000000,0.000000,0.000000,0.000000,0.000000,0.000000,0.000000,0.000000,0.000000,0.000000,1648706870.418729,0.000000
124.000000,54785.779689,52430.777541,43332.455257,66665.038963,-4264.422269,50758.755298,9634.294764,5206.302429,0.080000,1.006000,-0.052000,192.000000,0.000000,0.000000,0.000000,0.000000,0.000000,0.000000,0.000000,0.000000,0.000000,1648706870.425933,0.000000
125.000000,54783.008073,52449.955338,43328.342536,66668.794056,-4271.127793,50756.922454,9623.141244,5203.061426,0.080000,1.006000,-0.052000,192.000000,0.000000,0.000000,0.000000,0.000000,0.000000,0.000000,0.000000,0.000000,0.000000,1648706870.432374,0.000000
126.000000,54796.575582,52452.123457,43342.245322,66684.842609,-4259.102554,50772.233399,9652.958471,5202.994371,0.080000,1.006000,-0.052000,192.000000,0.000000,0.000000,0.000000,0.000000,0.000000,0.000000,0.000000,0.000000,0.000000,1648706870.432390,0.000000
127.000000,54792.775785,52409.230460,43328.923682,66677.175960,-4263.975235,50762.577446,9659.060497,5191.192650,0.080000,1.006000,-0.052000,192.000000,0.000000,0.000000,0.000000,0.000000,0.000000,0.000000,0.000000,0.000000,0.000000,1648706870.440421,0.000000
128.000000,54786.003206,52403.664875,43327.090839,66671.073934,-4269.004377,50757.078917,9662.882645,5163.297673,0.080000,1.006000,-0.052000,192.000000,0.000000,0.000000,0.000000,0.000000,0.000000,0.000000,0.000000,0.000000,0.000000,1648706870.440437,0.000000
129.000000,54790.518259,52428.363553,43328.141371,66688.418888,-4273.608836,50766.600760,9683.960340,5180.821440,0.066000,1.004000,-0.072000,192.000000,2.000000,16.000000,31.000000,96.000000,253.000000,192.000000,0.000000,0.000000,0.000000,1648706870.448418,0.000000
130.000000,54814.814605,52453.039879,43351.454240,66692.889237,-4253.782839,50785.130356,9712.011780,5183.391891,0.066000,1.004000,-0.072000,192.000000,0.000000,0.000000,0.000000,0.000000,0.000000,0.000000,0.000000,0.000000,0.000000,1648706870.448434,0.000000
131.000000,54818.972030,52442.355745,43353.689415,66692.531609,-4244.015127,50790.718292,9719.969001,5180.419109,0.066000,1.004000,-0.072000,192.000000,0.000000,0.000000,0.000000,0.000000,0.000000,0.000000,0.000000,0.000000,0.000000,1648706870.455606,0.000000
132.000000,54800.353026,52422.373286,43333.528141,66689.983510,-4252.844066,50775.809679,9701.327646,5166.292806,0.066000,1.004000,-0.072000,192.000000,0.000000,0.000000,0.000000,0.000000,0.000000,0.000000,0.000000,0.000000,0.000000,1648706870.455622,0.000000
133.000000,54810.053684,52422.417989,43336.657385,66701.896990,-4251.681775,50781.621132,9723.120597,5153.887588,0.066000,1.004000,-0.072000,192.000000,0.000000,0.000000,0.000000,0.000000,0.000000,0.000000,0.000000,0.000000,0.000000,1648706870.463005,0.000000
134.000000,54789.043044,52409.208108,43326.420286,66686.139010,-4259.683700,50778.313074,9739.415018,5137.526111,0.066000,1.004000,-0.072000,192.000000,0.000000,0.000000,0.000000,0.000000,0.000000,0.000000,0.000000,0.000000,0.000000,1648706870.463021,0.000000
135.000000,54763.874979,52399.328637,43315.199711,66663.161416,-4273.787650,50760.990472,9750.568539,5102.411521,0.066000,1.004000,-0.072000,192.000000,0.000000,0.000000,0.000000,0.000000,0.000000,0.000000,0.000000,0.000000,0.000000,1648706870.471020,0.000000
136.000000,54783.879791,52441.081696,43335.562150,66689.424716,-4260.600121,50786.873792,9773.680243,5125.523225,0.066000,1.004000,-0.072000,192.000000,0.000000,0.000000,0.000000,0.000000,0.000000,0.000000,0.000000,0.000000,0.000000,1648706870.471036,0.000000
137.000000,54781.242285,52428.967050,43320.720592,66683.389745,-4272.223028,50772.278103,9759.822161,5104.534936,0.066000,1.004000,-0.072000,192.000000,0.000000,0.000000,0.000000,0.000000,0.000000,0.000000,0.000000,0.000000,0.000000,1648706870.478987,0.000000
138.000000,54779.632959,52399.485099,43299.240565,66672.035059,-4275.911066,50768.679472,9815.343894,5084.150146,0.066000,1.004000,-0.072000,192.000000,0.000000,0.000000,0.000000,0.000000,0.000000,0.000000,0.000000,0.000000,0.000000,1648706870.479002,0.000000
139.000000,54781.465802,52402.793157,43294.367885,66696.130240,-4263.796421,50789.399539,9834.633450,5107.932402,0.092000,1.002000,-0.070000,192.000000,2.000000,224.000000,31.000000,80.000000,253.000000,208.000000,0.000000,0.000000,0.000000,1648706870.485290,0.000000
140.000000,54781.398747,52420.741608,43321.771124,66715.486850,-4247.278481,50802.408254,9844.803494,5103.462053,0.092000,1.002000,-0.070000,192.000000,0.000000,0.000000,0.000000,0.000000,0.000000,0.000000,0.000000,0.000000,0.000000,1648706870.485307,0.000000
141.000000,54780.236456,52412.091483,43338.087897,66718.012597,-4239.745944,50806.990362,9861.969633,5098.276448,0.092000,1.002000,-0.070000,192.000000,0.000000,0.000000,0.000000,0.000000,0.000000,0.000000,0.000000,0.000000,0.000000,1648706870.492734,0.000000
142.000000,54772.011014,52404.536594,43338.981967,66698.723042,-4248.708993,50800.597763,9868.429287,5089.782785,0.092000,1.002000,-0.070000,192.000000,0.000000,0.000000,0.000000,0.000000,0.000000,0.000000,0.000000,0.000000,0.000000,1648706870.500323,0.000000
143.000000,54759.047003,52420.495739,43337.171476,66690.139972,-4256.599159,50788.997208,9869.815096,5060.010262,0.092000,1.002000,-0.070000,192.000000,0.000000,0.000000,0.000000,0.000000,0.000000,0.000000,0.000000,0.000000,0.000000,1648706870.500334,0.000000
144.000000,54769.820544,52452.615196,43351.230723,66703.014577,-4242.271691,50808.532632,9899.878192,5083.233724,0.092000,1.002000,-0.070000,192.000000,0.000000,0.000000,0.000000,0.000000,0.000000,0.000000,0.000000,0.000000,0.000000,1648706870.508673,0.000000
145.000000,54765.864285,52441.931062,43346.067470,66706.300283,-4243.523388,50804.866946,9914.965619,5082.652579,0.092000,1.002000,-0.070000,192.000000,0.000000,0.000000,0.000000,0.000000,0.000000,0.000000,0.000000,0.000000,0.000000,1648706870.508689,0.000000
146.000000,54780.169401,52427.335373,43334.556321,66705.897952,-4243.188112,50795.970952,9918.787768,5060.390241,0.092000,1.002000,-0.070000,192.000000,0.000000,0.000000,0.000000,0.000000,0.000000,0.000000,0.000000,0.000000,0.000000,1648706870.515286,0.000000
147.000000,54781.532858,52413.521995,43344.636958,66719.376054,-4235.856740,50796.261525,9913.378646,5053.349442,0.092000,1.002000,-0.070000,192.000000,0.000000,0.000000,0.000000,0.000000,0.000000,0.000000,0.000000,0.000000,0.000000,1648706870.515302,0.000000
148.000000,54754.554302,52393.919515,43353.957636,66717.900839,-4239.924757,50798.049664,9935.417466,5057.842142,0.092000,1.002000,-0.070000,192.000000,0.000000,0.000000,0.000000,0.000000,0.000000,0.000000,0.000000,0.000000,0.000000,1648706870.523287,0.000000
149.000000,54762.578578,52392.623114,43345.262807,66707.417870,-4245.780915,50788.036083,9938.680820,5031.310622,0.100000,0.984000,-0.078000,192.000000,3.000000,32.000000,30.000000,192.000000,253.000000,144.000000,0.000000,0.000000,0.000000,1648706870.523305,0.000000
150.000000,54787.992512,52398.479271,43328.387240,66710.100080,-4251.838237,50774.245056,9896.100747,5009.092988,0.100000,0.984000,-0.078000,192.000000,0.000000,0.000000,0.000000,0.000000,0.000000,0.000000,0.000000,0.000000,0.000000,1648706870.530942,0.000000
151.000000,54780.303512,52408.895184,43317.144313,66719.040778,-4254.587502,50791.299437,9963.893588,5033.769314,0.100000,0.984000,-0.078000,192.000000,0.000000,0.000000,0.000000,0.000000,0.000000,0.000000,0.000000,0.000000,0.000000,1648706870.530952,0.000000
152.000000,54761.058660,52432.140998,43334.466914,66728.853193,-4247.859627,50802.721179,10021.158757,5028.740171,0.100000,0.984000,-0.078000,192.000000,0.000000,0.000000,0.000000,0.000000,0.000000,0.000000,0.000000,0.000000,0.000000,1648706870.537859,0.000000
153.000000,54744.630128,52414.080788,43346.045118,66733.569411,-4241.578787,50810.320772,10051.534778,5033.322279,0.100000,0.984000,-0.078000,192.000000,0.000000,0.000000,0.000000,0.000000,0.000000,0.000000,0.000000,0.000000,0.000000,1648706870.537875,0.000000
154.000000,54736.427037,52367.902084,43347.430926,66683.635614,-4253.671080,50795.993304,10032.379333,5006.701351,0.100000,0.984000,-0.078000,192.000000,0.000000,0.000000,0.000000,0.000000,0.000000,0.000000,0.000000,0.000000,0.000000,1648706870.548447,0.000000
155.000000,54736.650555,52333.480398,43327.649632,66676.617167,-4268.065604,50779.184792,9996.795356,4974.403080,0.100000,0.984000,-0.078000,192.000000,0.000000,0.000000,0.000000,0.000000,0.000000,0.000000,0.000000,0.000000,0.000000,1648706870.548459,0.000000
156.000000,54774.469706,52363.834067,43353.667063,66708.021368,-4237.264900,50800.329542,10012.776853,4995.592534,0.100000,0.984000,-0.078000,192.000000,0.000000,0.000000,0.000000,0.000000,0.000000,0.000000,0.000000,0.000000,0.000000,1648706870.554889,0.000000
157.000000,54777.241323,52377.446279,43347.453278,66703.953350,-4240.729420,50798.273182,10065.392860,4955.180580,0.100000,0.984000,-0.078000,192.000000,0.000000,0.000000,0.000000,0.000000,0.000000,0.000000,0.000000,0.000000,0.000000,1648706870.560911,0.000000
158.000000,54755.806000,52356.748564,43330.175380,66684.328518,-4257.984967,50785.912667,10062.777706,4977.465269,0.100000,0.984000,-0.078000,192.000000,0.000000,0.000000,0.000000,0.000000,0.000000,0.000000,0.000000,0.000000,0.000000,1648706870.560922,0.000000
159.000000,54738.192825,52341.057639,43320.184150,66675.723097,-4271.798345,50773.462745,10051.490075,4970.960912,0.100000,0.974000,-0.074000,192.000000,3.000000,32.000000,30.000000,112.000000,253.000000,176.000000,0.000000,0.000000,0.000000,1648706870.567707,0.000000
160.000000,54764.791401,52363.878770,43336.970310,66694.118583,-4257.493229,50784.348045,10063.939996,4978.046415,0.100000,0.974000,-0.074000,192.000000,0.000000,0.000000,0.000000,0.000000,0.000000,0.000000,0.000000,0.000000,0.000000,1648706870.567723,0.000000
161.000000,54769.753488,52355.429811,43321.055868,66689.380013,-4267.529162,50774.960312,10051.780647,4962.199028,0.100000,0.974000,-0.074000,192.000000,0.000000,0.000000,0.000000,0.000000,0.000000,0.000000,0.000000,0.000000,0.000000,1648706870.575495,0.000000
162.000000,54786.830221,52378.630922,43339.272540,66710.547115,-4250.318319,50790.383016,10069.639691,4965.171810,0.100000,0.974000,-0.074000,192.000000,0.000000,0.000000,0.000000,0.000000,0.000000,0.000000,0.000000,0.000000,0.000000,1648706870.575511,0.000000
163.000000,54766.892465,52351.428849,43342.893522,66695.392632,-4254.676909,50783.006940,10070.444354,4950.397307,0.100000,0.974000,-0.074000,192.000000,0.000000,0.000000,0.000000,0.000000,0.000000,0.000000,0.000000,0.000000,0.000000,1648706870.583329,0.000000
164.000000,54750.016898,52327.244261,43332.969348,66696.443164,-4256.129772,50771.629902,10059.313185,4935.689859,0.100000,0.974000,-0.074000,192.000000,0.000000,0.000000,0.000000,0.000000,0.000000,0.000000,0.000000,0.000000,0.000000,1648706870.583346,0.000000
165.000000,54774.760279,52340.543549,43307.443655,66695.236170,-4260.488362,50765.259655,10062.755354,4923.105827,0.100000,0.974000,-0.074000,192.000000,0.000000,0.000000,0.000000,0.000000,0.000000,0.000000,0.000000,0.000000,0.000000,1648706870.591461,0.000000
166.000000,54807.706750,52370.606645,43317.189016,66701.002920,-4258.566112,50778.089556,10081.955502,4937.343888,0.100000,0.974000,-0.074000,192.000000,0.000000,0.000000,0.000000,0.000000,0.000000,0.000000,0.000000,0.000000,0.000000,1648706870.591477,0.000000
167.000000,54774.492058,52345.997375,43338.199656,66689.178847,-4261.225970,50772.993359,10080.524991,4906.118501,0.100000,0.974000,-0.074000,192.000000,0.000000,0.000000,0.000000,0.000000,0.000000,0.000000,0.000000,0.000000,0.000000,1648706870.598598,0.000000
168.000000,54752.095610,52331.200520,43344.569903,66691.525780,-4254.855723,50773.507449,10088.482212,4910.968830,0.100000,0.974000,-0.074000,192.000000,0.000000,0.000000,0.000000,0.000000,0.000000,0.000000,0.000000,0.000000,0.000000,1648706870.598615,0.000000
169.000000,54770.848724,52309.072293,43334.466914,66703.506315,-4243.746906,50780.771766,10086.202334,4927.486769,0.116000,0.984000,-0.078000,192.000000,3.000000,160.000000,30.000000,192.000000,253.000000,144.000000,0.000000,0.000000,0.000000,1648706870.607338,0.000000
170.000000,54779.387090,52286.519383,43339.160781,66714.235153,-4241.601138,50778.335426,10103.301418,4918.233146,0.116000,0.984000,-0.078000,192.000000,0.000000,0.000000,0.000000,0.000000,0.000000,0.000000,0.000000,0.000000,0.000000,1648706870.607355,0.000000
171.000000,54780.415270,52294.454252,43358.986778,66733.658818,-4228.123036,50791.679417,10127.843634,4914.880385,0.116000,0.984000,-0.078000,192.000000,0.000000,0.000000,0.000000,0.000000,0.000000,0.000000,0.000000,0.000000,0.000000,1648706870.613708,0.000000
172.000000,54793.871021,52312.335648,43366.608723,66743.270069,-4215.874280,50805.179871,10159.113724,4908.107806,0.116000,0.984000,-0.078000,192.000000,0.000000,0.000000,0.000000,0.000000,0.000000,0.000000,0.000000,0.000000,0.000000,1648706870.621840,0.000000
173.000000,54793.245172,52299.952781,43362.920685,66729.411987,-4232.235757,50792.081748,10153.123457,4918.076684,0.116000,0.984000,-0.078000,192.000000,0.000000,0.000000,0.000000,0.000000,0.000000,0.000000,0.000000,0.000000,0.000000,1648706870.621858,0.000000
174.000000,54806.767977,52305.518366,43375.884697,66738.106816,-4222.982135,50795.501565,10169.551989,4906.274963,0.116000,0.984000,-0.078000,192.000000,0.000000,0.000000,0.000000,0.000000,0.000000,0.000000,0.000000,0.000000,0.000000,1648706870.627890,0.000000
175.000000,54826.102236,52321.745732,43383.394883,66751.763731,-4211.538042,50797.066188,10170.624873,4888.907658,0.116000,0.984000,-0.078000,192.000000,0.000000,0.000000,0.000000,0.000000,0.000000,0.000000,0.000000,0.000000,0.000000,1648706870.627907,0.000000
176.000000,54851.583225,52314.324953,43382.254944,66753.171891,-4202.552641,50808.644391,10239.244728,4893.467414,0.116000,0.984000,-0.078000,192.000000,0.000000,0.000000,0.000000,0.000000,0.000000,0.000000,0.000000,0.000000,0.000000,1648706870.635939,0.000000
177.000000,54840.832036,52284.060691,43366.116985,66740.118473,-4209.884013,50789.176022,10185.533486,4868.567570,0.116000,0.984000,-0.078000,192.000000,0.000000,0.000000,0.000000,0.000000,0.000000,0.000000,0.000000,0.000000,0.000000,1648706870.635955,0.000000
178.000000,54798.251962,52253.774077,43342.379432,66710.837687,-4239.835350,50764.700862,10170.021375,4862.353785,0.116000,0.984000,-0.078000,192.000000,0.000000,0.000000,0.000000,0.000000,0.000000,0.000000,0.000000,0.000000,0.000000,1648706870.643783,0.000000
179.000000,54825.565794,52273.868295,43353.063566,66736.229269,-4228.368906,50778.760109,10208.131100,4894.406187,0.112000,0.984000,-0.076000,192.000000,3.000000,128.000000,30.000000,192.000000,253.000000,160.000000,0.000000,0.000000,0.000000,1648706870.643800,0.000000
180.000000,54816.960373,52270.694348,43350.224894,66721.052435,-4232.638089,50770.311149,10229.298202,4868.768736,0.112000,0.984000,-0.076000,192.000000,0.000000,0.000000,0.000000,0.000000,0.000000,0.000000,0.000000,0.000000,0.000000,1648706870.650174,0.000000
181.000000,54785.444413,52248.387307,43343.452316,66684.440277,-4251.413554,50742.684393,10216.222431,4824.445227,0.112000,0.984000,-0.076000,192.000000,0.000000,0.000000,0.000000,0.000000,0.000000,0.000000,0.000000,0.000000,0.000000,1648706870.650190,0.000000
182.000000,54795.167422,52244.185179,43340.881865,66704.556847,-4244.842141,50738.817541,10212.802614,4814.297535,0.112000,0.984000,-0.076000,192.000000,0.000000,0.000000,0.000000,0.000000,0.000000,0.000000,0.000000,0.000000,0.000000,1648706870.658352,0.000000
183.000000,54812.780596,52226.549652,43345.195752,66701.941693,-4241.042345,50734.637765,10219.083454,4804.105139,0.112000,0.984000,-0.076000,192.000000,0.000000,0.000000,0.000000,0.000000,0.000000,0.000000,0.000000,0.000000,0.000000,1648706870.658369,0.000000
184.000000,54831.556062,52229.790655,43342.960577,66706.680263,-4233.934490,50739.890425,10229.477016,4797.153747,0.112000,0.984000,-0.076000,192.000000,0.000000,0.000000,0.000000,0.000000,0.000000,0.000000,0.000000,0.000000,0.000000,1648706870.666436,0.000000
185.000000,54825.856367,52228.807179,43340.837162,66702.835763,-4237.935452,50738.638728,10242.329269,4786.670779,0.112000,0.984000,-0.076000,192.000000,0.000000,0.000000,0.000000,0.000000,0.000000,0.000000,0.000000,0.000000,0.000000,1648706870.666453,0.000000
186.000000,54835.869948,52224.627402,43341.619473,66706.054414,-4238.047211,50740.002184,10253.505141,4802.473462,0.112000,0.984000,-0.076000,192.000000,0.000000,0.000000,0.000000,0.000000,0.000000,0.000000,0.000000,0.000000,0.000000,1648706870.672550,0.000000
187.000000,54840.764980,52222.079304,43357.735080,66718.973722,-4223.630336,50748.138219,10272.258255,4803.881622,0.112000,0.984000,-0.076000,192.000000,0.000000,0.000000,0.000000,0.000000,0.000000,0.000000,0.000000,0.000000,0.000000,1648706870.680075,0.000000
188.000000,54833.120684,52198.587620,43369.246229,66730.149595,-4220.054057,50741.097419,10265.731545,4793.242191,0.112000,0.984000,-0.076000,192.000000,0.000000,0.000000,0.000000,0.000000,0.000000,0.000000,0.000000,0.000000,0.000000,1648706870.680091,0.000000
189.000000,54836.764018,52180.102727,43365.625246,66727.221516,-4219.383504,50736.247091,10273.420545,4796.237325,0.112000,0.984000,-0.076000,192.000000,0.000000,0.000000,0.000000,0.000000,0.000000,0.000000,0.000000,0.000000,0.000000,1648706870.688075,0.000000
190.000000,54841.077905,52167.876323,43352.705938,66715.039815,-4227.184263,50718.209233,10277.935598,4775.494906,0.126000,1.002000,-0.084000,192.000000,3.000000,240.000000,31.000000,80.000000,253.000000,96.000000,0.000000,0.000000,0.000000,1648706870.688091,0.000000
191.000000,54860.210998,52168.189248,43348.146182,66710.815336,-4236.348478,50694.404625,10240.675240,4752.494961,0.126000,1.002000,-0.084000,192.000000,0.000000,0.000000,0.000000,0.000000,0.000000,0.000000,0.000000,0.000000,0.000000,1648706870.695943,0.000000
192.000000,54879.746423,52174.961826,43355.969293,66710.837687,-4232.593385,50701.311314,10299.035644,4758.753450,0.126000,1.002000,-0.084000,192.000000,0.000000,0.000000,0.000000,0.000000,0.000000,0.000000,0.000000,0.000000,0.000000,1648706870.695960,0.000000
193.000000,54916.470339,52221.855786,43397.923517,66753.149540,-4191.644989,50743.444353,10390.476631,4802.048779,0.126000,1.002000,-0.084000,192.000000,0.000000,0.000000,0.000000,0.000000,0.000000,0.000000,0.000000,0.000000,0.000000,1648706870.702303,0.000000
194.000000,54933.792941,52235.311536,43432.099334,66790.633415,-4158.899684,50769.819411,10390.208410,4854.262454,0.126000,1.002000,-0.084000,192.000000,0.000000,0.000000,0.000000,0.000000,0.000000,0.000000,0.000000,0.000000,0.000000,1648706870.702309,0.000000
195.000000,54900.667656,52171.273788,43409.501721,66758.648069,-4189.454518,50734.056620,10396.869230,4797.332561,0.126000,1.002000,-0.084000,192.000000,0.000000,0.000000,0.000000,0.000000,0.000000,0.000000,0.000000,0.000000,0.000000,1648706870.710447,0.000000
196.000000,54884.216772,52129.163102,43388.558136,66733.345894,-4206.866527,50703.658247,10408.961524,4732.445447,0.126000,1.002000,-0.084000,192.000000,0.000000,0.000000,0.000000,0.000000,0.000000,0.000000,0.000000,0.000000,0.000000,1648706870.710459,0.000000
197.000000,54873.264417,52103.033913,43377.315209,66714.011635,-4225.932565,50666.822573,10348.142427,4697.777891,0.126000,1.002000,-0.084000,192.000000,0.000000,0.000000,0.000000,0.000000,0.000000,0.000000,0.000000,0.000000,0.000000,1648706870.718544,0.000000
198.000000,54877.086565,52092.394482,43368.329807,66713.341083,-4230.648784,50662.218113,10380.172477,4680.120013,0.126000,1.002000,-0.084000,192.000000,0.000000,0.000000,0.000000,0.000000,0.000000,0.000000,0.000000,0.000000,0.000000,1648706870.718560,0.000000
199.000000,54875.007853,52071.696767,43353.979987,66700.935865,-4240.483551,50652.740974,10391.214239,4696.012103,0.126000,1.002000,-0.084000,192.000000,0.000000,0.000000,0.000000,0.000000,0.000000,0.000000,0.000000,0.000000,0.000000,1648706870.725645,0.000000
200.000000,54882.294522,52063.180752,43339.384298,66698.544228,-4242.919891,50643.889683,10391.013073,4690.915905,0.106000,1.006000,-0.088000,192.000000,3.000000,80.000000,31.000000,112.000000,253.000000,64.000000,0.000000,0.000000,0.000000,1648706870.725662,0.000000
201.000000,54889.916466,52060.699709,43320.273557,66688.016556,-4253.380508,50627.215281,10396.757471,4670.911094,0.106000,1.006000,-0.088000,192.000000,0.000000,0.000000,0.000000,0.000000,0.000000,0.000000,0.000000,0.000000,0.000000,1648706870.732425,0.000000
202.000000,54914.078702,52087.074767,43341.485362,66687.770687,-4245.780915,50631.685630,10428.631059,4655.555446,0.106000,1.006000,-0.088000,192.000000,0.000000,0.000000,0.000000,0.000000,0.000000,0.000000,0.000000,0.000000,0.000000,1648706870.732442,0.000000
203.000000,54944.968813,52104.151500,43368.150993,66716.403272,-4224.010315,50657.904227,10487.572609,4669.011196,0.106000,1.006000,-0.088000,192.000000,0.000000,0.000000,0.000000,0.000000,0.000000,0.000000,0.000000,0.000000,0.000000,1648706870.740417,0.000000
204.000000,54940.364354,52063.113697,43353.376490,66697.024309,-4242.651670,50641.743915,10489.628969,4663.803239,0.106000,1.006000,-0.088000,192.000000,0.000000,0.000000,0.000000,0.000000,0.000000,0.000000,0.000000,0.000000,0.000000,1648706870.748400,0.000000
205.000000,54958.692784,52049.076801,43351.454240,66686.183713,-4241.042345,50644.359069,10493.786394,4675.940237,0.106000,1.006000,-0.088000,192.000000,0.000000,0.000000,0.000000,0.000000,0.000000,0.000000,0.000000,0.000000,0.000000,1648706870.748417,0.000000
206.000000,54968.304034,52038.616185,43333.014051,66695.929074,-4238.471894,50643.822628,10531.292621,4668.072423,0.106000,1.006000,-0.088000,192.000000,0.000000,0.000000,0.000000,0.000000,0.000000,0.000000,0.000000,0.000000,0.000000,1648706870.755518,0.000000
207.000000,54965.465363,52043.600624,43323.447504,66674.761972,-4244.260996,50634.390191,10539.562766,4652.917940,0.106000,1.006000,-0.088000,192.000000,0.000000,0.000000,0.000000,0.000000,0.000000,0.000000,0.000000,0.000000,0.000000,1648706870.755535,0.000000
208.000000,54976.820049,52043.958252,43348.392051,66703.662777,-4225.396124,50662.486334,10577.247808,4666.440745,0.106000,1.006000,-0.088000,192.000000,0.000000,0.000000,0.000000,0.000000,0.000000,0.000000,0.000000,0.000000,0.000000,1648706870.762984,0.000000
209.000000,54986.811279,52030.256633,43376.823470,66720.806565,-4215.673115,50680.837116,10590.435337,4672.520420,0.106000,1.006000,-0.088000,192.000000,0.000000,0.000000,0.000000,0.000000,0.000000,0.000000,0.000000,0.000000,0.000000,1648706870.763001,0.000000
210.000000,54994.880258,52030.971888,43399.488139,66739.134996,-4201.949144,50696.393930,10625.393465,4690.938257,0.102000,0.992000,-0.070000,192.000000,3.000000,48.000000,31.000000,0.000000,253.000000,208.000000,0.000000,0.000000,0.000000,1648706870.770987,0.000000
211.000000,54975.255427,51991.521059,43380.064473,66723.555830,-4211.828615,50686.425052,10643.476026,4674.710891,0.102000,0.992000,-0.070000,192.000000,0.000000,0.000000,0.000000,0.000000,0.000000,0.000000,0.000000,0.000000,0.000000,1648706870.771003,0.000000
212.000000,54990.834593,51988.123594,43386.390017,66736.296324,-4204.743112,50697.757387,10724.121120,4675.694367,0.102000,0.992000,-0.070000,192.000000,0.000000,0.000000,0.000000,0.000000,0.000000,0.000000,0.000000,0.000000,0.000000,1648706870.779012,0.000000
213.000000,55025.256279,52020.734789,43427.114895,66775.545988,-4174.680015,50734.257786,10810.152985,4715.547528,0.102000,0.992000,-0.070000,192.000000,0.000000,0.000000,0.000000,0.000000,0.000000,0.000000,0.000000,0.000000,0.000000,1648706870.779029,0.000000
214.000000,55018.729570,52001.758158,43430.624119,66762.179644,-4177.071652,50718.790378,10788.538848,4689.239525,0.102000,0.992000,-0.070000,192.000000,0.000000,0.000000,0.000000,0.000000,0.000000,0.000000,0.000000,0.000000,0.000000,1648706870.785612,0.000000
215.000000,54972.304997,51935.395829,43378.790424,66691.749298,-4234.046249,50648.114162,10736.392228,4581.906448,0.102000,0.992000,-0.070000,192.000000,0.000000,0.000000,0.000000,0.000000,0.000000,0.000000,0.000000,0.000000,0.000000,1648706870.785628,0.000000
216.000000,54934.932880,51886.154936,43318.798342,66629.857317,-4290.618514,50595.967543,10765.874179,4537.202959,0.102000,0.992000,-0.070000,192.000000,0.000000,0.000000,0.000000,0.000000,0.000000,0.000000,0.000000,0.000000,0.000000,1648706870.793645,0.000000
217.000000,54970.002767,51897.040236,43338.378470,66648.632783,-4273.206505,50623.728409,10822.334686,4586.533259,0.102000,0.992000,-0.070000,192.000000,0.000000,0.000000,0.000000,0.000000,0.000000,0.000000,0.000000,0.000000,0.000000,1648706870.793662,0.000000
218.000000,55009.990038,51916.352143,43351.856572,66673.040887,-4251.055926,50642.995613,10855.929358,4609.533204,0.102000,0.992000,-0.070000,192.000000,0.000000,0.000000,0.000000,0.000000,0.000000,0.000000,0.000000,0.000000,0.000000,1648706870.800424,0.000000
219.000000,55011.532308,51911.032428,43358.338578,66668.168207,-4247.770220,50638.078229,10887.355910,4612.595393,0.102000,0.992000,-0.070000,192.000000,0.000000,0.000000,0.000000,0.000000,0.000000,0.000000,0.000000,0.000000,0.000000,1648706870.807696,0.000000
220.000000,55007.151366,51914.854576,43379.393921,66683.769725,-4227.027801,50653.769154,10924.213937,4641.876178,0.094000,0.972000,-0.086000,192.000000,2.000000,240.000000,30.000000,96.000000,253.000000,80.000000,0.000000,0.000000,0.000000,1648706870.807712,0.000000
221.000000,54998.836517,51890.938209,43352.482421,66679.634652,-4237.823693,50633.406715,10914.245059,4629.783884,0.094000,0.972000,-0.086000,192.000000,0.000000,0.000000,0.000000,0.000000,0.000000,0.000000,0.000000,0.000000,0.000000,1648706870.815312,0.000000
222.000000,55019.802453,51884.545610,43342.893522,66683.501504,-4240.908234,50630.992726,10915.675570,4637.405829,0.094000,0.972000,-0.086000,192.000000,0.000000,0.000000,0.000000,0.000000,0.000000,0.000000,0.000000,0.000000,0.000000,1648706870.815328,0.000000
223.000000,55033.682887,51873.101517,43332.365850,66666.625937,-4252.039403,50623.035505,10918.402483,4651.845056,0.094000,0.972000,-0.086000,192.000000,0.000000,0.000000,0.000000,0.000000,0.000000,0.000000,0.000000,0.000000,0.000000,1648706870.823313,0.000000
224.000000,55027.379695,51847.911101,43314.305641,66639.870899,-4277.430985,50598.739159,10903.717387,4623.659506,0.094000,0.972000,-0.086000,192.000000,0.000000,0.000000,0.000000,0.000000,0.000000,0.000000,0.000000,0.000000,0.000000,1648706870.823330,0.000000
225.000000,55065.310605,51854.549569,43331.985871,66664.882501,-4263.975235,50615.011229,10928.594879,4640.468018,0.094000,0.972000,-0.086000,192.000000,0.000000,0.000000,0.000000,0.000000,0.000000,0.000000,0.000000,0.000000,0.000000,1648706870.831291,0.000000
226.000000,55088.623475,51862.551494,43351.834220,66683.099172,-4253.402859,50632.490293,10943.995231,4655.019004,0.094000,0.972000,-0.086000,192.000000,0.000000,0.000000,0.000000,0.000000,0.000000,0.000000,0.000000,0.000000,0.000000,1648706870.831307,0.000000
227.000000,55077.514658,51847.598177,43347.319168,66653.684277,-4262.924703,50632.646755,10938.563757,4648.224073,0.094000,0.972000,-0.086000,192.000000,0.000000,0.000000,0.000000,0.000000,0.000000,0.000000,0.000000,0.000000,0.000000,1648706870.837736,0.000000
228.000000,55104.895545,51845.832389,43372.800156,66651.203233,-4246.205598,50649.075287,10965.765830,4656.605978,0.094000,0.972000,-0.086000,192.000000,0.000000,0.000000,0.000000,0.000000,0.000000,0.000000,0.000000,0.000000,0.000000,1648706870.837748,0.000000
229.000000,55084.533105,51801.397121,43340.792458,66630.527870,-4274.838182,50615.570023,10926.627925,4630.677954,0.094000,0.972000,-0.086000,192.000000,0.000000,0.000000,0.000000,0.000000,0.000000,0.000000,0.000000,0.000000,0.000000,1648706870.845692,0.000000
230.000000,55099.575829,51794.557487,43343.005281,66633.075968,-4272.021863,50617.872252,10964.178856,4630.141512,0.104000,0.954000,-0.104000,192.000000,3.000000,64.000000,29.000000,208.000000,252.000000,192.000000,0.000000,0.000000,0.000000,1648706870.845704,0.000000
231.000000,55119.155958,51803.811110,43352.258903,66641.279059,-4249.804229,50623.437837,10974.728879,4662.372728,0.104000,0.954000,-0.104000,192.000000,0.000000,0.000000,0.000000,0.000000,0.000000,0.000000,0.000000,0.000000,0.000000,1648706870.853870,0.000000
232.000000,55137.484388,51789.304827,43360.439642,66649.146873,-4236.974327,50633.674936,11077.189276,4664.853771,0.104000,0.954000,-0.104000,192.000000,0.000000,0.000000,0.000000,0.000000,0.000000,0.000000,0.000000,0.000000,0.000000,1648706870.853886,0.000000
233.000000,55138.847844,51762.818010,43344.905179,66634.774701,-4253.246397,50615.435912,11066.572197,4634.500102,0.104000,0.954000,-0.104000,192.000000,0.000000,0.000000,0.000000,0.000000,0.000000,0.000000,0.000000,0.000000,0.000000,1648706870.861051,0.000000
234.000000,55152.348298,51771.110507,43363.680644,66638.887422,-4244.864493,50616.195871,11058.480866,4638.903396,0.104000,0.954000,-0.104000,192.000000,0.000000,0.000000,0.000000,0.000000,0.000000,0.000000,0.000000,0.000000,0.000000,1648706870.867399,0.000000
235.000000,55155.634005,51767.623635,43382.321999,66654.868919,-4222.177472,50635.038392,11116.327180,4665.099641,0.104000,0.954000,-0.104000,192.000000,0.000000,0.000000,0.000000,0.000000,0.000000,0.000000,0.000000,0.000000,0.000000,1648706870.867430,0.000000
236.000000,55153.667051,51731.145588,43381.562040,66644.654172,-4221.819844,50634.725468,11144.557434,4664.809068,0.104000,0.954000,-0.104000,192.000000,0.000000,0.000000,0.000000,0.000000,0.000000,0.000000,0.000000,0.000000,0.000000,1648706870.875424,0.000000
237.000000,55167.435726,51719.165053,43376.599953,66634.908811,-4228.279499,50629.003421,11166.238626,4650.414544,0.104000,0.954000,-0.104000,192.000000,0.000000,0.000000,0.000000,0.000000,0.000000,0.000000,0.000000,0.000000,0.000000,1648706870.875436,0.000000
238.000000,55161.914845,51691.828870,43337.082069,66608.332587,-4262.790592,50593.061816,11159.309585,4614.584698,0.104000,0.954000,-0.104000,192.000000,0.000000,0.000000,0.000000,0.000000,0.000000,0.000000,0.000000,0.000000,0.000000,1648706870.883477,0.000000
239.000000,55161.110182,51688.520812,43331.561188,66603.012872,-4272.111269,50582.131813,11162.125905,4604.146433,0.104000,0.954000,-0.104000,192.000000,0.000000,0.000000,0.000000,0.000000,0.000000,0.000000,0.000000,0.000000,0.000000,1648706870.883494,0.000000
240.000000,55152.303595,51688.587867,43334.623377,66602.074099,-4265.182229,50589.977275,11190.467917,4622.228995,0.086000,0.968000,-0.086000,192.000000,2.000000,176.000000,30.000000,64.000000,253.000000,80.000000,0.000000,0.000000,0.000000,1648706870.890548,0.000000
241.000000,55168.150981,51689.750158,43336.590330,66606.387986,-4259.169609,50589.105557,11206.136490,4624.441817,0.086000,0.968000,-0.086000,192.000000,0.000000,0.000000,0.000000,0.000000,0.000000,0.000000,0.000000,0.000000,0.000000,1648706870.890565,0.000000
242.000000,55213.614430,51694.198155,43341.127734,66620.268419,-4246.026784,50602.650714,11216.574754,4653.297919,0.086000,0.968000,-0.086000,192.000000,0.000000,0.000000,0.000000,0.000000,0.000000,0.000000,0.000000,0.000000,0.000000,1648706870.898085,0.000000
243.000000,55231.339363,51695.069873,43354.114098,66633.902983,-4229.888824,50612.150206,11232.019810,4657.790620,0.086000,0.968000,-0.086000,192.000000,0.000000,0.000000,0.000000,0.000000,0.000000,0.000000,0.000000,0.000000,0.000000,1648706870.898103,0.000000
244.000000,55219.649401,51688.833736,43349.554342,66634.819404,-4230.447618,50610.250307,11240.088789,4655.242521,0.086000,0.968000,-0.086000,192.000000,0.000000,0.000000,0.000000,0.000000,0.000000,0.000000,0.000000,0.000000,0.000000,1648706870.906265,0.000000
245.000000,55233.306317,51687.045596,43328.051964,66638.686256,-4237.466066,50605.824662,11255.802066,4657.343585,0.086000,0.968000,-0.086000,192.000000,0.000000,0.000000,0.000000,0.000000,0.000000,0.000000,0.000000,0.000000,0.000000,1648706870.906281,0.000000
246.000000,55260.553093,51692.812347,43340.770106,66654.757161,-4226.133731,50620.979145,11278.623197,4669.145306,0.086000,0.968000,-0.086000,192.000000,0.000000,0.000000,0.000000,0.000000,0.000000,0.000000,0.000000,0.000000,0.000000,1648706870.914253,0.000000
247.000000,55237.016706,51665.163239,43330.823580,66628.806785,-4242.763429,50598.716807,11267.827304,4644.759553,0.086000,0.968000,-0.086000,192.000000,0.000000,0.000000,0.000000,0.000000,0.000000,0.000000,0.000000,0.000000,0.000000,1648706870.914269,0.000000
248.000000,55227.137235,51658.457715,43332.924644,66618.770852,-4241.779952,50597.956848,11280.545447,4648.916978,0.086000,0.968000,-0.086000,192.000000,0.000000,0.000000,0.000000,0.000000,0.000000,0.000000,0.000000,0.000000,0.000000,1648706870.920395,0.000000
249.000000,55247.231453,51666.705509,43364.261790,66630.572573,-4226.737228,50613.178386,11296.281075,4664.831420,0.086000,0.968000,-0.086000,192.000000,0.000000,0.000000,0.000000,0.000000,0.000000,0.000000,0.000000,0.000000,0.000000,1648706870.927901,0.000000
250.000000,55244.012802,51644.085544,43348.123830,66601.738823,-4251.346499,50589.887868,11265.927406,4634.388344,0.094000,0.986000,-0.096000,192.000000,2.000000,240.000000,30.000000,208.000000,253.000000,0.000000,0.000000,0.000000,0.000000,1648706870.927918,0.000000
251.000000,55261.514218,51638.139980,43323.425153,66581.801067,-4261.650653,50582.914124,11263.960453,4633.024887,0.094000,0.986000,-0.096000,192.000000,0.000000,0.000000,0.000000,0.000000,0.000000,0.000000,0.000000,0.000000,0.000000,1648706870.935530,0.000000
252.000000,55278.367433,51668.650111,43354.963464,66609.360768,-4237.890749,50609.199775,11297.756290,4664.607902,0.094000,0.986000,-0.096000,192.000000,0.000000,0.000000,0.000000,0.000000,0.000000,0.000000,0.000000,0.000000,0.000000,1648706870.935541,0.000000
253.000000,55261.424811,51670.348843,43351.029557,66606.298579,-4248.865455,50605.467034,11309.960343,4667.737146,0.094000,0.986000,-0.096000,192.000000,0.000000,0.000000,0.000000,0.000000,0.000000,0.000000,0.000000,0.000000,0.000000,1648706870.942729,0.000000
254.000000,55275.707576,51673.992178,43358.830316,66619.508460,-4245.020955,50618.073418,11328.109959,4684.277437,0.094000,0.986000,-0.096000,192.000000,0.000000,0.000000,0.000000,0.000000,0.000000,0.000000,0.000000,0.000000,0.000000,1648706870.942740,0.000000
255.000000,55286.324654,51655.619044,43356.572790,66623.822346,-4241.847007,50624.577776,11321.426788,4683.428071,0.094000,0.986000,-0.096000,192.000000,0.000000,0.000000,0.000000,0.000000,0.000000,0.000000,0.000000,0.000000,0.000000,1648706870.950320,0.000000
0.000000,55272.757145,51627.969936,43355.209333,66618.547334,-4251.815886,50611.367895,11286.222790,4659.779925,0.094000,0.986000,-0.096000,192.000000,0.000000,0.000000,0.000000,0.000000,0.000000,0.000000,0.000000,0.000000,0.000000,1648706870.950337,0.000000
1.000000,55270.566675,51603.941811,43352.661234,66608.645512,-4263.192923,50595.676970,11259.892435,4653.320271,0.094000,0.986000,-0.096000,192.000000,0.000000,0.000000,0.000000,0.000000,0.000000,0.000000,0.000000,0.000000,0.000000,1648706870.958361,0.000000
2.000000,55283.933018,51610.379113,43360.327883,66613.026454,-4262.879999,50605.288220,11300.438500,4683.875106,0.094000,0.986000,-0.096000,192.000000,0.000000,0.000000,0.000000,0.000000,0.000000,0.000000,0.000000,0.000000,0.000000,1648706870.958377,0.000000
3.000000,55292.381977,51615.810587,43359.612627,66615.887477,-4262.902351,50612.820758,11350.461704,4681.259952,0.094000,0.986000,-0.096000,192.000000,0.000000,0.000000,0.000000,0.000000,0.000000,0.000000,0.000000,0.000000,0.000000,1648706870.966327,0.000000
4.000000,55284.983550,51610.937907,43354.807002,66604.421032,-4274.502906,50606.070531,11399.590838,4633.896605,0.108000,0.994000,-0.110000,192.000000,3.000000,96.000000,31.000000,16.000000,252.000000,144.000000,0.000000,0.000000,0.000000,1648706870.966344,0.000000
5.000000,55278.456840,51617.397561,43354.203505,66591.054689,-4279.710863,50604.662371,11393.824088,4671.201667,0.108000,0.994000,-0.110000,192.000000,0.000000,0.000000,0.000000,0.000000,0.000000,0.000000,0.000000,0.000000,0.000000,1648706870.973079,0.000000
6.000000,55259.390802,51604.210032,43347.766202,66588.551293,-4280.940209,50605.019999,11393.377053,4688.859545,0.108000,0.994000,-0.110000,192.000000,0.000000,0.000000,0.000000,0.000000,0.000000,0.000000,0.000000,0.000000,0.000000,1648706870.973096,0.000000
7.000000,55247.097343,51603.897107,43355.812830,66579.923520,-4277.833316,50602.963639,11386.045681,4692.704045,0.108000,0.994000,-0.110000,192.000000,0.000000,0.000000,0.000000,0.000000,0.000000,0.000000,0.000000,0.000000,0.000000,1648706870.980142,0.000000
8.000000,55261.022480,51602.332485,43377.963409,66606.767965,-4261.337729,50615.771188,11396.595704,4693.173432,0.108000,0.994000,-0.110000,192.000000,0.000000,0.000000,0.000000,0.000000,0.000000,0.000000,0.000000,0.000000,0.000000,1648706870.980159,0.000000
9.000000,55266.118677,51586.216877,43368.441566,66618.457928,-4255.235702,50621.090903,11411.437262,4711.032475,0.108000,0.994000,-0.110000,192.000000,0.000000,0.000000,0.000000,0.000000,0.000000,0.000000,0.000000,0.000000,0.000000,1648706870.988120,0.000000
10.000000,55271.997186,51574.549267,43354.337615,66588.081907,-4257.269711,50612.083150,11412.331332,4716.978039,0.108000,0.994000,-0.110000,192.000000,0.000000,0.000000,0.000000,0.000000,0.000000,0.000000,0.000000,0.000000,0.000000,1648706870.996103,0.000000
11.000000,55265.381070,51568.246075,43348.660272,66584.259759,-4259.437830,50606.875194,11412.778367,4715.033438,0.108000,0.994000,-0.110000,192.000000,0.000000,0.000000,0.000000,0.000000,0.000000,0.000000,0.000000,0.000000,0.000000,1648706870.996119,0.000000
12.000000,55267.951520,51570.034214,43348.213237,66585.980843,-4256.979138,50607.881022,11411.079635,4710.093702,0.108000,0.994000,-0.110000,192.000000,0.000000,0.000000,0.000000,0.000000,0.000000,0.000000,0.000000,0.000000,0.000000,1648706871.002431,0.000000
13.000000,55265.425773,51562.434621,43342.245322,66581.488142,-4264.534028,50597.398054,11404.262352,4705.176318,0.108000,0.994000,-0.110000,192.000000,0.000000,0.000000,0.000000,0.000000,0.000000,0.000000,0.000000,0.000000,0.000000,1648706871.002442,0.000000
14.000000,55267.772706,51563.172229,43345.128697,66585.936139,-4256.845028,50603.410674,11420.400312,4716.620411,0.142000,0.974000,-0.124000,192.000000,4.000000,112.000000,30.000000,112.000000,252.000000,32.000000,0.000000,0.000000,0.000000,1648706871.010379,0.000000
15.000000,55271.617207,51562.456973,43349.353176,66590.071212,-4257.247359,50599.543822,11426.122359,4716.888632,0.142000,0.974000,-0.124000,192.000000,0.000000,0.000000,0.000000,0.000000,0.000000,0.000000,0.000000,0.000000,0.000000,1648706871.010385,0.000000
16.000000,55277.339253,51567.262598,43350.336653,66587.858389,-4263.058813,50595.364046,11433.565489,4716.598060,0.142000,0.974000,-0.124000,192.000000,0.000000,0.000000,0.000000,0.000000,0.000000,0.000000,0.000000,0.000000,0.000000,1648706871.018706,0.000000
17.000000,55288.582181,51562.233455,43346.156877,66587.679575,-4265.383394,50587.943266,11442.796760,4719.369676,0.142000,0.974000,-0.124000,192.000000,0.000000,0.000000,0.000000,0.000000,0.000000,0.000000,0.000000,0.000000,0.000000,1648706871.018722,0.000000
18.000000,55305.725969,51564.446278,43339.071374,66600.554180,-4264.802249,50578.287313,11447.624737,4720.777836,0.142000,0.974000,-0.124000,192.000000,0.000000,0.000000,0.000000,0.000000,0.000000,0.000000,0.000000,0.000000,0.000000,1648706871.025774,0.000000
19.000000,55309.771634,51553.270406,43321.681717,66581.063459,-4284.762357,50541.742211,11432.760827,4690.491222,0.142000,0.974000,-0.124000,192.000000,0.000000,0.000000,0.000000,0.000000,0.000000,0.000000,0.000000,0.000000,0.000000,1648706871.025791,0.000000
20.000000,55321.305134,51561.875828,43332.969348,66588.931273,-4278.816793,50535.930757,11441.120379,4714.496996,0.142000,0.974000,-0.124000,192.000000,0.000000,0.000000,0.000000,0.000000,0.000000,0.000000,0.000000,0.000000,0.000000,1648706871.033036,0.000000
21.000000,55309.145785,51554.790325,43344.189923,66582.583378,-4283.622418,50516.149463,11447.736495,4726.544586,0.142000,0.974000,-0.124000,192.000000,0.000000,0.000000,0.000000,0.000000,0.000000,0.000000,0.000000,0.000000,0.000000,1648706871.033047,0.000000
22.000000,55299.065149,51555.729098,43354.739947,66586.517285,-4281.431947,50490.199088,11448.384696,4720.330801,0.142000,0.974000,-0.124000,192.000000,0.000000,0.000000,0.000000,0.000000,0.000000,0.000000,0.000000,0.000000,0.000000,1648706871.041306,0.000000
23.000000,55287.598704,51560.490019,43348.883790,66586.919616,-4287.556325,50450.480038,11447.445923,4704.930449,0.142000,0.974000,-0.124000,192.000000,0.000000,0.000000,0.000000,0.000000,0.000000,0.000000,0.000000,0.000000,0.000000,1648706871.041323,0.000000
24.000000,55278.725061,51582.573543,43347.274464,66585.109125,-4296.251153,50402.826119,11453.682059,4705.958629,0.182000,0.968000,-0.128000,192.000000,5.000000,176.000000,30.000000,64.000000,252.000000,0.000000,0.000000,0.000000,0.000000,1648706871.048380,0.000000
25.000000,55283.888314,51590.083729,43361.400767,66594.563913,-4292.674874,50368.560895,11463.360365,4726.924566,0.182000,0.968000,-0.128000,192.000000,0.000000,0.000000,0.000000,0.000000,0.000000,0.000000,0.000000,0.000000,0.000000,1648706871.055388,0.000000
26.000000,55282.033119,51560.177095,43361.691339,66596.039128,-4300.408578,50331.188778,11471.608159,4723.214176,0.182000,0.968000,-0.128000,192.000000,0.000000,0.000000,0.000000,0.000000,0.000000,0.000000,0.000000,0.000000,0.000000,1648706871.055405,0.000000
27.000000,55294.505393,51549.492961,43353.577656,66606.499744,-4295.826470,50301.885641,11485.913275,4716.910984,0.182000,0.968000,-0.128000,192.000000,0.000000,0.000000,0.000000,0.000000,0.000000,0.000000,0.000000,0.000000,0.000000,1648706871.062962,0.000000
28.000000,55293.477213,51538.384144,43341.217141,66612.422957,-4302.979029,50271.800193,11482.068775,4721.090760,0.182000,0.968000,-0.128000,192.000000,0.000000,0.000000,0.000000,0.000000,0.000000,0.000000,0.000000,0.000000,0.000000,1648706871.062978,0.000000
29.000000,55302.619076,51535.992507,43322.531083,66602.767003,-4318.893471,50240.999489,11483.678101,4715.458121,0.182000,0.968000,-0.128000,192.000000,0.000000,0.000000,0.000000,0.000000,0.000000,0.000000,0.000000,0.000000,0.000000,1648706871.071024,0.000000
30.000000,55328.033010,51553.449220,43317.121961,66605.829192,-4326.068381,50228.594271,11498.407900,4721.783664,0.182000,0.968000,-0.128000,192.000000,0.000000,0.000000,0.000000,0.000000,0.000000,0.000000,0.000000,0.000000,0.000000,1648706871.071040,0.000000
31.000000,55327.183643,51563.596912,43346.201580,66621.028378,-4313.931383,50225.889710,11513.025941,4733.831255,0.182000,0.968000,-0.128000,192.000000,0.000000,0.000000,0.000000,0.000000,0.000000,0.000000,0.000000,0.000000,0.000000,1648706871.078147,0.000000
32.000000,55288.492774,51558.053679,43362.563057,66622.682407,-4314.244308,50209.103550,11524.715903,4749.723345,0.182000,0.968000,-0.128000,192.000000,0.000000,0.000000,0.000000,0.000000,0.000000,0.000000,0.000000,0.000000,0.000000,1648706871.078163,0.000000
33.000000,55269.180866,51533.556167,43364.239438,66608.980788,-4313.014962,50196.944201,11558.847017,4747.756391,0.182000,0.968000,-0.128000,192.000000,0.000000,0.000000,0.000000,0.000000,0.000000,0.000000,0.000000,0.000000,0.000000,1648706871.085620,0.000000
34.000000,55255.658061,51506.599963,43355.946941,66598.788392,-4324.660221,50177.498183,11569.955834,4733.786551,0.182000,0.968000,-0.128000,192.000000,0.000000,0.000000,0.000000,0.000000,0.000000,0.000000,0.000000,0.000000,0.000000,1648706871.085636,0.000000
35.000000,55249.556035,51486.997484,43353.756470,66590.607654,-4328.750590,50164.444764,11579.477677,4717.514481,0.202000,0.972000,-0.130000,192.000000,6.000000,80.000000,30.000000,96.000000,251.000000,240.000000,0.000000,0.000000,0.000000,1648706871.093482,0.000000
36.000000,55239.564805,51457.426126,43327.493170,66566.065439,-4348.017794,50141.131895,11563.183256,4698.761368,0.202000,0.972000,-0.130000,192.000000,0.000000,0.000000,0.000000,0.000000,0.000000,0.000000,0.000000,0.000000,0.000000,1648706871.093499,0.000000
37.000000,55226.533738,51456.017966,43303.397990,66554.598994,-4370.816573,50120.948269,11561.752744,4687.071405,0.202000,0.972000,-0.130000,192.000000,0.000000,0.000000,0.000000,0.000000,0.000000,0.000000,0.000000,0.000000,0.000000,1648706871.101617,0.000000
38.000000,55257.446201,51475.955722,43292.892670,66569.194683,-4368.916675,50131.565348,11590.653550,4705.958629,0.202000,0.972000,-0.130000,192.000000,0.000000,0.000000,0.000000,0.000000,0.000000,0.000000,0.000000,0.000000,0.000000,1648706871.101633,0.000000
39.000000,55288.649236,51455.123896,43285.941277,66573.262700,-4379.734919,50121.194139,11598.141384,4702.695275,0.202000,0.972000,-0.130000,192.000000,0.000000,0.000000,0.000000,0.000000,0.000000,0.000000,0.000000,0.000000,0.000000,1648706871.107764,0.000000
40.000000,55284.782384,51469.406661,43315.311469,66602.074099,-4372.470602,50118.444874,11600.421262,4702.427054,0.202000,0.972000,-0.130000,192.000000,0.000000,0.000000,0.000000,0.000000,0.000000,0.000000,0.000000,0.000000,0.000000,1648706871.115254,0.000000
41.000000,55249.176055,51513.037266,43334.645728,66600.420070,-4366.055651,50121.507063,11614.748730,4718.028571,0.202000,0.972000,-0.130000,192.000000,0.000000,0.000000,0.000000,0.000000,0.000000,0.000000,0.000000,0.000000,0.000000,1648706871.115270,0.000000
42.000000,55216.587212,51492.294847,43346.358043,66561.349220,-4365.653320,50120.456531,11619.464948,4722.074237,0.202000,0.972000,-0.130000,192.000000,0.000000,0.000000,0.000000,0.000000,0.000000,0.000000,0.000000,0.000000,0.000000,1648706871.123325,0.000000
43.000000,55253.109962,51444.417410,43334.243397,66565.171369,-4366.837962,50120.322421,11619.241431,4739.307432,0.202000,0.972000,-0.130000,192.000000,0.000000,0.000000,0.000000,0.000000,0.000000,0.000000,0.000000,0.000000,0.000000,1648706871.123360,0.000000
44.000000,55258.027346,51444.529169,43333.304624,66568.479427,-4365.116878,50118.936612,11634.351210,4740.089743,0.202000,0.972000,-0.130000,192.000000,0.000000,0.000000,0.000000,0.000000,0.000000,0.000000,0.000000,0.000000,0.000000,1648706871.131333,0.000000
45.000000,55236.703782,51473.564085,43313.992717,66540.405636,-4377.566800,50102.753949,11621.744826,4712.462987,0.208000,0.966000,-0.152000,192.000000,6.000000,128.000000,30.000000,48.000000,251.000000,64.000000,0.000000,0.000000,0.000000,1648706871.131350,0.000000
46.000000,55268.487962,51469.987806,43298.346495,66554.129607,-4382.059500,50093.746196,11600.622428,4705.176318,0.208000,0.966000,-0.152000,192.000000,0.000000,0.000000,0.000000,0.000000,0.000000,0.000000,0.000000,0.000000,0.000000,1648706871.137908,0.000000
47.000000,55258.943767,51414.510776,43298.637068,66545.591241,-4388.653265,50091.511022,11654.624242,4716.106321,0.208000,0.966000,-0.152000,192.000000,0.000000,0.000000,0.000000,0.000000,0.000000,0.000000,0.000000,0.000000,0.000000,1648706871.137926,0.000000
48.000000,55259.435506,51396.472919,43290.568088,66546.261793,-4390.128480,50088.426481,11668.415268,4695.453309,0.208000,0.966000,-0.152000,192.000000,0.000000,0.000000,0.000000,0.000000,0.000000,0.000000,0.000000,0.000000,0.000000,1648706871.145738,0.000000
49.000000,55253.825218,51414.108445,43327.873150,66580.415258,-4375.868067,50093.030941,11652.813751,4699.275458,0.208000,0.966000,-0.152000,192.000000,0.000000,0.000000,0.000000,0.000000,0.000000,0.000000,0.000000,0.000000,0.000000,1648706871.145754,0.000000
50.000000,55232.747523,51405.480672,43329.393068,66571.452209,-4382.864163,50089.678179,11651.986736,4716.374542,0.208000,0.966000,-0.152000,192.000000,0.000000,0.000000,0.000000,0.000000,0.000000,0.000000,0.000000,0.000000,0.000000,1648706871.153912,0.000000
51.000000,55249.399573,51402.060855,43325.749734,66531.688456,-4387.133346,50079.374025,11636.295812,4714.385237,0.208000,0.966000,-0.152000,192.000000,0.000000,0.000000,0.000000,0.000000,0.000000,0.000000,0.000000,0.000000,0.000000,1648706871.153929,0.000000
52.000000,55254.719288,51425.038448,43306.057847,66541.411464,-4393.503594,50071.148583,11648.209291,4674.956760,0.208000,0.966000,-0.152000,192.000000,0.000000,0.000000,0.000000,0.000000,0.000000,0.000000,0.000000,0.000000,0.000000,1648706871.161057,0.000000
53.000000,55208.317066,51423.987916,43282.163832,66535.220031,-4407.249916,50072.914371,11707.016731,4668.832382,0.208000,0.966000,-0.152000,192.000000,0.000000,0.000000,0.000000,0.000000,0.000000,0.000000,0.000000,0.000000,0.000000,1648706871.161073,0.000000
54.000000,55220.632877,51427.072457,43281.627391,66561.684497,-4405.417073,50094.617915,11717.969086,4742.615490,0.208000,0.966000,-0.152000,192.000000,0.000000,0.000000,0.000000,0.000000,0.000000,0.000000,0.000000,0.000000,0.000000,1648706871.167547,0.000000
55.000000,55282.681320,51430.872253,43329.817752,66577.777753,-4397.415149,50113.259269,11759.118647,4758.440525,0.198000,0.958000,-0.174000,192.000000,6.000000,48.000000,29.000000,240.000000,250.000000,144.000000,0.000000,0.000000,0.000000,1648706871.175600,0.000000
56.000000,55332.145731,51446.183198,43344.905179,66595.122706,-4379.287884,50131.788866,11791.863953,4748.471647,0.198000,0.958000,-0.174000,192.000000,0.000000,0.000000,0.000000,0.000000,0.000000,0.000000,0.000000,0.000000,0.000000,1648706871.175616,0.000000
57.000000,55302.395559,51473.228809,43325.526217,66625.610486,-4382.283018,50135.141627,11804.425633,4760.563941,0.198000,0.958000,-0.174000,192.000000,0.000000,0.000000,0.000000,0.000000,0.000000,0.000000,0.000000,0.000000,0.000000,1648706871.183427,0.000000
58.000000,55214.486148,51421.037486,43294.434940,66515.483441,-4423.991373,50090.214621,11729.435531,4735.775856,0.198000,0.958000,-0.174000,192.000000,0.000000,0.000000,0.000000,0.000000,0.000000,0.000000,0.000000,0.000000,0.000000,1648706871.183443,0.000000
59.000000,55177.136383,51316.766598,43272.507879,66488.303720,-4433.602623,50069.002815,11707.910801,4696.861469,0.198000,0.958000,-0.174000,192.000000,0.000000,0.000000,0.000000,0.000000,0.000000,0.000000,0.000000,0.000000,0.000000,1648706871.190621,0.000000
60.000000,55225.483206,51310.642220,43273.446652,66525.899354,-4414.022495,50093.030941,11736.878662,4730.277327,0.198000,0.958000,-0.174000,192.000000,0.000000,0.000000,0.000000,0.000000,0.000000,0.000000,0.000000,0.000000,0.000000,1648706871.190639,0.000000
61.000000,55273.852381,51329.663554,43245.730489,66511.013092,-4416.771760,50086.750100,11672.818562,4745.029479,0.198000,0.958000,-0.174000,192.000000,0.000000,0.000000,0.000000,0.000000,0.000000,0.000000,0.000000,0.000000,0.000000,1648706871.198175,0.000000
62.000000,55238.268404,51316.185452,43280.554507,66517.070415,-4412.167300,50093.925010,11693.225705,4728.466836,0.198000,0.958000,-0.174000,192.000000,0.000000,0.000000,0.000000,0.000000,0.000000,0.000000,0.000000,0.000000,0.000000,1648706871.198191,0.000000
63.000000,55167.927464,51286.301170,43294.345533,66517.718615,-4419.632783,50092.762720,11743.919461,4684.053920,0.198000,0.958000,-0.174000,192.000000,0.000000,0.000000,0.000000,0.000000,0.000000,0.000000,0.000000,0.000000,0.000000,1648706871.206247,0.000000
64.000000,55179.975054,51299.913383,43284.331952,66526.927534,-4409.663905,50099.535298,11750.870854,4675.068519,0.198000,0.958000,-0.174000,192.000000,0.000000,0.000000,0.000000,0.000000,0.000000,0.000000,0.000000,0.000000,0.000000,1648706871.206263,0.000000
65.000000,55204.740787,51298.661685,43297.854757,66524.446490,-4405.305315,50085.543106,11676.752469,4660.517533,0.212000,0.948000,-0.176000,192.000000,6.000000,160.000000,29.000000,160.000000,250.000000,128.000000,0.000000,0.000000,0.000000,1648706871.213320,0.000000
66.000000,55204.651380,51266.117545,43282.007370,66499.278426,-4426.248899,50085.431348,11710.995342,4682.086966,0.212000,0.948000,-0.176000,192.000000,0.000000,0.000000,0.000000,0.000000,0.000000,0.000000,0.000000,0.000000,0.000000,1648706871.213336,0.000000
67.000000,55208.585287,51254.584045,43243.696480,66480.480609,-4451.774591,50055.591769,11604.802204,4624.441817,0.212000,0.948000,-0.176000,192.000000,0.000000,0.000000,0.000000,0.000000,0.000000,0.000000,0.000000,0.000000,0.000000,1648706871.220833,0.000000
68.000000,55259.614320,51262.183638,43202.211643,66474.400935,-4473.276970,50108.163072,11658.021707,4668.407699,0.212000,0.948000,-0.176000,192.000000,0.000000,0.000000,0.000000,0.000000,0.000000,0.000000,0.000000,0.000000,0.000000,1648706871.220849,0.000000
69.000000,55267.884465,51288.491641,43257.621617,66480.368850,-4441.805713,50177.654645,11646.689373,4690.982961,0.212000,0.948000,-0.176000,192.000000,0.000000,0.000000,0.000000,0.000000,0.000000,0.000000,0.000000,0.000000,0.000000,1648706871.227929,0.000000
70.000000,55229.819444,51273.024234,43277.246449,66480.905292,-4436.307184,50223.051038,11667.968234,4726.388124,0.212000,0.948000,-0.176000,192.000000,0.000000,0.000000,0.000000,0.000000,0.000000,0.000000,0.000000,0.000000,0.000000,1648706871.227946,0.000000
71.000000,55220.319953,51244.928091,43251.273722,66482.045231,-4456.356699,50219.295945,11604.779852,4705.690408,0.212000,0.948000,-0.176000,192.000000,0.000000,0.000000,0.000000,0.000000,0.000000,0.000000,0.000000,0.000000,0.000000,1648706871.235879,0.000000
72.000000,55232.725171,51247.655004,43205.273832,66469.908234,-4476.294455,50251.996547,11701.786423,4713.848795,0.212000,0.948000,-0.176000,192.000000,0.000000,0.000000,0.000000,0.000000,0.000000,0.000000,0.000000,0.000000,0.000000,1648706871.243014,0.000000
73.000000,55262.140067,51259.009690,43224.161056,66470.489379,-4466.973778,50299.158728,11731.044856,4732.065467,0.212000,0.948000,-0.176000,192.000000,0.000000,0.000000,0.000000,0.000000,0.000000,0.000000,0.000000,0.000000,0.000000,1648706871.243030,0.000000
74.000000,55286.950503,51234.355716,43264.684768,66496.685624,-4455.753202,50325.645545,11657.149989,4735.351173,0.212000,0.948000,-0.176000,192.000000,0.000000,0.000000,0.000000,0.000000,0.000000,0.000000,0.000000,0.000000,0.000000,1648706871.250309,0.000000
75.000000,55175.080022,51179.862163,43312.249280,66526.793424,-4436.061315,50341.112952,11580.841134,4757.524104,0.170000,0.930000,-0.200000,192.000000,5.000000,80.000000,29.000000,16.000000,249.000000,192.000000,0.000000,0.000000,0.000000,1648706871.250326,0.000000
76.000000,55125.950888,51132.185892,43331.158856,66488.862513,-4417.084684,50393.192517,11766.315909,4747.130543,0.170000,0.930000,-0.200000,192.000000,0.000000,0.000000,0.000000,0.000000,0.000000,0.000000,0.000000,0.000000,0.000000,1648706871.258234,0.000000
77.000000,55152.482409,51104.112101,43323.603967,66529.833261,-4401.930201,50427.658907,11782.364462,4756.764145,0.170000,0.930000,-0.200000,192.000000,0.000000,0.000000,0.000000,0.000000,0.000000,0.000000,0.000000,0.000000,0.000000,1648706871.258245,0.000000
78.000000,55203.645552,51094.657313,43304.314411,66521.049025,-4410.379161,50441.137009,11762.225540,4771.113964,0.170000,0.930000,-0.200000,192.000000,0.000000,0.000000,0.000000,0.000000,0.000000,0.000000,0.000000,0.000000,0.000000,1648706871.266266,0.000000
79.000000,55226.936069,51073.020825,43266.741129,66469.818827,-4448.734754,50425.982526,11732.363609,4758.127601,0.170000,0.930000,-0.200000,192.000000,0.000000,0.000000,0.000000,0.000000,0.000000,0.000000,0.000000,0.000000,0.000000,1648706871.266283,0.000000
80.000000,55189.541601,51039.135580,43237.840323,66448.249393,-4478.060243,50414.359619,11742.287784,4721.984830,0.170000,0.930000,-0.200000,192.000000,0.000000,0.000000,0.000000,0.000000,0.000000,0.000000,0.000000,0.000000,0.000000,1648706871.273113,0.000000
81.000000,55173.180124,51026.864472,43258.046300,66447.914117,-4489.705502,50424.708477,11816.719093,4690.245353,0.170000,0.930000,-0.200000,192.000000,0.000000,0.000000,0.000000,0.000000,0.000000,0.000000,0.000000,0.000000,0.000000,1648706871.273129,0.000000
82.000000,55156.304557,51018.706086,43264.215382,66449.121112,-4507.363380,50426.831892,11864.551826,4669.346472,0.170000,0.930000,-0.200000,192.000000,0.000000,0.000000,0.000000,0.000000,0.000000,0.000000,0.000000,0.000000,0.000000,1648706871.281152,0.000000
83.000000,55148.079115,50989.939390,43248.792678,66421.494355,-4525.445941,50404.301334,11810.795881,4646.212416,0.170000,0.930000,-0.200000,192.000000,0.000000,0.000000,0.000000,0.000000,0.000000,0.000000,0.000000,0.000000,0.000000,1648706871.281169,0.000000
84.000000,55177.918694,50970.448669,43241.751878,66421.851983,-4526.608232,50412.213851,11894.436108,4638.411658,0.170000,0.930000,-0.200000,192.000000,0.000000,0.000000,0.000000,0.000000,0.000000,0.000000,0.000000,0.000000,0.000000,1648706871.289100,0.000000
85.000000,55208.115901,50962.759669,43233.347623,66436.604135,-4528.530482,50436.063163,11949.600214,4706.472719,0.120000,1.018000,-0.192000,192.000000,3.000000,192.000000,31.000000,208.000000,250.000000,0.000000,0.000000,0.000000,0.000000,1648706871.289116,0.000000
86.000000,55191.128575,50929.544977,43229.413716,66433.765463,-4528.865758,50456.135029,12006.530107,4716.531004,0.120000,1.018000,-0.192000,192.000000,0.000000,0.000000,0.000000,0.000000,0.000000,0.000000,0.000000,0.000000,0.000000,1648706871.296267,0.000000
87.000000,55136.724429,50912.356485,43246.535152,66438.973420,-4512.236060,50460.538323,11962.519522,4700.773025,0.120000,1.018000,-0.192000,192.000000,0.000000,0.000000,0.000000,0.000000,0.000000,0.000000,0.000000,0.000000,0.000000,1648706871.302807,0.000000
88.000000,55118.865385,50909.808387,43258.068652,66444.650763,-4492.007731,50466.059204,11906.573106,4725.292888,0.120000,1.018000,-0.192000,192.000000,0.000000,0.000000,0.000000,0.000000,0.000000,0.000000,0.000000,0.000000,0.000000,1648706871.302823,0.000000
89.000000,55161.959548,50914.055218,43251.743108,66461.883958,-4472.762879,50478.017387,11800.357616,4751.377374,0.120000,1.018000,-0.192000,192.000000,0.000000,0.000000,0.000000,0.000000,0.000000,0.000000,0.000000,0.000000,0.000000,1648706871.310701,0.000000
90.000000,55172.554275,50897.961962,43243.405908,66446.573013,-4472.293493,50479.202030,11731.938926,4739.307432,0.120000,1.018000,-0.192000,192.000000,0.000000,0.000000,0.000000,0.000000,0.000000,0.000000,0.000000,0.000000,0.000000,1648706871.310718,0.000000
91.000000,55178.388080,50893.893944,43245.708137,66439.241640,-4457.921321,50502.783120,11655.719478,4752.539665,0.120000,1.018000,-0.192000,192.000000,0.000000,0.000000,0.000000,0.000000,0.000000,0.000000,0.000000,0.000000,0.000000,1648706871.318739,0.000000
92.000000,55197.677636,50902.633477,43246.468097,66454.619641,-4438.765876,50534.366135,11536.808197,4768.074127,0.120000,1.018000,-0.192000,192.000000,0.000000,0.000000,0.000000,0.000000,0.000000,0.000000,0.000000,0.000000,0.000000,1648706871.318755,0.000000
93.000000,55227.271346,50924.269965,43279.548678,66481.799362,-4412.279059,50570.173630,11338.838796,4746.839970,0.120000,1.018000,-0.192000,192.000000,0.000000,0.000000,0.000000,0.000000,0.000000,0.000000,0.000000,0.000000,0.000000,1648706871.325852,0.000000
94.000000,55244.772761,50899.057197,43272.954914,66476.636109,-4409.552146,50605.847014,11340.001087,4711.926545,0.120000,1.018000,-0.192000,192.000000,0.000000,0.000000,0.000000,0.000000,0.000000,0.000000,0.000000,0.000000,0.000000,1648706871.325869,0.000000
95.000000,55285.877619,50885.556744,43271.725568,66493.042289,-4385.904001,50672.589323,11305.378235,4785.083805,0.106000,1.034000,-0.158000,192.000000,3.000000,80.000000,32.000000,80.000000,251.000000,16.000000,0.000000,0.000000,0.000000,1648706871.333183,0.000000
96.000000,55249.868959,50853.906674,43269.602152,66490.538894,-4394.352960,50681.910000,11197.329902,4775.025520,0.106000,1.034000,-0.158000,192.000000,0.000000,0.000000,0.000000,0.000000,0.000000,0.000000,0.000000,0.000000,0.000000,1648706871.333200,0.000000
97.000000,55193.520211,50816.221633,43256.191105,66469.192978,-4408.211041,50673.729262,11042.186444,4737.005202,0.106000,1.034000,-0.158000,192.000000,0.000000,0.000000,0.000000,0.000000,0.000000,0.000000,0.000000,0.000000,0.000000,1648706871.341361,0.000000
98.000000,55171.906075,50787.879621,43241.081326,66434.100739,-4418.314030,50655.512590,10858.432753,4716.531004,0.106000,1.034000,-0.158000,192.000000,0.000000,0.000000,0.000000,0.000000,0.000000,0.000000,0.000000,0.000000,0.000000,1648706871.341377,0.000000
99.000000,55149.107295,50741.633861,43227.536169,66412.352492,-4424.170187,50644.090848,10735.475807,4704.394007,0.106000,1.034000,-0.158000,192.000000,0.000000,0.000000,0.000000,0.000000,0.000000,0.000000,0.000000,0.000000,0.000000,1648706871.348447,0.000000
100.000000,55182.947836,50724.870053,43265.042396,66445.835405,-4389.212059,50660.184104,10617.279782,4714.340534,0.106000,1.034000,-0.158000,192.000000,0.000000,0.000000,0.000000,0.000000,0.000000,0.000000,0.000000,0.000000,0.000000,1648706871.348465,0.000000
101.000000,55174.789450,50682.714663,43257.889838,66437.475853,-4392.453062,50630.143360,10486.835001,4703.879917,0.106000,1.034000,-0.158000,192.000000,0.000000,0.000000,0.000000,0.000000,0.000000,0.000000,0.000000,0.000000,0.000000,1648706871.355145,0.000000
102.000000,55195.196592,50690.604829,43264.997693,66453.569109,-4384.182916,50594.626438,10363.565131,4731.283156,0.106000,1.034000,-0.158000,192.000000,0.000000,0.000000,0.000000,0.000000,0.000000,0.000000,0.000000,0.000000,0.000000,1648706871.363008,0.000000
103.000000,55216.944840,50703.390026,43290.590440,66448.584670,-4358.433707,50548.045403,10247.671336,4777.014825,0.106000,1.034000,-0.158000,192.000000,0.000000,0.000000,0.000000,0.000000,0.000000,0.000000,0.000000,0.000000,0.000000,1648706871.363024,0.000000
104.000000,55225.907889,50676.769099,43306.370772,66442.370885,-4341.938119,50473.882314,10186.159335,4789.956485,0.106000,1.034000,-0.158000,192.000000,0.000000,0.000000,0.000000,0.000000,0.000000,0.000000,0.000000,0.000000,0.000000,1648706871.371498,0.000000
105.000000,55250.941843,50648.985880,43328.878978,66438.593440,-4329.957584,50354.993386,10046.773856,4765.458973,0.058000,1.024000,-0.114000,192.000000,1.000000,208.000000,32.000000,0.000000,252.000000,112.000000,0.000000,0.000000,0.000000,1648706871.371516,0.000000
106.000000,55225.818482,50599.812043,43310.125865,66392.414736,-4343.838017,50180.180392,9835.862796,4722.811845,0.058000,1.024000,-0.114000,192.000000,0.000000,0.000000,0.000000,0.000000,0.000000,0.000000,0.000000,0.000000,0.000000,1648706871.378273,0.000000
107.000000,55252.260596,50603.768301,43314.685621,66377.327308,-4330.292860,50038.805609,9708.167280,4743.844836,0.058000,1.024000,-0.114000,192.000000,0.000000,0.000000,0.000000,0.000000,0.000000,0.000000,0.000000,0.000000,0.000000,1648706871.378307,0.000000
108.000000,55302.261448,50615.055932,43346.022766,66392.817067,-4288.673912,49943.207198,9719.477262,4766.353043,0.058000,1.024000,-0.114000,192.000000,0.000000,0.000000,0.000000,0.000000,0.000000,0.000000,0.000000,0.000000,0.000000,1648706871.385607,0.000000
109.000000,55312.766768,50613.021924,43367.145165,66399.254370,-4253.380508,49853.576702,9735.749332,4764.587255,0.058000,1.024000,-0.114000,192.000000,0.000000,0.000000,0.000000,0.000000,0.000000,0.000000,0.000000,0.000000,0.000000,1648706871.385623,0.000000
110.000000,55340.773504,50598.985028,43379.282162,66396.370995,-4233.889786,49746.400088,9614.513470,4771.516296,0.058000,1.024000,-0.114000,192.000000,0.000000,0.000000,0.000000,0.000000,0.000000,0.000000,0.000000,0.000000,0.000000,1648706871.393740,0.000000
111.000000,55360.510094,50578.287313,43375.638828,66374.600396,-4228.391257,49650.891084,9497.099757,4771.158668,0.058000,1.024000,-0.114000,192.000000,0.000000,0.000000,0.000000,0.000000,0.000000,0.000000,0.000000,0.000000,0.000000,1648706871.393757,0.000000
112.000000,55380.604312,50570.799478,43390.770959,66357.098980,-4210.152234,49574.984559,9404.407073,4765.995415,0.058000,1.024000,-0.114000,192.000000,0.000000,0.000000,0.000000,0.000000,0.000000,0.000000,0.000000,0.000000,0.000000,1648706871.401640,0.000000
113.000000,55380.313740,50533.941452,43386.032389,66336.043636,-4203.513766,49509.292782,9377.182648,4789.621209,0.058000,1.024000,-0.114000,192.000000,0.000000,0.000000,0.000000,0.000000,0.000000,0.000000,0.000000,0.000000,0.000000,1648706871.401656,0.000000
114.000000,55363.438173,50497.999847,43396.113026,66315.681197,-4193.902516,49468.903180,9347.812456,4812.397636,0.058000,1.024000,-0.114000,192.000000,0.000000,0.000000,0.000000,0.000000,0.000000,0.000000,0.000000,0.000000,0.000000,1648706871.408198,0.000000
115.000000,55343.902748,50442.746334,43348.213237,66227.838841,-4236.862568,49369.884952,9207.219983,4715.838100,-0.026000,0.984000,-0.090000,192.000000,255.000000,48.000000,30.000000,192.000000,253.000000,48.000000,0.000000,0.000000,0.000000,1648706871.408214,0.000000
116.000000,55397.435176,50437.605433,43346.112173,66205.308283,-4228.659478,49356.362147,9156.660337,4711.546565,-0.026000,0.984000,-0.090000,192.000000,0.000000,0.000000,0.000000,0.000000,0.000000,0.000000,0.000000,0.000000,0.000000,1648706871.415352,0.000000
117.000000,55380.961940,50409.285773,43351.275426,66197.172248,-4218.020048,49366.040452,9130.754665,4729.651478,-0.026000,0.984000,-0.090000,192.000000,0.000000,0.000000,0.000000,0.000000,0.000000,0.000000,0.000000,0.000000,0.000000,1648706871.423278,0.000000
118.000000,55349.870664,50379.803822,43348.101479,66172.473570,-4209.302868,49378.780947,9079.971502,4726.432827,-0.026000,0.984000,-0.090000,192.000000,0.000000,0.000000,0.000000,0.000000,0.000000,0.000000,0.000000,0.000000,0.000000,1648706871.423293,0.000000
119.000000,55352.441114,50358.368499,43338.601987,66153.765160,-4208.721722,49424.445561,9137.639003,4712.999429,-0.026000,0.984000,-0.090000,192.000000,0.000000,0.000000,0.000000,0.000000,0.000000,0.000000,0.000000,0.000000,0.000000,1648706871.431274,0.000000
120.000000,55405.526508,50368.784412,43363.725348,66167.936166,-4181.497297,49526.637736,9118.081226,4720.397856,-0.026000,0.984000,-0.090000,192.000000,0.000000,0.000000,0.000000,0.000000,0.000000,0.000000,0.000000,0.000000,0.000000,1648706871.431290,0.000000
121.000000,55431.968621,50369.522020,43335.182170,66147.931355,-4178.077481,49597.358656,9054.736382,4724.935260,-0.026000,0.984000,-0.090000,192.000000,0.000000,0.000000,0.000000,0.000000,0.000000,0.000000,0.000000,0.000000,0.000000,1648706871.437958,0.000000
122.000000,55440.417581,50386.509345,43315.914967,66125.937238,-4179.083309,49643.649118,9062.514789,4749.589235,-0.026000,0.984000,-0.090000,192.000000,0.000000,0.000000,0.000000,0.000000,0.000000,0.000000,0.000000,0.000000,0.000000,1648706871.437974,0.000000
123.000000,55431.499235,50357.966168,43313.724496,66115.878953,-4183.888934,49668.481906,9060.525484,4761.703880,-0.026000,0.984000,-0.090000,192.000000,0.000000,0.000000,0.000000,0.000000,0.000000,0.000000,0.000000,0.000000,0.000000,1648706871.445909,0.000000
124.000000,55452.621633,50325.131455,43330.890635,66130.720512,-4171.528419,49716.672268,9062.827714,4776.098403,-0.026000,0.984000,-0.090000,192.000000,0.000000,0.000000,0.000000,0.000000,0.000000,0.000000,0.000000,0.000000,0.000000,1648706871.445927,0.000000
125.000000,55453.694517,50320.303478,43334.958653,66132.262782,-4151.411849,49749.976367,8996.778309,4768.252941,-0.082000,0.956000,-0.058000,192.000000,253.000000,112.000000,29.000000,224.000000,254.000000,48.000000,0.000000,0.000000,0.000000,1648706871.453896,0.000000
126.000000,55446.251386,50307.048894,43333.058755,66119.321122,-4136.570291,49771.814021,8986.831783,4756.428868,-0.082000,0.956000,-0.058000,192.000000,0.000000,0.000000,0.000000,0.000000,0.000000,0.000000,0.000000,0.000000,0.000000,1648706871.453912,0.000000
127.000000,55461.182351,50292.028522,43321.189978,66118.158831,-4138.201968,49784.956847,8971.096155,4730.590252,-0.082000,0.956000,-0.058000,192.000000,0.000000,0.000000,0.000000,0.000000,0.000000,0.000000,0.000000,0.000000,0.000000,1648706871.461010,0.000000
128.000000,55446.117275,50283.914838,43306.191958,66093.057822,-4156.664509,49788.823699,8904.465604,4719.593193,-0.082000,0.956000,-0.058000,192.000000,0.000000,0.000000,0.000000,0.000000,0.000000,0.000000,0.000000,0.000000,0.000000,1648706871.461027,0.000000
129.000000,55442.384534,50290.329789,43324.296871,66103.987825,-4142.582910,49826.866368,8905.046750,4748.873979,-0.082000,0.956000,-0.058000,192.000000,0.000000,0.000000,0.000000,0.000000,0.000000,0.000000,0.000000,0.000000,0.000000,1648706871.468543,0.000000
130.000000,55444.284432,50284.875963,43309.812940,66085.368822,-4144.482809,49841.104429,8859.851522,4762.374432,-0.082000,0.956000,-0.058000,192.000000,0.000000,0.000000,0.000000,0.000000,0.000000,0.000000,0.000000,0.000000,0.000000,1648706871.468560,0.000000
131.000000,55398.441005,50228.080181,43270.853850,66011.496307,-4191.644989,49804.782844,8751.110286,4705.980981,-0.082000,0.956000,-0.058000,192.000000,0.000000,0.000000,0.000000,0.000000,0.000000,0.000000,0.000000,0.000000,0.000000,1648706871.475583,0.000000
132.000000,55379.218504,50206.175471,43275.793585,66002.421499,-4199.915135,49807.688571,8692.951047,4689.127766,-0.082000,0.956000,-0.058000,192.000000,0.000000,0.000000,0.000000,0.000000,0.000000,0.000000,0.000000,0.000000,0.000000,1648706871.475599,0.000000
133.000000,55387.063967,50221.642878,43262.181373,66013.776185,-4205.681885,49825.122932,8637.004630,4719.526138,-0.082000,0.956000,-0.058000,192.000000,0.000000,0.000000,0.000000,0.000000,0.000000,0.000000,0.000000,0.000000,0.000000,1648706871.483532,0.000000
134.000000,55400.676179,50223.229852,43262.941332,66011.026920,-4208.297039,49846.155923,8602.873516,4723.996487,-0.082000,0.956000,-0.058000,192.000000,0.000000,0.000000,0.000000,0.000000,0.000000,0.000000,0.000000,0.000000,0.000000,1648706871.490293,0.000000
135.000000,55406.308819,50208.053018,43254.894704,66019.319417,-4219.249394,49851.229769,8561.768658,4710.004295,-0.082000,0.956000,-0.058000,192.000000,0.000000,0.000000,0.000000,0.000000,0.000000,0.000000,0.000000,0.000000,0.000000,1648706871.490309,0.000000
136.000000,55425.128987,50218.290117,43251.161963,65992.877304,-4230.201749,49865.780755,8524.128321,4720.397856,-0.090000,0.980000,-0.050000,192.000000,253.000000,48.000000,30.000000,160.000000,254.000000,112.000000,0.000000,0.000000,0.000000,1648706871.498273,0.000000
137.000000,55412.567307,50191.825651,43255.006463,65960.713143,-4241.310566,49869.111165,8482.643483,4713.513519,-0.090000,0.980000,-0.050000,192.000000,0.000000,0.000000,0.000000,0.000000,0.000000,0.000000,0.000000,0.000000,0.000000,1648706871.498289,0.000000
138.000000,55390.662597,50149.692613,43267.970475,65967.597481,-4245.758563,49868.284150,8434.520177,4685.439728,-0.090000,0.980000,-0.050000,192.000000,0.000000,0.000000,0.000000,0.000000,0.000000,0.000000,0.000000,0.000000,0.000000,1648706871.506269,0.000000
139.000000,55369.271978,50119.517758,43249.127954,65965.719934,-4241.824656,49880.063519,8379.400775,4704.863394,-0.090000,0.980000,-0.050000,192.000000,0.000000,0.000000,0.000000,0.000000,0.000000,0.000000,0.000000,0.000000,0.000000,1648706871.506286,0.000000
140.000000,55373.049423,50116.276755,43248.189181,65968.513902,-4242.115228,49902.683485,8323.588469,4722.543624,-0.090000,0.980000,-0.050000,192.000000,0.000000,0.000000,0.000000,0.000000,0.000000,0.000000,0.000000,0.000000,0.000000,1648706871.513035,0.000000
141.000000,55379.486725,50133.979336,43239.069669,65967.217501,-4253.112287,49899.286020,8241.669326,4716.665115,-0.090000,0.980000,-0.050000,192.000000,0.000000,0.000000,0.000000,0.000000,0.000000,0.000000,0.000000,0.000000,0.000000,1648706871.513046,0.000000
142.000000,55360.800667,50144.976395,43277.022931,65995.045423,-4236.482589,49915.714552,8220.815148,4713.111188,-0.090000,0.980000,-0.050000,192.000000,0.000000,0.000000,0.000000,0.000000,0.000000,0.000000,0.000000,0.000000,0.000000,1648706871.520853,0.000000
143.000000,55323.786178,50107.604278,43284.644876,65972.984251,-4237.421362,49927.024535,8272.648844,4682.332835,-0.090000,0.980000,-0.050000,192.000000,0.000000,0.000000,0.000000,0.000000,0.000000,0.000000,0.000000,0.000000,0.000000,1648706871.520869,0.000000
144.000000,55317.818262,50090.125214,43267.612847,65944.709294,-4251.838237,49919.067314,8168.377956,4699.007237,-0.090000,0.980000,-0.050000,192.000000,0.000000,0.000000,0.000000,0.000000,0.000000,0.000000,0.000000,0.000000,0.000000,1648706871.528533,0.000000
145.000000,55333.263318,50086.817156,43250.938445,65952.264184,-4255.526275,49929.326764,8119.226470,4714.005257,-0.090000,0.980000,-0.050000,192.000000,0.000000,0.000000,0.000000,0.000000,0.000000,0.000000,0.000000,0.000000,0.000000,1648706871.528542,0.000000
146.000000,55348.373097,50109.347714,43273.312542,65979.622719,-4241.154103,49946.694070,8049.801952,4731.841949,-0.076000,0.988000,-0.060000,192.000000,253.000000,160.000000,30.000000,224.000000,254.000000,32.000000,0.000000,0.000000,0.000000,1648706871.536748,0.000000
147.000000,55321.260431,50094.997894,43278.207574,65968.022164,-4261.449487,49940.592043,8049.623138,4683.383367,-0.076000,0.988000,-0.060000,192.000000,0.000000,0.000000,0.000000,0.000000,0.000000,0.000000,0.000000,0.000000,0.000000,1648706871.536760,0.000000
148.000000,55300.540364,50068.958112,43248.949140,65947.905594,-4295.558249,49925.728133,8013.636829,4648.179370,-0.076000,0.988000,-0.060000,192.000000,0.000000,0.000000,0.000000,0.000000,0.000000,0.000000,0.000000,0.000000,0.000000,1648706871.542919,0.000000
149.000000,55318.108835,50067.885228,43238.980262,65943.770521,-4300.118005,49932.746581,7933.662287,4687.071405,-0.076000,0.988000,-0.060000,192.000000,0.000000,0.000000,0.000000,0.000000,0.000000,0.000000,0.000000,0.000000,0.000000,1648706871.550415,0.000000
150.000000,55338.918309,50087.331246,43223.714021,65933.511070,-4303.359008,49936.345212,7908.382464,4706.785644,-0.076000,0.988000,-0.060000,192.000000,0.000000,0.000000,0.000000,0.000000,0.000000,0.000000,0.000000,0.000000,0.000000,1648706871.550458,0.000000
151.000000,55307.067073,50085.096071,43215.019192,65930.918268,-4301.906145,49943.967157,7914.596249,4700.147176,-0.076000,0.988000,-0.060000,192.000000,0.000000,0.000000,0.000000,0.000000,0.000000,0.000000,0.000000,0.000000,0.000000,1648706871.558402,0.000000
152.000000,55250.807732,50028.546158,43218.394306,65922.804585,-4302.666104,49938.267462,7869.624540,4685.685597,-0.076000,0.988000,-0.060000,192.000000,0.000000,0.000000,0.000000,0.000000,0.000000,0.000000,0.000000,0.000000,0.000000,1648706871.558418,0.000000
153.000000,55235.765008,49988.871811,43217.947271,65920.323541,-4299.290991,49931.293718,7824.518719,4674.308559,-0.076000,0.988000,-0.060000,192.000000,0.000000,0.000000,0.000000,0.000000,0.000000,0.000000,0.000000,0.000000,0.000000,1648706871.566502,0.000000
154.000000,55258.809657,50005.166233,43220.584776,65943.524652,-4277.743909,49947.521084,7803.239859,4684.500955,-0.076000,0.988000,-0.060000,192.000000,0.000000,0.000000,0.000000,0.000000,0.000000,0.000000,0.000000,0.000000,0.000000,1648706871.566518,0.000000
155.000000,55294.103061,50035.922234,43226.396230,65966.390487,-4257.940264,49970.833954,7788.979446,4712.552394,-0.076000,0.988000,-0.060000,192.000000,0.000000,0.000000,0.000000,0.000000,0.000000,0.000000,0.000000,0.000000,0.000000,1648706871.573109,0.000000
156.000000,55297.344064,50037.084524,43228.586701,65968.469199,-4261.158915,49978.478250,7782.944475,4706.673885,-0.050000,0.962000,-0.076000,192.000000,254.000000,112.000000,30.000000,16.000000,253.000000,160.000000,0.000000,0.000000,0.000000,1648706871.573126,0.000000
157.000000,55311.582126,50045.689946,43260.326178,65991.200923,-4236.080257,49998.348951,7756.927044,4708.283211,-0.050000,0.962000,-0.076000,192.000000,0.000000,0.000000,0.000000,0.000000,0.000000,0.000000,0.000000,0.000000,0.000000,1648706871.581134,0.000000
158.000000,55313.280858,50060.352690,43276.531193,66006.176592,-4223.406818,50005.993248,7700.958276,4699.633086,-0.050000,0.962000,-0.076000,192.000000,0.000000,0.000000,0.000000,0.000000,0.000000,0.000000,0.000000,0.000000,0.000000,1648706871.581152,0.000000
159.000000,55303.602553,50029.999021,43226.530340,65973.654803,-4264.914008,49965.871866,7602.476490,4673.794469,-0.050000,0.962000,-0.076000,192.000000,0.000000,0.000000,0.000000,0.000000,0.000000,0.000000,0.000000,0.000000,0.000000,1648706871.589052,0.000000
160.000000,55305.323637,50014.330448,43204.357410,65974.034783,-4277.609799,49973.270294,7605.941010,4671.872219,-0.050000,0.962000,-0.076000,192.000000,0.000000,0.000000,0.000000,0.000000,0.000000,0.000000,0.000000,0.000000,0.000000,1648706871.589070,0.000000
161.000000,55231.629936,50005.099178,43188.040637,65929.912440,-4303.649581,49965.693052,7599.302542,4633.762495,-0.050000,0.962000,-0.076000,192.000000,0.000000,0.000000,0.000000,0.000000,0.000000,0.000000,0.000000,0.000000,0.000000,1648706871.596151,0.000000
162.000000,55254.384012,50027.316812,43166.985293,65936.394445,-4326.761285,49963.480230,7566.691347,4620.910242,-0.050000,0.962000,-0.076000,192.000000,0.000000,0.000000,0.000000,0.000000,0.000000,0.000000,0.000000,0.000000,0.000000,1648706871.596168,0.000000
163.000000,55282.033119,49993.766844,43175.769529,65949.850196,-4335.210244,49977.137146,7617.943897,4641.540902,-0.050000,0.962000,-0.076000,192.000000,0.000000,0.000000,0.000000,0.000000,0.000000,0.000000,0.000000,0.000000,0.000000,1648706871.602776,0.000000
164.000000,55199.644589,49928.522101,43219.847169,65951.101893,-4313.707866,50000.293553,7630.796150,4642.524379,-0.050000,0.962000,-0.076000,192.000000,0.000000,0.000000,0.000000,0.000000,0.000000,0.000000,0.000000,0.000000,0.000000,1648706871.610849,0.000000
165.000000,55160.931368,49886.769043,43228.251425,65969.855007,-4295.491194,50026.623908,7568.837114,4695.118033,-0.050000,0.962000,-0.076000,192.000000,0.000000,0.000000,0.000000,0.000000,0.000000,0.000000,0.000000,0.000000,0.000000,1648706871.610867,0.000000
166.000000,55211.043979,49913.054694,43221.434143,66003.762603,-4274.681720,50064.778336,7633.925394,4714.653458,-0.040000,0.982000,-0.066000,192.000000,254.000000,192.000000,30.000000,176.000000,253.000000,240.000000,0.000000,0.000000,0.000000,1648706871.618804,0.000000
167.000000,55234.200386,49939.809732,43244.992881,66019.855859,-4264.981063,50078.010568,7586.919676,4720.688429,-0.040000,0.982000,-0.066000,192.000000,0.000000,0.000000,0.000000,0.000000,0.000000,0.000000,0.000000,0.000000,0.000000,1648706871.618820,0.000000
168.000000,55212.206270,49928.410343,43228.452591,66007.227124,-4288.092767,50059.391565,7509.649695,4692.435824,-0.040000,0.982000,-0.066000,192.000000,0.000000,0.000000,0.000000,0.000000,0.000000,0.000000,0.000000,0.000000,0.000000,1648706871.625435,0.000000
169.000000,55178.186915,49887.596057,43194.232070,65956.399257,-4327.096561,50019.359591,7420.175662,4644.178408,-0.040000,0.982000,-0.066000,192.000000,0.000000,0.000000,0.000000,0.000000,0.000000,0.000000,0.000000,0.000000,0.000000,1648706871.625452,0.000000
170.000000,55183.305464,49881.494031,43185.805462,65959.416742,-4332.192759,50016.230347,7359.356565,4642.144399,-0.040000,0.982000,-0.066000,192.000000,0.000000,0.000000,0.000000,0.000000,0.000000,0.000000,0.000000,0.000000,0.000000,1648706871.633244,0.000000
171.000000,55161.892493,49885.606752,43158.513982,65967.843350,-4337.981860,50008.407236,7297.084605,4635.058896,-0.040000,0.982000,-0.066000,192.000000,0.000000,0.000000,0.000000,0.000000,0.000000,0.000000,0.000000,0.000000,0.000000,1648706871.633279,0.000000
172.000000,55182.232580,49897.006142,43174.942514,65979.846237,-4321.955660,50027.473274,7260.986538,4652.940292,-0.040000,0.982000,-0.066000,192.000000,0.000000,0.000000,0.000000,0.000000,0.000000,0.000000,0.000000,0.000000,0.000000,1648706871.641359,0.000000
