%OpenBCI Raw EEG Data
%Number of channels = 8
%Sample Rate = 256 Hz
%Board = OpenBCI_GUI$BoardCytonSerial
%Channels = Fp1, Fp2, F3, F4, Fz, Pz, O1, O2
%Data recorded at AIMS Lab (http://aimsl.uiu.ac.bd) by Rana Depto (mail@ranadepto.com)
%Brainwaves were obtained via the Ultracortex Mark IV Headset using the OpenBCI Cyton Board
%Recording Application = ConcentrateToday (https://concentrate.today)
%Data type = RAW data with noise
%Day No = 10
%Subject ID = 7
%Session ID = 7
%Record starting timestamp (UTC+6) = 2022-03-30T12:43:20.577851
%Record ending timestamp (UTC+6)   = 2022-03-30T12:43:56.933899
%Recorded durations = ~36 seconds
Sample Index, EXG Channel 0, EXG Channel 1, EXG Channel 2, EXG Channel 3, EXG Channel 4, EXG Channel 5, EXG Channel 6, EXG Channel 7, Accel Channel 0, Accel Channel 1, Accel Channel 2, Other, Other, Other, Other, Other, Other, Other, Analog Channel 0, Analog Channel 1, Analog Channel 2, Timestamp, Timestamp (Formatted)
221.000000,-6633.573071,2617.344572,23958.968992,46735.508351,23984.829960,59475.086269,3487.542687,8060.329623,0.006000,0.994000,-0.126000,192.000000,0.000000,0.000000,0.000000,0.000000,0.000000,0.000000,0.000000,0.000000,0.000000,1648622600.584571,0.000000
222.000000,-6630.019144,2620.384409,23961.271222,46740.381031,23983.578263,59470.772382,3483.139394,8052.193588,0.006000,0.994000,-0.126000,192.000000,0.000000,0.000000,0.000000,0.000000,0.000000,0.000000,0.000000,0.000000,0.000000,1648622600.584578,0.000000
223.000000,-6630.801455,2618.193939,23963.774617,46744.404345,23984.137056,59468.291338,3478.333769,8048.170274,-0.004000,0.968000,-0.130000,192.000000,255.000000,224.000000,30.000000,64.000000,251.000000,240.000000,0.000000,0.000000,0.000000,1648622600.594111,0.000000
224.000000,-6628.633336,2617.657497,23968.066152,46747.846514,23988.339184,59462.926920,3464.654501,8043.029373,-0.004000,0.968000,-0.130000,192.000000,0.000000,0.000000,0.000000,0.000000,0.000000,0.000000,0.000000,0.000000,0.000000,1648622600.594118,0.000000
225.000000,-6615.132882,2626.709953,23975.106952,46753.322691,23993.323623,59469.945368,3460.362966,8048.058516,-0.004000,0.968000,-0.130000,192.000000,0.000000,0.000000,0.000000,0.000000,0.000000,0.000000,0.000000,0.000000,0.000000,1648622600.600247,0.000000
226.000000,-6617.680981,2627.872244,23974.056420,46751.646310,23990.663766,59474.929807,3452.271635,8049.511379,-0.004000,0.968000,-0.130000,192.000000,0.000000,0.000000,0.000000,0.000000,0.000000,0.000000,0.000000,0.000000,0.000000,1648622600.600252,0.000000
227.000000,-6616.339876,2631.157950,23976.805684,46754.574389,23990.999042,59480.607150,3448.114210,8044.526940,-0.004000,0.968000,-0.130000,192.000000,0.000000,0.000000,0.000000,0.000000,0.000000,0.000000,0.000000,0.000000,0.000000,1648622600.607275,0.000000
228.000000,-6612.629487,2634.175436,23979.286728,46756.362528,23990.306138,59485.546885,3448.561245,8044.593995,-0.004000,0.968000,-0.130000,192.000000,0.000000,0.000000,0.000000,0.000000,0.000000,0.000000,0.000000,0.000000,0.000000,1648622600.607280,0.000000
229.000000,-6611.914231,2638.042288,23979.264376,46758.798869,23992.228388,59494.219362,3447.287196,8053.869969,-0.004000,0.968000,-0.130000,192.000000,0.000000,0.000000,0.000000,0.000000,0.000000,0.000000,0.000000,0.000000,0.000000,1648622600.615242,0.000000
230.000000,-6623.090103,2632.566110,23968.513187,46752.361566,23982.103048,59508.971513,3456.093783,8066.521056,-0.004000,0.968000,-0.130000,192.000000,0.000000,0.000000,0.000000,0.000000,0.000000,0.000000,0.000000,0.000000,0.000000,1648622600.615249,0.000000
231.000000,-6612.115397,2641.976195,23978.638527,46761.816354,23989.255606,59507.988037,3450.349385,8065.314062,-0.004000,0.968000,-0.130000,192.000000,0.000000,0.000000,0.000000,0.000000,0.000000,0.000000,0.000000,0.000000,0.000000,1648622600.622409,0.000000
232.000000,-6611.578955,2639.897482,23978.973803,46762.151630,23986.372231,59506.512821,3436.223082,8063.145943,-0.004000,0.968000,-0.130000,192.000000,0.000000,0.000000,0.000000,0.000000,0.000000,0.000000,0.000000,0.000000,0.000000,1648622600.622417,0.000000
233.000000,-6617.524519,2632.454351,23972.178873,46757.390709,23978.526769,59504.747034,3427.192977,8056.306309,0.002000,0.948000,-0.136000,192.000000,0.000000,16.000000,29.000000,160.000000,251.000000,192.000000,0.000000,0.000000,0.000000,1648622600.628937,0.000000
234.000000,-6621.726647,2629.883901,23966.948565,46757.480116,23974.659917,59505.149365,3430.232815,8059.569664,0.002000,0.948000,-0.136000,192.000000,0.000000,0.000000,0.000000,0.000000,0.000000,0.000000,0.000000,0.000000,0.000000,1648622600.636821,0.000000
235.000000,-6625.191167,2624.743000,23966.523882,46758.932979,23971.754190,59497.080385,3426.142445,8061.402507,0.002000,0.948000,-0.136000,192.000000,0.000000,0.000000,0.000000,0.000000,0.000000,0.000000,0.000000,0.000000,0.000000,1648622600.636834,0.000000
236.000000,-6625.526443,2622.530177,23965.562757,46754.015595,23967.909690,59493.191182,3418.162873,8061.447210,0.002000,0.948000,-0.136000,192.000000,0.000000,0.000000,0.000000,0.000000,0.000000,0.000000,0.000000,0.000000,0.000000,1648622600.644864,0.000000
237.000000,-6614.417626,2631.023840,23977.364478,46763.403328,23977.811513,59495.359301,3410.183300,8059.055574,0.002000,0.948000,-0.136000,192.000000,0.000000,0.000000,0.000000,0.000000,0.000000,0.000000,0.000000,0.000000,0.000000,1648622600.644874,0.000000
238.000000,-6613.881184,2632.476703,23980.203149,46767.203124,23979.309080,59489.681958,3398.560393,8057.088620,0.002000,0.948000,-0.136000,192.000000,0.000000,0.000000,0.000000,0.000000,0.000000,0.000000,0.000000,0.000000,0.000000,1648622600.651474,0.000000
239.000000,-6617.837443,2631.515578,23975.956318,46765.750261,23978.303251,59484.921036,3391.474890,8060.776658,0.002000,0.948000,-0.136000,192.000000,0.000000,0.000000,0.000000,0.000000,0.000000,0.000000,0.000000,0.000000,0.000000,1648622600.651482,0.000000
240.000000,-6616.250469,2630.934433,23973.765847,46767.873677,23977.610347,59491.984188,3392.905401,8074.701795,0.002000,0.948000,-0.136000,192.000000,0.000000,0.000000,0.000000,0.000000,0.000000,0.000000,0.000000,0.000000,0.000000,1648622600.660910,0.000000
241.000000,-6615.356399,2633.683697,23976.135132,46770.667645,23979.800818,59504.970551,3396.705198,8080.714414,0.002000,0.948000,-0.136000,192.000000,0.000000,0.000000,0.000000,0.000000,0.000000,0.000000,0.000000,0.000000,0.000000,1648622600.660916,0.000000
242.000000,-6617.144539,2631.582633,23975.732800,46768.298360,23979.644356,59503.674150,3390.938448,8074.008891,0.002000,0.948000,-0.136000,192.000000,0.000000,0.000000,0.000000,0.000000,0.000000,0.000000,0.000000,0.000000,0.000000,1648622600.667560,0.000000
243.000000,-6631.360248,2618.596270,23959.483082,46754.820258,23966.054495,59505.909324,3396.660494,8074.366519,0.010000,0.952000,-0.140000,192.000000,0.000000,80.000000,29.000000,192.000000,251.000000,160.000000,0.000000,0.000000,0.000000,1648622600.667567,0.000000
244.000000,-6624.475911,2622.172549,23962.567623,46760.721119,23973.765847,59502.891839,3394.335913,8076.758155,0.010000,0.952000,-0.140000,192.000000,0.000000,0.000000,0.000000,0.000000,0.000000,0.000000,0.000000,0.000000,0.000000,1648622600.674751,0.000000
245.000000,-6611.981286,2633.326070,23977.073905,46774.914476,23989.300309,59494.331121,3380.567238,8069.091507,0.010000,0.952000,-0.140000,192.000000,0.000000,0.000000,0.000000,0.000000,0.000000,0.000000,0.000000,0.000000,0.000000,1648622600.674756,0.000000
246.000000,-6617.815091,2626.665250,23974.279937,46776.255581,23987.579225,59497.795641,3373.124107,8070.052632,0.010000,0.952000,-0.140000,192.000000,0.000000,0.000000,0.000000,0.000000,0.000000,0.000000,0.000000,0.000000,0.000000,1648622600.682092,0.000000
247.000000,-6634.936528,2611.711933,23955.772693,46759.692938,23971.083638,59505.216420,3379.337892,8078.166315,0.010000,0.952000,-0.140000,192.000000,0.000000,0.000000,0.000000,0.000000,0.000000,0.000000,0.000000,0.000000,0.000000,1648622600.682099,0.000000
248.000000,-6627.873376,2618.819787,23962.165292,46761.034043,23979.689059,59491.246580,3376.633331,8071.416089,0.010000,0.952000,-0.140000,192.000000,0.000000,0.000000,0.000000,0.000000,0.000000,0.000000,0.000000,0.000000,0.000000,1648622600.689132,0.000000
249.000000,-6619.133844,2624.050096,23973.654088,46771.315845,23992.004870,59471.040603,3360.629482,8059.904940,0.010000,0.952000,-0.140000,192.000000,0.000000,0.000000,0.000000,0.000000,0.000000,0.000000,0.000000,0.000000,0.000000,1648622600.697123,0.000000
250.000000,-6622.017219,2619.758561,23970.480141,46769.415947,23989.143847,59465.609129,3347.464305,8053.802914,0.010000,0.952000,-0.140000,192.000000,0.000000,0.000000,0.000000,0.000000,0.000000,0.000000,0.000000,0.000000,0.000000,1648622600.697130,0.000000
251.000000,-6630.533234,2614.438845,23962.366457,46762.218685,23982.684193,59481.411812,3357.008500,8063.727088,0.010000,0.952000,-0.140000,192.000000,0.000000,0.000000,0.000000,0.000000,0.000000,0.000000,0.000000,0.000000,0.000000,1648622600.704349,0.000000
252.000000,-6624.364152,2619.624450,23969.139036,46767.247828,23990.104972,59477.120278,3348.760706,8056.775696,0.010000,0.952000,-0.140000,192.000000,0.000000,0.000000,0.000000,0.000000,0.000000,0.000000,0.000000,0.000000,0.000000,1648622600.704358,0.000000
253.000000,-6637.395219,2606.615735,23961.472387,46762.308092,23984.204112,59482.350586,3354.505104,8055.099315,0.024000,0.974000,-0.150000,192.000000,0.000000,192.000000,30.000000,112.000000,251.000000,80.000000,0.000000,0.000000,0.000000,1648622600.711908,0.000000
254.000000,-6637.283461,2599.530232,23965.518053,46765.683206,23990.775524,59485.256313,3355.734450,8059.033222,0.024000,0.974000,-0.150000,192.000000,0.000000,0.000000,0.000000,0.000000,0.000000,0.000000,0.000000,0.000000,0.000000,1648622600.711916,0.000000
255.000000,-6645.240682,2593.204688,23964.109893,46764.476212,23990.931987,59489.570199,3366.463288,8063.168295,0.024000,0.974000,-0.150000,192.000000,0.000000,0.000000,0.000000,0.000000,0.000000,0.000000,0.000000,0.000000,0.000000,1648622600.719818,0.000000
0.000000,-6638.691621,2599.843156,23972.871777,46770.086499,24000.654996,59478.975472,3358.841343,8052.662975,0.024000,0.974000,-0.150000,192.000000,0.000000,0.000000,0.000000,0.000000,0.000000,0.000000,0.000000,0.000000,0.000000,1648622600.719825,0.000000
1.000000,-6637.283461,2602.525366,23973.005888,46772.612247,24000.677347,59485.904513,3364.965721,8050.830132,0.024000,0.974000,-0.150000,192.000000,0.000000,0.000000,0.000000,0.000000,0.000000,0.000000,0.000000,0.000000,0.000000,1648622600.727863,0.000000
2.000000,-6637.216406,2602.279496,23974.391696,46775.585029,24002.286673,59482.752917,3366.552695,8037.910824,0.024000,0.974000,-0.150000,192.000000,0.000000,0.000000,0.000000,0.000000,0.000000,0.000000,0.000000,0.000000,0.000000,1648622600.727871,0.000000
3.000000,-6644.324260,2595.462214,23967.686172,46770.332369,23998.620987,59469.855961,3362.171753,8019.224765,0.024000,0.974000,-0.150000,192.000000,0.000000,0.000000,0.000000,0.000000,0.000000,0.000000,0.000000,0.000000,0.000000,1648622600.734395,0.000000
4.000000,-6656.461258,2582.677017,23950.855309,46759.938807,23987.512170,59465.944405,3374.062881,8020.409408,0.024000,0.974000,-0.150000,192.000000,0.000000,0.000000,0.000000,0.000000,0.000000,0.000000,0.000000,0.000000,0.000000,1648622600.734402,0.000000
5.000000,-6656.662423,2581.984112,23950.721198,46761.034043,23991.557836,59457.070763,3383.852945,8028.031353,0.024000,0.974000,-0.150000,192.000000,0.000000,0.000000,0.000000,0.000000,0.000000,0.000000,0.000000,0.000000,0.000000,1648622600.742462,0.000000
6.000000,-6649.062830,2590.321313,23961.941774,46768.253656,24001.616121,59447.794789,3388.390349,8026.265565,0.024000,0.974000,-0.150000,192.000000,0.000000,0.000000,0.000000,0.000000,0.000000,0.000000,0.000000,0.000000,0.000000,1648622600.742468,0.000000
7.000000,-6658.316452,2580.955932,23954.006905,46761.861058,23993.211865,59454.545016,3399.208593,8034.848635,0.026000,0.994000,-0.130000,192.000000,0.000000,208.000000,31.000000,16.000000,251.000000,240.000000,0.000000,0.000000,0.000000,1648622600.749451,0.000000
8.000000,-6663.546761,2570.182391,23946.474367,46756.787212,23984.718202,59450.365239,3408.059884,8035.094504,0.026000,0.994000,-0.130000,192.000000,0.000000,0.000000,0.000000,0.000000,0.000000,0.000000,0.000000,0.000000,0.000000,1648622600.757457,0.000000
9.000000,-6650.627452,2580.687711,23960.623021,46769.214781,23998.576283,59434.897832,3404.170681,8025.416198,0.026000,0.994000,-0.130000,192.000000,0.000000,0.000000,0.000000,0.000000,0.000000,0.000000,0.000000,0.000000,0.000000,1648622600.757463,0.000000
10.000000,-6640.457408,2588.913153,23971.597728,46780.345950,24011.786164,59425.644210,3399.342704,8022.666934,0.026000,0.994000,-0.130000,192.000000,0.000000,0.000000,0.000000,0.000000,0.000000,0.000000,0.000000,0.000000,0.000000,1648622600.764002,0.000000
11.000000,-6649.465161,2579.436014,23961.830015,46772.902819,24002.420783,59427.789978,3407.411683,8032.121722,0.026000,0.994000,-0.130000,192.000000,0.000000,0.000000,0.000000,0.000000,0.000000,0.000000,0.000000,0.000000,0.000000,1648622600.764008,0.000000
12.000000,-6654.717821,2574.317464,23959.036047,46769.885334,23999.135077,59425.778321,3411.032666,8030.065361,0.026000,0.994000,-0.130000,192.000000,0.000000,0.000000,0.000000,0.000000,0.000000,0.000000,0.000000,0.000000,0.000000,1648622600.772037,0.000000
13.000000,-6650.336880,2575.256237,23964.266356,46770.734700,24005.751193,59419.117501,3406.539965,8024.522129,0.026000,0.994000,-0.130000,192.000000,0.000000,0.000000,0.000000,0.000000,0.000000,0.000000,0.000000,0.000000,0.000000,1648622600.772042,0.000000
14.000000,-6654.650766,2569.869467,23959.572489,46769.527706,24002.420783,59412.635495,3410.786797,8024.566832,0.026000,0.994000,-0.130000,192.000000,0.000000,0.000000,0.000000,0.000000,0.000000,0.000000,0.000000,0.000000,0.000000,1648622600.780147,0.000000
15.000000,-6660.126944,2563.879199,23956.286783,46770.891162,24001.102030,59409.774471,3423.527291,8024.320963,0.026000,0.994000,-0.130000,192.000000,0.000000,0.000000,0.000000,0.000000,0.000000,0.000000,0.000000,0.000000,0.000000,1648622600.780153,0.000000
16.000000,-6665.200790,2556.056089,23950.140053,46769.706520,23997.592807,59408.098091,3429.897538,8024.186852,0.026000,0.994000,-0.130000,192.000000,0.000000,0.000000,0.000000,0.000000,0.000000,0.000000,0.000000,0.000000,0.000000,1648622600.786712,0.000000
17.000000,-6661.736269,2554.424412,23949.089521,46772.433433,23997.950434,59401.839602,3431.283347,8014.821472,0.026000,0.994000,-0.130000,192.000000,0.000000,0.000000,0.000000,0.000000,0.000000,0.000000,0.000000,0.000000,0.000000,1648622600.786719,0.000000
18.000000,-6663.256188,2550.624615,23948.463672,46771.427604,23997.861027,59400.207925,3439.017050,8011.044027,0.026000,1.016000,-0.130000,192.000000,0.000000,208.000000,31.000000,192.000000,251.000000,240.000000,0.000000,0.000000,0.000000,1648622600.794680,0.000000
19.000000,-6651.119191,2560.325272,23958.410198,46777.753148,24007.852257,59390.216695,3434.792570,8012.273373,0.026000,1.016000,-0.130000,192.000000,0.000000,0.000000,0.000000,0.000000,0.000000,0.000000,0.000000,0.000000,0.000000,1648622600.794687,0.000000
20.000000,-6653.756696,2557.643063,23957.002039,46774.847421,24002.778411,59382.058308,3443.308585,8015.648486,0.026000,1.016000,-0.130000,192.000000,0.000000,0.000000,0.000000,0.000000,0.000000,0.000000,0.000000,0.000000,0.000000,1648622600.802676,0.000000
21.000000,-6653.644938,2559.341795,23961.897071,46780.994151,24006.689967,59367.708488,3439.642899,8005.590201,0.026000,1.016000,-0.130000,192.000000,0.000000,0.000000,0.000000,0.000000,0.000000,0.000000,0.000000,0.000000,0.000000,1648622600.802681,0.000000
22.000000,-6656.327147,2559.073574,23959.840710,46786.872660,24007.606388,59365.070983,3435.329012,7999.219954,0.026000,1.016000,-0.130000,192.000000,0.000000,0.000000,0.000000,0.000000,0.000000,0.000000,0.000000,0.000000,0.000000,1648622600.809881,0.000000
23.000000,-6661.982138,2548.389441,23946.988457,46776.188526,23998.039841,59367.529674,3452.651614,8002.729178,0.026000,1.016000,-0.130000,192.000000,0.000000,0.000000,0.000000,0.000000,0.000000,0.000000,0.000000,0.000000,0.000000,1648622600.816309,0.000000
24.000000,-6659.165819,2547.808295,23948.575431,46776.590857,24002.398432,59361.829980,3459.245379,8005.344332,0.026000,1.016000,-0.130000,192.000000,0.000000,0.000000,0.000000,0.000000,0.000000,0.000000,0.000000,0.000000,0.000000,1648622600.816331,0.000000
25.000000,-6663.524409,2540.432220,23941.758149,46767.918380,23994.910597,59365.495666,3473.952827,8005.836070,0.026000,1.016000,-0.130000,192.000000,0.000000,0.000000,0.000000,0.000000,0.000000,0.000000,0.000000,0.000000,0.000000,1648622600.824275,0.000000
26.000000,-6658.361156,2543.449705,23948.329562,46774.623904,24000.654996,59358.343108,3477.573809,7999.555230,0.026000,1.016000,-0.130000,192.000000,0.000000,0.000000,0.000000,0.000000,0.000000,0.000000,0.000000,0.000000,0.000000,1648622600.824279,0.000000
27.000000,-6664.083202,2536.922996,23945.200318,46771.606418,23995.000004,59356.554968,3481.597123,8006.305457,0.026000,1.016000,-0.130000,192.000000,0.000000,0.000000,0.000000,0.000000,0.000000,0.000000,0.000000,0.000000,0.000000,1648622600.833770,0.000000
28.000000,-6666.206618,2534.285490,23940.707617,46771.360549,23991.177856,59347.435456,3484.815775,8010.284067,0.022000,1.014000,-0.128000,192.000000,0.000000,176.000000,31.000000,176.000000,252.000000,0.000000,0.000000,0.000000,0.000000,1648622600.833776,0.000000
29.000000,-6662.205656,2538.308804,23942.540460,46772.388729,23991.602539,59332.236270,3478.289065,8002.907992,0.022000,1.014000,-0.128000,192.000000,0.000000,0.000000,0.000000,0.000000,0.000000,0.000000,0.000000,0.000000,0.000000,1648622600.840059,0.000000
30.000000,-6675.192019,2528.630498,23930.850498,46765.750261,23978.415010,59339.299421,3490.314304,8008.205355,0.022000,1.014000,-0.128000,192.000000,0.000000,0.000000,0.000000,0.000000,0.000000,0.000000,0.000000,0.000000,0.000000,1648622600.840063,0.000000
31.000000,-6688.960694,2513.185443,23917.171230,46751.646310,23960.645373,59339.433532,3500.819624,8003.042102,0.022000,1.014000,-0.128000,192.000000,0.000000,0.000000,0.000000,0.000000,0.000000,0.000000,0.000000,0.000000,0.000000,1648622600.847018,0.000000
32.000000,-6683.484517,2519.846263,23924.770823,46753.657967,23964.020486,59332.191566,3504.731179,8002.550364,0.022000,1.014000,-0.128000,192.000000,0.000000,0.000000,0.000000,0.000000,0.000000,0.000000,0.000000,0.000000,0.000000,1648622600.847023,0.000000
33.000000,-6674.007377,2527.736429,23934.024445,46760.944636,23971.105989,59330.157558,3505.491138,7999.175250,0.022000,1.014000,-0.128000,192.000000,0.000000,0.000000,0.000000,0.000000,0.000000,0.000000,0.000000,0.000000,0.000000,1648622600.854999,0.000000
34.000000,-6679.751775,2523.266080,23928.995303,46758.463592,23964.691039,59331.118683,3507.435740,7995.375454,0.022000,1.014000,-0.128000,192.000000,0.000000,0.000000,0.000000,0.000000,0.000000,0.000000,0.000000,0.000000,0.000000,1648622600.855004,0.000000
35.000000,-6677.628360,2525.970641,23928.235343,46761.145802,23964.601632,59334.918479,3515.348257,8003.466785,0.022000,1.014000,-0.128000,192.000000,0.000000,0.000000,0.000000,0.000000,0.000000,0.000000,0.000000,0.000000,0.000000,1648622600.863103,0.000000
36.000000,-6676.063737,2526.216510,23925.776652,46761.995168,23961.181815,59341.288726,3522.187891,7999.644637,0.022000,1.014000,-0.128000,192.000000,0.000000,0.000000,0.000000,0.000000,0.000000,0.000000,0.000000,0.000000,0.000000,1648622600.863109,0.000000
37.000000,-6684.378586,2513.766588,23915.517201,46755.066127,23950.251812,59336.974840,3518.701019,7990.614532,0.022000,1.014000,-0.128000,192.000000,0.000000,0.000000,0.000000,0.000000,0.000000,0.000000,0.000000,0.000000,0.000000,1648622600.869193,0.000000
38.000000,-6665.133734,2526.708248,23933.376245,46770.757052,23968.893167,59325.866023,3510.587336,7977.806983,0.026000,0.988000,-0.120000,192.000000,0.000000,208.000000,30.000000,224.000000,252.000000,64.000000,0.000000,0.000000,0.000000,1648622600.869198,0.000000
39.000000,-6667.257150,2526.261214,23931.521050,46772.232267,23964.735742,59330.604593,3514.476539,7979.528067,0.026000,0.988000,-0.120000,192.000000,0.000000,0.000000,0.000000,0.000000,0.000000,0.000000,0.000000,0.000000,0.000000,1648622600.876688,0.000000
40.000000,-6670.811077,2525.277737,23929.062358,46771.673473,23958.454902,59333.778540,3521.651449,7977.516410,0.026000,0.988000,-0.120000,192.000000,0.000000,0.000000,0.000000,0.000000,0.000000,0.000000,0.000000,0.000000,0.000000,1648622600.884581,0.000000
41.000000,-6681.048176,2517.007591,23920.144012,46762.844534,23946.519070,59337.131302,3536.425952,7984.110175,0.026000,0.988000,-0.120000,192.000000,0.000000,0.000000,0.000000,0.000000,0.000000,0.000000,0.000000,0.000000,0.000000,1648622600.884586,0.000000
42.000000,-6685.607932,2511.330248,23916.657140,46755.021424,23939.008884,59337.600689,3551.133400,7994.906067,0.026000,0.988000,-0.120000,192.000000,0.000000,0.000000,0.000000,0.000000,0.000000,0.000000,0.000000,0.000000,0.000000,1648622600.892699,0.000000
43.000000,-6669.805249,2521.679106,23930.135242,46764.453860,23950.922364,59329.889337,3550.596958,7987.418233,0.026000,0.988000,-0.120000,192.000000,0.000000,0.000000,0.000000,0.000000,0.000000,0.000000,0.000000,0.000000,0.000000,1648622600.892743,0.000000
44.000000,-6657.176513,2533.681993,23938.561849,46774.959180,23958.968992,59323.720255,3538.974051,7973.940131,0.026000,0.988000,-0.120000,192.000000,0.000000,0.000000,0.000000,0.000000,0.000000,0.000000,0.000000,0.000000,0.000000,1648622600.899259,0.000000
45.000000,-6672.800383,2519.354525,23920.166364,46760.184677,23938.181870,59334.896128,3546.573644,7979.081032,0.026000,0.988000,-0.120000,192.000000,0.000000,0.000000,0.000000,0.000000,0.000000,0.000000,0.000000,0.000000,0.000000,1648622600.899264,0.000000
46.000000,-6676.778993,2512.984277,23912.767936,46751.691014,23928.011826,59339.098256,3555.179066,7978.701053,0.026000,0.988000,-0.120000,192.000000,0.000000,0.000000,0.000000,0.000000,0.000000,0.000000,0.000000,0.000000,0.000000,1648622600.907181,0.000000
47.000000,-6663.904388,2521.142664,23920.814564,46761.257560,23934.091501,59339.478235,3557.816572,7982.500849,0.026000,0.988000,-0.120000,192.000000,0.000000,0.000000,0.000000,0.000000,0.000000,0.000000,0.000000,0.000000,0.000000,1648622600.907187,0.000000
48.000000,-6669.000586,2517.409923,23916.791250,46759.983511,23928.436509,59340.528767,3562.666900,7984.110175,0.028000,0.956000,-0.128000,192.000000,0.000000,224.000000,29.000000,224.000000,252.000000,0.000000,0.000000,0.000000,0.000000,1648622600.915318,0.000000
49.000000,-6663.658519,2523.891929,23926.715425,46767.069014,23939.634733,59334.002058,3559.425898,7976.778802,0.028000,0.956000,-0.128000,192.000000,0.000000,0.000000,0.000000,0.000000,0.000000,0.000000,0.000000,0.000000,0.000000,1648622600.915324,0.000000
50.000000,-6663.636167,2525.501254,23928.302399,46768.790098,23941.579335,59338.561814,3568.187781,7980.757413,0.028000,0.956000,-0.128000,192.000000,0.000000,0.000000,0.000000,0.000000,0.000000,0.000000,0.000000,0.000000,0.000000,1648622600.921838,0.000000
51.000000,-6673.649749,2514.884176,23917.104175,46761.369319,23930.716387,59339.433532,3576.681444,7986.658274,0.028000,0.956000,-0.128000,192.000000,0.000000,0.000000,0.000000,0.000000,0.000000,0.000000,0.000000,0.000000,0.000000,1648622600.921843,0.000000
52.000000,-6673.113307,2514.973583,23918.244114,46761.928113,23932.303361,59337.332468,3580.190668,7989.049910,0.028000,0.956000,-0.128000,192.000000,0.000000,0.000000,0.000000,0.000000,0.000000,0.000000,0.000000,0.000000,0.000000,1648622600.929907,0.000000
53.000000,-6675.169668,2514.973583,23917.350044,46762.889238,23935.030274,59335.745494,3577.910790,7987.708806,0.028000,0.956000,-0.128000,192.000000,0.000000,0.000000,0.000000,0.000000,0.000000,0.000000,0.000000,0.000000,0.000000,1648622600.929929,0.000000
54.000000,-6669.581732,2520.717981,23922.200372,46770.667645,23942.652219,59334.560851,3573.954531,7990.033387,0.028000,0.956000,-0.128000,192.000000,0.000000,0.000000,0.000000,0.000000,0.000000,0.000000,0.000000,0.000000,0.000000,1648622600.936869,0.000000
55.000000,-6655.991871,2531.670336,23935.901992,46779.474232,23955.035085,59330.336372,3562.443383,7991.285085,0.028000,0.956000,-0.128000,192.000000,0.000000,0.000000,0.000000,0.000000,0.000000,0.000000,0.000000,0.000000,0.000000,1648622600.944857,0.000000
56.000000,-6669.805249,2519.712152,23924.212029,46767.069014,23942.763977,59344.395619,3568.076023,8004.159689,0.028000,0.956000,-0.128000,192.000000,0.000000,0.000000,0.000000,0.000000,0.000000,0.000000,0.000000,0.000000,0.000000,1648622600.944863,0.000000
57.000000,-6681.316397,2508.558632,23914.354910,46757.703633,23935.343198,59353.962166,3591.612410,8011.692227,0.028000,0.956000,-0.128000,192.000000,0.000000,0.000000,0.000000,0.000000,0.000000,0.000000,0.000000,0.000000,0.000000,1648622600.951488,0.000000
58.000000,-6681.472860,2511.129083,23915.561904,46757.681281,23938.092463,59350.855273,3597.155642,8013.837995,0.022000,0.954000,-0.126000,192.000000,0.000000,176.000000,29.000000,208.000000,252.000000,16.000000,0.000000,0.000000,0.000000,1648622600.951511,0.000000
59.000000,-6680.645845,2512.380780,23915.114869,46756.966025,23940.037065,59346.206110,3589.645456,8012.832166,0.022000,0.954000,-0.126000,192.000000,0.000000,0.000000,0.000000,0.000000,0.000000,0.000000,0.000000,0.000000,0.000000,1648622600.959659,0.000000
60.000000,-6682.210467,2509.765626,23913.460840,46755.557866,23936.773710,59342.853349,3585.935066,8005.366684,0.022000,0.954000,-0.126000,192.000000,0.000000,0.000000,0.000000,0.000000,0.000000,0.000000,0.000000,0.000000,0.000000,1648622600.959664,0.000000
61.000000,-6673.046252,2517.968716,23916.590085,46762.956293,23935.343198,59328.972915,3580.056558,7989.564000,0.022000,0.954000,-0.126000,192.000000,0.000000,0.000000,0.000000,0.000000,0.000000,0.000000,0.000000,0.000000,0.000000,1648622600.967543,0.000000
62.000000,-6672.196886,2519.332173,23915.092518,46766.979607,23935.320846,59335.767846,3581.934104,7996.448338,0.022000,0.954000,-0.126000,192.000000,0.000000,0.000000,0.000000,0.000000,0.000000,0.000000,0.000000,0.000000,0.000000,1648622600.967550,0.000000
63.000000,-6674.923798,2520.829740,23917.752375,46768.410119,23943.434530,59345.982593,3586.851488,8003.355027,0.022000,0.954000,-0.126000,192.000000,0.000000,0.000000,0.000000,0.000000,0.000000,0.000000,0.000000,0.000000,0.000000,1648622600.974706,0.000000
64.000000,-6671.705147,2523.713115,23926.849535,46768.119546,23955.929155,59341.244023,3583.163450,8008.697094,0.022000,0.954000,-0.126000,192.000000,0.000000,0.000000,0.000000,0.000000,0.000000,0.000000,0.000000,0.000000,0.000000,1648622600.974710,0.000000
65.000000,-6679.371796,2513.923051,23922.513297,46764.453860,23957.516129,59343.389790,3587.790261,8017.704847,0.022000,0.954000,-0.126000,192.000000,0.000000,0.000000,0.000000,0.000000,0.000000,0.000000,0.000000,0.000000,0.000000,1648622600.982172,0.000000
66.000000,-6671.034595,2521.880272,23930.179945,46774.333331,23968.021449,59337.265412,3589.868973,8020.185890,0.022000,0.954000,-0.126000,192.000000,0.000000,0.000000,0.000000,0.000000,0.000000,0.000000,0.000000,0.000000,0.000000,1648622600.982177,0.000000
67.000000,-6680.534086,2513.990106,23919.495811,46766.197296,23955.035085,59350.899977,3612.131311,8040.414219,0.022000,0.954000,-0.126000,192.000000,0.000000,0.000000,0.000000,0.000000,0.000000,0.000000,0.000000,0.000000,0.000000,1648622600.990066,0.000000
68.000000,-6686.725520,2505.474091,23911.806811,46760.095270,23947.055512,59345.423799,3622.524872,8037.106161,0.014000,0.978000,-0.124000,192.000000,0.000000,112.000000,30.000000,144.000000,252.000000,32.000000,0.000000,0.000000,0.000000,1648622600.990070,0.000000
69.000000,-6681.852839,2510.480882,23916.232457,46769.617113,23954.565698,59340.215843,3624.536529,8036.994402,0.014000,0.978000,-0.124000,192.000000,0.000000,0.000000,0.000000,0.000000,0.000000,0.000000,0.000000,0.000000,0.000000,1648622600.997321,0.000000
70.000000,-6685.518525,2508.044542,23913.125564,46767.516049,23952.241117,59353.112799,3632.672564,8045.443361,0.014000,0.978000,-0.124000,192.000000,0.000000,0.000000,0.000000,0.000000,0.000000,0.000000,0.000000,0.000000,0.000000,1648622601.004351,0.000000
71.000000,-6688.893639,2506.390513,23914.377262,46766.599627,23950.721198,59348.865968,3637.813465,8039.475446,0.014000,0.978000,-0.124000,192.000000,0.000000,0.000000,0.000000,0.000000,0.000000,0.000000,0.000000,0.000000,0.000000,1648622601.004357,0.000000
72.000000,-6673.381528,2518.907490,23928.838841,46783.586953,23965.339239,59336.147825,3628.068105,8031.697039,0.014000,0.978000,-0.124000,192.000000,0.000000,0.000000,0.000000,0.000000,0.000000,0.000000,0.000000,0.000000,0.000000,1648622601.011950,0.000000
73.000000,-6681.070528,2513.096036,23920.926323,46779.809508,23957.940812,59345.177930,3636.584119,8039.609556,0.014000,0.978000,-0.124000,192.000000,0.000000,0.000000,0.000000,0.000000,0.000000,0.000000,0.000000,0.000000,0.000000,1648622601.011981,0.000000
74.000000,-6676.980159,2517.834606,23924.904934,46783.519898,23962.455864,59338.025372,3635.980622,8039.162521,0.014000,0.978000,-0.124000,192.000000,0.000000,0.000000,0.000000,0.000000,0.000000,0.000000,0.000000,0.000000,0.000000,1648622601.019770,0.000000
75.000000,-6674.700281,2520.427408,23926.715425,46787.543212,23964.333411,59339.254718,3638.282852,8045.376306,0.014000,0.978000,-0.124000,192.000000,0.000000,0.000000,0.000000,0.000000,0.000000,0.000000,0.000000,0.000000,0.000000,1648622601.019867,0.000000
76.000000,-6675.102612,2518.996897,23924.480250,46784.346912,23961.092408,59343.523901,3643.267291,8049.041992,0.014000,0.978000,-0.124000,192.000000,0.000000,0.000000,0.000000,0.000000,0.000000,0.000000,0.000000,0.000000,0.000000,1648622601.027943,0.000000
77.000000,-6680.154107,2513.274850,23918.780556,46778.356645,23953.001076,59345.066171,3652.029175,8049.734896,0.014000,0.978000,-0.124000,192.000000,0.000000,0.000000,0.000000,0.000000,0.000000,0.000000,0.000000,0.000000,0.000000,1648622601.027950,0.000000
78.000000,-6670.565208,2521.679106,23926.044873,46783.564601,23961.204167,59337.108950,3648.296433,8043.744629,0.010000,0.992000,-0.142000,192.000000,0.000000,80.000000,31.000000,0.000000,251.000000,144.000000,0.000000,0.000000,0.000000,1648622601.034450,0.000000
79.000000,-6658.830542,2534.665469,23939.590030,46795.343971,23979.666707,59330.045799,3642.060297,8046.873873,0.010000,0.992000,-0.142000,192.000000,0.000000,0.000000,0.000000,0.000000,0.000000,0.000000,0.000000,0.000000,0.000000,1648622601.034456,0.000000
80.000000,-6671.906313,2527.043525,23928.324750,46786.515032,23970.815417,59343.412142,3656.454820,8059.971995,0.010000,0.992000,-0.142000,192.000000,0.000000,0.000000,0.000000,0.000000,0.000000,0.000000,0.000000,0.000000,0.000000,1648622601.042383,0.000000
81.000000,-6668.553551,2526.283565,23929.017655,46789.532517,23971.865949,59334.426741,3654.018480,8052.394754,0.010000,0.992000,-0.142000,192.000000,0.000000,0.000000,0.000000,0.000000,0.000000,0.000000,0.000000,0.000000,0.000000,1648622601.042389,0.000000
82.000000,-6669.089993,2525.747123,23928.928248,46791.834747,23973.139998,59336.348991,3653.571445,8052.104181,0.010000,0.992000,-0.142000,192.000000,0.000000,0.000000,0.000000,0.000000,0.000000,0.000000,0.000000,0.000000,0.000000,1648622601.050495,0.000000
83.000000,-6668.665310,2526.775304,23927.810660,46793.511128,23973.810550,59345.021468,3660.835762,8056.708641,0.010000,0.992000,-0.142000,192.000000,0.000000,0.000000,0.000000,0.000000,0.000000,0.000000,0.000000,0.000000,0.000000,1648622601.050501,0.000000
84.000000,-6664.418479,2528.406981,23932.236306,46798.026180,23980.337260,59351.726991,3668.837687,8064.263530,0.010000,0.992000,-0.142000,192.000000,0.000000,0.000000,0.000000,0.000000,0.000000,0.000000,0.000000,0.000000,0.000000,1648622601.056714,0.000000
85.000000,-6675.214371,2517.096998,23923.273256,46786.537383,23970.256623,59352.777523,3676.817259,8067.549237,0.010000,0.992000,-0.142000,192.000000,0.000000,0.000000,0.000000,0.000000,0.000000,0.000000,0.000000,0.000000,0.000000,1648622601.064072,0.000000
86.000000,-6681.405804,2511.777283,23916.858306,46779.138956,23964.221652,59347.614270,3678.448937,8069.493838,0.010000,0.992000,-0.142000,192.000000,0.000000,0.000000,0.000000,0.000000,0.000000,0.000000,0.000000,0.000000,0.000000,1648622601.064082,0.000000
87.000000,-6676.063737,2518.505158,23920.680454,46785.688017,23968.513187,59351.972860,3684.148632,8078.278074,0.010000,0.992000,-0.142000,192.000000,0.000000,0.000000,0.000000,0.000000,0.000000,0.000000,0.000000,0.000000,0.000000,1648622601.071970,0.000000
88.000000,-6675.437889,2519.421580,23918.534686,46785.240982,23965.965088,59360.287709,3697.626733,8086.727033,0.012000,0.996000,-0.146000,192.000000,0.000000,96.000000,31.000000,32.000000,251.000000,112.000000,0.000000,0.000000,0.000000,1648622601.071974,0.000000
89.000000,-6673.336825,2521.433237,23921.418061,46788.258468,23969.764885,59352.352840,3697.269106,8085.251818,0.012000,0.996000,-0.146000,192.000000,0.000000,0.000000,0.000000,0.000000,0.000000,0.000000,0.000000,0.000000,0.000000,1648622601.080498,0.000000
90.000000,-6665.871342,2529.278699,23930.537573,46798.160290,23979.353783,59351.481122,3700.957143,8091.085624,0.012000,0.996000,-0.146000,192.000000,0.000000,0.000000,0.000000,0.000000,0.000000,0.000000,0.000000,0.000000,0.000000,1648622601.080503,0.000000
91.000000,-6657.780010,2536.274795,23938.472442,46803.144730,23983.578263,59356.756134,3707.305039,8101.568592,0.012000,0.996000,-0.146000,192.000000,0.000000,0.000000,0.000000,0.000000,0.000000,0.000000,0.000000,0.000000,0.000000,1648622601.086735,0.000000
92.000000,-6660.842199,2529.055182,23933.666817,46796.707427,23975.911614,59350.676459,3708.288516,8102.976752,0.012000,0.996000,-0.146000,192.000000,0.000000,0.000000,0.000000,0.000000,0.000000,0.000000,0.000000,0.000000,0.000000,1648622601.086740,0.000000
93.000000,-6659.903426,2529.010478,23934.672646,46798.495567,23976.515112,59342.227500,3712.535347,8105.703665,0.012000,0.996000,-0.146000,192.000000,0.000000,0.000000,0.000000,0.000000,0.000000,0.000000,0.000000,0.000000,0.000000,1648622601.095155,0.000000
94.000000,-6667.592426,2521.433237,23925.262561,46792.147671,23967.552062,59342.227500,3722.146597,8114.264383,0.012000,0.996000,-0.146000,192.000000,0.000000,0.000000,0.000000,0.000000,0.000000,0.000000,0.000000,0.000000,0.000000,1648622601.095162,0.000000
95.000000,-6660.261054,2522.684934,23931.677512,46795.723950,23973.765847,59331.632773,3721.766618,8108.385874,0.012000,0.996000,-0.146000,192.000000,0.000000,0.000000,0.000000,0.000000,0.000000,0.000000,0.000000,0.000000,0.000000,1648622601.102647,0.000000
96.000000,-6658.897598,2526.417676,23933.264486,46801.736570,23978.929100,59337.086599,3733.993022,8118.667676,0.012000,0.996000,-0.146000,192.000000,0.000000,0.000000,0.000000,0.000000,0.000000,0.000000,0.000000,0.000000,0.000000,1648622601.102654,0.000000
97.000000,-6651.923853,2537.750010,23939.366512,46815.885224,23987.400411,59346.586090,3747.247606,8134.023325,0.012000,0.996000,-0.146000,192.000000,0.000000,0.000000,0.000000,0.000000,0.000000,0.000000,0.000000,0.000000,0.000000,1648622601.109716,0.000000
98.000000,-6651.946205,2534.307842,23935.522012,46813.001849,23983.757077,59348.217767,3745.280653,8126.267269,0.006000,0.996000,-0.134000,192.000000,0.000000,48.000000,31.000000,32.000000,251.000000,208.000000,0.000000,0.000000,0.000000,1648622601.109722,0.000000
99.000000,-6651.163894,2535.201911,23935.901992,46811.504282,23981.276033,59348.307174,3746.800571,8116.052522,0.006000,0.996000,-0.134000,192.000000,0.000000,0.000000,0.000000,0.000000,0.000000,0.000000,0.000000,0.000000,0.000000,1648622601.116401,0.000000
100.000000,-6656.684775,2531.513874,23932.124547,46808.442093,23976.112780,59351.838750,3752.880246,8112.409188,0.006000,0.996000,-0.134000,192.000000,0.000000,0.000000,0.000000,0.000000,0.000000,0.000000,0.000000,0.000000,0.000000,1648622601.116407,0.000000
101.000000,-6655.544836,2533.190254,23933.197431,46809.425570,23976.291594,59352.688116,3749.259263,8103.021455,0.006000,0.996000,-0.134000,192.000000,0.000000,0.000000,0.000000,0.000000,0.000000,0.000000,0.000000,0.000000,0.000000,1648622601.124305,0.000000
102.000000,-6663.300891,2526.350621,23922.781518,46802.384770,23968.647297,59361.204131,3755.584807,8101.121557,0.006000,0.996000,-0.134000,192.000000,0.000000,0.000000,0.000000,0.000000,0.000000,0.000000,0.000000,0.000000,0.000000,1648622601.132340,0.000000
103.000000,-6667.190095,2523.199025,23918.221762,46799.121416,23966.479178,59364.199265,3767.766508,8101.099205,0.006000,0.996000,-0.134000,192.000000,0.000000,0.000000,0.000000,0.000000,0.000000,0.000000,0.000000,0.000000,0.000000,1648622601.132345,0.000000
104.000000,-6650.739211,2539.471095,23934.896163,46814.700581,23982.147751,59345.669668,3758.691699,8087.866972,0.006000,0.996000,-0.134000,192.000000,0.000000,0.000000,0.000000,0.000000,0.000000,0.000000,0.000000,0.000000,0.000000,1648622601.139698,0.000000
105.000000,-6655.209560,2536.028926,23927.967123,46811.794855,23978.146789,59348.173064,3763.497324,8093.790185,0.006000,0.996000,-0.134000,192.000000,0.000000,0.000000,0.000000,0.000000,0.000000,0.000000,0.000000,0.000000,0.000000,1648622601.139706,0.000000
106.000000,-6664.440830,2523.802522,23919.451108,46799.479043,23969.966050,59349.715334,3772.974464,8097.120595,0.006000,0.996000,-0.134000,192.000000,0.000000,0.000000,0.000000,0.000000,0.000000,0.000000,0.000000,0.000000,0.000000,1648622601.147496,0.000000
107.000000,-6663.412650,2526.261214,23922.021559,46800.149596,23971.977707,59353.336317,3778.025958,8105.591906,0.006000,0.996000,-0.134000,192.000000,0.000000,0.000000,0.000000,0.000000,0.000000,0.000000,0.000000,0.000000,0.000000,1648622601.147518,0.000000
108.000000,-6645.888882,2540.722792,23937.936001,46818.500378,23987.646280,59343.970936,3773.063871,8101.859164,0.006000,0.996000,-0.134000,192.000000,0.000000,0.000000,0.000000,0.000000,0.000000,0.000000,0.000000,0.000000,0.000000,1648622601.156351,0.000000
109.000000,-6639.675097,2541.415696,23946.943754,46827.865759,23996.966958,59341.266375,3770.649883,8104.429615,0.010000,0.986000,-0.132000,192.000000,0.000000,80.000000,30.000000,208.000000,251.000000,224.000000,0.000000,0.000000,0.000000,1648622601.156358,0.000000
110.000000,-6649.442810,2526.596490,23940.417044,46817.583956,23988.875626,59355.258567,3777.064833,8113.951458,0.010000,0.986000,-0.132000,192.000000,0.000000,0.000000,0.000000,0.000000,0.000000,0.000000,0.000000,0.000000,0.000000,1648622601.163412,0.000000
111.000000,-6657.824714,2517.387571,23931.252829,46808.710314,23979.823170,59367.932006,3780.194078,8120.612278,0.010000,0.986000,-0.132000,192.000000,0.000000,0.000000,0.000000,0.000000,0.000000,0.000000,0.000000,0.000000,0.000000,1648622601.163419,0.000000
112.000000,-6662.228008,2513.252498,23924.949637,46804.619945,23974.145827,59371.620044,3786.676083,8122.467473,0.010000,0.986000,-0.132000,192.000000,0.000000,0.000000,0.000000,0.000000,0.000000,0.000000,0.000000,0.000000,0.000000,1648622601.169787,0.000000
113.000000,-6659.657557,2519.220414,23927.318922,46810.565509,23978.392658,59367.373212,3786.474918,8121.327534,0.010000,0.986000,-0.132000,192.000000,0.000000,0.000000,0.000000,0.000000,0.000000,0.000000,0.000000,0.000000,0.000000,1648622601.169799,0.000000
114.000000,-6659.389336,2522.483769,23930.984608,46813.985326,23983.220635,59361.673517,3784.463261,8120.433464,0.010000,0.986000,-0.132000,192.000000,0.000000,0.000000,0.000000,0.000000,0.000000,0.000000,0.000000,0.000000,0.000000,1648622601.177668,0.000000
115.000000,-6660.641034,2518.728676,23926.916591,46807.659782,23976.872739,59360.712392,3782.943342,8118.555918,0.010000,0.986000,-0.132000,192.000000,0.000000,0.000000,0.000000,0.000000,0.000000,0.000000,0.000000,0.000000,0.000000,1648622601.177679,0.000000
116.000000,-6664.440830,2517.007591,23921.976855,46804.619945,23970.949527,59361.897035,3792.845165,8120.478168,0.010000,0.986000,-0.132000,192.000000,0.000000,0.000000,0.000000,0.000000,0.000000,0.000000,0.000000,0.000000,0.000000,1648622601.184555,0.000000
117.000000,-6670.453450,2514.079513,23917.372396,46800.194299,23968.289670,59364.199265,3808.133758,8123.093322,0.010000,0.986000,-0.132000,192.000000,0.000000,0.000000,0.000000,0.000000,0.000000,0.000000,0.000000,0.000000,0.000000,1648622601.191726,0.000000
118.000000,-6662.071545,2521.522644,23925.955466,46805.446959,23978.794989,59358.834846,3804.691589,8113.817348,0.010000,0.986000,-0.132000,192.000000,0.000000,0.000000,0.000000,0.000000,0.000000,0.000000,0.000000,0.000000,0.000000,1648622601.191734,0.000000
119.000000,-6659.702260,2520.852091,23922.647407,46807.436264,23978.347955,59358.074887,3793.694531,8108.184708,0.016000,0.982000,-0.130000,192.000000,0.000000,128.000000,30.000000,176.000000,251.000000,240.000000,0.000000,0.000000,0.000000,1648622601.199271,0.000000
120.000000,-6669.291159,2509.720923,23909.616340,46796.528613,23966.367420,59368.155523,3806.747950,8120.075836,0.016000,0.982000,-0.130000,192.000000,0.000000,0.000000,0.000000,0.000000,0.000000,0.000000,0.000000,0.000000,0.000000,1648622601.199279,0.000000
121.000000,-6671.682795,2505.898774,23907.336462,46791.164194,23963.215824,59364.400430,3819.622555,8122.914508,0.016000,0.982000,-0.130000,192.000000,0.000000,0.000000,0.000000,0.000000,0.000000,0.000000,0.000000,0.000000,0.000000,1648622601.207538,0.000000
122.000000,-6668.128868,2508.536280,23914.489021,46797.825014,23966.166254,59355.906767,3819.510796,8122.132197,0.016000,0.982000,-0.130000,192.000000,0.000000,0.000000,0.000000,0.000000,0.000000,0.000000,0.000000,0.000000,0.000000,1648622601.207549,0.000000
123.000000,-6666.653653,2509.050370,23917.282989,46802.943564,23968.334373,59342.003982,3813.319363,8116.879537,0.016000,0.982000,-0.130000,192.000000,0.000000,0.000000,0.000000,0.000000,0.000000,0.000000,0.000000,0.000000,0.000000,1648622601.215240,0.000000
124.000000,-6657.824714,2516.828777,23923.899105,46809.246756,23974.995193,59332.571546,3809.877194,8112.543298,0.016000,0.982000,-0.130000,192.000000,0.000000,0.000000,0.000000,0.000000,0.000000,0.000000,0.000000,0.000000,0.000000,1648622601.215249,0.000000
125.000000,-6648.548740,2524.785998,23935.007922,46814.655878,23984.651146,59327.922383,3803.484595,8104.273153,0.016000,0.982000,-0.130000,192.000000,0.000000,0.000000,0.000000,0.000000,0.000000,0.000000,0.000000,0.000000,0.000000,1648622601.222395,0.000000
126.000000,-6646.380621,2524.808350,23938.450091,46819.439151,23988.495647,59329.375247,3802.657581,8102.619124,0.016000,0.982000,-0.130000,192.000000,0.000000,0.000000,0.000000,0.000000,0.000000,0.000000,0.000000,0.000000,0.000000,1648622601.222401,0.000000
127.000000,-6653.086144,2519.578042,23931.923381,46817.986288,23982.237158,59331.543366,3811.106540,8106.441272,0.016000,0.982000,-0.130000,192.000000,0.000000,0.000000,0.000000,0.000000,0.000000,0.000000,0.000000,0.000000,0.000000,1648622601.231221,0.000000
128.000000,-6660.529275,2512.023152,23928.056530,46813.337125,23977.252719,59331.900994,3819.175520,8108.028246,0.016000,0.982000,-0.130000,192.000000,0.000000,0.000000,0.000000,0.000000,0.000000,0.000000,0.000000,0.000000,0.000000,1648622601.231226,0.000000
129.000000,-6647.341746,2525.300089,23939.701788,46822.836616,23991.714298,59328.704694,3811.017133,8098.282885,0.016000,0.982000,-0.142000,192.000000,0.000000,128.000000,30.000000,176.000000,251.000000,144.000000,0.000000,0.000000,0.000000,1648622601.238014,0.000000
130.000000,-6655.902464,2517.119350,23927.005998,46814.342953,23982.035992,59336.438398,3819.957831,8109.548165,0.016000,0.982000,-0.142000,192.000000,0.000000,0.000000,0.000000,0.000000,0.000000,0.000000,0.000000,0.000000,0.000000,1648622601.238026,0.000000
131.000000,-6660.059888,2513.632478,23921.976855,46816.064038,23979.867873,59343.054514,3837.705116,8124.277964,0.016000,0.982000,-0.142000,192.000000,0.000000,0.000000,0.000000,0.000000,0.000000,0.000000,0.000000,0.000000,0.000000,1648622601.245180,0.000000
132.000000,-6668.106516,2505.652905,23916.388919,46810.163177,23975.464580,59338.740628,3843.695384,8112.990333,0.016000,0.982000,-0.142000,192.000000,0.000000,0.000000,0.000000,0.000000,0.000000,0.000000,0.000000,0.000000,0.000000,1648622601.251577,0.000000
133.000000,-6667.927702,2508.290411,23917.439451,46811.794855,23979.152617,59333.242098,3845.237654,8107.245935,0.016000,0.982000,-0.142000,192.000000,0.000000,0.000000,0.000000,0.000000,0.000000,0.000000,0.000000,0.000000,0.000000,1648622601.251585,0.000000
134.000000,-6663.032670,2513.163091,23922.133317,46816.823997,23984.539388,59330.269316,3851.943177,8114.376141,0.016000,0.982000,-0.142000,192.000000,0.000000,0.000000,0.000000,0.000000,0.000000,0.000000,0.000000,0.000000,0.000000,1648622601.259670,0.000000
135.000000,-6655.053098,2518.616917,23931.699864,46824.133018,23990.775524,59316.813566,3844.701212,8111.850394,0.016000,0.982000,-0.142000,192.000000,0.000000,0.000000,0.000000,0.000000,0.000000,0.000000,0.000000,0.000000,0.000000,1648622601.259683,0.000000
136.000000,-6662.518580,2513.744237,23931.163422,46822.814265,23987.288652,59322.513261,3850.087982,8118.153586,0.016000,0.982000,-0.142000,192.000000,0.000000,0.000000,0.000000,0.000000,0.000000,0.000000,0.000000,0.000000,0.000000,1648622601.267648,0.000000
137.000000,-6667.011281,2509.631516,23929.822317,46818.299212,23984.159408,59327.900032,3856.949968,8117.125406,0.016000,0.982000,-0.142000,192.000000,0.000000,0.000000,0.000000,0.000000,0.000000,0.000000,0.000000,0.000000,0.000000,1648622601.267659,0.000000
138.000000,-6660.350461,2509.966792,23934.583239,46824.982384,23988.205074,59326.625982,3847.361070,8110.643400,0.016000,0.982000,-0.142000,192.000000,0.000000,0.000000,0.000000,0.000000,0.000000,0.000000,0.000000,0.000000,0.000000,1648622601.274794,0.000000
139.000000,-6666.653653,2505.339981,23927.609495,46819.573262,23980.940757,59334.471444,3852.837247,8116.857185,0.010000,0.980000,-0.132000,192.000000,0.000000,80.000000,30.000000,160.000000,251.000000,224.000000,0.000000,0.000000,0.000000,1648622601.274802,0.000000
140.000000,-6667.771240,2507.798673,23925.463727,46819.506206,23977.364478,59338.405351,3861.733241,8122.221604,0.010000,0.980000,-0.132000,192.000000,0.000000,0.000000,0.000000,0.000000,0.000000,0.000000,0.000000,0.000000,0.000000,1648622601.282135,0.000000
141.000000,-6668.330034,2512.134911,23926.961294,46822.635451,23977.923271,59337.578337,3864.370747,8120.768740,0.010000,0.980000,-0.132000,192.000000,0.000000,0.000000,0.000000,0.000000,0.000000,0.000000,0.000000,0.000000,0.000000,1648622601.282143,0.000000
142.000000,-6676.622531,2504.200042,23918.378224,46818.478026,23969.429609,59337.064247,3877.714739,8120.455816,0.010000,0.980000,-0.132000,192.000000,0.000000,0.000000,0.000000,0.000000,0.000000,0.000000,0.000000,0.000000,0.000000,1648622601.290182,0.000000
143.000000,-6669.134697,2513.408961,23926.000169,46832.559625,23979.622004,59328.145901,3878.005311,8124.032095,0.010000,0.980000,-0.132000,192.000000,0.000000,0.000000,0.000000,0.000000,0.000000,0.000000,0.000000,0.000000,0.000000,1648622601.290191,0.000000
144.000000,-6665.826638,2518.326344,23927.341274,46840.807419,23983.488856,59329.554061,3876.597151,8127.071932,0.010000,0.980000,-0.132000,192.000000,0.000000,0.000000,0.000000,0.000000,0.000000,0.000000,0.000000,0.000000,0.000000,1648622601.298210,0.000000
145.000000,-6670.699319,2513.252498,23922.602704,46834.258358,23979.197321,59337.645392,3886.946009,8128.793017,0.010000,0.980000,-0.132000,192.000000,0.000000,0.000000,0.000000,0.000000,0.000000,0.000000,0.000000,0.000000,0.000000,1648622601.298217,0.000000
146.000000,-6668.553551,2515.755894,23925.486079,46837.432306,23982.259510,59335.857253,3887.147175,8123.294487,0.010000,0.980000,-0.132000,192.000000,0.000000,0.000000,0.000000,0.000000,0.000000,0.000000,0.000000,0.000000,0.000000,1648622601.305463,0.000000
147.000000,-6681.964598,2505.384684,23912.633826,46824.647108,23967.060324,59343.456846,3902.681637,8130.312935,0.010000,0.980000,-0.132000,192.000000,0.000000,0.000000,0.000000,0.000000,0.000000,0.000000,0.000000,0.000000,0.000000,1648622601.311817,0.000000
148.000000,-6677.203676,2509.005667,23918.825259,46827.597538,23970.301327,59340.595822,3906.146158,8121.618107,0.010000,0.980000,-0.132000,192.000000,0.000000,0.000000,0.000000,0.000000,0.000000,0.000000,0.000000,0.000000,0.000000,1648622601.311825,0.000000
149.000000,-6676.331958,2512.358429,23922.379186,46831.397335,23973.452923,59344.596785,3910.549451,8125.462607,0.014000,0.966000,-0.136000,192.000000,0.000000,112.000000,30.000000,48.000000,251.000000,192.000000,0.000000,0.000000,0.000000,1648622601.319951,0.000000
150.000000,-6670.140525,2518.572213,23928.212992,46834.258358,23977.699754,59345.669668,3914.148082,8129.307107,0.014000,0.966000,-0.136000,192.000000,0.000000,0.000000,0.000000,0.000000,0.000000,0.000000,0.000000,0.000000,0.000000,1648622601.319968,0.000000
151.000000,-6666.363080,2522.237900,23931.856326,46839.332204,23982.326565,59338.807683,3911.264707,8127.049580,0.014000,0.966000,-0.136000,192.000000,0.000000,0.000000,0.000000,0.000000,0.000000,0.000000,0.000000,0.000000,0.000000,1648622601.327165,0.000000
152.000000,-6677.002511,2513.967754,23922.043910,46835.666518,23974.391696,59346.563738,3920.317164,8134.269194,0.014000,0.966000,-0.136000,192.000000,0.000000,0.000000,0.000000,0.000000,0.000000,0.000000,0.000000,0.000000,0.000000,1648622601.327177,0.000000
153.000000,-6672.599217,2520.673277,23932.012788,46843.601387,23986.416934,59350.676459,3922.082951,8131.050543,0.014000,0.966000,-0.136000,192.000000,0.000000,0.000000,0.000000,0.000000,0.000000,0.000000,0.000000,0.000000,0.000000,1648622601.334515,0.000000
154.000000,-6673.873266,2521.634402,23933.532707,46845.434230,23990.708469,59358.946605,3926.508597,8127.831892,0.014000,0.966000,-0.136000,192.000000,0.000000,0.000000,0.000000,0.000000,0.000000,0.000000,0.000000,0.000000,0.000000,1648622601.334523,0.000000
155.000000,-6675.035557,2521.366182,23934.113852,46847.557646,23994.105934,59361.852331,3935.628108,8126.021400,0.014000,0.966000,-0.136000,192.000000,0.000000,0.000000,0.000000,0.000000,0.000000,0.000000,0.000000,0.000000,0.000000,1648622601.342478,0.000000
156.000000,-6688.893639,2511.084379,23924.279085,46839.555721,23986.305176,59368.759020,3947.988623,8134.112732,0.014000,0.966000,-0.136000,192.000000,0.000000,0.000000,0.000000,0.000000,0.000000,0.000000,0.000000,0.000000,0.000000,1648622601.342486,0.000000
157.000000,-6702.908182,2496.332228,23911.002149,46827.552834,23973.005888,59378.191457,3968.373414,8138.806598,0.014000,0.966000,-0.136000,192.000000,0.000000,0.000000,0.000000,0.000000,0.000000,0.000000,0.000000,0.000000,0.000000,1648622601.350426,0.000000
158.000000,-6693.855726,2506.614030,23917.618265,46836.582939,23981.410144,59365.473314,3976.017711,8140.013592,0.014000,0.966000,-0.136000,192.000000,0.000000,0.000000,0.000000,0.000000,0.000000,0.000000,0.000000,0.000000,0.000000,1648622601.350432,0.000000
159.000000,-6679.014168,2523.914280,23927.900067,46850.083393,23994.508266,59351.838750,3974.341330,8138.247804,0.014000,0.974000,-0.130000,192.000000,0.000000,112.000000,30.000000,112.000000,251.000000,240.000000,0.000000,0.000000,0.000000,1648622601.357083,0.000000
160.000000,-6671.682795,2529.166940,23936.706655,46854.240817,24003.560722,59340.439360,3961.913760,8139.007764,0.014000,0.974000,-0.130000,192.000000,0.000000,0.000000,0.000000,0.000000,0.000000,0.000000,0.000000,0.000000,0.000000,1648622601.357091,0.000000
161.000000,-6672.465107,2526.574138,23941.489928,46852.095050,24008.321644,59340.662878,3958.940978,8150.183636,0.014000,0.974000,-0.130000,192.000000,0.000000,0.000000,0.000000,0.000000,0.000000,0.000000,0.000000,0.000000,0.000000,1648622601.364101,0.000000
162.000000,-6675.616703,2524.696591,23939.277105,46847.468239,24006.868780,59350.162369,3966.987606,8158.297319,0.014000,0.974000,-0.130000,192.000000,0.000000,0.000000,0.000000,0.000000,0.000000,0.000000,0.000000,0.000000,0.000000,1648622601.364106,0.000000
163.000000,-6680.802307,2519.756856,23931.610457,46838.438134,23998.464525,59351.391715,3977.917609,8152.284700,0.014000,0.974000,-0.130000,192.000000,0.000000,0.000000,0.000000,0.000000,0.000000,0.000000,0.000000,0.000000,0.000000,1648622601.372212,0.000000
164.000000,-6674.879095,2524.562481,23936.013751,46844.808381,24002.376080,59347.480160,3979.258714,8150.205988,0.014000,0.974000,-0.130000,192.000000,0.000000,0.000000,0.000000,0.000000,0.000000,0.000000,0.000000,0.000000,0.000000,1648622601.380217,0.000000
165.000000,-6681.070528,2520.516815,23930.023483,46844.473105,23998.039841,59350.609404,3980.644522,8136.012630,0.014000,0.974000,-0.130000,192.000000,0.000000,0.000000,0.000000,0.000000,0.000000,0.000000,0.000000,0.000000,0.000000,1648622601.380226,0.000000
166.000000,-6674.409708,2525.881234,23937.064283,46848.161143,24007.092298,59345.468503,3989.696978,8138.694839,0.014000,0.974000,-0.130000,192.000000,0.000000,0.000000,0.000000,0.000000,0.000000,0.000000,0.000000,0.000000,0.000000,1648622601.388281,0.000000
167.000000,-6685.473822,2514.995934,23929.531745,46842.819076,24001.437307,59349.782389,3998.257696,8145.601528,0.014000,0.974000,-0.130000,192.000000,0.000000,0.000000,0.000000,0.000000,0.000000,0.000000,0.000000,0.000000,0.000000,1648622601.388293,0.000000
168.000000,-6699.264848,2501.517832,23918.221762,46833.856026,23991.915463,59356.130285,4010.707618,8140.885310,0.014000,0.974000,-0.130000,192.000000,0.000000,0.000000,0.000000,0.000000,0.000000,0.000000,0.000000,0.000000,0.000000,1648622601.395357,0.000000
169.000000,-6690.078281,2510.011495,23928.481213,46846.752983,24003.650129,59346.921366,4010.931136,8130.849377,0.016000,0.988000,-0.132000,192.000000,0.000000,128.000000,30.000000,224.000000,251.000000,224.000000,0.000000,0.000000,0.000000,1648622601.395368,0.000000
170.000000,-6692.447566,2510.235013,23928.727082,46847.512942,24005.013586,59337.466578,4011.914612,8124.456778,0.016000,0.988000,-0.132000,192.000000,0.000000,0.000000,0.000000,0.000000,0.000000,0.000000,0.000000,0.000000,0.000000,1648622601.403279,0.000000
171.000000,-6679.729423,2522.886100,23943.613344,46860.678120,24020.458641,59339.455883,4021.995249,8125.484958,0.016000,0.988000,-0.132000,192.000000,0.000000,0.000000,0.000000,0.000000,0.000000,0.000000,0.000000,0.000000,0.000000,1648622601.403296,0.000000
172.000000,-6680.087051,2521.276775,23942.965143,46858.040614,24018.245818,59343.948584,4019.827130,8121.372237,0.016000,0.988000,-0.132000,192.000000,0.000000,0.000000,0.000000,0.000000,0.000000,0.000000,0.000000,0.000000,0.000000,1648622601.409680,0.000000
173.000000,-6687.887810,2511.486710,23934.024445,46845.702451,24006.287635,59345.379096,4020.050647,8114.867880,0.016000,0.988000,-0.132000,192.000000,0.000000,0.000000,0.000000,0.000000,0.000000,0.000000,0.000000,0.000000,0.000000,1648622601.409697,0.000000
174.000000,-6692.201697,2506.949306,23933.219782,46839.600425,24002.152562,59347.301346,4021.771732,8117.795958,0.016000,0.988000,-0.132000,192.000000,0.000000,0.000000,0.000000,0.000000,0.000000,0.000000,0.000000,0.000000,0.000000,1648622601.417297,0.000000
175.000000,-6683.797441,2514.995934,23940.975838,46845.948320,24009.886266,59346.094352,4016.764941,8119.673505,0.016000,0.988000,-0.132000,192.000000,0.000000,0.000000,0.000000,0.000000,0.000000,0.000000,0.000000,0.000000,0.000000,1648622601.417305,0.000000
176.000000,-6681.517563,2516.649963,23940.349989,46847.714108,24009.327472,59349.491817,4012.562813,8119.472339,0.016000,0.988000,-0.132000,192.000000,0.000000,0.000000,0.000000,0.000000,0.000000,0.000000,0.000000,0.000000,0.000000,1648622601.425608,0.000000
177.000000,-6687.396072,2514.303030,23933.443300,46845.993024,24004.611254,59359.147770,4025.348011,8128.234223,0.016000,0.988000,-0.132000,192.000000,0.000000,0.000000,0.000000,0.000000,0.000000,0.000000,0.000000,0.000000,0.000000,1648622601.425624,0.000000
178.000000,-6681.428156,2523.958984,23941.020541,46852.363271,24014.289560,59356.242044,4033.551101,8122.042790,0.016000,0.988000,-0.132000,192.000000,0.000000,0.000000,0.000000,0.000000,0.000000,0.000000,0.000000,0.000000,0.000000,1648622601.432441,0.000000
179.000000,-6681.875191,2524.808350,23942.674570,46854.151410,24016.994121,59351.659936,4040.927177,8114.264383,0.012000,1.000000,-0.126000,192.000000,0.000000,96.000000,31.000000,64.000000,252.000000,16.000000,0.000000,0.000000,0.000000,1648622601.439023,0.000000
180.000000,-6675.102612,2530.306879,23951.347047,46865.662559,24028.862897,59338.427703,4032.388810,8112.722112,0.012000,1.000000,-0.126000,192.000000,0.000000,0.000000,0.000000,0.000000,0.000000,0.000000,0.000000,0.000000,0.000000,1648622601.439031,0.000000
181.000000,-6674.990854,2535.604243,23952.442283,46871.071681,24031.902734,59349.648279,4036.345069,8122.825101,0.012000,1.000000,-0.126000,192.000000,0.000000,0.000000,0.000000,0.000000,0.000000,0.000000,0.000000,0.000000,0.000000,1648622601.446997,0.000000
182.000000,-6687.843107,2525.545958,23940.417044,46861.415727,24020.749214,59355.795009,4050.113744,8130.067066,0.012000,1.000000,-0.126000,192.000000,0.000000,0.000000,0.000000,0.000000,0.000000,0.000000,0.000000,0.000000,0.000000,1648622601.447006,0.000000
183.000000,-6676.488421,2529.323403,23950.408274,46866.668387,24027.924124,59338.874738,4046.939796,8125.663772,0.012000,1.000000,-0.126000,192.000000,0.000000,0.000000,0.000000,0.000000,0.000000,0.000000,0.000000,0.000000,0.000000,1648622601.454902,0.000000
184.000000,-6676.287255,2532.765571,23948.664838,46867.875381,24026.046577,59349.491817,4062.809534,8144.930976,0.012000,1.000000,-0.126000,192.000000,0.000000,0.000000,0.000000,0.000000,0.000000,0.000000,0.000000,0.000000,0.000000,1648622601.454910,0.000000
185.000000,-6688.267790,2524.607184,23937.801890,46857.593579,24013.574304,59358.186645,4071.616122,8151.435334,0.012000,1.000000,-0.126000,192.000000,0.000000,0.000000,0.000000,0.000000,0.000000,0.000000,0.000000,0.000000,0.000000,1648622601.462045,0.000000
186.000000,-6676.622531,2534.374897,23949.871832,46865.193172,24021.911504,59355.459732,4077.807555,8149.490732,0.012000,1.000000,-0.126000,192.000000,0.000000,0.000000,0.000000,0.000000,0.000000,0.000000,0.000000,0.000000,0.000000,1648622601.462051,0.000000
187.000000,-6681.092880,2528.027001,23947.055512,46860.901637,24016.681196,59350.229424,4078.008721,8148.909587,0.012000,1.000000,-0.126000,192.000000,0.000000,0.000000,0.000000,0.000000,0.000000,0.000000,0.000000,0.000000,0.000000,1648622601.470230,0.000000
188.000000,-6678.008339,2530.284528,23948.307210,46865.371986,24018.491688,59342.160445,4077.271113,8142.137008,0.012000,1.000000,-0.126000,192.000000,0.000000,0.000000,0.000000,0.000000,0.000000,0.000000,0.000000,0.000000,0.000000,1648622601.470242,0.000000
189.000000,-6688.066624,2519.734504,23938.941829,46854.307873,24008.008719,59331.699828,4076.086471,8127.787188,0.008000,0.996000,-0.122000,192.000000,0.000000,64.000000,31.000000,32.000000,252.000000,48.000000,0.000000,0.000000,0.000000,1648622601.479199,0.000000
190.000000,-6689.944171,2516.739370,23934.605591,46854.509038,24004.521847,59334.985535,4084.200154,8136.996107,0.008000,0.996000,-0.122000,192.000000,0.000000,0.000000,0.000000,0.000000,0.000000,0.000000,0.000000,0.000000,0.000000,1648622601.479211,0.000000
191.000000,-6689.094804,2515.040638,23930.761091,46855.380756,24003.940702,59341.601651,4090.704511,8144.461589,0.008000,0.996000,-0.122000,192.000000,0.000000,0.000000,0.000000,0.000000,0.000000,0.000000,0.000000,0.000000,0.000000,1648622601.486220,0.000000
192.000000,-6687.507831,2517.499330,23931.878678,46858.822925,24005.170048,59343.546253,4099.444044,8149.982470,0.008000,0.996000,-0.122000,192.000000,0.000000,0.000000,0.000000,0.000000,0.000000,0.000000,0.000000,0.000000,0.000000,1648622601.486235,0.000000
193.000000,-6679.863534,2524.942461,23938.092463,46860.611065,24008.656920,59333.353857,4090.771567,8145.914453,0.008000,0.996000,-0.122000,192.000000,0.000000,0.000000,0.000000,0.000000,0.000000,0.000000,0.000000,0.000000,0.000000,1648622601.492275,0.000000
194.000000,-6684.222124,2520.785036,23933.488003,46855.447812,24001.057327,59339.947622,4100.382817,8151.323575,0.008000,0.996000,-0.122000,192.000000,0.000000,0.000000,0.000000,0.000000,0.000000,0.000000,0.000000,0.000000,0.000000,1648622601.499259,0.000000
195.000000,-6694.034540,2508.469225,23921.641579,46844.294291,23989.367365,59346.295517,4110.016419,8146.003860,0.008000,0.996000,-0.122000,192.000000,0.000000,0.000000,0.000000,0.000000,0.000000,0.000000,0.000000,0.000000,0.000000,1648622601.499266,0.000000
196.000000,-6684.870325,2515.174748,23932.437471,46853.570265,23999.380946,59345.960241,4110.821081,8139.007764,0.008000,0.996000,-0.122000,192.000000,0.000000,0.000000,0.000000,0.000000,0.000000,0.000000,0.000000,0.000000,0.000000,1648622601.507240,0.000000
197.000000,-6680.511735,2521.835568,23937.936001,46860.275788,24005.348862,59339.768808,4104.003799,8134.448008,0.008000,0.996000,-0.122000,192.000000,0.000000,0.000000,0.000000,0.000000,0.000000,0.000000,0.000000,0.000000,0.000000,1648622601.507248,0.000000
198.000000,-6683.260999,2518.728676,23934.516184,46856.587751,24002.487839,59329.844633,4093.118500,8130.089418,0.008000,0.996000,-0.122000,192.000000,0.000000,0.000000,0.000000,0.000000,0.000000,0.000000,0.000000,0.000000,0.000000,1648622601.515240,0.000000
199.000000,-6689.050101,2513.990106,23926.514259,46854.441983,23994.217693,59334.180872,4103.377951,8130.201176,0.008000,0.996000,-0.122000,192.000000,0.000000,0.000000,31.000000,0.000000,252.000000,64.000000,0.000000,0.000000,0.000000,1648622601.515245,0.000000
200.000000,-6672.420403,2531.357411,23940.685265,46874.938533,24008.813382,59337.354819,4107.781244,8132.101075,0.008000,0.996000,-0.122000,192.000000,0.000000,0.000000,0.000000,0.000000,0.000000,0.000000,0.000000,0.000000,0.000000,1648622601.521895,0.000000
201.000000,-6677.382490,2530.776266,23937.176041,46877.531335,24006.578208,59349.670631,4126.780227,8143.276947,0.008000,0.996000,-0.122000,192.000000,0.000000,0.000000,0.000000,0.000000,0.000000,0.000000,0.000000,0.000000,0.000000,1648622601.521902,0.000000
202.000000,-6697.186136,2511.553766,23919.428756,46857.280655,23986.282824,59353.358668,4146.874445,8145.087438,0.008000,0.996000,-0.122000,192.000000,0.000000,0.000000,0.000000,0.000000,0.000000,0.000000,0.000000,0.000000,0.000000,1648622601.529903,0.000000
203.000000,-6688.133679,2518.706324,23929.241172,46858.979387,23991.535484,59342.182796,4147.567349,8135.207967,0.008000,0.996000,-0.122000,192.000000,0.000000,0.000000,0.000000,0.000000,0.000000,0.000000,0.000000,0.000000,0.000000,1648622601.529914,0.000000
204.000000,-6683.417461,2523.735466,23931.364588,46861.952169,23995.558798,59350.341183,4152.820009,8151.591796,0.008000,0.996000,-0.122000,192.000000,0.000000,0.000000,0.000000,0.000000,0.000000,0.000000,0.000000,0.000000,0.000000,1648622601.537954,0.000000
205.000000,-6689.698302,2517.499330,23922.401538,46851.446849,23987.199245,59354.699773,4162.341852,8158.140857,0.008000,0.996000,-0.122000,192.000000,0.000000,0.000000,0.000000,0.000000,0.000000,0.000000,0.000000,0.000000,0.000000,1648622601.537962,0.000000
206.000000,-6696.068549,2513.476016,23912.857343,46842.304986,23978.124437,59360.667689,4177.071652,8164.131125,0.008000,0.996000,-0.122000,192.000000,0.000000,0.000000,0.000000,0.000000,0.000000,0.000000,0.000000,0.000000,0.000000,1648622601.545899,0.000000
207.000000,-6696.292066,2512.269022,23913.505544,46840.069811,23977.498588,59362.478180,4176.848135,8152.530569,0.008000,0.996000,-0.122000,192.000000,0.000000,0.000000,0.000000,0.000000,0.000000,0.000000,0.000000,0.000000,0.000000,1648622601.545906,0.000000
208.000000,-6686.993740,2521.366182,23924.279085,46848.876399,23990.484952,59359.125419,4166.320463,8141.824084,0.008000,0.996000,-0.122000,192.000000,0.000000,0.000000,0.000000,0.000000,0.000000,0.000000,0.000000,0.000000,0.000000,1648622601.551956,0.000000
209.000000,-6685.004435,2522.573176,23929.934076,46849.569303,23995.827019,59357.471389,4166.275759,8147.590834,0.008000,0.996000,-0.122000,192.000000,0.000000,0.000000,0.000000,0.000000,0.000000,0.000000,0.000000,0.000000,0.000000,1648622601.559654,0.000000
210.000000,-6694.056892,2517.521681,23927.251867,46845.970672,23992.317795,59358.365459,4171.729585,8154.028136,-0.002000,0.988000,-0.120000,192.000000,255.000000,240.000000,30.000000,224.000000,252.000000,64.000000,0.000000,0.000000,0.000000,1648622601.559666,0.000000
211.000000,-6703.109348,2509.340943,23916.232457,46840.740364,23981.834827,59363.662823,4188.515745,8161.851247,-0.002000,0.988000,-0.120000,192.000000,0.000000,0.000000,0.000000,0.000000,0.000000,0.000000,0.000000,0.000000,0.000000,1648622601.568290,0.000000
212.000000,-6690.391206,2516.202929,23926.201335,46852.519733,23991.602539,59355.079753,4195.690655,8154.899854,-0.002000,0.988000,-0.120000,192.000000,0.000000,0.000000,0.000000,0.000000,0.000000,0.000000,0.000000,0.000000,0.000000,1648622601.568301,0.000000
213.000000,-6684.490345,2522.260251,23933.465652,46864.589675,24001.057327,59348.485988,4182.480774,8138.806598,-0.002000,0.988000,-0.120000,192.000000,0.000000,0.000000,0.000000,0.000000,0.000000,0.000000,0.000000,0.000000,0.000000,1648622601.574319,0.000000
214.000000,-6695.845031,2511.620821,23920.568695,46857.995910,23989.210902,59354.364497,4185.095928,8139.253633,-0.002000,0.988000,-0.120000,192.000000,0.000000,0.000000,0.000000,0.000000,0.000000,0.000000,0.000000,0.000000,0.000000,1648622601.574333,0.000000
215.000000,-6693.699264,2514.213623,23921.976855,46859.806402,23986.841617,59351.190549,4189.163946,8134.515063,-0.002000,0.988000,-0.120000,192.000000,0.000000,0.000000,0.000000,0.000000,0.000000,0.000000,0.000000,0.000000,0.000000,1648622601.582124,0.000000
216.000000,-6695.062720,2512.693705,23920.300474,46852.676195,23981.276033,59354.297442,4195.355379,8136.459665,-0.002000,0.988000,-0.120000,192.000000,0.000000,0.000000,0.000000,0.000000,0.000000,0.000000,0.000000,0.000000,0.000000,1648622601.582130,0.000000
217.000000,-6702.259982,2507.083417,23908.699919,46842.752021,23969.697829,59362.232311,4205.167795,8136.079685,-0.002000,0.988000,-0.120000,192.000000,0.000000,0.000000,0.000000,0.000000,0.000000,0.000000,0.000000,0.000000,0.000000,1648622601.590139,0.000000
218.000000,-6708.518470,2502.635420,23901.882637,46841.187399,23963.037010,59357.896073,4208.900536,8134.380953,-0.002000,0.988000,-0.120000,192.000000,0.000000,0.000000,0.000000,0.000000,0.000000,0.000000,0.000000,0.000000,0.000000,1648622601.590147,0.000000
219.000000,-6698.706055,2510.458530,23913.326730,46849.122268,23970.524844,59348.865968,4198.439920,8127.563671,-0.002000,0.988000,-0.120000,192.000000,0.000000,0.000000,0.000000,0.000000,0.000000,0.000000,0.000000,0.000000,0.000000,1648622601.597356,0.000000
220.000000,-6702.751720,2505.116463,23906.844724,46842.416745,23961.584146,59360.868855,4201.189184,8137.219624,-0.002000,0.970000,-0.110000,192.000000,255.000000,240.000000,30.000000,80.000000,252.000000,144.000000,0.000000,0.000000,0.000000,1648622601.597364,0.000000
221.000000,-6714.262869,2491.280733,23891.712593,46825.094143,23944.999152,59366.523846,4209.571089,8142.092304,-0.002000,0.970000,-0.110000,192.000000,0.000000,0.000000,0.000000,0.000000,0.000000,0.000000,0.000000,0.000000,0.000000,1648622601.604879,0.000000
222.000000,-6706.350351,2499.237955,23899.111020,46830.436209,23948.731893,59369.094297,4212.923850,8144.528645,-0.002000,0.970000,-0.110000,192.000000,0.000000,0.000000,0.000000,0.000000,0.000000,0.000000,0.000000,0.000000,0.000000,1648622601.604889,0.000000
223.000000,-6689.720653,2513.766588,23918.065300,46846.060079,23962.388809,59356.130285,4196.294152,8138.583081,-0.002000,0.970000,-0.110000,192.000000,0.000000,0.000000,0.000000,0.000000,0.000000,0.000000,0.000000,0.000000,0.000000,1648622601.611985,0.000000
224.000000,-6703.288162,2500.668466,23907.895256,46836.605291,23950.296515,59368.446096,4202.195013,8147.233206,-0.002000,0.970000,-0.110000,192.000000,0.000000,0.000000,0.000000,0.000000,0.000000,0.000000,0.000000,0.000000,0.000000,1648622601.611995,0.000000
225.000000,-6703.601087,2502.300144,23904.341329,46839.533369,23950.788254,59371.307119,4204.161966,8142.695802,-0.002000,0.970000,-0.110000,192.000000,0.000000,0.000000,0.000000,0.000000,0.000000,0.000000,0.000000,0.000000,0.000000,1648622601.619797,0.000000
226.000000,-6693.207525,2517.678144,23909.348119,46852.475030,23958.521957,59367.663785,4201.680923,8138.136046,-0.002000,0.970000,-0.110000,192.000000,0.000000,0.000000,0.000000,0.000000,0.000000,0.000000,0.000000,0.000000,0.000000,1648622601.627764,0.000000
227.000000,-6683.596275,2528.004650,23913.863172,46860.208733,23964.735742,59361.673517,4199.021065,8139.343040,-0.002000,0.970000,-0.110000,192.000000,0.000000,0.000000,0.000000,0.000000,0.000000,0.000000,0.000000,0.000000,0.000000,1648622601.627771,0.000000
228.000000,-6692.425214,2512.850167,23911.292721,46855.514867,23965.741571,59367.440267,4206.397141,8144.618052,-0.002000,0.970000,-0.110000,192.000000,0.000000,0.000000,0.000000,0.000000,0.000000,0.000000,0.000000,0.000000,0.000000,1648622601.634424,0.000000
229.000000,-6702.528203,2498.768568,23907.537628,46849.770468,23965.093370,59376.246855,4216.522481,8150.518912,-0.002000,0.970000,-0.110000,192.000000,0.000000,0.000000,0.000000,0.000000,0.000000,0.000000,0.000000,0.000000,0.000000,1648622601.634431,0.000000
230.000000,-6709.367837,2492.800652,23898.820448,46841.299157,23957.002039,59388.182686,4233.107475,8161.918302,-0.002000,0.970000,-0.110000,192.000000,0.000000,0.000000,29.000000,240.000000,252.000000,64.000000,0.000000,0.000000,0.000000,1648622601.642964,0.000000
231.000000,-6710.574831,2492.107748,23898.038137,46837.208788,23957.404370,59388.160335,4242.115228,8164.242883,-0.002000,0.970000,-0.110000,192.000000,0.000000,0.000000,0.000000,0.000000,0.000000,0.000000,0.000000,0.000000,0.000000,1648622601.642970,0.000000
232.000000,-6716.699209,2485.737501,23894.305395,46829.631547,23952.710504,59382.013605,4245.691508,8162.253578,-0.002000,0.970000,-0.110000,192.000000,0.000000,0.000000,0.000000,0.000000,0.000000,0.000000,0.000000,0.000000,0.000000,1648622601.649668,0.000000
233.000000,-6703.064645,2499.059141,23908.565808,46838.974576,23966.367420,59371.374175,4247.747868,8159.258444,-0.002000,0.970000,-0.110000,192.000000,0.000000,0.000000,0.000000,0.000000,0.000000,0.000000,0.000000,0.000000,0.000000,1648622601.649673,0.000000
234.000000,-6697.052025,2506.614030,23915.338387,46847.535294,23972.983536,59366.590901,4245.624452,8160.577197,-0.002000,0.970000,-0.110000,192.000000,0.000000,0.000000,0.000000,0.000000,0.000000,0.000000,0.000000,0.000000,0.000000,1648622601.659848,0.000000
235.000000,-6685.473822,2517.074647,23924.748471,46856.610102,23983.578263,59360.243006,4241.467028,8165.405174,-0.002000,0.970000,-0.110000,192.000000,0.000000,0.000000,0.000000,0.000000,0.000000,0.000000,0.000000,0.000000,0.000000,1648622601.659861,0.000000
236.000000,-6698.951924,2505.719960,23911.851515,46846.931797,23970.748361,59370.435401,4255.034537,8177.273950,-0.002000,0.970000,-0.110000,192.000000,0.000000,0.000000,0.000000,0.000000,0.000000,0.000000,0.000000,0.000000,0.000000,1648622601.666181,0.000000
237.000000,-6706.506813,2497.159242,23902.486134,46841.053288,23963.841672,59373.609349,4266.076298,8180.090270,-0.002000,0.970000,-0.110000,192.000000,0.000000,0.000000,0.000000,0.000000,0.000000,0.000000,0.000000,0.000000,0.000000,1648622601.666188,0.000000
238.000000,-6704.204584,2498.768568,23905.145991,46846.708279,23969.541367,59373.274073,4271.820697,8180.649064,-0.002000,0.970000,-0.110000,192.000000,0.000000,0.000000,0.000000,0.000000,0.000000,0.000000,0.000000,0.000000,0.000000,1648622601.673045,0.000000
239.000000,-6697.342598,2505.228222,23909.951617,46856.721861,23979.823170,59372.134134,4271.664235,8178.168020,-0.002000,0.970000,-0.110000,192.000000,0.000000,0.000000,0.000000,0.000000,0.000000,0.000000,0.000000,0.000000,0.000000,1648622601.673050,0.000000
240.000000,-6695.532107,2506.144644,23912.656178,46860.365195,23984.204112,59377.140925,4282.169554,8184.851192,-0.002000,0.984000,-0.124000,192.000000,255.000000,240.000000,30.000000,192.000000,252.000000,32.000000,0.000000,0.000000,0.000000,1648622601.679228,0.000000
241.000000,-6692.045235,2510.078551,23917.819431,46865.036710,23988.920330,59376.895055,4287.489270,8184.158288,-0.002000,0.984000,-0.124000,192.000000,0.000000,0.000000,0.000000,0.000000,0.000000,0.000000,0.000000,0.000000,0.000000,1648622601.686766,0.000000
242.000000,-6689.631246,2513.297202,23920.009902,46865.997835,23991.311966,59367.037936,4284.807060,8181.431375,-0.002000,0.984000,-0.124000,192.000000,0.000000,0.000000,0.000000,0.000000,0.000000,0.000000,0.000000,0.000000,0.000000,1648622601.686774,0.000000
243.000000,-6683.998607,2517.007591,23925.150803,46867.517754,23995.335280,59360.779448,4279.286179,8186.013482,-0.002000,0.984000,-0.124000,192.000000,0.000000,0.000000,0.000000,0.000000,0.000000,0.000000,0.000000,0.000000,0.000000,1648622601.694744,0.000000
244.000000,-6691.173517,2513.565423,23919.361701,46865.930780,23992.161333,59375.755116,4296.094691,8198.351645,-0.002000,0.984000,-0.124000,192.000000,0.000000,0.000000,0.000000,0.000000,0.000000,0.000000,0.000000,0.000000,0.000000,1648622601.694753,0.000000
245.000000,-6684.043310,2522.103789,23926.737777,46875.184402,24002.174914,59375.777468,4300.766206,8198.865735,-0.002000,0.984000,-0.124000,192.000000,0.000000,0.000000,0.000000,0.000000,0.000000,0.000000,0.000000,0.000000,0.000000,1648622601.702777,0.000000
246.000000,-6672.152182,2531.759743,23934.896163,46882.247553,24011.093260,59372.692927,4301.794386,8197.301113,-0.002000,0.984000,-0.124000,192.000000,0.000000,0.000000,0.000000,0.000000,0.000000,0.000000,0.000000,0.000000,0.000000,1648622601.702785,0.000000
247.000000,-6683.752737,2517.812254,23922.736814,46866.914256,23999.380946,59376.112744,4315.808930,8194.931828,-0.002000,0.984000,-0.124000,192.000000,0.000000,0.000000,0.000000,0.000000,0.000000,0.000000,0.000000,0.000000,0.000000,1648622601.709992,0.000000
248.000000,-6683.037482,2514.861824,23924.480250,46862.712128,24003.180743,59359.527750,4310.377456,8181.967817,-0.002000,0.984000,-0.124000,192.000000,0.000000,0.000000,0.000000,0.000000,0.000000,0.000000,0.000000,0.000000,0.000000,1648622601.709999,0.000000
249.000000,-6680.288217,2517.611088,23925.977817,46865.550800,24005.997062,59349.938852,4303.202546,8182.213686,-0.002000,0.984000,-0.124000,192.000000,0.000000,0.000000,0.000000,0.000000,0.000000,0.000000,0.000000,0.000000,0.000000,1648622601.718654,0.000000
250.000000,-6679.505906,2519.399228,23927.028349,46869.350597,24007.874609,59356.800837,4317.217090,8187.801622,0.006000,0.996000,-0.122000,192.000000,0.000000,48.000000,31.000000,32.000000,252.000000,48.000000,0.000000,0.000000,0.000000,1648622601.718660,0.000000
251.000000,-6685.674988,2516.560556,23920.144012,46867.227181,24002.353728,59363.260491,4325.062552,8187.265180,0.006000,0.996000,-0.122000,192.000000,0.000000,0.000000,0.000000,0.000000,0.000000,0.000000,0.000000,0.000000,0.000000,1648622601.725884,0.000000
252.000000,-6682.881019,2517.991068,23923.183849,46868.031844,24003.851295,59355.862064,4323.386171,8182.191334,0.006000,0.996000,-0.122000,192.000000,0.000000,0.000000,0.000000,0.000000,0.000000,0.000000,0.000000,0.000000,0.000000,1648622601.725891,0.000000
253.000000,-6677.985987,2524.830702,23927.274218,46876.033768,24007.606388,59344.350915,4319.496968,8184.493564,0.006000,0.996000,-0.122000,192.000000,0.000000,0.000000,0.000000,0.000000,0.000000,0.000000,0.000000,0.000000,0.000000,1648622601.733961,0.000000
254.000000,-6689.810060,2514.146568,23919.361701,46869.775280,23999.202132,59347.480160,4334.405581,8194.909477,0.006000,0.996000,-0.122000,192.000000,0.000000,0.000000,0.000000,0.000000,0.000000,0.000000,0.000000,0.000000,0.000000,1648622601.733966,0.000000
255.000000,-6691.933476,2508.826853,23917.305340,46865.260227,23995.245873,59342.182796,4347.615462,8196.295285,0.006000,0.996000,-0.122000,192.000000,0.000000,0.000000,0.000000,0.000000,0.000000,0.000000,0.000000,0.000000,0.000000,1648622601.740313,0.000000
0.000000,-6675.370833,2523.377839,23933.488003,46879.095957,24010.310949,59329.375247,4346.699041,8199.782157,0.006000,0.996000,-0.122000,192.000000,0.000000,0.000000,0.000000,0.000000,0.000000,0.000000,0.000000,0.000000,0.000000,1648622601.747071,0.000000
1.000000,-6677.874229,2519.622745,23930.247000,46876.994893,24008.165182,59324.457863,4347.168427,8198.932791,0.006000,0.996000,-0.122000,192.000000,0.000000,0.000000,0.000000,0.000000,0.000000,0.000000,0.000000,0.000000,0.000000,1648622601.747083,0.000000
2.000000,-6683.193944,2510.346772,23921.708634,46868.612989,24002.465487,59319.763997,4349.537712,8193.590724,0.006000,0.996000,-0.122000,192.000000,0.000000,0.000000,0.000000,0.000000,0.000000,0.000000,0.000000,0.000000,0.000000,1648622601.755006,0.000000
3.000000,-6681.696377,2511.240841,23923.206201,46870.848163,24006.645263,59321.909764,4350.252968,8190.796756,0.006000,0.996000,-0.122000,192.000000,0.000000,0.000000,0.000000,0.000000,0.000000,0.000000,0.000000,0.000000,0.000000,1648622601.755013,0.000000
4.000000,-6689.452432,2503.887117,23914.220800,46864.679082,23999.313891,59330.291668,4368.447288,8199.335122,0.014000,0.998000,-0.112000,192.000000,0.000000,112.000000,31.000000,48.000000,252.000000,128.000000,0.000000,0.000000,0.000000,1648622601.762259,0.000000
5.000000,-6694.794499,2499.014437,23909.079898,46860.499306,23994.240045,59329.755226,4377.633855,8208.678151,0.014000,0.998000,-0.112000,192.000000,0.000000,0.000000,0.000000,0.000000,0.000000,0.000000,0.000000,0.000000,0.000000,1648622601.762269,0.000000
6.000000,-6698.907220,2495.348751,23904.497791,46857.660634,23986.863969,59330.269316,4391.201364,8208.968724,0.014000,0.998000,-0.112000,192.000000,0.000000,0.000000,0.000000,0.000000,0.000000,0.000000,0.000000,0.000000,0.000000,1648622601.769598,0.000000
7.000000,-6692.604028,2502.031923,23910.041023,46866.422518,23991.602539,59324.793139,4398.555088,8201.302076,0.014000,0.998000,-0.112000,192.000000,0.000000,0.000000,0.000000,0.000000,0.000000,0.000000,0.000000,0.000000,0.000000,1648622601.769608,0.000000
8.000000,-6677.851877,2513.945402,23925.374320,46878.000722,24003.963054,59314.176060,4396.431672,8191.199087,0.014000,0.998000,-0.112000,192.000000,0.000000,0.000000,0.000000,0.000000,0.000000,0.000000,0.000000,0.000000,0.000000,1648622601.777635,0.000000
9.000000,-6680.690549,2510.190309,23919.920495,46870.848163,23997.078716,59317.573526,4406.780530,8193.434261,0.014000,0.998000,-0.112000,192.000000,0.000000,0.000000,0.000000,0.000000,0.000000,0.000000,0.000000,0.000000,0.000000,1648622601.777643,0.000000
10.000000,-6681.606970,2506.546975,23919.764032,46865.640207,23995.178818,59314.109005,4411.519100,8189.992093,0.014000,0.998000,-0.112000,192.000000,0.000000,0.000000,0.000000,0.000000,0.000000,0.000000,0.000000,0.000000,0.000000,1648622601.785674,0.000000
11.000000,-6684.423290,2501.964867,23918.333521,46861.505134,23992.653071,59313.438453,4416.347076,8183.510087,0.014000,0.998000,-0.112000,192.000000,0.000000,0.000000,0.000000,0.000000,0.000000,0.000000,0.000000,0.000000,0.000000,1648622601.785683,0.000000
12.000000,-6686.233781,2495.907545,23913.326730,46859.895809,23989.188551,59315.695979,4426.897100,8189.075671,0.014000,0.998000,-0.112000,192.000000,0.000000,0.000000,0.000000,0.000000,0.000000,0.000000,0.000000,0.000000,0.000000,1648622601.793613,0.000000
13.000000,-6683.573924,2495.125234,23912.410308,46862.063928,23988.987385,59312.700845,4432.552091,8190.439128,0.014000,0.998000,-0.112000,192.000000,0.000000,0.000000,0.000000,0.000000,0.000000,0.000000,0.000000,0.000000,0.000000,1648622601.793622,0.000000
14.000000,-6675.326130,2503.954173,23917.461803,46868.657693,23993.591844,59310.622133,4430.205158,8185.991131,0.012000,0.994000,-0.096000,192.000000,0.000000,96.000000,31.000000,16.000000,253.000000,0.000000,0.000000,0.000000,0.000000,1648622601.800833,0.000000
15.000000,-6683.104537,2498.902678,23906.107116,46860.052271,23981.834827,59312.723197,4440.889292,8181.207857,0.012000,0.994000,-0.096000,192.000000,0.000000,0.000000,0.000000,0.000000,0.000000,0.000000,0.000000,0.000000,0.000000,1648622601.808855,0.000000
16.000000,-6679.394147,2500.154376,23909.795154,46868.568286,23988.294481,59307.023502,4443.347984,8181.878410,0.012000,0.994000,-0.096000,192.000000,0.000000,0.000000,0.000000,0.000000,0.000000,0.000000,0.000000,0.000000,0.000000,1648622601.808867,0.000000
17.000000,-6677.896580,2501.160205,23908.610512,46871.004626,23988.093315,59306.531764,4455.328519,8186.728738,0.012000,0.994000,-0.096000,192.000000,0.000000,0.000000,0.000000,0.000000,0.000000,0.000000,0.000000,0.000000,0.000000,1648622601.815760,0.000000
18.000000,-6667.793592,2511.374952,23917.841782,46879.006550,23995.223522,59299.334502,4457.586045,8185.588799,0.012000,0.994000,-0.096000,192.000000,0.000000,0.000000,0.000000,0.000000,0.000000,0.000000,0.000000,0.000000,0.000000,1648622601.815769,0.000000
19.000000,-6663.010319,2518.594565,23924.569657,46884.460376,24001.705528,59299.937999,4463.285740,8188.628636,0.012000,0.994000,-0.096000,192.000000,0.000000,0.000000,0.000000,0.000000,0.000000,0.000000,0.000000,0.000000,0.000000,1648622601.822016,0.000000
20.000000,-6654.807228,2526.462379,23930.358759,46890.584754,24009.171010,59306.218839,4465.118583,8193.724834,0.012000,0.994000,-0.096000,192.000000,0.000000,0.000000,0.000000,0.000000,0.000000,0.000000,0.000000,0.000000,0.000000,1648622601.822025,0.000000
21.000000,-6660.685737,2520.405057,23923.385015,46882.068739,24001.705528,59318.042912,4478.820202,8200.430358,0.012000,0.994000,-0.096000,192.000000,0.000000,0.000000,0.000000,0.000000,0.000000,0.000000,0.000000,0.000000,0.000000,1648622601.831923,0.000000
22.000000,-6663.792630,2515.532376,23919.786384,46873.351559,23996.542275,59317.640581,4485.190449,8191.780232,0.012000,0.994000,-0.096000,192.000000,0.000000,0.000000,0.000000,0.000000,0.000000,0.000000,0.000000,0.000000,0.000000,1648622601.831941,0.000000
23.000000,-6667.145391,2513.453664,23913.662006,46869.998797,23993.211865,59318.311133,4489.102005,8182.370148,0.012000,0.994000,-0.096000,192.000000,0.000000,0.000000,0.000000,0.000000,0.000000,0.000000,0.000000,0.000000,0.000000,1648622601.838215,0.000000
24.000000,-6665.893694,2514.526548,23910.532762,46870.468184,23992.273091,59315.718331,4492.208897,8177.408061,0.002000,0.984000,-0.092000,192.000000,0.000000,16.000000,30.000000,192.000000,253.000000,32.000000,0.000000,0.000000,0.000000,1648622601.838231,0.000000
25.000000,-6662.429173,2516.269984,23914.086689,46875.430271,23996.251702,59310.264505,4488.431452,8173.272988,0.002000,0.984000,-0.092000,192.000000,0.000000,0.000000,0.000000,0.000000,0.000000,0.000000,0.000000,0.000000,0.000000,1648622601.844545,0.000000
26.000000,-6663.814981,2513.498367,23912.231494,46874.089166,23994.865894,59304.833031,4484.586952,8173.004767,0.002000,0.984000,-0.092000,192.000000,0.000000,0.000000,0.000000,0.000000,0.000000,0.000000,0.000000,0.000000,0.000000,1648622601.844554,0.000000
27.000000,-6666.385432,2512.313725,23908.074070,46870.736405,23988.585054,59306.755281,4490.867792,8179.017386,0.002000,0.984000,-0.092000,192.000000,0.000000,0.000000,0.000000,0.000000,0.000000,0.000000,0.000000,0.000000,0.000000,1648622601.852545,0.000000
28.000000,-6658.361156,2518.058123,23914.712538,46874.893829,23991.982519,59306.397653,4494.645237,8180.872581,0.002000,0.984000,-0.092000,192.000000,0.000000,0.000000,0.000000,0.000000,0.000000,0.000000,0.000000,0.000000,0.000000,1648622601.852552,0.000000
29.000000,-6661.736269,2516.985240,23912.745585,46873.820945,23988.629757,59314.377226,4493.013560,8182.817183,0.002000,0.984000,-0.092000,192.000000,0.000000,0.000000,0.000000,0.000000,0.000000,0.000000,0.000000,0.000000,0.000000,1648622601.859649,0.000000
30.000000,-6677.583656,2503.194213,23899.826276,46861.594541,23974.883434,59327.542404,4515.141787,8190.260314,0.002000,0.984000,-0.092000,192.000000,0.000000,0.000000,0.000000,0.000000,0.000000,0.000000,0.000000,0.000000,0.000000,1648622601.859662,0.000000
31.000000,-6662.406822,2516.247632,23915.092518,46875.139698,23992.027222,59318.422892,4514.068903,8184.650026,0.002000,0.984000,-0.092000,192.000000,0.000000,0.000000,0.000000,0.000000,0.000000,0.000000,0.000000,0.000000,0.000000,1648622601.867697,0.000000
32.000000,-6665.133734,2515.979411,23913.058509,46875.698492,23992.831885,59316.858270,4515.812339,8177.586875,0.002000,0.984000,-0.092000,192.000000,0.000000,0.000000,0.000000,0.000000,0.000000,0.000000,0.000000,0.000000,0.000000,1648622601.875592,0.000000
33.000000,-6661.378641,2521.075609,23914.801945,46882.359312,23998.486876,59322.557965,4521.556738,8177.586875,0.002000,0.984000,-0.092000,192.000000,0.000000,0.000000,0.000000,0.000000,0.000000,0.000000,0.000000,0.000000,0.000000,1648622601.875601,0.000000
34.000000,-6656.327147,2522.684934,23918.288817,46886.427329,24003.627778,59320.322790,4514.024200,8178.302130,-0.004000,0.974000,-0.104000,192.000000,255.000000,224.000000,30.000000,112.000000,252.000000,192.000000,0.000000,0.000000,0.000000,1648622601.883545,0.000000
35.000000,-6657.824714,2517.029943,23912.387957,46883.231030,23998.241007,59327.095369,4516.862871,8184.940599,-0.004000,0.974000,-0.104000,192.000000,0.000000,0.000000,0.000000,0.000000,0.000000,0.000000,0.000000,0.000000,0.000000,1648622601.883552,0.000000
36.000000,-6663.882037,2509.899737,23905.369509,46876.994893,23989.657937,59332.817415,4533.403162,8189.947389,-0.004000,0.974000,-0.104000,192.000000,0.000000,0.000000,0.000000,0.000000,0.000000,0.000000,0.000000,0.000000,0.000000,1648622601.891765,0.000000
37.000000,-6677.002511,2494.924068,23894.640672,46860.901637,23979.018507,59321.663895,4540.287499,8177.028081,-0.004000,0.974000,-0.104000,192.000000,0.000000,0.000000,0.000000,0.000000,0.000000,0.000000,0.000000,0.000000,0.000000,1648622601.891782,0.000000
38.000000,-6662.406822,2510.391475,23908.521105,46871.496364,23993.390679,59311.203278,4530.229214,8163.214703,-0.004000,0.974000,-0.104000,192.000000,0.000000,0.000000,0.000000,0.000000,0.000000,0.000000,0.000000,0.000000,0.000000,1648622601.898623,0.000000
39.000000,-6653.980214,2517.499330,23917.752375,46879.274771,24001.370251,59298.529839,4508.995057,8149.423677,-0.004000,0.974000,-0.104000,192.000000,0.000000,0.000000,0.000000,0.000000,0.000000,0.000000,0.000000,0.000000,0.000000,1648622601.898632,0.000000
40.000000,-6662.630339,2511.285545,23907.090593,46873.820945,23990.820228,59298.619246,4502.669514,8142.204063,-0.004000,0.974000,-0.104000,192.000000,0.000000,0.000000,0.000000,0.000000,0.000000,0.000000,0.000000,0.000000,0.000000,1648622601.904984,0.000000
41.000000,-6660.573978,2513.498367,23904.900122,46875.966713,23991.200208,59311.650313,4513.420703,8148.529607,-0.004000,0.974000,-0.104000,192.000000,0.000000,0.000000,0.000000,0.000000,0.000000,0.000000,0.000000,0.000000,0.000000,1648622601.904993,0.000000
42.000000,-6660.417516,2511.732580,23902.173209,46874.312684,23988.965033,59324.413159,4528.910462,8159.973700,-0.004000,0.974000,-0.104000,192.000000,0.000000,0.000000,0.000000,0.000000,0.000000,0.000000,0.000000,0.000000,0.000000,1648622601.912841,0.000000
43.000000,-6652.639109,2516.694667,23907.805849,46879.118309,23995.514094,59313.684322,4527.099970,8152.038831,-0.004000,0.974000,-0.104000,192.000000,0.000000,0.000000,0.000000,0.000000,0.000000,0.000000,0.000000,0.000000,0.000000,1648622601.912858,0.000000
44.000000,-6656.260092,2512.157263,23902.530837,46880.280600,23993.435382,59315.427758,4526.630584,8150.116581,-0.004000,0.968000,-0.114000,192.000000,255.000000,224.000000,30.000000,64.000000,252.000000,112.000000,0.000000,0.000000,0.000000,1648622601.919998,0.000000
45.000000,-6670.565208,2501.361370,23886.325823,46869.104727,23979.532597,59321.708598,4538.521712,8150.273043,-0.004000,0.968000,-0.114000,192.000000,0.000000,0.000000,0.000000,0.000000,0.000000,0.000000,0.000000,0.000000,0.000000,1648622601.920012,0.000000
46.000000,-6667.167743,2508.715094,23895.825314,46877.397225,23989.300309,59315.874793,4539.616947,8141.354697,-0.004000,0.968000,-0.114000,192.000000,0.000000,0.000000,0.000000,0.000000,0.000000,0.000000,0.000000,0.000000,0.000000,1648622601.926375,0.000000
47.000000,-6663.211484,2512.693705,23898.149895,46877.598390,23990.417897,59316.075959,4542.321508,8137.733714,-0.004000,0.968000,-0.114000,192.000000,0.000000,0.000000,0.000000,0.000000,0.000000,0.000000,0.000000,0.000000,0.000000,1648622601.934380,0.000000
48.000000,-6649.956900,2522.036734,23907.828201,46886.650847,23999.023318,59315.047778,4541.539197,8136.727886,-0.004000,0.968000,-0.114000,192.000000,0.000000,0.000000,0.000000,0.000000,0.000000,0.000000,0.000000,0.000000,0.000000,1648622601.934388,0.000000
49.000000,-6653.443772,2519.913318,23905.615378,46886.382626,23997.548103,59320.926287,4547.887093,8140.706496,-0.004000,0.968000,-0.114000,192.000000,0.000000,0.000000,0.000000,0.000000,0.000000,0.000000,0.000000,0.000000,0.000000,1648622601.942425,0.000000
50.000000,-6654.516656,2519.376876,23902.284968,46886.494385,23998.799801,59321.865061,4553.631491,8134.649174,-0.004000,0.968000,-0.114000,192.000000,0.000000,0.000000,0.000000,0.000000,0.000000,0.000000,0.000000,0.000000,0.000000,1648622601.942433,0.000000
51.000000,-6641.530292,2532.296185,23913.304378,46900.128949,24015.876533,59323.563793,4555.933721,8129.374162,-0.004000,0.968000,-0.114000,192.000000,0.000000,0.000000,0.000000,0.000000,0.000000,0.000000,0.000000,0.000000,0.000000,1648622601.950577,0.000000
52.000000,-6646.358269,2528.786961,23905.816544,46897.603202,24011.875571,59333.733837,4573.412785,8132.905738,-0.004000,0.968000,-0.114000,192.000000,0.000000,0.000000,0.000000,0.000000,0.000000,0.000000,0.000000,0.000000,0.000000,1648622601.950588,0.000000
53.000000,-6649.755734,2523.646059,23904.810715,46893.602239,24010.467411,59328.682343,4575.044462,8120.791092,-0.004000,0.968000,-0.114000,192.000000,0.000000,0.000000,0.000000,0.000000,0.000000,0.000000,0.000000,0.000000,0.000000,1648622601.958433,0.000000
54.000000,-6643.094914,2524.249557,23909.951617,46898.631382,24013.127269,59320.881584,4566.595503,8110.598697,-0.004000,0.968000,-0.114000,192.000000,0.000000,0.000000,0.000000,0.000000,0.000000,0.000000,0.000000,0.000000,0.000000,1648622601.958442,0.000000
55.000000,-6646.268862,2518.125179,23906.777669,46893.266963,24009.014548,59314.265467,4566.684910,8105.301333,0.004000,0.984000,-0.130000,192.000000,0.000000,32.000000,30.000000,192.000000,251.000000,240.000000,0.000000,0.000000,0.000000,1648622601.966501,0.000000
56.000000,-6642.513769,2521.522644,23911.203314,46894.809234,24016.256513,59314.421930,4567.020186,8104.943705,0.004000,0.984000,-0.130000,192.000000,0.000000,0.000000,0.000000,0.000000,0.000000,0.000000,0.000000,0.000000,0.000000,1648622601.966511,0.000000
57.000000,-6640.770333,2524.629536,23909.683396,46892.529356,24015.764775,59324.524918,4577.927837,8115.784301,0.004000,0.984000,-0.130000,192.000000,0.000000,0.000000,0.000000,0.000000,0.000000,0.000000,0.000000,0.000000,0.000000,1648622601.974518,0.000000
58.000000,-6650.582749,2512.693705,23898.932207,46881.286428,24006.041766,59317.707636,4581.079433,8114.420845,0.004000,0.984000,-0.130000,192.000000,0.000000,0.000000,0.000000,0.000000,0.000000,0.000000,0.000000,0.000000,0.000000,1648622601.974526,0.000000
59.000000,-6638.669269,2522.059086,23909.169305,46890.182422,24018.558743,59297.971046,4566.550799,8097.165298,0.004000,0.984000,-0.130000,192.000000,0.000000,0.000000,0.000000,0.000000,0.000000,0.000000,0.000000,0.000000,0.000000,1648622601.980768,0.000000
60.000000,-6644.972461,2519.600394,23899.580407,46885.667370,24013.037862,59304.721273,4582.733462,8110.509290,0.004000,0.984000,-0.130000,192.000000,0.000000,0.000000,0.000000,0.000000,0.000000,0.000000,0.000000,0.000000,0.000000,1648622601.980775,0.000000
61.000000,-6648.951071,2516.381743,23895.065355,46884.996818,24012.635531,59303.491927,4586.801480,8110.956324,0.004000,0.984000,-0.130000,192.000000,0.000000,0.000000,0.000000,0.000000,0.000000,0.000000,0.000000,0.000000,0.000000,1648622601.987072,0.000000
62.000000,-6657.936473,2507.508100,23883.263634,46875.966713,24001.794934,59305.056549,4593.954038,8109.682275,0.004000,0.984000,-0.130000,192.000000,0.000000,0.000000,0.000000,0.000000,0.000000,0.000000,0.000000,0.000000,0.000000,1648622601.997742,0.000000
63.000000,-6646.380621,2516.001763,23892.517256,46884.929762,24011.830868,59283.554171,4588.187288,8101.769757,0.004000,0.984000,-0.130000,192.000000,0.000000,0.000000,0.000000,0.000000,0.000000,0.000000,0.000000,0.000000,0.000000,1648622601.997749,0.000000
64.000000,-6637.350516,2522.304955,23903.402555,46890.562402,24020.816269,59294.841802,4601.598335,8124.568537,0.004000,0.984000,-0.130000,192.000000,0.000000,0.000000,0.000000,0.000000,0.000000,0.000000,0.000000,0.000000,0.000000,1648622602.003978,0.000000
65.000000,-6642.916100,2512.067856,23905.257750,46883.745120,24022.425595,59292.539572,4596.770358,8127.384857,0.014000,0.990000,-0.162000,192.000000,0.000000,112.000000,30.000000,240.000000,250.000000,240.000000,0.000000,0.000000,0.000000,1648622602.003993,0.000000
66.000000,-6648.168760,2503.708303,23903.000224,46880.124137,24020.503345,59284.761165,4587.919067,8118.891194,0.014000,0.990000,-0.162000,192.000000,0.000000,0.000000,0.000000,0.000000,0.000000,0.000000,0.000000,0.000000,0.000000,1648622602.010753,0.000000
67.000000,-6638.669269,2509.765626,23909.504582,46885.041521,24025.286618,59282.391880,4578.196058,8111.202194,0.014000,0.990000,-0.162000,192.000000,0.000000,0.000000,0.000000,0.000000,0.000000,0.000000,0.000000,0.000000,0.000000,1648622602.010758,0.000000
68.000000,-6647.386449,2501.361370,23900.005090,46873.977408,24013.395490,59292.226647,4591.093015,8116.767778,0.014000,0.990000,-0.162000,192.000000,0.000000,0.000000,0.000000,0.000000,0.000000,0.000000,0.000000,0.000000,0.000000,1648622602.017317,0.000000
69.000000,-6647.766429,2499.617934,23903.201390,46874.491498,24017.374100,59285.275255,4590.936552,8101.702702,0.014000,0.990000,-0.162000,192.000000,0.000000,0.000000,0.000000,0.000000,0.000000,0.000000,0.000000,0.000000,0.000000,1648622602.017324,0.000000
70.000000,-6634.467141,2509.810330,23916.210105,46887.299047,24029.779319,59282.816563,4579.492459,8092.359673,0.014000,0.990000,-0.162000,192.000000,0.000000,0.000000,0.000000,0.000000,0.000000,0.000000,0.000000,0.000000,0.000000,1648622602.025601,0.000000
71.000000,-6645.374792,2503.104806,23904.631901,46881.532297,24017.329397,59294.730043,4589.438986,8105.278981,0.014000,0.990000,-0.162000,192.000000,0.000000,0.000000,0.000000,0.000000,0.000000,0.000000,0.000000,0.000000,0.000000,1648622602.025613,0.000000
72.000000,-6650.538045,2500.579059,23899.111020,46878.604219,24012.881400,59302.329636,4605.688704,8119.852319,0.014000,0.990000,-0.162000,192.000000,0.000000,0.000000,0.000000,0.000000,0.000000,0.000000,0.000000,0.000000,0.000000,1648622602.033383,0.000000
73.000000,-6650.023955,2504.512966,23901.189733,46877.933666,24017.754080,59284.783517,4593.909334,8107.782377,0.014000,0.990000,-0.162000,192.000000,0.000000,0.000000,0.000000,0.000000,0.000000,0.000000,0.000000,0.000000,0.000000,1648622602.033391,0.000000
74.000000,-6650.783914,2504.982353,23902.888465,46874.290332,24017.955246,59277.273330,4582.509945,8105.591906,0.014000,0.990000,-0.162000,192.000000,0.000000,0.000000,0.000000,0.000000,0.000000,0.000000,0.000000,0.000000,0.000000,1648622602.041537,0.000000
75.000000,-6646.090048,2507.262231,23906.509448,46878.179536,24022.067967,59277.206275,4582.733462,8109.548165,0.010000,0.990000,-0.158000,192.000000,0.000000,80.000000,30.000000,240.000000,251.000000,16.000000,0.000000,0.000000,0.000000,1648622602.041547,0.000000
76.000000,-6649.107534,2503.574193,23903.737832,46875.586733,24020.391586,59290.304397,4589.260172,8110.196365,0.010000,0.990000,-0.158000,192.000000,0.000000,0.000000,0.000000,0.000000,0.000000,0.000000,0.000000,0.000000,0.000000,1648622602.048625,0.000000
77.000000,-6646.112400,2506.546975,23908.342291,46877.508983,24023.409071,59295.959389,4590.578924,8113.437368,0.010000,0.990000,-0.158000,192.000000,0.000000,0.000000,0.000000,0.000000,0.000000,0.000000,0.000000,0.000000,0.000000,1648622602.056520,0.000000
78.000000,-6645.486551,2506.859899,23909.057547,46882.761643,24026.337150,59300.787366,4592.255305,8120.746389,0.010000,0.990000,-0.158000,192.000000,0.000000,0.000000,0.000000,0.000000,0.000000,0.000000,0.000000,0.000000,0.000000,1648622602.056528,0.000000
79.000000,-6645.553606,2509.564460,23909.728099,46888.237821,24028.169993,59298.328674,4588.388454,8116.745426,0.010000,0.990000,-0.158000,192.000000,0.000000,0.000000,0.000000,0.000000,0.000000,0.000000,0.000000,0.000000,0.000000,1648622602.064553,0.000000
80.000000,-6647.699374,2510.838510,23910.465707,46893.490481,24030.204002,59297.456956,4575.759718,8111.403359,0.010000,0.990000,-0.158000,192.000000,0.000000,0.000000,0.000000,0.000000,0.000000,0.000000,0.000000,0.000000,0.000000,1648622602.064563,0.000000
81.000000,-6644.413667,2516.582908,23914.332558,46902.341771,24036.909525,59297.456956,4572.518715,8115.650191,0.010000,0.990000,-0.158000,192.000000,0.000000,0.000000,0.000000,0.000000,0.000000,0.000000,0.000000,0.000000,0.000000,1648622602.072635,0.000000
82.000000,-6643.318432,2520.203891,23919.719329,46908.130873,24041.424577,59297.009921,4580.095956,8123.138025,0.010000,0.990000,-0.158000,192.000000,0.000000,0.000000,0.000000,0.000000,0.000000,0.000000,0.000000,0.000000,0.000000,1648622602.072643,0.000000
83.000000,-6653.711993,2514.146568,23913.505544,46903.772283,24033.668522,59303.938961,4589.997779,8128.189519,0.010000,0.990000,-0.158000,192.000000,0.000000,0.000000,0.000000,0.000000,0.000000,0.000000,0.000000,0.000000,0.000000,1648622602.078853,0.000000
84.000000,-6655.030746,2512.403132,23910.912742,46898.050236,24031.589810,59301.994360,4586.443852,8117.550089,0.010000,0.990000,-0.158000,192.000000,0.000000,0.000000,0.000000,0.000000,0.000000,0.000000,0.000000,0.000000,0.000000,1648622602.078864,0.000000
85.000000,-6648.727554,2517.186405,23913.818468,46895.032751,24034.584944,59302.709616,4591.160070,8111.246897,0.010000,0.990000,-0.158000,192.000000,0.000000,80.000000,30.000000,240.000000,251.000000,16.000000,0.000000,0.000000,0.000000,1648622602.087067,0.000000
86.000000,-6641.127961,2518.907490,23921.574524,46896.507966,24041.871612,59299.915647,4590.578924,8109.704627,0.010000,0.990000,-0.158000,192.000000,0.000000,0.000000,0.000000,0.000000,0.000000,0.000000,0.000000,0.000000,0.000000,1648622602.087085,0.000000
87.000000,-6650.135714,2508.491577,23913.550247,46887.611972,24033.467356,59298.485136,4587.203811,8114.063217,0.010000,0.990000,-0.158000,192.000000,0.000000,0.000000,0.000000,0.000000,0.000000,0.000000,0.000000,0.000000,0.000000,1648622602.093528,0.000000
88.000000,-6649.286348,2510.413827,23917.394747,46889.109539,24037.088339,59286.906932,4575.335035,8114.733769,0.010000,0.990000,-0.158000,192.000000,0.000000,0.000000,0.000000,0.000000,0.000000,0.000000,0.000000,0.000000,0.000000,1648622602.093537,0.000000
89.000000,-6649.711031,2513.967754,23918.110003,46892.551707,24036.909525,59281.855438,4568.093070,8125.909641,0.010000,0.990000,-0.158000,192.000000,0.000000,0.000000,0.000000,0.000000,0.000000,0.000000,0.000000,0.000000,0.000000,1648622602.100400,0.000000
90.000000,-6650.962728,2515.644135,23919.629922,46894.317495,24036.261324,59293.455993,4582.197020,8141.868787,0.010000,0.990000,-0.158000,192.000000,0.000000,0.000000,0.000000,0.000000,0.000000,0.000000,0.000000,0.000000,0.000000,1648622602.100406,0.000000
91.000000,-6657.824714,2512.224318,23916.075995,46893.356370,24033.623819,59301.435566,4587.293218,8150.161284,0.010000,0.990000,-0.158000,192.000000,0.000000,0.000000,0.000000,0.000000,0.000000,0.000000,0.000000,0.000000,0.000000,1648622602.107759,0.000000
92.000000,-6658.048231,2511.844338,23918.512335,46895.591545,24034.674351,59300.697959,4587.181459,8147.613185,0.010000,0.990000,-0.158000,192.000000,0.000000,0.000000,0.000000,0.000000,0.000000,0.000000,0.000000,0.000000,0.000000,1648622602.107776,0.000000
93.000000,-6659.344633,2508.491577,23914.980759,46892.909335,24029.444042,59306.665874,4599.854898,8154.341060,0.010000,0.990000,-0.158000,192.000000,0.000000,0.000000,0.000000,0.000000,0.000000,0.000000,0.000000,0.000000,0.000000,1648622602.114641,0.000000
94.000000,-6651.052135,2517.566385,23921.239247,46904.085207,24037.088339,59298.194563,4596.457433,8152.105886,0.010000,0.990000,-0.158000,192.000000,0.000000,0.000000,0.000000,0.000000,0.000000,0.000000,0.000000,0.000000,0.000000,1648622602.122173,0.000000
95.000000,-6645.665365,2523.534301,23925.039044,46907.393266,24039.301162,59289.030348,4590.534221,8154.788095,0.010000,0.978000,-0.158000,192.000000,0.000000,80.000000,30.000000,144.000000,251.000000,16.000000,0.000000,0.000000,0.000000,1648622602.122186,0.000000
96.000000,-6642.178493,2527.848187,23925.843707,46906.745065,24039.725845,59282.213066,4592.367064,8168.690880,0.010000,0.978000,-0.158000,192.000000,0.000000,0.000000,0.000000,0.000000,0.000000,0.000000,0.000000,0.000000,0.000000,1648622602.130119,0.000000
97.000000,-6646.224159,2525.367144,23922.043910,46903.705228,24036.037807,59291.086708,4603.744102,8187.578104,0.010000,0.978000,-0.158000,192.000000,0.000000,0.000000,0.000000,0.000000,0.000000,0.000000,0.000000,0.000000,0.000000,1648622602.130132,0.000000
98.000000,-6644.190150,2529.278699,23923.832050,46906.946231,24036.238973,59287.398671,4596.256268,8192.517840,0.010000,0.978000,-0.158000,192.000000,0.000000,0.000000,0.000000,0.000000,0.000000,0.000000,0.000000,0.000000,0.000000,1648622602.138002,0.000000
99.000000,-6657.377679,2521.477940,23914.891352,46899.748969,24025.487784,59292.651331,4600.480747,8203.559602,0.010000,0.978000,-0.158000,192.000000,0.000000,0.000000,0.000000,0.000000,0.000000,0.000000,0.000000,0.000000,0.000000,1648622602.138012,0.000000
100.000000,-6651.789743,2524.540129,23920.747509,46901.626516,24030.829851,59294.752395,4601.151300,8207.426454,0.010000,0.978000,-0.158000,192.000000,0.000000,0.000000,0.000000,0.000000,0.000000,0.000000,0.000000,0.000000,0.000000,1648622602.146724,0.000000
101.000000,-6665.446659,2510.480882,23909.012843,46886.248515,24018.022301,59305.414177,4620.217338,8221.977439,0.010000,0.978000,-0.158000,192.000000,0.000000,0.000000,0.000000,0.000000,0.000000,0.000000,0.000000,0.000000,0.000000,1648622602.146733,0.000000
102.000000,-6668.173572,2505.272926,23906.397689,46882.359312,24017.418804,59299.826241,4631.147341,8227.364210,0.010000,0.978000,-0.158000,192.000000,0.000000,0.000000,0.000000,0.000000,0.000000,0.000000,0.000000,0.000000,0.000000,1648622602.153108,0.000000
103.000000,-6658.964653,2517.409923,23913.572599,46890.182422,24025.376025,59291.936075,4625.760570,8221.865680,0.010000,0.978000,-0.158000,192.000000,0.000000,0.000000,0.000000,0.000000,0.000000,0.000000,0.000000,0.000000,0.000000,1648622602.153115,0.000000
104.000000,-6655.276615,2528.027001,23915.763070,46895.502138,24025.644246,59293.232476,4623.637155,8225.464311,0.010000,0.978000,-0.158000,192.000000,0.000000,0.000000,0.000000,0.000000,0.000000,0.000000,0.000000,0.000000,0.000000,1648622602.161060,0.000000
105.000000,-6661.780973,2523.288432,23911.002149,46892.328190,24018.379929,59295.490002,4628.174559,8232.058076,0.012000,0.966000,-0.152000,192.000000,0.000000,96.000000,30.000000,48.000000,251.000000,64.000000,0.000000,0.000000,0.000000,1648622602.161069,0.000000
106.000000,-6661.602159,2515.040638,23913.460840,46892.842280,24019.162240,59287.622188,4623.458341,8219.697561,0.012000,0.966000,-0.152000,192.000000,0.000000,0.000000,0.000000,0.000000,0.000000,0.000000,0.000000,0.000000,0.000000,1648622602.167235,0.000000
107.000000,-6672.755679,2503.708303,23902.642596,46879.498289,24007.226408,59288.359796,4631.214396,8218.669381,0.012000,0.966000,-0.152000,192.000000,0.000000,0.000000,0.000000,0.000000,0.000000,0.000000,0.000000,0.000000,0.000000,1648622602.167249,0.000000
108.000000,-6671.638092,2506.099940,23901.681471,46876.413748,24008.567513,59279.933188,4639.238672,8219.094064,0.012000,0.966000,-0.152000,192.000000,0.000000,0.000000,0.000000,0.000000,0.000000,0.000000,0.000000,0.000000,0.000000,1648622602.174202,0.000000
109.000000,-6664.641996,2516.560556,23905.905951,46883.834527,24015.027167,59271.484229,4633.471922,8216.121282,0.012000,0.966000,-0.152000,192.000000,0.000000,0.000000,0.000000,0.000000,0.000000,0.000000,0.000000,0.000000,0.000000,1648622602.182279,0.000000
110.000000,-6651.141542,2533.950214,23916.858306,46898.519623,24028.147641,59258.855493,4623.681858,8219.988134,0.012000,0.966000,-0.152000,192.000000,0.000000,0.000000,0.000000,0.000000,0.000000,0.000000,0.000000,0.000000,0.000000,1648622602.182286,0.000000
111.000000,-6653.801400,2536.319499,23914.869000,46900.844205,24029.667560,59261.582406,4630.074457,8226.470140,0.012000,0.966000,-0.152000,192.000000,0.000000,0.000000,0.000000,0.000000,0.000000,0.000000,0.000000,0.000000,0.000000,1648622602.190374,0.000000
112.000000,-6652.125019,2538.688783,23914.377262,46902.632344,24029.309932,59275.798115,4641.339736,8233.779160,0.012000,0.966000,-0.152000,192.000000,0.000000,0.000000,0.000000,0.000000,0.000000,0.000000,0.000000,0.000000,0.000000,1648622602.190386,0.000000
113.000000,-6645.933586,2543.293243,23918.333521,46906.789769,24031.835679,59280.380223,4650.526303,8236.863701,0.012000,0.966000,-0.152000,192.000000,0.000000,0.000000,0.000000,0.000000,0.000000,0.000000,0.000000,0.000000,0.000000,1648622602.196798,0.000000
114.000000,-6652.035612,2536.274795,23909.482230,46896.843242,24022.224429,59273.115906,4656.941254,8233.801512,0.012000,0.966000,-0.152000,192.000000,0.000000,0.000000,0.000000,0.000000,0.000000,0.000000,0.000000,0.000000,0.000000,1648622602.196806,0.000000
115.000000,-6642.469065,2545.483714,23917.394747,46903.101731,24029.064063,59259.906025,4652.940292,8229.554681,0.016000,0.964000,-0.142000,192.000000,0.000000,128.000000,30.000000,32.000000,251.000000,144.000000,0.000000,0.000000,0.000000,1648622602.204749,0.000000
116.000000,-6641.284423,2549.730545,23921.932152,46905.113388,24031.790976,59253.446371,4649.341661,8227.386561,0.016000,0.964000,-0.142000,192.000000,0.000000,0.000000,0.000000,0.000000,0.000000,0.000000,0.000000,0.000000,0.000000,1648622602.204757,0.000000
117.000000,-6646.805304,2541.750972,23918.802907,46899.480748,24027.320627,59261.537702,4660.808106,8242.742210,0.016000,0.964000,-0.142000,192.000000,0.000000,0.000000,0.000000,0.000000,0.000000,0.000000,0.000000,0.000000,0.000000,1648622602.212889,0.000000
118.000000,-6640.390353,2543.002670,23928.414157,46905.068684,24036.328380,59270.724269,4668.295940,8249.090105,0.016000,0.964000,-0.142000,192.000000,0.000000,0.000000,0.000000,0.000000,0.000000,0.000000,0.000000,0.000000,0.000000,1648622602.212896,0.000000
119.000000,-6644.011336,2538.442914,23926.938942,46901.738274,24032.685045,59283.397708,4678.913019,8252.353460,0.016000,0.964000,-0.142000,192.000000,0.000000,0.000000,0.000000,0.000000,0.000000,0.000000,0.000000,0.000000,0.000000,1648622602.219860,0.000000
120.000000,-6648.548740,2534.106676,23922.356835,46896.396207,24027.991179,59275.127563,4672.252199,8237.556605,0.016000,0.964000,-0.142000,192.000000,0.000000,0.000000,0.000000,0.000000,0.000000,0.000000,0.000000,0.000000,0.000000,1648622602.219868,0.000000
121.000000,-6648.794609,2535.604243,23922.289779,46899.190175,24028.505269,59287.979816,4691.340588,8244.128018,0.016000,0.964000,-0.142000,192.000000,0.000000,0.000000,0.000000,0.000000,0.000000,0.000000,0.000000,0.000000,0.000000,1648622602.227452,0.000000
122.000000,-6653.019089,2531.737391,23918.668797,46900.352466,24026.135984,59291.243171,4700.817728,8251.749963,0.016000,0.964000,-0.142000,192.000000,0.000000,0.000000,0.000000,0.000000,0.000000,0.000000,0.000000,0.000000,0.000000,1648622602.227461,0.000000
123.000000,-6656.260092,2527.401153,23915.561904,46896.440911,24023.587885,59291.153764,4709.780778,8256.086201,0.016000,0.964000,-0.142000,192.000000,0.000000,0.000000,0.000000,0.000000,0.000000,0.000000,0.000000,0.000000,0.000000,1648622602.234476,0.000000
124.000000,-6660.886903,2524.942461,23909.750451,46892.395245,24016.904714,59292.673682,4718.743827,8255.438001,0.016000,0.964000,-0.142000,192.000000,0.000000,0.000000,0.000000,0.000000,0.000000,0.000000,0.000000,0.000000,0.000000,1648622602.242495,0.000000
125.000000,-6658.383508,2528.362278,23908.901085,46897.334981,24016.390624,59288.806831,4725.382295,8258.857818,0.018000,0.954000,-0.128000,192.000000,0.000000,144.000000,29.000000,208.000000,252.000000,0.000000,0.000000,0.000000,0.000000,1648622602.242502,0.000000
126.000000,-6647.252339,2539.068763,23922.669759,46907.862652,24027.410034,59273.361775,4715.234603,8250.051230,0.018000,0.954000,-0.128000,192.000000,0.000000,0.000000,0.000000,0.000000,0.000000,0.000000,0.000000,0.000000,0.000000,1648622602.249601,0.000000
127.000000,-6647.319394,2540.946310,23924.144974,46907.773245,24026.024225,59268.645557,4711.188938,8247.994870,0.018000,0.954000,-0.128000,192.000000,0.000000,0.000000,0.000000,0.000000,0.000000,0.000000,0.000000,0.000000,0.000000,1648622602.249610,0.000000
128.000000,-6658.718784,2533.525531,23912.633826,46902.297068,24015.764775,59279.016766,4727.393952,8257.248492,0.018000,0.954000,-0.128000,192.000000,0.000000,0.000000,0.000000,0.000000,0.000000,0.000000,0.000000,0.000000,0.000000,1648622602.257253,0.000000
129.000000,-6676.711938,2515.778245,23898.060488,46889.735388,24001.996100,59282.235418,4741.632014,8261.584730,0.018000,0.954000,-0.128000,192.000000,0.000000,0.000000,0.000000,0.000000,0.000000,0.000000,0.000000,0.000000,0.000000,1648622602.257283,0.000000
130.000000,-6664.932569,2521.455589,23905.257750,46897.737312,24010.556818,59274.836990,4745.834141,8258.075506,0.018000,0.954000,-0.128000,192.000000,0.000000,0.000000,0.000000,0.000000,0.000000,0.000000,0.000000,0.000000,0.000000,1648622602.265069,0.000000
131.000000,-6654.896635,2533.816103,23913.594951,46906.320382,24018.514039,59277.541551,4742.749601,8258.343727,0.018000,0.954000,-0.128000,192.000000,0.000000,0.000000,0.000000,0.000000,0.000000,0.000000,0.000000,0.000000,0.000000,1648622602.265081,0.000000
132.000000,-6655.678946,2538.644080,23912.902047,46910.053123,24019.318702,59281.788383,4742.168455,8264.289291,0.018000,0.954000,-0.128000,192.000000,0.000000,0.000000,0.000000,0.000000,0.000000,0.000000,0.000000,0.000000,0.000000,1648622602.273539,0.000000
133.000000,-6667.815944,2525.814179,23901.256788,46895.792710,24006.131173,59289.455031,4756.250054,8271.911236,0.018000,0.954000,-0.128000,192.000000,0.000000,0.000000,0.000000,0.000000,0.000000,0.000000,0.000000,0.000000,0.000000,1648622602.273546,0.000000
134.000000,-6664.731403,2527.512911,23902.910817,46893.937515,24007.762850,59278.815601,4756.764145,8259.818943,0.018000,0.954000,-0.128000,192.000000,0.000000,0.000000,0.000000,0.000000,0.000000,0.000000,0.000000,0.000000,0.000000,1648622602.279806,0.000000
135.000000,-6669.782897,2525.478903,23897.255826,46891.300010,24004.343033,59276.714537,4762.217970,8259.908350,0.020000,0.962000,-0.132000,192.000000,0.000000,160.000000,30.000000,16.000000,251.000000,224.000000,0.000000,0.000000,0.000000,1648622602.279815,0.000000
136.000000,-6672.353348,2524.473074,23895.355927,46888.416635,24000.163257,59279.352043,4772.231552,8259.438963,0.020000,0.962000,-0.132000,192.000000,0.000000,0.000000,0.000000,0.000000,0.000000,0.000000,0.000000,0.000000,0.000000,1648622602.287881,0.000000
137.000000,-6664.329072,2525.300089,23902.463782,46888.148414,24003.717185,59273.875865,4778.758261,8257.047326,0.020000,0.962000,-0.132000,192.000000,0.000000,0.000000,0.000000,0.000000,0.000000,0.000000,0.000000,0.000000,0.000000,1648622602.287894,0.000000
138.000000,-6653.890807,2531.402115,23914.421965,46893.311667,24013.998987,59258.766086,4769.951674,8247.480780,0.020000,0.962000,-0.132000,192.000000,0.000000,0.000000,0.000000,0.000000,0.000000,0.000000,0.000000,0.000000,0.000000,1648622602.294813,0.000000
139.000000,-6649.666327,2532.542054,23922.088614,46897.804367,24019.206943,59254.295737,4768.677624,8249.648899,0.020000,0.962000,-0.132000,192.000000,0.000000,0.000000,0.000000,0.000000,0.000000,0.000000,0.000000,0.000000,0.000000,1648622602.301824,0.000000
140.000000,-6659.054060,2524.271908,23914.354910,46894.719827,24014.066042,59270.903083,4776.590142,8267.195018,0.020000,0.962000,-0.132000,192.000000,0.000000,0.000000,0.000000,0.000000,0.000000,0.000000,0.000000,0.000000,0.000000,1648622602.301831,0.000000
141.000000,-6662.004490,2523.266080,23910.756279,46896.731484,24013.954283,59277.407441,4782.155726,8278.907332,0.020000,0.962000,-0.132000,192.000000,0.000000,0.000000,0.000000,0.000000,0.000000,0.000000,0.000000,0.000000,0.000000,1648622602.309501,0.000000
142.000000,-6660.193999,2527.669373,23911.762108,46900.978315,24016.502382,59279.307339,4791.789328,8283.690606,0.020000,0.962000,-0.132000,192.000000,0.000000,0.000000,0.000000,0.000000,0.000000,0.000000,0.000000,0.000000,0.000000,1648622602.309515,0.000000
143.000000,-6658.383508,2530.530397,23913.259675,46905.202795,24019.743385,59276.334557,4789.777671,8284.182344,0.020000,0.962000,-0.132000,192.000000,0.000000,0.000000,0.000000,0.000000,0.000000,0.000000,0.000000,0.000000,0.000000,1648622602.317368,0.000000
144.000000,-6670.028766,2519.667449,23900.496829,46896.060931,24006.734670,59289.924418,4808.061398,8289.099728,0.020000,0.962000,-0.132000,192.000000,0.000000,0.000000,0.000000,0.000000,0.000000,0.000000,0.000000,0.000000,0.000000,1648622602.317375,0.000000
145.000000,-6663.904388,2525.389496,23907.783497,46901.090074,24015.183629,59291.042005,4812.174119,8289.658521,0.020000,0.962000,-0.132000,192.000000,0.000000,0.000000,0.000000,0.000000,0.000000,0.000000,0.000000,0.000000,0.000000,1648622602.325624,0.000000
146.000000,-6660.909255,2530.172769,23908.610512,46903.079379,24018.737557,59294.350063,4823.841730,8299.582696,0.020000,0.970000,-0.136000,192.000000,0.000000,160.000000,30.000000,80.000000,251.000000,192.000000,0.000000,0.000000,0.000000,1648622602.325635,0.000000
147.000000,-6647.162932,2542.868560,23919.227590,46911.528338,24030.718092,59291.623150,4825.428703,8297.548687,0.020000,0.970000,-0.136000,192.000000,0.000000,0.000000,0.000000,0.000000,0.000000,0.000000,0.000000,0.000000,0.000000,1648622602.331985,0.000000
148.000000,-6642.916100,2548.389441,23922.692111,46915.663411,24034.696702,59293.590104,4824.489930,8296.833431,0.020000,0.970000,-0.136000,192.000000,0.000000,0.000000,0.000000,0.000000,0.000000,0.000000,0.000000,0.000000,0.000000,1648622602.331994,0.000000
149.000000,-6649.241644,2547.160095,23916.098346,46912.042428,24028.482917,59295.132374,4823.282936,8293.279504,0.020000,0.970000,-0.136000,192.000000,0.000000,0.000000,0.000000,0.000000,0.000000,0.000000,0.000000,0.000000,0.000000,1648622602.340005,0.000000
150.000000,-6653.711993,2545.282548,23913.974931,46906.678010,24025.376025,59299.423909,4828.960279,8299.113309,0.020000,0.970000,-0.136000,192.000000,0.000000,0.000000,0.000000,0.000000,0.000000,0.000000,0.000000,0.000000,0.000000,1648622602.340019,0.000000
151.000000,-6649.174589,2551.138705,23918.668797,46908.935536,24029.913429,59300.250924,4830.122570,8304.991818,0.020000,0.970000,-0.136000,192.000000,0.000000,0.000000,0.000000,0.000000,0.000000,0.000000,0.000000,0.000000,0.000000,1648622602.348087,0.000000
152.000000,-6656.260092,2543.516760,23912.387957,46901.894737,24023.610237,59309.415139,4839.175026,8311.652638,0.020000,0.970000,-0.136000,192.000000,0.000000,0.000000,0.000000,0.000000,0.000000,0.000000,0.000000,0.000000,0.000000,1648622602.348093,0.000000
153.000000,-6661.065717,2533.011440,23911.918570,46896.642077,24021.732691,59303.111947,4836.559872,8303.471899,0.020000,0.970000,-0.136000,192.000000,0.000000,0.000000,0.000000,0.000000,0.000000,0.000000,0.000000,0.000000,0.000000,1648622602.355167,0.000000
154.000000,-6646.872359,2544.544941,23926.111928,46905.471016,24032.126252,59291.600799,4825.384000,8299.537992,0.020000,0.970000,-0.136000,192.000000,0.000000,0.000000,0.000000,0.000000,0.000000,0.000000,0.000000,0.000000,0.000000,1648622602.355174,0.000000
155.000000,-6654.695470,2539.359336,23916.791250,46898.385513,24022.962036,59300.720310,4833.452980,8318.559327,0.020000,0.970000,-0.136000,192.000000,0.000000,0.000000,0.000000,0.000000,0.000000,0.000000,0.000000,0.000000,0.000000,1648622602.361675,0.000000
156.000000,-6665.580769,2530.798618,23907.336462,46894.541013,24017.351749,59306.017674,4852.787239,8333.937327,0.014000,0.990000,-0.146000,192.000000,0.000000,112.000000,30.000000,240.000000,251.000000,112.000000,0.000000,0.000000,0.000000,1648622602.369906,0.000000
157.000000,-6658.674080,2535.000746,23914.064337,46906.722713,24027.588848,59299.446261,4862.778468,8332.640926,0.014000,0.990000,-0.146000,192.000000,0.000000,0.000000,0.000000,0.000000,0.000000,0.000000,0.000000,0.000000,0.000000,1648622602.369922,0.000000
158.000000,-6660.573978,2527.311746,23910.868038,46902.900565,24025.286618,59293.545400,4870.735689,8335.501949,0.014000,0.990000,-0.146000,192.000000,0.000000,0.000000,0.000000,0.000000,0.000000,0.000000,0.000000,0.000000,0.000000,1648622602.377680,0.000000
159.000000,-6658.696432,2530.217472,23912.991454,46905.001629,24029.488746,59288.918589,4878.759966,8335.814874,0.014000,0.990000,-0.146000,192.000000,0.000000,0.000000,0.000000,0.000000,0.000000,0.000000,0.000000,0.000000,0.000000,1648622602.377689,0.000000
160.000000,-6647.162932,2546.109563,23921.261599,46917.004516,24039.815252,59301.502621,4897.222507,8346.163731,0.014000,0.990000,-0.146000,192.000000,0.000000,0.000000,0.000000,0.000000,0.000000,0.000000,0.000000,0.000000,0.000000,1648622602.384782,0.000000
161.000000,-6649.778086,2545.327252,23919.406404,46913.495292,24037.021284,59309.593953,4915.483882,8351.684612,0.014000,0.990000,-0.146000,192.000000,0.000000,0.000000,0.000000,0.000000,0.000000,0.000000,0.000000,0.000000,0.000000,1648622602.384790,0.000000
162.000000,-6660.305758,2539.381688,23911.762108,46905.627478,24029.019359,59317.461767,4939.690821,8357.987804,0.014000,0.990000,-0.146000,192.000000,0.000000,0.000000,0.000000,0.000000,0.000000,0.000000,0.000000,0.000000,0.000000,1648622602.392287,0.000000
163.000000,-6654.203731,2542.421525,23913.907875,46906.543899,24029.041711,59312.097348,4951.425487,8350.812894,0.014000,0.990000,-0.146000,192.000000,0.000000,0.000000,0.000000,0.000000,0.000000,0.000000,0.000000,0.000000,0.000000,1648622602.392295,0.000000
164.000000,-6650.895673,2546.333080,23915.159573,46907.728542,24029.198173,59306.509412,4958.399231,8343.772095,0.014000,0.990000,-0.146000,192.000000,0.000000,0.000000,0.000000,0.000000,0.000000,0.000000,0.000000,0.000000,0.000000,1648622602.400399,0.000000
165.000000,-6655.433077,2547.897702,23910.331596,46906.163920,24025.711301,59308.521069,4976.124165,8352.332813,0.014000,0.990000,-0.146000,192.000000,0.000000,0.000000,0.000000,0.000000,0.000000,0.000000,0.000000,0.000000,0.000000,1648622602.400411,0.000000
166.000000,-6671.369871,2533.614937,23892.807829,46887.567268,24006.488801,59313.036121,4999.660552,8361.094697,0.002000,0.988000,-0.158000,192.000000,0.000000,16.000000,30.000000,224.000000,251.000000,16.000000,0.000000,0.000000,0.000000,1648622602.408310,0.000000
