%OpenBCI Raw EEG Data
%Number of channels = 8
%Sample Rate = 256 Hz
%Board = OpenBCI_GUI$BoardCytonSerial
%Channels = Fp1, Fp2, F3, F4, Fz, Pz, O1, O2
%Data recorded at AIMS Lab (http://aimsl.uiu.ac.bd) by Rana Depto (mail@ranadepto.com)
%Brainwaves were obtained via the Ultracortex Mark IV Headset using the OpenBCI Cyton Board
%Recording Application = ConcentrateToday (https://concentrate.today)
%Data type = RAW data with noise
%Day No = 10
%Subject ID = 3
%Session ID = 7
%Record starting timestamp (UTC+6) = 2022-03-22T11:47:22.718306
%Record ending timestamp (UTC+6)   = 2022-03-22T11:47:48.580889
%Recorded durations = ~25 seconds
Sample Index, EXG Channel 0, EXG Channel 1, EXG Channel 2, EXG Channel 3, EXG Channel 4, EXG Channel 5, EXG Channel 6, EXG Channel 7, Accel Channel 0, Accel Channel 1, Accel Channel 2, Other, Other, Other, Other, Other, Other, Other, Analog Channel 0, Analog Channel 1, Analog Channel 2, Timestamp, Timestamp (Formatted)
221.000000,-36991.354762,-32328.602055,-5455.569083,-5064.145334,-15600.198877,3989.138185,8161.784191,-4.313887,0.050000,0.920000,0.306000,192.000000,0.000000,0.000000,0.000000,0.000000,0.000000,0.000000,0.000000,0.000000,0.000000,1647928042.722247,0.000000
222.000000,-36993.612289,-32334.905247,-5467.840191,-5076.103518,-15607.127918,3972.374376,8136.392610,-17.009678,0.050000,0.920000,0.306000,192.000000,0.000000,0.000000,0.000000,0.000000,0.000000,0.000000,0.000000,0.000000,0.000000,1647928042.722255,0.000000
223.000000,-36974.300381,-32319.773116,-5460.262949,-5069.777974,-15595.952045,3973.648426,8117.572441,-23.961070,0.054000,0.930000,0.304000,192.000000,1.000000,176.000000,29.000000,16.000000,9.000000,128.000000,0.000000,0.000000,0.000000,1647928042.729404,0.000000
224.000000,-36962.319846,-32308.709003,-5449.489409,-5059.920855,-15584.127973,3987.908839,8146.719116,-10.684134,0.054000,0.930000,0.304000,192.000000,0.000000,0.000000,0.000000,0.000000,0.000000,0.000000,0.000000,0.000000,0.000000,1647928042.729409,0.000000
225.000000,-36969.315942,-32319.661357,-5456.552560,-5072.124907,-15594.968569,3971.301493,8144.752162,-26.397410,0.054000,0.930000,0.304000,192.000000,0.000000,0.000000,0.000000,0.000000,0.000000,0.000000,0.000000,0.000000,0.000000,1647928042.736738,0.000000
226.000000,-36973.830995,-32325.226942,-5462.498124,-5082.138489,-15600.645912,3958.024556,8147.121447,-33.102934,0.054000,0.930000,0.304000,192.000000,0.000000,0.000000,0.000000,0.000000,0.000000,0.000000,0.000000,0.000000,0.000000,1647928042.736743,0.000000
227.000000,-36964.555021,-32311.748840,-5451.322252,-5071.543762,-15585.647891,3962.852533,8158.856113,-33.125285,0.054000,0.930000,0.304000,192.000000,0.000000,0.000000,0.000000,0.000000,0.000000,0.000000,0.000000,0.000000,0.000000,1647928042.744779,0.000000
228.000000,-36954.630846,-32295.186197,-5438.894682,-5051.337785,-15562.312670,3977.045891,8159.705479,-23.849311,0.054000,0.930000,0.304000,192.000000,0.000000,0.000000,0.000000,0.000000,0.000000,0.000000,0.000000,0.000000,0.000000,1647928042.744784,0.000000
229.000000,-36970.075902,-32310.206569,-5454.697365,-5061.865456,-15574.382612,3969.334539,8142.449932,-24.162236,0.054000,0.930000,0.304000,192.000000,0.000000,0.000000,0.000000,0.000000,0.000000,0.000000,0.000000,0.000000,0.000000,1647928042.752776,0.000000
230.000000,-36974.792120,-32307.881988,-5456.507856,-5062.424250,-15576.260159,3966.406461,8134.962098,-18.842521,0.054000,0.930000,0.304000,192.000000,0.000000,0.000000,0.000000,0.000000,0.000000,0.000000,0.000000,0.000000,0.000000,1647928042.752780,0.000000
231.000000,-36972.445187,-32302.562273,-5456.485505,-5059.607930,-15572.661528,3968.708690,8147.434371,-17.791989,0.054000,0.930000,0.304000,192.000000,0.000000,0.000000,0.000000,0.000000,0.000000,0.000000,0.000000,0.000000,0.000000,1647928042.759391,0.000000
232.000000,-36993.612289,-32335.017006,-5481.765328,-5094.499003,-15598.477793,3941.528969,8141.935842,-33.795838,0.054000,0.930000,0.304000,192.000000,0.000000,0.000000,0.000000,0.000000,0.000000,0.000000,0.000000,0.000000,0.000000,1647928042.759395,0.000000
233.000000,-36996.540367,-32344.740015,-5500.630200,-5104.311419,-15603.149307,3931.425980,8123.227432,-41.708355,0.062000,0.932000,0.298000,192.000000,1.000000,240.000000,29.000000,32.000000,9.000000,80.000000,0.000000,0.000000,0.000000,1647928042.766372,0.000000
234.000000,-36988.985478,-32335.106413,-5490.393101,-5096.287143,-15601.428223,3938.556187,8112.252726,-50.090259,0.062000,0.932000,0.298000,192.000000,0.000000,0.000000,0.000000,0.000000,0.000000,0.000000,0.000000,0.000000,0.000000,1647928042.774350,0.000000
235.000000,-36998.261452,-32332.200686,-5472.802278,-5093.359064,-15599.617732,3943.071239,8114.197327,-56.236989,0.062000,0.932000,0.298000,192.000000,0.000000,0.000000,0.000000,0.000000,0.000000,0.000000,0.000000,0.000000,0.000000,1647928042.774361,0.000000
236.000000,-37007.917405,-32326.635102,-5468.935426,-5087.011169,-15589.537095,3949.687356,8117.997124,-59.947379,0.062000,0.932000,0.298000,192.000000,0.000000,0.000000,0.000000,0.000000,0.000000,0.000000,0.000000,0.000000,0.000000,1647928042.782419,0.000000
237.000000,-36982.570527,-32305.378593,-5450.405830,-5069.688567,-15568.884083,3965.914722,8135.498540,-38.534407,0.062000,0.932000,0.298000,192.000000,0.000000,0.000000,0.000000,0.000000,0.000000,0.000000,0.000000,0.000000,0.000000,1647928042.782424,0.000000
238.000000,-36972.042855,-32291.967546,-5435.586624,-5055.271692,-15551.159150,3975.838897,8149.468380,-27.246776,0.062000,0.932000,0.298000,192.000000,0.000000,0.000000,0.000000,0.000000,0.000000,0.000000,0.000000,0.000000,0.000000,1647928042.789350,0.000000
239.000000,-36980.245945,-32300.148284,-5439.900510,-5056.501038,-15549.750990,3973.246094,8153.759915,-22.508207,0.062000,0.932000,0.298000,192.000000,0.000000,0.000000,0.000000,0.000000,0.000000,0.000000,0.000000,0.000000,0.000000,1647928042.789356,0.000000
240.000000,-36978.882489,-32303.769267,-5447.321289,-5060.926683,-15554.847187,3964.864190,8142.449932,-23.849311,0.062000,0.932000,0.298000,192.000000,0.000000,0.000000,0.000000,0.000000,0.000000,0.000000,0.000000,0.000000,0.000000,1647928042.797088,0.000000
241.000000,-36981.765864,-32312.128819,-5457.916016,-5068.638035,-15560.502179,3954.805905,8132.078723,-34.466390,0.062000,0.932000,0.298000,192.000000,0.000000,0.000000,0.000000,0.000000,0.000000,0.000000,0.000000,0.000000,0.000000,1647928042.797094,0.000000
242.000000,-36985.565661,-32317.493238,-5460.642929,-5075.723538,-15560.636289,3947.273367,8132.190482,-40.590768,0.062000,0.932000,0.298000,192.000000,0.000000,0.000000,0.000000,0.000000,0.000000,0.000000,0.000000,0.000000,0.000000,1647928042.805074,0.000000
243.000000,-36976.960239,-32309.223093,-5449.511760,-5069.889733,-15549.348658,3951.028460,8144.238072,-42.423611,0.054000,0.936000,0.288000,192.000000,1.000000,176.000000,29.000000,64.000000,9.000000,0.000000,0.000000,0.000000,0.000000,1647928042.805080,0.000000
244.000000,-36975.887355,-32307.166732,-5446.606034,-5068.548628,-15549.527472,3951.274330,8152.642328,-37.908559,0.054000,0.936000,0.288000,192.000000,0.000000,0.000000,0.000000,0.000000,0.000000,0.000000,0.000000,0.000000,0.000000,1647928042.811675,0.000000
245.000000,-36978.502509,-32313.380517,-5450.919920,-5074.985930,-15555.741257,3943.361812,8141.444104,-37.461524,0.054000,0.936000,0.288000,192.000000,0.000000,0.000000,0.000000,0.000000,0.000000,0.000000,0.000000,0.000000,0.000000,1647928042.811679,0.000000
246.000000,-36982.257602,-32321.740070,-5458.094830,-5082.652579,-15562.312670,3926.150969,8133.710400,-57.913370,0.054000,0.936000,0.288000,192.000000,0.000000,0.000000,0.000000,0.000000,0.000000,0.000000,0.000000,0.000000,0.000000,1647928042.819703,0.000000
247.000000,-36977.519033,-32318.744936,-5452.864522,-5078.629265,-15554.511911,3925.391009,8159.101982,-63.188382,0.054000,0.936000,0.288000,192.000000,0.000000,0.000000,0.000000,0.000000,0.000000,0.000000,0.000000,0.000000,0.000000,1647928042.819706,0.000000
248.000000,-36970.455881,-32314.766325,-5451.411659,-5077.891657,-15544.677144,3931.470684,8170.948407,-53.577131,0.054000,0.936000,0.288000,192.000000,0.000000,0.000000,0.000000,0.000000,0.000000,0.000000,0.000000,0.000000,0.000000,1647928042.826722,0.000000
249.000000,-36975.529727,-32323.572913,-5460.106487,-5086.452375,-15547.739333,3923.871091,8166.723927,-46.759849,0.054000,0.936000,0.288000,192.000000,0.000000,0.000000,0.000000,0.000000,0.000000,0.000000,0.000000,0.000000,0.000000,1647928042.834816,0.000000
250.000000,-36972.914573,-32316.666224,-5455.993766,-5076.192925,-15538.552766,3924.273422,8160.890122,-53.174800,0.054000,0.936000,0.288000,192.000000,0.000000,0.000000,0.000000,0.000000,0.000000,0.000000,0.000000,0.000000,0.000000,1647928042.834835,0.000000
251.000000,-36975.015637,-32317.962625,-5455.144400,-5077.556381,-15534.708266,3924.809864,8154.810447,-44.010585,0.054000,0.936000,0.288000,192.000000,0.000000,0.000000,0.000000,0.000000,0.000000,0.000000,0.000000,0.000000,0.000000,1647928042.841371,0.000000
252.000000,-36963.035102,-32309.066630,-5446.717792,-5065.665253,-15520.738425,3926.933280,8162.052412,-35.360460,0.054000,0.936000,0.288000,192.000000,0.000000,0.000000,0.000000,0.000000,0.000000,0.000000,0.000000,0.000000,0.000000,1647928042.841374,0.000000
253.000000,-36963.772710,-32308.373726,-5452.171618,-5074.181268,-15521.476033,3925.882748,8165.852209,-31.650070,0.048000,0.940000,0.282000,192.000000,1.000000,128.000000,29.000000,96.000000,8.000000,208.000000,0.000000,0.000000,0.000000,1647928042.849388,0.000000
254.000000,-36969.584163,-32319.393136,-5460.866447,-5094.186079,-15532.942478,3920.764198,8151.122409,-39.339070,0.048000,0.940000,0.282000,192.000000,0.000000,0.000000,0.000000,0.000000,0.000000,0.000000,0.000000,0.000000,0.000000,1647928042.849391,0.000000
255.000000,-36955.144936,-32313.380517,-5463.168676,-5077.221105,-15532.406036,3925.994507,8140.237110,-46.513980,0.048000,0.940000,0.282000,192.000000,0.000000,0.000000,0.000000,0.000000,0.000000,0.000000,0.000000,0.000000,0.000000,1647928042.857357,0.000000
0.000000,-36958.832974,-32301.221168,-5460.084136,-5070.694395,-15525.991085,3932.878844,8144.863921,-46.581035,0.048000,0.940000,0.282000,192.000000,0.000000,0.000000,0.000000,0.000000,0.000000,0.000000,0.000000,0.000000,0.000000,1647928042.857361,0.000000
1.000000,-36997.769713,-32323.014119,-5448.215359,-5083.613704,-15521.185460,3932.297699,8146.316784,-44.055288,0.048000,0.940000,0.282000,192.000000,0.000000,0.000000,0.000000,0.000000,0.000000,0.000000,0.000000,0.000000,0.000000,1647928042.864501,0.000000
2.000000,-36979.776559,-32315.660395,-5442.806237,-5074.650654,-15510.054291,3930.196635,8128.681258,-49.799687,0.048000,0.940000,0.282000,192.000000,0.000000,0.000000,0.000000,0.000000,0.000000,0.000000,0.000000,0.000000,0.000000,1647928042.864505,0.000000
3.000000,-36970.522937,-32314.051070,-5442.850941,-5065.642901,-15505.092204,3932.498864,8141.377049,-50.850219,0.048000,0.940000,0.282000,192.000000,0.000000,0.000000,0.000000,0.000000,0.000000,0.000000,0.000000,0.000000,0.000000,1647928042.871993,0.000000
4.000000,-36976.133225,-32309.804238,-5444.527321,-5064.346500,-15502.633512,3932.007126,8148.350793,-54.068870,0.048000,0.940000,0.282000,192.000000,0.000000,0.000000,0.000000,0.000000,0.000000,0.000000,0.000000,0.000000,0.000000,1647928042.871997,0.000000
5.000000,-36968.645390,-32305.333889,-5442.247443,-5060.144372,-15495.324492,3933.571748,8162.722965,-44.882303,0.048000,0.940000,0.282000,192.000000,0.000000,0.000000,0.000000,0.000000,0.000000,0.000000,0.000000,0.000000,0.000000,1647928042.880057,0.000000
6.000000,-36955.279047,-32290.984069,-5430.982164,-5052.164799,-15483.008681,3940.433734,8185.745261,-41.484838,0.048000,0.940000,0.282000,192.000000,0.000000,0.000000,0.000000,0.000000,0.000000,0.000000,0.000000,0.000000,0.000000,1647928042.880061,0.000000
7.000000,-36953.021521,-32289.598261,-5430.468074,-5050.711936,-15477.756021,3935.628108,8176.961026,-50.559646,0.054000,0.948000,0.280000,192.000000,1.000000,176.000000,29.000000,160.000000,8.000000,192.000000,0.000000,0.000000,0.000000,1647928042.887070,0.000000
8.000000,-36957.760091,-32297.868407,-5436.503045,-5055.338747,-15481.913445,3933.884672,8184.158288,-40.434306,0.054000,0.948000,0.280000,192.000000,0.000000,0.000000,0.000000,0.000000,0.000000,0.000000,0.000000,0.000000,0.000000,1647928042.894317,0.000000
9.000000,-36962.900992,-32304.261005,-5445.711964,-5063.474782,-15487.568437,3926.508597,8170.255502,-41.663652,0.054000,0.948000,0.280000,192.000000,0.000000,0.000000,0.000000,0.000000,0.000000,0.000000,0.000000,0.000000,0.000000,1647928042.894322,0.000000
10.000000,-36962.677474,-32303.344584,-5446.650737,-5065.821715,-15487.143753,3924.876919,8196.563506,-39.294367,0.054000,0.948000,0.280000,192.000000,0.000000,0.000000,0.000000,0.000000,0.000000,0.000000,0.000000,0.000000,0.000000,1647928042.901570,0.000000
11.000000,-36947.724157,-32285.485540,-5433.507911,-5050.622529,-15469.843503,3933.772914,8234.919099,-32.767657,0.054000,0.948000,0.280000,192.000000,0.000000,0.000000,0.000000,0.000000,0.000000,0.000000,0.000000,0.000000,0.000000,1647928042.901574,0.000000
12.000000,-36936.235361,-32272.566232,-5420.432141,-5038.172607,-15453.683192,3944.568806,8255.102724,-24.475160,0.054000,0.948000,0.280000,192.000000,0.000000,0.000000,0.000000,0.000000,0.000000,0.000000,0.000000,0.000000,0.000000,1647928042.909603,0.000000
13.000000,-36962.342198,-32302.003479,-5443.834417,-5065.397032,-15474.358556,3923.334649,8227.721837,-32.275919,0.054000,0.948000,0.280000,192.000000,0.000000,0.000000,0.000000,0.000000,0.000000,0.000000,0.000000,0.000000,0.000000,1647928042.909607,0.000000
14.000000,-36980.715332,-32321.494200,-5459.637101,-5079.255114,-15485.087393,3910.616506,8199.089253,-52.347786,0.054000,0.948000,0.280000,192.000000,0.000000,0.000000,0.000000,0.000000,0.000000,0.000000,0.000000,0.000000,0.000000,1647928042.916777,0.000000
15.000000,-36974.546251,-32313.313462,-5456.619615,-5073.466012,-15476.951358,3919.825425,8189.098023,-42.222445,0.054000,0.948000,0.280000,192.000000,0.000000,0.000000,0.000000,0.000000,0.000000,0.000000,0.000000,0.000000,0.000000,1647928042.916781,0.000000
16.000000,-36974.725065,-32308.060802,-5457.357223,-5074.628302,-15472.257492,3926.396838,8204.386616,-27.783218,0.054000,0.948000,0.280000,192.000000,0.000000,0.000000,0.000000,0.000000,0.000000,0.000000,0.000000,0.000000,0.000000,1647928042.924306,0.000000
17.000000,-36971.215841,-32302.875197,-5448.483580,-5069.912084,-15464.769657,3935.315184,8209.371055,-30.599538,0.054000,0.948000,0.280000,192.000000,0.000000,0.000000,0.000000,0.000000,0.000000,0.000000,0.000000,0.000000,0.000000,1647928042.924310,0.000000
18.000000,-36978.703675,-32311.480619,-5448.684746,-5077.310512,-15470.178779,3935.896329,8198.195183,-37.036841,0.056000,0.934000,0.274000,192.000000,1.000000,192.000000,29.000000,48.000000,8.000000,144.000000,0.000000,0.000000,0.000000,1647928042.932278,0.000000
19.000000,-36973.898050,-32314.051070,-5453.088040,-5086.295913,-15479.745326,3934.488169,8186.907552,-32.790009,0.056000,0.934000,0.274000,192.000000,0.000000,0.000000,0.000000,0.000000,0.000000,0.000000,0.000000,0.000000,0.000000,1647928042.932281,0.000000
20.000000,-36973.629829,-32320.868352,-5461.291130,-5094.744872,-15486.562608,3930.353097,8177.922151,-38.981442,0.056000,0.934000,0.274000,192.000000,0.000000,0.000000,0.000000,0.000000,0.000000,0.000000,0.000000,0.000000,0.000000,1647928042.940292,0.000000
21.000000,-36969.494756,-32315.168657,-5452.350432,-5088.531087,-15476.370213,3938.556187,8189.187430,-30.554835,0.056000,0.934000,0.274000,192.000000,0.000000,0.000000,0.000000,0.000000,0.000000,0.000000,0.000000,0.000000,0.000000,1647928042.940295,0.000000
22.000000,-36966.007884,-32303.948081,-5445.667260,-5080.596218,-15466.714259,3946.334594,8196.407044,-20.943585,0.056000,0.934000,0.274000,192.000000,0.000000,0.000000,0.000000,0.000000,0.000000,0.000000,0.000000,0.000000,0.000000,1647928042.946447,0.000000
23.000000,-36967.170175,-32295.744991,-5433.910243,-5071.543762,-15468.591806,3951.743716,8201.749110,-21.547082,0.056000,0.934000,0.274000,192.000000,0.000000,0.000000,0.000000,0.000000,0.000000,0.000000,0.000000,0.000000,0.000000,1647928042.946450,0.000000
24.000000,-36979.396579,-32305.557407,-5441.845112,-5072.728404,-15475.878474,3946.044021,8192.808413,-36.299233,0.056000,0.934000,0.274000,192.000000,0.000000,0.000000,0.000000,0.000000,0.000000,0.000000,0.000000,0.000000,0.000000,1647928042.953926,0.000000
25.000000,-36966.074939,-32295.342659,-5437.531225,-5065.888770,-15466.557797,3949.307376,8177.206895,-46.648091,0.056000,0.934000,0.274000,192.000000,0.000000,0.000000,0.000000,0.000000,0.000000,0.000000,0.000000,0.000000,0.000000,1647928042.961983,0.000000
26.000000,-36955.167288,-32283.317421,-5428.277603,-5053.438849,-15450.062209,3965.937074,8198.977494,-24.452808,0.056000,0.934000,0.274000,192.000000,0.000000,0.000000,0.000000,0.000000,0.000000,0.000000,0.000000,0.000000,0.000000,1647928042.961987,0.000000
27.000000,-36966.365512,-32298.851883,-5440.504007,-5068.816849,-15458.935852,3954.604739,8221.150425,-14.260413,0.056000,0.934000,0.274000,192.000000,0.000000,0.000000,0.000000,0.000000,0.000000,0.000000,0.000000,0.000000,0.000000,1647928042.970009,0.000000
28.000000,-36980.268297,-32321.941235,-5459.972377,-5087.748776,-15476.101992,3934.555225,8205.705369,-39.562588,0.040000,0.940000,0.280000,192.000000,1.000000,64.000000,29.000000,96.000000,8.000000,192.000000,0.000000,0.000000,0.000000,1647928042.970016,0.000000
29.000000,-36990.326582,-32332.826535,-5466.163810,-5095.616590,-15479.879436,3931.157760,8220.524576,-46.245759,0.040000,0.940000,0.280000,192.000000,0.000000,0.000000,0.000000,0.000000,0.000000,0.000000,0.000000,0.000000,0.000000,1647928042.976504,0.000000
30.000000,-36980.804739,-32326.143363,-5459.279473,-5094.096672,-15471.274015,3934.890501,8227.297154,-47.743326,0.040000,0.940000,0.280000,192.000000,0.000000,0.000000,0.000000,0.000000,0.000000,0.000000,0.000000,0.000000,0.000000,1647928042.976509,0.000000
31.000000,-36964.890297,-32309.133686,-5442.917996,-5081.579695,-15454.689020,3942.914777,8241.043477,-46.983367,0.040000,0.940000,0.280000,192.000000,0.000000,0.000000,0.000000,0.000000,0.000000,0.000000,0.000000,0.000000,0.000000,1647928042.985956,0.000000
32.000000,-36950.831050,-32292.414581,-5428.836397,-5068.705090,-15440.182738,3955.811734,8237.534253,-25.793913,0.040000,0.940000,0.280000,192.000000,0.000000,0.000000,0.000000,0.000000,0.000000,0.000000,0.000000,0.000000,0.000000,1647928042.985959,0.000000
33.000000,-36958.341236,-32298.628366,-5441.688650,-5078.741023,-15450.643355,3947.385126,8221.686866,-27.067963,0.040000,0.940000,0.280000,192.000000,0.000000,0.000000,0.000000,0.000000,0.000000,0.000000,0.000000,0.000000,0.000000,1647928042.992563,0.000000
34.000000,-36959.391768,-32295.409715,-5443.074458,-5075.052986,-15449.905747,3949.195617,8231.231061,-28.766695,0.040000,0.940000,0.280000,192.000000,0.000000,0.000000,0.000000,0.000000,0.000000,0.000000,0.000000,0.000000,0.000000,1647928042.992567,0.000000
35.000000,-36952.060396,-32291.095828,-5438.201778,-5071.074375,-15446.374172,3956.437583,8230.895785,-27.358535,0.040000,0.940000,0.280000,192.000000,0.000000,0.000000,0.000000,0.000000,0.000000,0.000000,0.000000,0.000000,0.000000,1647928042.999564,0.000000
36.000000,-36966.186698,-32305.311537,-5448.170656,-5083.926628,-15455.538387,3944.255882,8216.121282,-49.196190,0.040000,0.940000,0.280000,192.000000,0.000000,0.000000,0.000000,0.000000,0.000000,0.000000,0.000000,0.000000,0.000000,1647928042.999568,0.000000
37.000000,-36985.275088,-32320.197799,-5465.739127,-5098.209393,-15467.205997,3927.492073,8187.689863,-78.029940,0.040000,0.940000,0.280000,192.000000,0.000000,0.000000,0.000000,0.000000,0.000000,0.000000,0.000000,0.000000,0.000000,1647928043.007194,0.000000
38.000000,-36978.346047,-32311.145343,-5461.067612,-5085.625361,-15461.103971,3929.146103,8173.250636,-84.467242,0.036000,0.938000,0.274000,192.000000,1.000000,32.000000,29.000000,80.000000,8.000000,144.000000,0.000000,0.000000,0.000000,1647928043.007209,0.000000
39.000000,-36967.348989,-32298.740125,-5447.142476,-5066.335805,-15446.597689,3944.948786,8204.654837,-55.812306,0.036000,0.938000,0.274000,192.000000,0.000000,0.000000,0.000000,0.000000,0.000000,0.000000,0.000000,0.000000,0.000000,1647928043.014158,0.000000
40.000000,-36968.533631,-32299.209511,-5443.812066,-5058.512695,-15448.229366,3942.490094,8205.034817,-48.033899,0.036000,0.938000,0.274000,192.000000,0.000000,0.000000,0.000000,0.000000,0.000000,0.000000,0.000000,0.000000,0.000000,1647928043.022272,0.000000
41.000000,-36955.681378,-32289.598261,-5430.669240,-5050.957805,-15442.417913,3946.133428,8220.211651,-47.698623,0.036000,0.938000,0.274000,192.000000,0.000000,0.000000,0.000000,0.000000,0.000000,0.000000,0.000000,0.000000,0.000000,1647928043.022276,0.000000
42.000000,-36967.483099,-32305.579758,-5438.537054,-5068.325110,-15453.236157,3932.230643,8231.476931,-61.959036,0.036000,0.938000,0.274000,192.000000,0.000000,0.000000,0.000000,0.000000,0.000000,0.000000,0.000000,0.000000,0.000000,1647928043.029367,0.000000
43.000000,-36968.466576,-32304.104543,-5439.587586,-5069.800326,-15456.790084,3931.649498,8216.121282,-55.812306,0.036000,0.938000,0.274000,192.000000,0.000000,0.000000,0.000000,0.000000,0.000000,0.000000,0.000000,0.000000,0.000000,1647928043.029378,0.000000
44.000000,-36960.442300,-32292.280470,-5434.603147,-5057.171590,-15451.000983,3947.765106,8226.961878,-20.496550,0.036000,0.938000,0.274000,192.000000,0.000000,0.000000,0.000000,0.000000,0.000000,0.000000,0.000000,0.000000,0.000000,1647928043.036732,0.000000
45.000000,-36962.252791,-32293.845093,-5437.508874,-5059.898503,-15453.929061,3952.078992,8237.422495,-10.550023,0.036000,0.938000,0.274000,192.000000,0.000000,0.000000,0.000000,0.000000,0.000000,0.000000,0.000000,0.000000,0.000000,1647928043.036735,0.000000
46.000000,-36977.764902,-32303.992784,-5452.909226,-5075.544724,-15466.781314,3935.672812,8219.228175,-27.783218,0.036000,0.938000,0.274000,192.000000,0.000000,0.000000,0.000000,0.000000,0.000000,0.000000,0.000000,0.000000,0.000000,1647928043.044756,0.000000
47.000000,-36964.018579,-32295.230901,-5440.682821,-5073.510715,-15458.175893,3938.220911,8227.923003,-28.654936,0.036000,0.938000,0.274000,192.000000,0.000000,0.000000,0.000000,0.000000,0.000000,0.000000,0.000000,0.000000,0.000000,1647928043.044760,0.000000
48.000000,-36965.583201,-32302.875197,-5433.843188,-5073.577770,-15456.320698,3942.624204,8230.269936,-27.716163,0.024000,0.942000,0.272000,192.000000,0.000000,192.000000,29.000000,112.000000,8.000000,128.000000,0.000000,0.000000,0.000000,1647928043.051873,0.000000
49.000000,-36984.001039,-32324.131706,-5447.053069,-5086.385320,-15470.692870,3939.003222,8217.998829,-27.537349,0.024000,0.942000,0.272000,192.000000,0.000000,0.000000,0.000000,0.000000,0.000000,0.000000,0.000000,0.000000,0.000000,1647928043.051877,0.000000
50.000000,-36985.900937,-32328.043262,-5456.887836,-5095.907163,-15482.136963,3931.135408,8196.004712,-31.627718,0.024000,0.942000,0.272000,192.000000,0.000000,0.000000,0.000000,0.000000,0.000000,0.000000,0.000000,0.000000,0.000000,1647928043.059380,0.000000
51.000000,-36973.383960,-32317.582645,-5448.483580,-5088.352274,-15475.900826,3927.827350,8190.416776,-38.690870,0.024000,0.942000,0.272000,192.000000,0.000000,0.000000,0.000000,0.000000,0.000000,0.000000,0.000000,0.000000,0.000000,1647928043.059383,0.000000
52.000000,-36972.154614,-32319.884875,-5449.578816,-5090.140413,-15472.682175,3926.329783,8203.336084,-43.049460,0.024000,0.942000,0.272000,192.000000,0.000000,0.000000,0.000000,0.000000,0.000000,0.000000,0.000000,0.000000,0.000000,1647928043.067460,0.000000
53.000000,-36948.640579,-32313.268758,-5450.964624,-5089.067529,-15468.278881,3929.503730,8219.809320,-42.513018,0.024000,0.942000,0.272000,192.000000,0.000000,0.000000,0.000000,0.000000,0.000000,0.000000,0.000000,0.000000,0.000000,1647928043.067464,0.000000
54.000000,-36926.199427,-32303.881026,-5436.480693,-5075.701186,-15450.911576,3943.093591,8237.310736,-20.653012,0.024000,0.942000,0.272000,192.000000,0.000000,0.000000,0.000000,0.000000,0.000000,0.000000,0.000000,0.000000,0.000000,1647928043.074478,0.000000
55.000000,-36921.974948,-32306.920863,-5435.586624,-5076.572904,-15450.464541,3937.103324,8234.337954,-32.544140,0.024000,0.942000,0.272000,192.000000,0.000000,0.000000,0.000000,0.000000,0.000000,0.000000,0.000000,0.000000,0.000000,1647928043.081526,0.000000
56.000000,-36912.363698,-32304.261005,-5435.452513,-5075.835297,-15447.558814,3928.944937,8227.185396,-35.271053,0.024000,0.942000,0.272000,192.000000,0.000000,0.000000,0.000000,0.000000,0.000000,0.000000,0.000000,0.000000,0.000000,1647928043.081529,0.000000
57.000000,-36907.245148,-32307.814933,-5431.451551,-5078.070471,-15445.524805,3925.145140,8216.613020,-38.936739,0.024000,0.942000,0.272000,192.000000,0.000000,0.000000,0.000000,0.000000,0.000000,0.000000,0.000000,0.000000,0.000000,1647928043.089053,0.000000
58.000000,-36910.262634,-32311.614729,-5437.486522,-5083.121965,-15453.571433,3912.516405,8192.719006,-79.706321,0.024000,0.962000,0.274000,192.000000,0.000000,192.000000,30.000000,16.000000,8.000000,144.000000,0.000000,0.000000,0.000000,1647928043.089057,0.000000
59.000000,-36898.483264,-32297.287261,-5432.345621,-5066.089936,-15443.334334,3924.452236,8192.763709,-73.648998,0.024000,0.962000,0.274000,192.000000,0.000000,0.000000,0.000000,0.000000,0.000000,0.000000,0.000000,0.000000,0.000000,1647928043.097078,0.000000
60.000000,-36903.490055,-32306.876160,-5440.571063,-5072.013148,-15447.491759,3933.884672,8228.884128,-22.575262,0.024000,0.962000,0.274000,192.000000,0.000000,0.000000,0.000000,0.000000,0.000000,0.000000,0.000000,0.000000,0.000000,1647928043.097082,0.000000
61.000000,-36886.435674,-32302.204645,-5431.004516,-5070.180305,-15437.299363,3933.527044,8249.537140,-12.159349,0.024000,0.962000,0.274000,192.000000,0.000000,0.000000,0.000000,0.000000,0.000000,0.000000,0.000000,0.000000,0.000000,1647928043.105158,0.000000
62.000000,-36879.864261,-32301.712907,-5428.545824,-5070.090898,-15434.371285,3928.229681,8250.922948,-25.391582,0.024000,0.962000,0.274000,192.000000,0.000000,0.000000,0.000000,0.000000,0.000000,0.000000,0.000000,0.000000,0.000000,1647928043.105162,0.000000
63.000000,-36884.155796,-32309.379555,-5435.430161,-5076.528201,-15440.495663,3920.652440,8253.046364,-31.448904,0.024000,0.962000,0.274000,192.000000,0.000000,0.000000,0.000000,0.000000,0.000000,0.000000,0.000000,0.000000,0.000000,1647928043.111649,0.000000
64.000000,-36879.417226,-32306.518532,-5436.860673,-5075.388262,-15443.200224,3916.517367,8220.278707,-44.368213,0.024000,0.962000,0.274000,192.000000,0.000000,0.000000,0.000000,0.000000,0.000000,0.000000,0.000000,0.000000,0.000000,1647928043.111652,0.000000
65.000000,-36879.618392,-32310.318328,-5440.392249,-5074.561247,-15448.944622,3918.372562,8213.282611,-43.407088,0.024000,0.962000,0.274000,192.000000,0.000000,0.000000,0.000000,0.000000,0.000000,0.000000,0.000000,0.000000,0.000000,1647928043.119678,0.000000
66.000000,-36866.564973,-32303.501046,-5428.635231,-5069.420346,-15440.965049,3932.252995,8242.183416,-26.933852,0.024000,0.962000,0.274000,192.000000,0.000000,0.000000,0.000000,0.000000,0.000000,0.000000,0.000000,0.000000,0.000000,1647928043.119682,0.000000
67.000000,-36872.823462,-32311.100639,-5439.967566,-5078.741023,-15453.034991,3916.092684,8218.736436,-54.314739,0.024000,0.962000,0.274000,192.000000,0.000000,0.000000,0.000000,0.000000,0.000000,0.000000,0.000000,0.000000,0.000000,1647928043.127699,0.000000
68.000000,-36862.988694,-32298.918939,-5432.680897,-5067.453392,-15443.535500,3922.865262,8202.218497,-65.535315,0.018000,0.950000,0.262000,192.000000,0.000000,144.000000,29.000000,176.000000,8.000000,48.000000,0.000000,0.000000,0.000000,1647928043.127703,0.000000
69.000000,-36855.634970,-32291.855787,-5428.970507,-5060.792573,-15432.739607,3942.311280,8219.183471,-46.469277,0.018000,0.950000,0.262000,192.000000,0.000000,0.000000,0.000000,0.000000,0.000000,0.000000,0.000000,0.000000,0.000000,1647928043.134901,0.000000
70.000000,-36855.210287,-32296.236729,-5429.328135,-5060.837276,-15430.951468,3949.352080,8229.577032,-34.846370,0.018000,0.950000,0.262000,192.000000,0.000000,0.000000,0.000000,0.000000,0.000000,0.000000,0.000000,0.000000,0.000000,1647928043.141352,0.000000
71.000000,-36862.072273,-32306.674994,-5434.357278,-5071.297892,-15438.729875,3942.087763,8213.997866,-48.883265,0.018000,0.950000,0.262000,192.000000,0.000000,0.000000,0.000000,0.000000,0.000000,0.000000,0.000000,0.000000,0.000000,1647928043.141356,0.000000
72.000000,-36872.599944,-32326.478639,-5446.114295,-5091.213297,-15454.644317,3932.074181,8194.238924,-61.132021,0.018000,0.950000,0.262000,192.000000,0.000000,0.000000,0.000000,0.000000,0.000000,0.000000,0.000000,0.000000,0.000000,1647928043.149350,0.000000
73.000000,-36862.943991,-32323.818782,-5442.247443,-5094.096672,-15456.723029,3926.977983,8183.174811,-75.213620,0.018000,0.950000,0.262000,192.000000,0.000000,0.000000,0.000000,0.000000,0.000000,0.000000,0.000000,0.000000,0.000000,1647928043.149354,0.000000
74.000000,-36860.194726,-32323.394099,-5441.755705,-5094.566058,-15454.309041,3929.034344,8192.562543,-70.028015,0.018000,0.950000,0.262000,192.000000,0.000000,0.000000,0.000000,0.000000,0.000000,0.000000,0.000000,0.000000,0.000000,1647928043.157380,0.000000
75.000000,-36860.172374,-32324.958721,-5452.171618,-5100.802195,-15460.254605,3915.824463,8173.898837,-73.157260,0.018000,0.950000,0.262000,192.000000,0.000000,0.000000,0.000000,0.000000,0.000000,0.000000,0.000000,0.000000,0.000000,1647928043.157384,0.000000
76.000000,-36840.949874,-32311.346508,-5446.091944,-5092.688512,-15453.750247,3913.768102,8184.270046,-78.253457,0.018000,0.950000,0.262000,192.000000,0.000000,0.000000,0.000000,0.000000,0.000000,0.000000,0.000000,0.000000,0.000000,1647928043.163923,0.000000
77.000000,-36837.060671,-32315.638043,-5440.883987,-5086.228858,-15447.715276,3918.350210,8197.681093,-70.206829,0.018000,0.950000,0.262000,192.000000,0.000000,0.000000,0.000000,0.000000,0.000000,0.000000,0.000000,0.000000,0.000000,1647928043.163926,0.000000
78.000000,-36844.906133,-32325.428107,-5443.566196,-5091.213297,-15450.352782,3916.830291,8195.512974,-68.709262,0.028000,0.956000,0.252000,192.000000,0.000000,224.000000,29.000000,224.000000,7.000000,224.000000,0.000000,0.000000,0.000000,1647928043.171963,0.000000
79.000000,-36840.167563,-32324.824610,-5434.893720,-5087.748776,-15442.306154,3922.373524,8207.806433,-61.936684,0.028000,0.956000,0.252000,192.000000,0.000000,0.000000,0.000000,0.000000,0.000000,0.000000,0.000000,0.000000,0.000000,1647928043.171966,0.000000
80.000000,-36844.257932,-32330.144326,-5440.101676,-5092.152070,-15446.262413,3920.875957,8204.118395,-43.518846,0.028000,0.956000,0.252000,192.000000,0.000000,0.000000,0.000000,0.000000,0.000000,0.000000,0.000000,0.000000,0.000000,1647928043.180110,0.000000
81.000000,-36826.085964,-32310.407735,-5429.484597,-5078.517506,-15436.137073,3919.311335,8202.509070,-54.247684,0.028000,0.956000,0.252000,192.000000,0.000000,0.000000,0.000000,0.000000,0.000000,0.000000,0.000000,0.000000,0.000000,1647928043.180115,0.000000
82.000000,-36825.482467,-32313.157000,-5429.775170,-5079.590390,-15436.874680,3916.159739,8207.046474,-71.547934,0.028000,0.956000,0.252000,192.000000,0.000000,0.000000,0.000000,0.000000,0.000000,0.000000,0.000000,0.000000,0.000000,1647928043.187190,0.000000
83.000000,-36828.634063,-32320.376613,-5429.261080,-5079.970369,-15434.192471,3921.635916,8226.559547,-76.197097,0.028000,0.956000,0.252000,192.000000,0.000000,0.000000,0.000000,0.000000,0.000000,0.000000,0.000000,0.000000,0.000000,1647928043.187194,0.000000
84.000000,-36825.907150,-32325.361052,-5429.618708,-5086.742948,-15433.588974,3921.367695,8236.908404,-73.447832,0.028000,0.956000,0.252000,192.000000,0.000000,0.000000,0.000000,0.000000,0.000000,0.000000,0.000000,0.000000,0.000000,1647928043.193683,0.000000
85.000000,-36818.665185,-32319.862523,-5429.439894,-5085.982989,-15432.650200,3921.725323,8233.734457,-68.753966,0.028000,0.956000,0.252000,192.000000,0.000000,0.000000,0.000000,0.000000,0.000000,0.000000,0.000000,0.000000,0.000000,1647928043.193688,0.000000
86.000000,-36809.791542,-32313.760497,-5421.929708,-5077.131698,-15425.698808,3928.766123,8233.734457,-58.941550,0.028000,0.956000,0.252000,192.000000,0.000000,0.000000,0.000000,0.000000,0.000000,0.000000,0.000000,0.000000,0.000000,1647928043.201683,0.000000
87.000000,-36798.973298,-32304.216302,-5413.391341,-5064.547666,-15418.747415,3935.717515,8234.226195,-61.780222,0.028000,0.956000,0.252000,192.000000,0.000000,0.000000,0.000000,0.000000,0.000000,0.000000,0.000000,0.000000,0.000000,1647928043.209573,0.000000
88.000000,-36769.200774,-32277.036581,-5388.111518,-5038.686697,-15392.797040,3960.930283,8256.197960,-46.715146,0.018000,0.954000,0.244000,192.000000,0.000000,144.000000,29.000000,208.000000,7.000000,160.000000,0.000000,0.000000,0.000000,1647928043.209577,0.000000
89.000000,-36750.313550,-32267.537089,-5379.327283,-5034.573976,-15383.722232,3973.268446,8263.551684,-37.640338,0.018000,0.954000,0.244000,192.000000,0.000000,0.000000,0.000000,0.000000,0.000000,0.000000,0.000000,0.000000,0.000000,1647928043.216756,0.000000
90.000000,-36766.697379,-32293.286299,-5402.193117,-5059.742041,-15403.749395,3952.794248,8243.613928,-56.259341,0.018000,0.954000,0.244000,192.000000,0.000000,0.000000,0.000000,0.000000,0.000000,0.000000,0.000000,0.000000,0.000000,1647928043.216759,0.000000
91.000000,-36779.370818,-32312.732317,-5424.209586,-5081.914971,-15422.278991,3924.474588,8210.265125,-91.329228,0.018000,0.954000,0.244000,192.000000,0.000000,0.000000,0.000000,0.000000,0.000000,0.000000,0.000000,0.000000,0.000000,1647928043.224561,0.000000
92.000000,-36780.734274,-32323.416450,-5435.094885,-5095.996570,-15431.890241,3910.817672,8194.350683,-106.416655,0.018000,0.954000,0.244000,192.000000,0.000000,0.000000,0.000000,0.000000,0.000000,0.000000,0.000000,0.000000,0.000000,1647928043.224571,0.000000
93.000000,-36770.832452,-32318.856695,-5427.875272,-5094.767224,-15426.034084,3918.171396,8193.747186,-90.971600,0.018000,0.954000,0.244000,192.000000,0.000000,0.000000,0.000000,0.000000,0.000000,0.000000,0.000000,0.000000,0.000000,1647928043.232741,0.000000
94.000000,-36769.312533,-32322.276511,-5442.336850,-5100.757492,-15436.829977,3910.303582,8172.825953,-105.209661,0.018000,0.954000,0.244000,192.000000,0.000000,0.000000,0.000000,0.000000,0.000000,0.000000,0.000000,0.000000,0.000000,1647928043.232757,0.000000
95.000000,-36754.806251,-32314.162828,-5433.552615,-5090.542744,-15429.096273,3923.357001,8192.048453,-95.620763,0.018000,0.954000,0.244000,192.000000,0.000000,0.000000,0.000000,0.000000,0.000000,0.000000,0.000000,0.000000,0.000000,1647928043.240700,0.000000
96.000000,-36760.662408,-32321.225979,-5440.883987,-5093.716692,-15432.449035,3921.457102,8198.932791,-90.278696,0.018000,0.954000,0.244000,192.000000,0.000000,0.000000,0.000000,0.000000,0.000000,0.000000,0.000000,0.000000,0.000000,1647928043.240715,0.000000
97.000000,-36761.936457,-32322.209456,-5445.667260,-5094.342541,-15434.885375,3919.065466,8179.643235,-91.664504,0.018000,0.954000,0.244000,192.000000,0.000000,0.000000,0.000000,0.000000,0.000000,0.000000,0.000000,0.000000,0.000000,1647928043.247285,0.000000
98.000000,-36751.341731,-32312.955834,-5435.363106,-5080.775032,-15423.329523,3932.834140,8199.312770,-89.429330,0.024000,0.962000,0.238000,192.000000,0.000000,192.000000,30.000000,16.000000,7.000000,112.000000,0.000000,0.000000,0.000000,1647928043.247301,0.000000
99.000000,-36752.168745,-32313.201703,-5437.911205,-5082.250247,-15423.553040,3937.192731,8211.606230,-86.992989,0.024000,0.962000,0.238000,192.000000,0.000000,0.000000,0.000000,0.000000,0.000000,0.000000,0.000000,0.000000,0.000000,1647928043.255295,0.000000
100.000000,-36739.651768,-32316.308596,-5436.592452,-5087.637018,-15427.710465,3931.537739,8214.623715,-88.557612,0.024000,0.962000,0.238000,192.000000,0.000000,0.000000,0.000000,0.000000,0.000000,0.000000,0.000000,0.000000,0.000000,1647928043.255311,0.000000
101.000000,-36716.785934,-32305.400944,-5427.472940,-5076.617608,-15417.093386,3927.827350,8185.588799,-111.401094,0.024000,0.962000,0.238000,192.000000,0.000000,0.000000,0.000000,0.000000,0.000000,0.000000,0.000000,0.000000,0.000000,1647928043.262301,0.000000
102.000000,-36704.291308,-32300.640023,-5420.074513,-5073.309549,-15410.432566,3936.946861,8185.298227,-105.410827,0.024000,0.962000,0.238000,192.000000,0.000000,0.000000,0.000000,0.000000,0.000000,0.000000,0.000000,0.000000,0.000000,1647928043.270252,0.000000
103.000000,-36687.281631,-32296.437895,-5413.100769,-5068.168648,-15404.844630,3945.999318,8209.594573,-97.431254,0.024000,0.962000,0.238000,192.000000,0.000000,0.000000,0.000000,0.000000,0.000000,0.000000,0.000000,0.000000,0.000000,1647928043.270268,0.000000
104.000000,-36687.907480,-32307.658471,-5421.125045,-5076.863477,-15411.796023,3944.904082,8216.993000,-102.281583,0.024000,0.962000,0.238000,192.000000,0.000000,0.000000,0.000000,0.000000,0.000000,0.000000,0.000000,0.000000,0.000000,1647928043.277007,0.000000
105.000000,-36679.704390,-32309.513665,-5425.371876,-5082.138489,-15417.071035,3939.830236,8205.995942,-115.133836,0.024000,0.962000,0.238000,192.000000,0.000000,0.000000,0.000000,0.000000,0.000000,0.000000,0.000000,0.000000,0.000000,1647928043.277024,0.000000
106.000000,-36661.241849,-32299.455380,-5415.827682,-5073.622474,-15406.990398,3941.461914,8195.177698,-118.687763,0.024000,0.962000,0.238000,192.000000,0.000000,0.000000,0.000000,0.000000,0.000000,0.000000,0.000000,0.000000,0.000000,1647928043.285053,0.000000
107.000000,-36655.497450,-32294.448590,-5415.805330,-5069.129773,-15403.972912,3935.896329,8193.836593,-123.716906,0.024000,0.962000,0.238000,192.000000,0.000000,0.000000,0.000000,0.000000,0.000000,0.000000,0.000000,0.000000,0.000000,1647928043.285087,0.000000
108.000000,-36654.133994,-32298.740125,-5419.381609,-5074.158916,-15408.800889,3922.150007,8178.615055,-133.283452,0.020000,0.958000,0.236000,192.000000,0.000000,160.000000,29.000000,240.000000,7.000000,96.000000,0.000000,0.000000,0.000000,1647928043.292974,0.000000
109.000000,-36656.212706,-32304.797447,-5420.588603,-5076.863477,-15410.141994,3915.600945,8176.022253,-139.229016,0.020000,0.958000,0.236000,192.000000,0.000000,0.000000,0.000000,0.000000,0.000000,0.000000,0.000000,0.000000,0.000000,1647928043.292990,0.000000
110.000000,-36653.642256,-32305.490351,-5417.973449,-5073.242494,-15406.923343,3912.896384,8181.297264,-135.429220,0.020000,0.958000,0.236000,192.000000,0.000000,0.000000,0.000000,0.000000,0.000000,0.000000,0.000000,0.000000,0.000000,1647928043.299593,0.000000
111.000000,-36634.486811,-32288.525377,-5405.657638,-5059.540875,-15391.679453,3921.345344,8187.153421,-124.990955,0.020000,0.958000,0.236000,192.000000,0.000000,0.000000,0.000000,0.000000,0.000000,0.000000,0.000000,0.000000,0.000000,1647928043.299609,0.000000
112.000000,-36625.255540,-32277.707133,-5398.639190,-5050.443715,-15384.236322,3928.050867,8206.241811,-113.412751,0.020000,0.958000,0.236000,192.000000,0.000000,0.000000,0.000000,0.000000,0.000000,0.000000,0.000000,0.000000,0.000000,1647928043.307625,0.000000
113.000000,-36609.139932,-32264.832528,-5378.746137,-5034.149293,-15365.416153,3944.926434,8235.120265,-96.626591,0.020000,0.958000,0.236000,192.000000,0.000000,0.000000,0.000000,0.000000,0.000000,0.000000,0.000000,0.000000,0.000000,1647928043.307641,0.000000
114.000000,-36613.990261,-32271.359238,-5386.658655,-5040.296023,-15369.372412,3944.099420,8226.358381,-93.631458,0.020000,0.958000,0.236000,192.000000,0.000000,0.000000,0.000000,0.000000,0.000000,0.000000,0.000000,0.000000,0.000000,1647928043.315575,0.000000
115.000000,-36629.345909,-32292.347526,-5405.300010,-5065.508791,-15391.902970,3918.998411,8178.704462,-125.549749,0.020000,0.958000,0.236000,192.000000,0.000000,0.000000,0.000000,0.000000,0.000000,0.000000,0.000000,0.000000,0.000000,1647928043.315591,0.000000
116.000000,-36646.579104,-32314.855732,-5421.795597,-5085.960637,-15410.834898,3897.406625,8137.599604,-162.318368,0.020000,0.958000,0.236000,192.000000,0.000000,0.000000,0.000000,0.000000,0.000000,0.000000,0.000000,0.000000,0.000000,1647928043.322770,0.000000
117.000000,-36627.937749,-32299.790657,-5405.501176,-5069.018015,-15393.109965,3911.823501,8139.477150,-163.212438,0.020000,0.958000,0.236000,192.000000,0.000000,0.000000,0.000000,0.000000,0.000000,0.000000,0.000000,0.000000,0.000000,1647928043.329162,0.000000
118.000000,-36615.465476,-32289.866482,-5396.918106,-5058.222122,-15379.631863,3930.286042,8174.614093,-155.389327,0.020000,0.958000,0.236000,192.000000,0.000000,0.000000,0.000000,0.000000,0.000000,0.000000,0.000000,0.000000,0.000000,1647928043.329178,0.000000
119.000000,-36631.111697,-32307.859636,-5411.513795,-5077.019939,-15391.545342,3918.417265,8150.787133,-156.819839,0.030000,0.984000,0.232000,192.000000,0.000000,240.000000,30.000000,192.000000,7.000000,64.000000,0.000000,0.000000,0.000000,1647928043.337246,0.000000
120.000000,-36636.744337,-32313.447572,-5416.699400,-5084.999512,-15395.233380,3910.616506,8130.514101,-161.089022,0.030000,0.984000,0.232000,192.000000,0.000000,0.000000,0.000000,0.000000,0.000000,0.000000,0.000000,0.000000,0.000000,1647928043.337262,0.000000
121.000000,-36627.580121,-32303.568101,-5408.853937,-5078.584561,-15382.090554,3917.657306,8160.733659,-151.969511,0.030000,0.984000,0.232000,192.000000,0.000000,0.000000,0.000000,0.000000,0.000000,0.000000,0.000000,0.000000,0.000000,1647928043.346624,0.000000
122.000000,-36632.229284,-32310.541846,-5412.586679,-5082.518468,-15384.504543,3917.456140,8182.504258,-126.667336,0.030000,0.984000,0.232000,192.000000,0.000000,0.000000,0.000000,0.000000,0.000000,0.000000,0.000000,0.000000,0.000000,1647928043.346641,0.000000
123.000000,-36644.478040,-32323.237636,-5424.231937,-5090.632151,-15393.288778,3913.008143,8191.981398,-108.093036,0.030000,0.984000,0.232000,192.000000,0.000000,0.000000,0.000000,0.000000,0.000000,0.000000,0.000000,0.000000,0.000000,1647928043.353674,0.000000
124.000000,-36645.483869,-32327.797392,-5431.272737,-5094.543707,-15399.256694,3907.599021,8178.369186,-125.840321,0.030000,0.984000,0.232000,192.000000,0.000000,0.000000,0.000000,0.000000,0.000000,0.000000,0.000000,0.000000,0.000000,1647928043.353689,0.000000
125.000000,-36629.994110,-32310.273625,-5420.365086,-5078.204582,-15388.773726,3918.841948,8177.765689,-135.920958,0.030000,0.984000,0.232000,192.000000,0.000000,0.000000,0.000000,0.000000,0.000000,0.000000,0.000000,0.000000,0.000000,1647928043.360000,0.000000
126.000000,-36620.427563,-32297.555482,-5412.296106,-5066.246398,-15380.257711,3930.017821,8187.734567,-133.752839,0.030000,0.984000,0.232000,192.000000,0.000000,0.000000,0.000000,0.000000,0.000000,0.000000,0.000000,0.000000,0.000000,1647928043.360016,0.000000
127.000000,-36627.267197,-32305.646814,-5419.359257,-5074.650654,-15387.477325,3928.520254,8175.977549,-132.657603,0.030000,0.984000,0.232000,192.000000,0.000000,0.000000,0.000000,0.000000,0.000000,0.000000,0.000000,0.000000,0.000000,1647928043.367810,0.000000
128.000000,-36628.585950,-32307.859636,-5416.989972,-5079.255114,-15388.326691,3934.778742,8158.520837,-134.088115,0.030000,0.984000,0.232000,192.000000,0.000000,0.000000,0.000000,0.000000,0.000000,0.000000,0.000000,0.000000,0.000000,1647928043.367826,0.000000
129.000000,-36625.143781,-32305.959738,-5420.834472,-5081.266771,-15392.059433,3940.679603,8141.824084,-140.771287,0.028000,0.964000,0.238000,192.000000,0.000000,224.000000,30.000000,32.000000,7.000000,112.000000,0.000000,0.000000,0.000000,1647928043.375939,0.000000
130.000000,-36619.242921,-32302.897549,-5417.973449,-5079.031596,-15390.584217,3948.748582,8139.141874,-148.080307,0.028000,0.964000,0.238000,192.000000,0.000000,0.000000,0.000000,0.000000,0.000000,0.000000,0.000000,0.000000,0.000000,1647928043.375956,0.000000
131.000000,-36612.090363,-32297.019040,-5407.579888,-5073.130736,-15380.615339,3960.639711,8146.786171,-149.801391,0.028000,0.964000,0.238000,192.000000,0.000000,0.000000,0.000000,0.000000,0.000000,0.000000,0.000000,0.000000,0.000000,1647928043.382119,0.000000
132.000000,-36613.297357,-32293.554520,-5406.886984,-5074.516544,-15380.280063,3965.937074,8141.712325,-152.304787,0.028000,0.964000,0.238000,192.000000,0.000000,0.000000,0.000000,0.000000,0.000000,0.000000,0.000000,0.000000,0.000000,1647928043.389450,0.000000
133.000000,-36614.772572,-32297.980165,-5408.853937,-5083.658407,-15386.292682,3963.992472,8141.779380,-158.451516,0.028000,0.964000,0.238000,192.000000,0.000000,0.000000,0.000000,0.000000,0.000000,0.000000,0.000000,0.000000,0.000000,1647928043.389467,0.000000
134.000000,-36615.197255,-32300.818837,-5412.072588,-5088.061701,-15393.020558,3962.159629,8147.121447,-162.631293,0.028000,0.964000,0.238000,192.000000,0.000000,0.000000,0.000000,0.000000,0.000000,0.000000,0.000000,0.000000,0.000000,1647928043.397515,0.000000
135.000000,-36608.447028,-32290.738200,-5409.144510,-5080.797384,-15387.209104,3976.598856,8185.812317,-143.185275,0.028000,0.964000,0.238000,192.000000,0.000000,0.000000,0.000000,0.000000,0.000000,0.000000,0.000000,0.000000,0.000000,1647928043.397532,0.000000
136.000000,-36605.586005,-32283.719752,-5408.272792,-5078.517506,-15385.867999,3980.197487,8202.665532,-137.060897,0.028000,0.964000,0.238000,192.000000,0.000000,0.000000,0.000000,0.000000,0.000000,0.000000,0.000000,0.000000,0.000000,1647928043.404588,0.000000
137.000000,-36607.999993,-32282.803331,-5409.524490,-5078.472802,-15387.209104,3980.912743,8176.983378,-144.548731,0.028000,0.964000,0.238000,192.000000,0.000000,0.000000,0.000000,0.000000,0.000000,0.000000,0.000000,0.000000,0.000000,1647928043.404604,0.000000
138.000000,-36616.158380,-32292.995726,-5418.711057,-5088.285218,-15400.106061,3967.524048,8131.586985,-164.710005,0.028000,0.964000,0.238000,192.000000,0.000000,0.000000,0.000000,0.000000,0.000000,0.000000,0.000000,0.000000,0.000000,1647928043.413477,0.000000
139.000000,-36602.926147,-32282.959793,-5405.948210,-5075.723538,-15390.695976,3978.029368,8168.847343,-167.347511,0.030000,0.960000,0.244000,192.000000,0.000000,240.000000,30.000000,0.000000,7.000000,160.000000,0.000000,0.000000,0.000000,1647928043.413493,0.000000
140.000000,-36596.913528,-32279.361162,-5393.073606,-5066.201695,-15377.910778,3991.149842,8180.134974,-135.160999,0.030000,0.960000,0.244000,192.000000,0.000000,0.000000,0.000000,0.000000,0.000000,0.000000,0.000000,0.000000,0.000000,1647928043.421514,0.000000
141.000000,-36597.204101,-32280.478749,-5394.302952,-5064.972349,-15373.753354,3987.864135,8188.159250,-123.783961,0.030000,0.960000,0.244000,192.000000,0.000000,0.000000,0.000000,0.000000,0.000000,0.000000,0.000000,0.000000,0.000000,1647928043.421531,0.000000
142.000000,-36597.360563,-32279.361162,-5394.638228,-5064.659424,-15374.647424,3977.649388,8178.816221,-138.044374,0.030000,0.960000,0.244000,192.000000,0.000000,0.000000,0.000000,0.000000,0.000000,0.000000,0.000000,0.000000,0.000000,1647928043.429528,0.000000
143.000000,-36599.640441,-32280.143473,-5395.867574,-5067.296930,-15377.955482,3972.150859,8158.118505,-144.615787,0.030000,0.960000,0.244000,192.000000,0.000000,0.000000,0.000000,0.000000,0.000000,0.000000,0.000000,0.000000,0.000000,1647928043.429544,0.000000
144.000000,-36609.788133,-32290.693497,-5404.137719,-5075.611779,-15389.779555,3958.672757,8124.724999,-171.706101,0.030000,0.960000,0.244000,192.000000,0.000000,0.000000,0.000000,0.000000,0.000000,0.000000,0.000000,0.000000,0.000000,1647928043.435678,0.000000
145.000000,-36610.168113,-32294.828569,-5410.843243,-5080.707977,-15392.774688,3955.811734,8110.106958,-180.400929,0.030000,0.960000,0.244000,192.000000,0.000000,0.000000,0.000000,0.000000,0.000000,0.000000,0.000000,0.000000,0.000000,1647928043.435694,0.000000
146.000000,-36618.170037,-32305.199779,-5420.722714,-5092.442643,-15399.033177,3947.206312,8103.490842,-185.273610,0.030000,0.960000,0.244000,192.000000,0.000000,0.000000,0.000000,0.000000,0.000000,0.000000,0.000000,0.000000,0.000000,1647928043.441866,0.000000
147.000000,-36614.996089,-32298.740125,-5412.340809,-5086.899410,-15394.339310,3951.587254,8118.667676,-175.103566,0.030000,0.960000,0.244000,192.000000,0.000000,0.000000,0.000000,0.000000,0.000000,0.000000,0.000000,0.000000,0.000000,1647928043.441882,0.000000
148.000000,-36610.302223,-32291.229938,-5402.193117,-5078.919837,-15388.974892,3958.672757,8135.565595,-160.083194,0.030000,0.960000,0.244000,192.000000,0.000000,0.000000,0.000000,0.000000,0.000000,0.000000,0.000000,0.000000,0.000000,1647928043.449783,0.000000
149.000000,-36604.602528,-32285.396133,-5400.606144,-5077.668140,-15390.561866,3957.197542,8131.899909,-156.775136,0.032000,0.942000,0.246000,192.000000,1.000000,0.000000,29.000000,112.000000,7.000000,176.000000,0.000000,0.000000,0.000000,1647928043.457815,0.000000
150.000000,-36591.862034,-32273.996743,-5391.061949,-5068.660387,-15382.381127,3965.937074,8138.024287,-150.002557,0.032000,0.942000,0.246000,192.000000,0.000000,0.000000,0.000000,0.000000,0.000000,0.000000,0.000000,0.000000,0.000000,1647928043.457850,0.000000
151.000000,-36591.035019,-32271.091017,-5386.345731,-5064.167686,-15374.736831,3978.923437,8159.079630,-139.608996,0.032000,0.942000,0.246000,192.000000,0.000000,0.000000,0.000000,0.000000,0.000000,0.000000,0.000000,0.000000,0.000000,1647928043.464455,0.000000
152.000000,-36601.249766,-32282.132778,-5405.121196,-5077.064643,-15385.018633,3976.330635,8157.291491,-140.458362,0.032000,0.942000,0.246000,192.000000,0.000000,0.000000,0.000000,0.000000,0.000000,0.000000,0.000000,0.000000,0.000000,1647928043.464473,0.000000
153.000000,-36586.922298,-32266.911240,-5392.514812,-5063.988872,-15374.178037,3985.405443,8159.280796,-134.825723,0.032000,0.942000,0.246000,192.000000,0.000000,0.000000,0.000000,0.000000,0.000000,0.000000,0.000000,0.000000,0.000000,1647928043.472348,0.000000
154.000000,-36588.062237,-32269.146415,-5389.720844,-5064.748831,-15372.769877,3987.819432,8163.617034,-131.696478,0.032000,0.942000,0.246000,192.000000,0.000000,0.000000,0.000000,0.000000,0.000000,0.000000,0.000000,0.000000,0.000000,1647928043.472364,0.000000
155.000000,-36595.147740,-32277.237746,-5396.381664,-5075.120041,-15379.810677,3978.029368,8158.990223,-136.815028,0.032000,0.942000,0.246000,192.000000,0.000000,0.000000,0.000000,0.000000,0.000000,0.000000,0.000000,0.000000,0.000000,1647928043.480402,0.000000
156.000000,-36603.127313,-32286.960755,-5402.617801,-5087.301742,-15386.851476,3964.931245,8147.523778,-148.147362,0.032000,0.942000,0.246000,192.000000,0.000000,0.000000,0.000000,0.000000,0.000000,0.000000,0.000000,0.000000,0.000000,1647928043.480417,0.000000
157.000000,-36589.559804,-32271.605107,-5390.681969,-5072.169611,-15374.133333,3967.479344,8147.769648,-150.404888,0.032000,0.942000,0.246000,192.000000,0.000000,0.000000,0.000000,0.000000,0.000000,0.000000,0.000000,0.000000,0.000000,1647928043.487443,0.000000
158.000000,-36590.632688,-32269.101711,-5389.542030,-5065.397032,-15368.232473,3976.285932,8175.865790,-137.843208,0.032000,0.942000,0.246000,192.000000,0.000000,0.000000,0.000000,0.000000,0.000000,0.000000,0.000000,0.000000,0.000000,1647928043.487459,0.000000
159.000000,-36599.618089,-32280.344639,-5395.375835,-5074.494192,-15373.105153,3976.129469,8187.064014,-129.729525,0.028000,0.958000,0.252000,192.000000,0.000000,224.000000,29.000000,240.000000,7.000000,224.000000,0.000000,0.000000,0.000000,1647928043.495047,0.000000
160.000000,-36604.758990,-32285.284374,-5404.584754,-5083.479593,-15384.191618,3968.127545,8205.727721,-131.025926,0.028000,0.958000,0.252000,192.000000,0.000000,0.000000,0.000000,0.000000,0.000000,0.000000,0.000000,0.000000,0.000000,1647928043.495064,0.000000
161.000000,-36591.459702,-32264.899583,-5395.956981,-5069.174477,-15375.295624,3969.781574,8212.768520,-124.320403,0.028000,0.958000,0.252000,192.000000,0.000000,0.000000,0.000000,0.000000,0.000000,0.000000,0.000000,0.000000,0.000000,1647928043.503444,0.000000
162.000000,-36587.279926,-32258.529336,-5389.117347,-5064.011224,-15369.081839,3967.546400,8208.655799,-130.020097,0.028000,0.958000,0.252000,192.000000,0.000000,0.000000,0.000000,0.000000,0.000000,0.000000,0.000000,0.000000,0.000000,1647928043.503460,0.000000
163.000000,-36597.137046,-32270.532223,-5394.392359,-5074.851820,-15378.670738,3955.118830,8177.899799,-140.838342,0.028000,0.958000,0.252000,192.000000,0.000000,0.000000,0.000000,0.000000,0.000000,0.000000,0.000000,0.000000,0.000000,1647928043.509878,0.000000
164.000000,-36590.878557,-32266.710075,-5390.100824,-5070.672044,-15376.860246,3954.068298,8164.779325,-147.297996,0.028000,0.958000,0.252000,192.000000,0.000000,0.000000,0.000000,0.000000,0.000000,0.000000,0.000000,0.000000,0.000000,1647928043.517199,0.000000
165.000000,-36586.899947,-32262.820871,-5387.820946,-5067.296930,-15374.110982,3959.276254,8187.578104,-146.560388,0.028000,0.958000,0.252000,192.000000,0.000000,0.000000,0.000000,0.000000,0.000000,0.000000,0.000000,0.000000,0.000000,1647928043.517216,0.000000
166.000000,-36590.163301,-32265.883060,-5390.771376,-5072.035500,-15377.530799,3956.772859,8198.038721,-138.714926,0.028000,0.958000,0.252000,192.000000,0.000000,0.000000,0.000000,0.000000,0.000000,0.000000,0.000000,0.000000,0.000000,1647928043.524635,0.000000
167.000000,-36592.733752,-32266.665371,-5388.871478,-5074.762413,-15380.168304,3954.492981,8192.249619,-136.613862,0.028000,0.958000,0.252000,192.000000,0.000000,0.000000,0.000000,0.000000,0.000000,0.000000,0.000000,0.000000,0.000000,1647928043.524652,0.000000
168.000000,-36589.626859,-32261.971505,-5390.592562,-5070.917913,-15377.642557,3960.192676,8187.645160,-126.376763,0.028000,0.958000,0.252000,192.000000,0.000000,0.000000,0.000000,0.000000,0.000000,0.000000,0.000000,0.000000,0.000000,1647928043.532720,0.000000
169.000000,-36579.769740,-32251.913220,-5378.656730,-5055.897541,-15367.293700,3972.664949,8180.559657,-128.097847,0.022000,0.956000,0.246000,192.000000,0.000000,176.000000,29.000000,224.000000,7.000000,176.000000,0.000000,0.000000,0.000000,1647928043.532736,0.000000
170.000000,-36573.734769,-32244.201868,-5367.816134,-5043.358212,-15353.480322,3990.769862,8197.301113,-108.428312,0.022000,0.956000,0.246000,192.000000,0.000000,0.000000,0.000000,0.000000,0.000000,0.000000,0.000000,0.000000,0.000000,1647928043.539916,0.000000
171.000000,-36594.588947,-32264.161976,-5383.283542,-5062.312491,-15366.667851,3977.783498,8193.858945,-110.663487,0.022000,0.956000,0.246000,192.000000,0.000000,0.000000,0.000000,0.000000,0.000000,0.000000,0.000000,0.000000,0.000000,1647928043.539951,0.000000
172.000000,-36614.884331,-32286.446665,-5403.713036,-5085.737119,-15390.360700,3952.190751,8154.676337,-143.386441,0.022000,0.956000,0.246000,192.000000,0.000000,0.000000,0.000000,0.000000,0.000000,0.000000,0.000000,0.000000,0.000000,1647928043.547318,0.000000
173.000000,-36613.587929,-32284.278546,-5400.852013,-5086.027692,-15391.321825,3945.686393,8141.712325,-160.105546,0.022000,0.956000,0.246000,192.000000,0.000000,0.000000,0.000000,0.000000,0.000000,0.000000,0.000000,0.000000,0.000000,1647928043.547336,0.000000
174.000000,-36604.982508,-32277.125988,-5390.659617,-5079.322169,-15382.828162,3960.349138,8155.123371,-138.759630,0.022000,0.956000,0.246000,192.000000,0.000000,0.000000,0.000000,0.000000,0.000000,0.000000,0.000000,0.000000,0.000000,1647928043.555304,0.000000
175.000000,-36601.227415,-32278.578851,-5389.810251,-5085.446547,-15385.867999,3958.516295,8158.185560,-131.472961,0.022000,0.956000,0.246000,192.000000,0.000000,0.000000,0.000000,0.000000,0.000000,0.000000,0.000000,0.000000,0.000000,1647928043.555320,0.000000
176.000000,-36599.573386,-32273.884985,-5392.738329,-5091.503869,-15390.673624,3947.675699,8161.426563,-147.588569,0.022000,0.956000,0.246000,192.000000,0.000000,0.000000,0.000000,0.000000,0.000000,0.000000,0.000000,0.000000,0.000000,1647928043.563306,0.000000
177.000000,-36592.309069,-32267.715903,-5390.838431,-5087.525259,-15389.287816,3941.506617,8155.056316,-154.450554,0.022000,0.956000,0.246000,192.000000,0.000000,0.000000,0.000000,0.000000,0.000000,0.000000,0.000000,0.000000,0.000000,1647928043.563322,0.000000
178.000000,-36589.559804,-32275.114331,-5378.142640,-5079.121003,-15376.659081,3953.710670,8171.328386,-130.288318,0.022000,0.956000,0.246000,192.000000,0.000000,0.000000,0.000000,0.000000,0.000000,0.000000,0.000000,0.000000,0.000000,1647928043.569463,0.000000
179.000000,-36600.109828,-32288.257156,-5383.171783,-5085.558305,-15377.642557,3950.849646,8176.268122,-138.111429,0.026000,0.958000,0.238000,192.000000,0.000000,208.000000,29.000000,240.000000,7.000000,112.000000,0.000000,0.000000,0.000000,1647928043.576988,0.000000
180.000000,-36610.413982,-32299.187159,-5398.438024,-5100.355160,-15388.997244,3928.676716,8158.789058,-165.604075,0.026000,0.958000,0.238000,192.000000,0.000000,0.000000,0.000000,0.000000,0.000000,0.000000,0.000000,0.000000,0.000000,1647928043.577004,0.000000
181.000000,-36603.574348,-32288.234805,-5394.861745,-5093.873154,-15381.934092,3929.347268,8159.593720,-145.643967,0.026000,0.958000,0.238000,192.000000,0.000000,0.000000,0.000000,0.000000,0.000000,0.000000,0.000000,0.000000,0.000000,1647928043.585061,0.000000
182.000000,-36600.735676,-32283.049200,-5393.408882,-5092.420291,-15379.073069,3931.627146,8160.800715,-156.149287,0.026000,0.958000,0.238000,192.000000,0.000000,0.000000,0.000000,0.000000,0.000000,0.000000,0.000000,0.000000,0.000000,1647928043.585077,0.000000
183.000000,-36583.346019,-32265.100749,-5380.556629,-5074.583599,-15364.566787,3948.122734,8190.215610,-136.926787,0.026000,0.958000,0.238000,192.000000,0.000000,0.000000,0.000000,0.000000,0.000000,0.000000,0.000000,0.000000,0.000000,1647928043.593024,0.000000
184.000000,-36570.851394,-32248.605162,-5364.485725,-5057.842142,-15350.395781,3964.774783,8220.412817,-129.371897,0.026000,0.958000,0.238000,192.000000,0.000000,0.000000,0.000000,0.000000,0.000000,0.000000,0.000000,0.000000,0.000000,1647928043.593041,0.000000
185.000000,-36567.476281,-32247.129947,-5359.076602,-5058.177418,-15348.250013,3966.048833,8209.706331,-133.641080,0.026000,0.958000,0.238000,192.000000,0.000000,0.000000,0.000000,0.000000,0.000000,0.000000,0.000000,0.000000,0.000000,1647928043.599572,0.000000
186.000000,-36581.960211,-32260.853918,-5371.571227,-5071.789631,-15358.688278,3956.996376,8187.131070,-134.132818,0.026000,0.958000,0.238000,192.000000,0.000000,0.000000,0.000000,0.000000,0.000000,0.000000,0.000000,0.000000,0.000000,1647928043.599588,0.000000
187.000000,-36590.498577,-32270.487520,-5381.338940,-5081.825564,-15368.053659,3947.027498,8174.994072,-145.353394,0.026000,0.958000,0.238000,192.000000,0.000000,0.000000,0.000000,0.000000,0.000000,0.000000,0.000000,0.000000,0.000000,1647928043.607386,0.000000
188.000000,-36575.589964,-32255.355389,-5371.280655,-5068.012186,-15357.257766,3957.845742,8194.998884,-139.050202,0.026000,0.958000,0.238000,192.000000,0.000000,0.000000,0.000000,0.000000,0.000000,0.000000,0.000000,0.000000,0.000000,1647928043.607402,0.000000
189.000000,-36584.888290,-32264.787825,-5379.036710,-5074.516544,-15363.024516,3954.805905,8187.555753,-142.291205,0.020000,0.962000,0.234000,192.000000,0.000000,160.000000,30.000000,16.000000,7.000000,80.000000,0.000000,0.000000,0.000000,1647928043.615452,0.000000
190.000000,-36602.881444,-32284.166787,-5396.672237,-5095.102500,-15381.107078,3938.489132,8169.629654,-164.777060,0.020000,0.962000,0.234000,192.000000,0.000000,0.000000,0.000000,0.000000,0.000000,0.000000,0.000000,0.000000,0.000000,1647928043.615468,0.000000
191.000000,-36593.359601,-32277.975354,-5390.123175,-5091.861497,-15376.524970,3941.685431,8173.876485,-164.978226,0.020000,0.962000,0.234000,192.000000,0.000000,0.000000,0.000000,0.000000,0.000000,0.000000,0.000000,0.000000,0.000000,1647928043.622718,0.000000
192.000000,-36588.956307,-32274.667296,-5385.742233,-5086.832355,-15375.474438,3941.908949,8163.035889,-158.384461,0.020000,0.962000,0.234000,192.000000,0.000000,0.000000,0.000000,0.000000,0.000000,0.000000,0.000000,0.000000,0.000000,1647928043.622735,0.000000
193.000000,-36591.504406,-32277.595374,-5387.597428,-5091.436814,-15379.698918,3933.594100,8140.840607,-182.077310,0.020000,0.962000,0.234000,192.000000,0.000000,0.000000,0.000000,0.000000,0.000000,0.000000,0.000000,0.000000,0.000000,1647928043.630827,0.000000
194.000000,-36593.337249,-32281.305764,-5388.826774,-5089.559268,-15379.050717,3938.623242,8152.329403,-182.993732,0.020000,0.962000,0.234000,192.000000,0.000000,0.000000,0.000000,0.000000,0.000000,0.000000,0.000000,0.000000,0.000000,1647928043.637275,0.000000
195.000000,-36581.580231,-32268.341752,-5380.646036,-5080.462108,-15371.495828,3944.099420,8167.349776,-184.759520,0.020000,0.962000,0.234000,192.000000,0.000000,0.000000,0.000000,0.000000,0.000000,0.000000,0.000000,0.000000,0.000000,1647928043.637291,0.000000
196.000000,-36575.478205,-32259.512813,-5367.771431,-5075.164744,-15360.565825,3950.424963,8172.915360,-176.511726,0.020000,0.962000,0.234000,192.000000,0.000000,0.000000,0.000000,0.000000,0.000000,0.000000,0.000000,0.000000,0.000000,1647928043.645330,0.000000
197.000000,-36581.267307,-32265.793653,-5372.197076,-5080.529163,-15364.991470,3941.014879,8163.594683,-180.088005,0.020000,0.962000,0.234000,192.000000,0.000000,0.000000,0.000000,0.000000,0.000000,0.000000,0.000000,0.000000,0.000000,1647928043.645346,0.000000
198.000000,-36580.552051,-32266.441854,-5376.823887,-5078.964541,-15363.516255,3934.845797,8149.066049,-185.497127,0.020000,0.962000,0.234000,192.000000,0.000000,0.000000,0.000000,0.000000,0.000000,0.000000,0.000000,0.000000,0.000000,1647928043.652199,0.000000
199.000000,-36582.362542,-32269.436988,-5376.063928,-5079.992721,-15363.851531,3935.359888,8157.067973,-198.729360,0.028000,0.960000,0.228000,192.000000,0.000000,224.000000,30.000000,0.000000,7.000000,32.000000,0.000000,0.000000,0.000000,1647928043.652215,0.000000
200.000000,-36583.234260,-32269.951078,-5373.739347,-5079.232762,-15362.063391,3933.705858,8149.915415,-202.372694,0.028000,0.960000,0.228000,192.000000,0.000000,0.000000,0.000000,0.000000,0.000000,0.000000,0.000000,0.000000,0.000000,1647928043.659846,0.000000
201.000000,-36583.234260,-32266.665371,-5372.487649,-5076.304683,-15356.408400,3936.097495,8141.801732,-185.318313,0.028000,0.960000,0.228000,192.000000,0.000000,0.000000,0.000000,0.000000,0.000000,0.000000,0.000000,0.000000,0.000000,1647928043.659863,0.000000
202.000000,-36573.466548,-32254.908354,-5362.071736,-5060.859628,-15343.936127,3942.266577,8146.897930,-191.397988,0.028000,0.960000,0.228000,192.000000,0.000000,0.000000,0.000000,0.000000,0.000000,0.000000,0.000000,0.000000,0.000000,1647928043.667887,0.000000
203.000000,-36573.287734,-32257.299990,-5358.361347,-5059.742041,-15340.493958,3945.060545,8148.864883,-211.291040,0.028000,0.960000,0.228000,192.000000,0.000000,0.000000,0.000000,0.000000,0.000000,0.000000,0.000000,0.000000,0.000000,1647928043.667903,0.000000
204.000000,-36583.010743,-32269.884022,-5370.632454,-5073.197791,-15351.289851,3938.220911,8134.291546,-218.600061,0.028000,0.960000,0.228000,192.000000,0.000000,0.000000,0.000000,0.000000,0.000000,0.000000,0.000000,0.000000,0.000000,1647928043.675103,0.000000
205.000000,-36576.305220,-32259.624572,-5362.071736,-5064.301796,-15341.857414,3954.560036,8163.997014,-189.967476,0.028000,0.960000,0.228000,192.000000,0.000000,0.000000,0.000000,0.000000,0.000000,0.000000,0.000000,0.000000,0.000000,1647928043.675119,0.000000
206.000000,-36580.149720,-32262.709112,-5367.413803,-5072.750756,-15343.511444,3957.644577,8186.795793,-185.832403,0.028000,0.960000,0.228000,192.000000,0.000000,0.000000,0.000000,0.000000,0.000000,0.000000,0.000000,0.000000,0.000000,1647928043.682534,0.000000
207.000000,-36576.819310,-32259.646923,-5365.089222,-5073.644826,-15341.790359,3956.459934,8181.945465,-183.038435,0.028000,0.960000,0.228000,192.000000,0.000000,0.000000,0.000000,0.000000,0.000000,0.000000,0.000000,0.000000,0.000000,1647928043.682551,0.000000
208.000000,-36578.652153,-32259.445758,-5365.513905,-5074.382433,-15343.287926,3954.962367,8169.428488,-184.267781,0.028000,0.960000,0.228000,192.000000,0.000000,0.000000,0.000000,0.000000,0.000000,0.000000,0.000000,0.000000,0.000000,1647928043.689611,0.000000
209.000000,-36581.222603,-32263.893755,-5371.191248,-5079.903314,-15346.864205,3950.715536,8178.860924,-194.929563,0.030000,0.966000,0.232000,192.000000,0.000000,240.000000,30.000000,48.000000,7.000000,64.000000,0.000000,0.000000,0.000000,1647928043.689628,0.000000
210.000000,-36593.203138,-32280.232880,-5384.624646,-5094.163727,-15359.537644,3937.349193,8157.827933,-207.178319,0.030000,0.966000,0.232000,192.000000,0.000000,0.000000,0.000000,0.000000,0.000000,0.000000,0.000000,0.000000,0.000000,1647928043.697499,0.000000
211.000000,-36591.839682,-32279.629383,-5384.222315,-5095.728349,-15361.303432,3935.873978,8159.638424,-212.341572,0.030000,0.966000,0.232000,192.000000,0.000000,0.000000,0.000000,0.000000,0.000000,0.000000,0.000000,0.000000,0.000000,1647928043.704653,0.000000
212.000000,-36579.255650,-32264.944287,-5370.677158,-5076.192925,-15344.383162,3952.503676,8169.115564,-214.263822,0.030000,0.966000,0.232000,192.000000,0.000000,0.000000,0.000000,0.000000,0.000000,0.000000,0.000000,0.000000,0.000000,1647928043.704669,0.000000
213.000000,-36563.788243,-32247.666388,-5355.522675,-5057.439811,-15325.898269,3972.307321,8186.237000,-194.191956,0.030000,0.966000,0.232000,192.000000,0.000000,0.000000,0.000000,0.000000,0.000000,0.000000,0.000000,0.000000,0.000000,1647928043.712123,0.000000
214.000000,-36582.094322,-32266.844185,-5371.392414,-5076.684663,-15342.013877,3961.936112,8186.125241,-200.137520,0.030000,0.966000,0.232000,192.000000,0.000000,0.000000,0.000000,0.000000,0.000000,0.000000,0.000000,0.000000,0.000000,1647928043.712158,0.000000
215.000000,-36590.587984,-32278.042409,-5382.054196,-5089.469861,-15354.240281,3945.217007,8165.762802,-223.785665,0.030000,0.966000,0.232000,192.000000,0.000000,0.000000,0.000000,0.000000,0.000000,0.000000,0.000000,0.000000,0.000000,1647928043.719916,0.000000
216.000000,-36567.655095,-32251.913220,-5358.696623,-5063.765355,-15330.860356,3961.310263,8172.110697,-226.065543,0.030000,0.966000,0.232000,192.000000,0.000000,0.000000,0.000000,0.000000,0.000000,0.000000,0.000000,0.000000,0.000000,1647928043.719927,0.000000
217.000000,-36563.855298,-32246.682912,-5351.879341,-5059.898503,-15322.701969,3973.670778,8199.111605,-207.066561,0.030000,0.966000,0.232000,192.000000,0.000000,0.000000,0.000000,0.000000,0.000000,0.000000,0.000000,0.000000,0.000000,1647928043.728110,0.000000
218.000000,-36564.145871,-32247.465223,-5355.500323,-5060.010262,-15320.757368,3972.732004,8195.691788,-198.975229,0.030000,0.966000,0.232000,192.000000,0.000000,0.000000,0.000000,0.000000,0.000000,0.000000,0.000000,0.000000,0.000000,1647928043.728126,0.000000
219.000000,-36595.415961,-32283.205662,-5384.177611,-5090.654503,-15352.496845,3937.684469,8137.174921,-249.981910,0.030000,0.966000,0.232000,192.000000,0.000000,0.000000,0.000000,0.000000,0.000000,0.000000,0.000000,0.000000,0.000000,1647928043.734842,0.000000
220.000000,-36607.508255,-32295.722639,-5393.297123,-5103.126777,-15366.757258,3920.026591,8106.508327,-283.844803,0.028000,0.970000,0.230000,192.000000,0.000000,224.000000,30.000000,80.000000,7.000000,48.000000,0.000000,0.000000,0.000000,1647928043.734859,0.000000
221.000000,-36605.027211,-32290.201758,-5393.140661,-5093.157899,-15362.152798,3923.669925,8105.770720,-276.982817,0.028000,0.970000,0.230000,192.000000,0.000000,0.000000,0.000000,0.000000,0.000000,0.000000,0.000000,0.000000,0.000000,1647928043.742667,0.000000
222.000000,-36618.460610,-32297.510779,-5402.729559,-5101.875079,-15368.590101,3924.653402,8126.155511,-244.550436,0.028000,0.970000,0.230000,192.000000,0.000000,0.000000,0.000000,0.000000,0.000000,0.000000,0.000000,0.000000,0.000000,1647928043.742678,0.000000
223.000000,-36608.625842,-32283.652697,-5391.285466,-5092.241477,-15362.175150,3929.727248,8148.350793,-232.279328,0.028000,0.970000,0.230000,192.000000,0.000000,0.000000,0.000000,0.000000,0.000000,0.000000,0.000000,0.000000,0.000000,1647928043.750807,0.000000
224.000000,-36608.491732,-32286.513720,-5395.219373,-5095.124852,-15368.165418,3927.559129,8145.489770,-253.826410,0.028000,0.970000,0.230000,192.000000,0.000000,0.000000,0.000000,0.000000,0.000000,0.000000,0.000000,0.000000,0.000000,1647928043.750824,0.000000
225.000000,-36605.943633,-32282.266889,-5393.408882,-5093.604933,-15363.337441,3933.750562,8149.401325,-242.494076,0.028000,0.970000,0.230000,192.000000,0.000000,0.000000,0.000000,0.000000,0.000000,0.000000,0.000000,0.000000,0.000000,1647928043.757873,0.000000
226.000000,-36591.996144,-32267.559441,-5382.836507,-5082.384358,-15350.708705,3944.725268,8152.932901,-228.703049,0.028000,0.970000,0.230000,192.000000,0.000000,0.000000,0.000000,0.000000,0.000000,0.000000,0.000000,0.000000,0.000000,1647928043.764493,0.000000
227.000000,-36586.341153,-32264.117272,-5378.723786,-5080.015073,-15346.238356,3951.766068,8147.166150,-230.379430,0.028000,0.970000,0.230000,192.000000,0.000000,0.000000,0.000000,0.000000,0.000000,0.000000,0.000000,0.000000,0.000000,1647928043.764509,0.000000
228.000000,-36597.919357,-32278.020057,-5386.256324,-5093.090843,-15354.352040,3952.034289,8139.745371,-225.283232,0.028000,0.970000,0.230000,192.000000,0.000000,0.000000,0.000000,0.000000,0.000000,0.000000,0.000000,0.000000,0.000000,1647928043.772435,0.000000
229.000000,-36599.774551,-32282.825683,-5387.753890,-5098.119986,-15360.051734,3950.581425,8133.822159,-232.994584,0.028000,0.970000,0.230000,192.000000,0.000000,0.000000,0.000000,0.000000,0.000000,0.000000,0.000000,0.000000,0.000000,1647928043.772453,0.000000
230.000000,-36594.141912,-32276.634249,-5380.824850,-5092.308532,-15358.107133,3954.045946,8131.274060,-234.380392,0.036000,0.958000,0.234000,192.000000,1.000000,32.000000,29.000000,240.000000,7.000000,80.000000,0.000000,0.000000,0.000000,1647928043.780366,0.000000
231.000000,-36592.666697,-32271.247479,-5379.662559,-5089.469861,-15355.849606,3959.566827,8133.419828,-232.681660,0.036000,0.958000,0.234000,192.000000,0.000000,0.000000,0.000000,0.000000,0.000000,0.000000,0.000000,0.000000,0.000000,1647928043.780382,0.000000
232.000000,-36593.560766,-32270.979258,-5380.377815,-5088.195811,-15355.022592,3957.801039,8129.865900,-237.442581,0.036000,0.958000,0.234000,192.000000,0.000000,0.000000,0.000000,0.000000,0.000000,0.000000,0.000000,0.000000,0.000000,1647928043.786929,0.000000
233.000000,-36579.233298,-32255.422444,-5366.519733,-5072.706052,-15344.561976,3969.535705,8158.297319,-234.738020,0.036000,0.958000,0.234000,192.000000,0.000000,0.000000,0.000000,0.000000,0.000000,0.000000,0.000000,0.000000,0.000000,1647928043.786946,0.000000
234.000000,-36585.290621,-32262.083264,-5373.202905,-5076.818773,-15349.926394,3972.687301,8156.777401,-233.240453,0.036000,0.958000,0.234000,192.000000,0.000000,0.000000,0.000000,0.000000,0.000000,0.000000,0.000000,0.000000,0.000000,1647928043.795005,0.000000
235.000000,-36600.512159,-32275.561366,-5387.552725,-5086.921762,-15364.164455,3961.779649,8139.499502,-241.130619,0.036000,0.958000,0.234000,192.000000,0.000000,0.000000,0.000000,0.000000,0.000000,0.000000,0.000000,0.000000,0.000000,1647928043.795040,0.000000
236.000000,-36588.509272,-32267.939421,-5382.098899,-5083.211372,-15360.208197,3964.730080,8156.397421,-242.427020,0.036000,0.958000,0.234000,192.000000,0.000000,0.000000,0.000000,0.000000,0.000000,0.000000,0.000000,0.000000,0.000000,1647928043.802918,0.000000
237.000000,-36588.822197,-32268.140586,-5382.411824,-5086.899410,-15359.381182,3962.271388,8164.846380,-237.688451,0.036000,0.958000,0.234000,192.000000,0.000000,0.000000,0.000000,0.000000,0.000000,0.000000,0.000000,0.000000,0.000000,1647928043.802934,0.000000
238.000000,-36582.340191,-32250.840336,-5370.498344,-5069.599160,-15345.143121,3971.055623,8169.450840,-227.183131,0.036000,0.958000,0.234000,192.000000,0.000000,0.000000,0.000000,0.000000,0.000000,0.000000,0.000000,0.000000,0.000000,1647928043.810185,0.000000
239.000000,-36585.804711,-32254.774243,-5368.866666,-5064.592369,-15343.422037,3974.542496,8175.731680,-222.288099,0.036000,0.958000,0.234000,192.000000,0.000000,0.000000,0.000000,0.000000,0.000000,0.000000,0.000000,0.000000,0.000000,1647928043.810202,0.000000
240.000000,-36591.437351,-32262.865575,-5370.051309,-5073.086032,-15347.959441,3967.412289,8162.030061,-234.738020,0.040000,0.956000,0.230000,192.000000,1.000000,64.000000,29.000000,224.000000,7.000000,48.000000,0.000000,0.000000,0.000000,1647928043.816705,0.000000
241.000000,-36597.628784,-32266.911240,-5370.498344,-5074.807116,-15351.803941,3958.426888,8151.368278,-250.138372,0.040000,0.956000,0.230000,192.000000,0.000000,0.000000,0.000000,0.000000,0.000000,0.000000,0.000000,0.000000,0.000000,1647928043.824556,0.000000
242.000000,-36597.226452,-32265.503081,-5368.441983,-5069.643863,-15347.668868,3969.602760,8193.993055,-222.198692,0.040000,0.956000,0.230000,192.000000,0.000000,0.000000,0.000000,0.000000,0.000000,0.000000,0.000000,0.000000,0.000000,1647928043.824567,0.000000
243.000000,-36583.994220,-32253.947229,-5358.517809,-5061.641939,-15339.644592,3971.636769,8177.743337,-223.495093,0.040000,0.956000,0.230000,192.000000,0.000000,0.000000,0.000000,0.000000,0.000000,0.000000,0.000000,0.000000,0.000000,1647928043.832618,0.000000
244.000000,-36563.028283,-32236.199944,-5341.910463,-5046.442753,-15326.501766,3982.767938,8153.916377,-224.880901,0.040000,0.956000,0.230000,192.000000,0.000000,0.000000,0.000000,0.000000,0.000000,0.000000,0.000000,0.000000,0.000000,1647928043.832633,0.000000
245.000000,-36585.312973,-32258.842261,-5363.166972,-5069.397994,-15345.053714,3978.074071,8188.718043,-218.108322,0.040000,0.956000,0.230000,192.000000,0.000000,0.000000,0.000000,0.000000,0.000000,0.000000,0.000000,0.000000,0.000000,1647928043.839584,0.000000
246.000000,-36626.708403,-32297.533130,-5404.696513,-5111.441626,-15389.488982,3926.240376,8130.804674,-275.753471,0.040000,0.956000,0.230000,192.000000,0.000000,0.000000,0.000000,0.000000,0.000000,0.000000,0.000000,0.000000,0.000000,1647928043.839596,0.000000
247.000000,-36616.538360,-32283.786808,-5396.046388,-5095.169556,-15376.390860,3935.426943,8127.138987,-252.395898,0.040000,0.956000,0.230000,192.000000,0.000000,0.000000,0.000000,0.000000,0.000000,0.000000,0.000000,0.000000,0.000000,1647928043.847392,0.000000
248.000000,-36602.680278,-32269.101711,-5377.337978,-5078.584561,-15355.804903,3954.627091,8136.325554,-231.698183,0.040000,0.956000,0.230000,192.000000,0.000000,0.000000,0.000000,0.000000,0.000000,0.000000,0.000000,0.000000,0.000000,1647928043.847409,0.000000
249.000000,-36595.304202,-32263.670238,-5369.760736,-5068.660387,-15349.971098,3961.422022,8151.435334,-233.106343,0.040000,0.956000,0.230000,192.000000,0.000000,0.000000,0.000000,0.000000,0.000000,0.000000,0.000000,0.000000,0.000000,1647928043.855340,0.000000
250.000000,-36602.099133,-32270.621630,-5378.477917,-5072.527238,-15355.223758,3963.031347,8151.301223,-229.686526,0.040000,0.956000,0.230000,192.000000,1.000000,64.000000,29.000000,224.000000,7.000000,48.000000,0.000000,0.000000,0.000000,1647928043.855356,0.000000
251.000000,-36597.382915,-32265.905412,-5378.880248,-5072.817811,-15355.179054,3960.684414,8134.559767,-243.030517,0.040000,0.956000,0.230000,192.000000,0.000000,0.000000,0.000000,0.000000,0.000000,0.000000,0.000000,0.000000,0.000000,1647928043.863381,0.000000
252.000000,-36596.511197,-32264.452549,-5376.488611,-5070.739099,-15351.312202,3966.160591,8150.496560,-237.911968,0.040000,0.956000,0.230000,192.000000,0.000000,0.000000,0.000000,0.000000,0.000000,0.000000,0.000000,0.000000,0.000000,1647928043.863397,0.000000
253.000000,-36593.985450,-32261.166842,-5377.874419,-5068.883904,-15349.658173,3963.254865,8155.346889,-240.169494,0.040000,0.956000,0.230000,192.000000,0.000000,0.000000,0.000000,0.000000,0.000000,0.000000,0.000000,0.000000,0.000000,1647928043.869924,0.000000
254.000000,-36595.348906,-32262.038560,-5377.896771,-5071.744927,-15352.765066,3959.611530,8155.324537,-247.456163,0.040000,0.956000,0.230000,192.000000,0.000000,0.000000,0.000000,0.000000,0.000000,0.000000,0.000000,0.000000,0.000000,1647928043.869941,0.000000
255.000000,-36598.679316,-32266.285392,-5375.974521,-5075.991759,-15356.810732,3949.977928,8143.902796,-259.503753,0.040000,0.956000,0.230000,192.000000,0.000000,0.000000,0.000000,0.000000,0.000000,0.000000,0.000000,0.000000,0.000000,1647928043.878415,0.000000
0.000000,-36592.733752,-32260.809214,-5369.693681,-5071.946093,-15351.915699,3951.699013,8139.007764,-269.539686,0.040000,0.956000,0.230000,192.000000,0.000000,0.000000,0.000000,0.000000,0.000000,0.000000,0.000000,0.000000,0.000000,1647928043.886298,0.000000
1.000000,-36592.912566,-32257.389397,-5369.045480,-5072.638997,-15348.741752,3947.921568,8138.024287,-276.424024,0.040000,0.956000,0.230000,192.000000,0.000000,0.000000,0.000000,0.000000,0.000000,0.000000,0.000000,0.000000,0.000000,1647928043.886332,0.000000
2.000000,-36591.191481,-32253.030807,-5365.849181,-5070.515581,-15348.361772,3946.021670,8141.824084,-281.900201,0.040000,0.956000,0.230000,192.000000,0.000000,0.000000,0.000000,0.000000,0.000000,0.000000,0.000000,0.000000,0.000000,1647928043.893037,0.000000
3.000000,-36588.039886,-32250.415653,-5358.629567,-5066.939302,-15346.640688,3952.548379,8145.668584,-285.856460,0.040000,0.956000,0.230000,192.000000,0.000000,0.000000,0.000000,0.000000,0.000000,0.000000,0.000000,0.000000,0.000000,1647928043.893053,0.000000
4.000000,-36589.716266,-32253.097862,-5361.825867,-5071.320244,-15346.707743,3954.515333,8141.019421,-290.013884,0.034000,0.966000,0.230000,192.000000,1.000000,16.000000,30.000000,48.000000,7.000000,48.000000,0.000000,0.000000,0.000000,1647928043.899682,0.000000
5.000000,-36587.771665,-32251.354426,-5358.517809,-5069.196829,-15342.215042,3958.069260,8160.644252,-280.804966,0.034000,0.966000,0.230000,192.000000,0.000000,0.000000,0.000000,0.000000,0.000000,0.000000,0.000000,0.000000,0.000000,1647928043.899698,0.000000
6.000000,-36584.485958,-32245.878249,-5355.030937,-5063.161858,-15337.521176,3955.767030,8146.964985,-288.806890,0.034000,0.966000,0.230000,192.000000,0.000000,0.000000,0.000000,0.000000,0.000000,0.000000,0.000000,0.000000,0.000000,1647928043.907674,0.000000
7.000000,-36584.932993,-32245.341807,-5356.752021,-5059.339709,-15337.811749,3956.817562,8119.181766,-288.829242,0.034000,0.966000,0.230000,192.000000,0.000000,0.000000,0.000000,0.000000,0.000000,0.000000,0.000000,0.000000,0.000000,1647928043.907690,0.000000
8.000000,-36590.744447,-32246.235877,-5362.854047,-5057.864494,-15343.064409,3960.058565,8140.505331,-293.321942,0.034000,0.966000,0.230000,192.000000,0.000000,0.000000,0.000000,0.000000,0.000000,0.000000,0.000000,0.000000,0.000000,1647928043.915694,0.000000
9.000000,-36569.599696,-32223.101821,-5341.888111,-5038.329069,-15325.562993,3981.650350,8166.321595,-292.383169,0.034000,0.966000,0.230000,192.000000,0.000000,0.000000,0.000000,0.000000,0.000000,0.000000,0.000000,0.000000,0.000000,1647928043.915710,0.000000
10.000000,-36567.923316,-32220.620778,-5337.395410,-5036.831503,-15320.980885,3991.708635,8182.995997,-283.665989,0.034000,0.966000,0.230000,192.000000,0.000000,0.000000,0.000000,0.000000,0.000000,0.000000,0.000000,0.000000,0.000000,1647928043.922304,0.000000
11.000000,-36597.315859,-32250.907391,-5367.816134,-5070.180305,-15348.965269,3960.595007,8130.849377,-304.408408,0.034000,0.966000,0.230000,192.000000,0.000000,0.000000,0.000000,0.000000,0.000000,0.000000,0.000000,0.000000,0.000000,1647928043.922320,0.000000
12.000000,-36610.123409,-32265.726598,-5379.930780,-5083.926628,-15361.705764,3948.458010,8130.581156,-314.466693,0.034000,0.966000,0.230000,192.000000,0.000000,0.000000,0.000000,0.000000,0.000000,0.000000,0.000000,0.000000,0.000000,1647928043.930281,0.000000
13.000000,-36608.782304,-32266.955944,-5378.723786,-5084.038387,-15363.315089,3943.942957,8124.635592,-324.636736,0.034000,0.966000,0.230000,192.000000,0.000000,0.000000,0.000000,0.000000,0.000000,0.000000,0.000000,0.000000,0.000000,1647928043.930297,0.000000
14.000000,-36610.950424,-32267.335924,-5379.595504,-5087.055872,-15366.243168,3940.925472,8119.829967,-324.524978,0.030000,0.968000,0.220000,192.000000,0.000000,240.000000,30.000000,64.000000,6.000000,224.000000,0.000000,0.000000,0.000000,1647928043.937348,0.000000
15.000000,-36600.623918,-32255.467147,-5368.330225,-5075.723538,-15355.536682,3954.872960,8140.617089,-308.498777,0.030000,0.968000,0.220000,192.000000,0.000000,0.000000,0.000000,0.000000,0.000000,0.000000,0.000000,0.000000,0.000000,1647928043.937364,0.000000
16.000000,-36598.433447,-32253.030807,-5367.816134,-5072.996625,-15350.596947,3963.701899,8150.340098,-303.335524,0.030000,0.968000,0.220000,192.000000,0.000000,0.000000,0.000000,0.000000,0.000000,0.000000,0.000000,0.000000,0.000000,1647928043.945524,0.000000
17.000000,-36605.876578,-32259.356351,-5376.756832,-5083.256076,-15361.839874,3955.856437,8135.610299,-324.100295,0.030000,0.968000,0.220000,192.000000,0.000000,0.000000,0.000000,0.000000,0.000000,0.000000,0.000000,0.000000,0.000000,1647928043.951894,0.000000
18.000000,-36599.416923,-32252.047330,-5367.011472,-5074.225971,-15357.481284,3964.037176,8124.613240,-331.118742,0.030000,0.968000,0.220000,192.000000,0.000000,0.000000,0.000000,0.000000,0.000000,0.000000,0.000000,0.000000,0.000000,1647928043.951910,0.000000
19.000000,-36602.009726,-32250.817984,-5366.407975,-5068.168648,-15352.407438,3972.016748,8124.099150,-327.721277,0.030000,0.968000,0.220000,192.000000,0.000000,0.000000,0.000000,0.000000,0.000000,0.000000,0.000000,0.000000,0.000000,1647928043.959969,0.000000
20.000000,-36608.715249,-32255.914182,-5371.034786,-5071.096727,-15354.732019,3971.502658,8136.236147,-326.380173,0.030000,0.968000,0.220000,192.000000,0.000000,0.000000,0.000000,0.000000,0.000000,0.000000,0.000000,0.000000,0.000000,1647928043.959986,0.000000
21.000000,-36601.897967,-32249.610990,-5365.513905,-5065.486439,-15350.440484,3970.139202,8146.227377,-330.627004,0.030000,0.968000,0.220000,192.000000,0.000000,0.000000,0.000000,0.000000,0.000000,0.000000,0.000000,0.000000,0.000000,1647928043.967671,0.000000
22.000000,-36602.881444,-32252.181441,-5367.704376,-5068.570980,-15351.468665,3966.831144,8137.554900,-334.471504,0.030000,0.968000,0.220000,192.000000,0.000000,0.000000,0.000000,0.000000,0.000000,0.000000,0.000000,0.000000,0.000000,1647928043.967690,0.000000
23.000000,-36610.056354,-32258.484633,-5373.292312,-5075.365910,-15358.420057,3963.724251,8129.105941,-333.622138,0.030000,0.968000,0.220000,192.000000,0.000000,0.000000,0.000000,0.000000,0.000000,0.000000,0.000000,0.000000,0.000000,1647928043.975077,0.000000
24.000000,-36604.691935,-32251.712054,-5364.843352,-5068.950959,-15349.747580,3972.642597,8146.294432,-316.813626,0.026000,0.974000,0.216000,192.000000,0.000000,208.000000,30.000000,112.000000,6.000000,192.000000,0.000000,0.000000,0.000000,1647928043.975093,0.000000
25.000000,-36586.430560,-32238.077490,-5350.314719,-5059.160895,-15337.431769,3977.291760,8139.588909,-325.709620,0.026000,0.974000,0.216000,192.000000,0.000000,0.000000,0.000000,0.000000,0.000000,0.000000,0.000000,0.000000,0.000000,1647928043.982661,0.000000
26.000000,-36592.152607,-32240.558534,-5351.231140,-5064.055927,-15338.839929,3975.749490,8140.795903,-328.257719,0.026000,0.974000,0.216000,192.000000,0.000000,0.000000,0.000000,0.000000,0.000000,0.000000,0.000000,0.000000,0.000000,1647928043.982677,0.000000
27.000000,-36608.938767,-32254.036636,-5366.698547,-5076.841125,-15353.837949,3963.254865,8130.715267,-344.373327,0.026000,0.974000,0.216000,192.000000,0.000000,0.000000,0.000000,0.000000,0.000000,0.000000,0.000000,0.000000,0.000000,1647928043.990683,0.000000
28.000000,-36609.452857,-32254.662484,-5368.486687,-5075.678834,-15354.933185,3955.588216,8123.719171,-364.802821,0.026000,0.974000,0.216000,192.000000,0.000000,0.000000,0.000000,0.000000,0.000000,0.000000,0.000000,0.000000,0.000000,1647928043.990700,0.000000
29.000000,-36602.255595,-32248.828679,-5357.735498,-5068.369814,-15345.858377,3962.673719,8131.855206,-367.261513,0.026000,0.974000,0.216000,192.000000,0.000000,0.000000,0.000000,0.000000,0.000000,0.000000,0.000000,0.000000,0.000000,1647928043.998660,0.000000
30.000000,-36594.700705,-32242.078452,-5348.526579,-5060.032613,-15338.124673,3964.439507,8139.141874,-374.123499,0.026000,0.974000,0.216000,192.000000,0.000000,0.000000,0.000000,0.000000,0.000000,0.000000,0.000000,0.000000,0.000000,1647928043.998676,0.000000
31.000000,-36583.278964,-32229.516772,-5338.133018,-5046.442753,-15325.339475,3973.000225,8143.209892,-351.950568,0.026000,0.974000,0.216000,192.000000,0.000000,0.000000,0.000000,0.000000,0.000000,0.000000,0.000000,0.000000,0.000000,1647928044.004532,0.000000
32.000000,-36585.603545,-32232.288388,-5337.909500,-5048.074430,-15323.037246,3975.123641,8140.415924,-346.072059,0.026000,0.974000,0.216000,192.000000,0.000000,0.000000,0.000000,0.000000,0.000000,0.000000,0.000000,0.000000,0.000000,1647928044.012276,0.000000
33.000000,-36597.092342,-32246.817022,-5349.800628,-5060.725517,-15334.637801,3961.533780,8128.502444,-364.311083,0.026000,0.974000,0.216000,192.000000,0.000000,0.000000,0.000000,0.000000,0.000000,0.000000,0.000000,0.000000,0.000000,1647928044.012292,0.000000
34.000000,-36598.276984,-32247.554630,-5351.700527,-5063.206561,-15336.247127,3959.678585,8132.525758,-371.396586,0.024000,0.972000,0.208000,192.000000,0.000000,192.000000,30.000000,96.000000,6.000000,128.000000,0.000000,0.000000,0.000000,1647928044.020176,0.000000
35.000000,-36595.483016,-32245.028883,-5348.973614,-5061.597235,-15333.162586,3969.491001,8175.239942,-360.824211,0.024000,0.972000,0.208000,192.000000,0.000000,0.000000,0.000000,0.000000,0.000000,0.000000,0.000000,0.000000,0.000000,1647928044.020192,0.000000
36.000000,-36579.143891,-32226.164010,-5332.142750,-5045.235758,-15314.342417,3986.791252,8190.707349,-352.330548,0.024000,0.972000,0.208000,192.000000,0.000000,0.000000,0.000000,0.000000,0.000000,0.000000,0.000000,0.000000,0.000000,1647928044.028154,0.000000
37.000000,-36589.716266,-32237.004606,-5341.754000,-5059.943206,-15327.105263,3974.698958,8167.863866,-379.711435,0.024000,0.972000,0.208000,192.000000,0.000000,0.000000,0.000000,0.000000,0.000000,0.000000,0.000000,0.000000,0.000000,1647928044.028170,0.000000
38.000000,-36615.934863,-32265.324267,-5368.062004,-5089.246343,-15358.844740,3944.769972,8116.410150,-417.508235,0.024000,0.972000,0.208000,192.000000,0.000000,0.000000,0.000000,0.000000,0.000000,0.000000,0.000000,0.000000,0.000000,1647928044.034970,0.000000
39.000000,-36614.996089,-32261.368008,-5369.403108,-5084.820698,-15357.481284,3951.050812,8116.119577,-398.285734,0.024000,0.972000,0.208000,192.000000,0.000000,0.000000,0.000000,0.000000,0.000000,0.000000,0.000000,0.000000,0.000000,1647928044.034987,0.000000
40.000000,-36616.918339,-32263.200851,-5371.750041,-5084.865401,-15356.967194,3950.313205,8100.518060,-404.119540,0.024000,0.972000,0.208000,192.000000,0.000000,0.000000,0.000000,0.000000,0.000000,0.000000,0.000000,0.000000,0.000000,1647928044.042973,0.000000
41.000000,-36607.172979,-32250.594467,-5361.490591,-5073.264846,-15342.550319,3962.941940,8114.756121,-395.223545,0.024000,0.972000,0.208000,192.000000,0.000000,0.000000,0.000000,0.000000,0.000000,0.000000,0.000000,0.000000,0.000000,1647928044.042989,0.000000
42.000000,-36604.982508,-32249.119252,-5359.613044,-5067.229875,-15337.543528,3966.518219,8122.780397,-397.793996,0.024000,0.972000,0.208000,192.000000,0.000000,0.000000,0.000000,0.000000,0.000000,0.000000,0.000000,0.000000,0.000000,1647928044.050949,0.000000
43.000000,-36598.634612,-32245.095938,-5354.226274,-5057.283349,-15333.654324,3978.565810,8133.688049,-389.792072,0.024000,0.972000,0.208000,192.000000,0.000000,0.000000,0.000000,0.000000,0.000000,0.000000,0.000000,0.000000,0.000000,1647928044.050985,0.000000
44.000000,-36613.744392,-32257.948191,-5366.519733,-5070.984968,-15345.724266,3967.613455,8124.210909,-392.429577,0.028000,0.962000,0.206000,192.000000,0.000000,224.000000,30.000000,16.000000,6.000000,112.000000,0.000000,0.000000,0.000000,1647928044.057572,0.000000
45.000000,-36607.195331,-32251.153261,-5357.467277,-5064.704128,-15338.996391,3974.944827,8135.655002,-389.568554,0.028000,0.962000,0.206000,192.000000,0.000000,0.000000,0.000000,0.000000,0.000000,0.000000,0.000000,0.000000,0.000000,1647928044.057588,0.000000
46.000000,-36603.328479,-32248.627513,-5356.327338,-5063.251264,-15336.582403,3977.671740,8139.030115,-391.289638,0.028000,0.962000,0.206000,192.000000,0.000000,0.000000,0.000000,0.000000,0.000000,0.000000,0.000000,0.000000,0.000000,1647928044.064654,0.000000
47.000000,-36606.033040,-32252.628476,-5358.853085,-5066.224046,-15341.052752,3974.877772,8130.983487,-397.883403,0.028000,0.962000,0.206000,192.000000,0.000000,0.000000,0.000000,0.000000,0.000000,0.000000,0.000000,0.000000,0.000000,1647928044.072609,0.000000
48.000000,-36599.618089,-32248.068720,-5353.801591,-5061.507828,-15340.091627,3973.469612,8125.149682,-401.437330,0.028000,0.962000,0.206000,192.000000,0.000000,0.000000,0.000000,0.000000,0.000000,0.000000,0.000000,0.000000,0.000000,1647928044.072625,0.000000
49.000000,-36597.584080,-32245.475918,-5350.873512,-5059.742041,-15336.448292,3973.067280,8124.814406,-400.677371,0.028000,0.962000,0.206000,192.000000,0.000000,0.000000,0.000000,0.000000,0.000000,0.000000,0.000000,0.000000,0.000000,1647928044.080681,0.000000
50.000000,-36591.347944,-32237.518696,-5350.605291,-5056.188113,-15332.335571,3975.458917,8121.372237,-406.310011,0.028000,0.962000,0.206000,192.000000,0.000000,0.000000,0.000000,0.000000,0.000000,0.000000,0.000000,0.000000,0.000000,1647928044.080697,0.000000
51.000000,-36579.054484,-32220.665481,-5336.166064,-5040.139561,-15317.672827,3983.639656,8122.936859,-412.702610,0.028000,0.962000,0.206000,192.000000,0.000000,0.000000,0.000000,0.000000,0.000000,0.000000,0.000000,0.000000,0.000000,1647928044.087192,0.000000
52.000000,-36593.940746,-32234.076528,-5347.587806,-5050.980157,-15327.507595,3972.910818,8114.979638,-413.931956,0.028000,0.962000,0.206000,192.000000,0.000000,0.000000,0.000000,0.000000,0.000000,0.000000,0.000000,0.000000,0.000000,1647928044.087208,0.000000
53.000000,-36602.210892,-32242.458432,-5351.946396,-5057.126887,-15335.129539,3958.292777,8101.367426,-425.845435,0.028000,0.962000,0.206000,192.000000,0.000000,0.000000,0.000000,0.000000,0.000000,0.000000,0.000000,0.000000,0.000000,1647928044.095264,0.000000
54.000000,-36605.027211,-32245.922952,-5352.058155,-5059.473820,-15335.040132,3956.459934,8101.792109,-433.869712,0.026000,0.974000,0.200000,192.000000,0.000000,208.000000,30.000000,112.000000,6.000000,64.000000,0.000000,0.000000,0.000000,1647928044.095280,0.000000
55.000000,-36602.032078,-32242.972522,-5352.885169,-5053.707070,-15335.286002,3956.191713,8112.453891,-442.765706,0.026000,0.974000,0.200000,192.000000,0.000000,0.000000,0.000000,0.000000,0.000000,0.000000,0.000000,0.000000,0.000000,1647928044.103109,0.000000
56.000000,-36593.359601,-32235.819964,-5341.619890,-5044.788724,-15328.558127,3962.181981,8116.119577,-446.341985,0.026000,0.974000,0.200000,192.000000,0.000000,0.000000,0.000000,0.000000,0.000000,0.000000,0.000000,0.000000,0.000000,1647928044.103125,0.000000
57.000000,-36609.944595,-32250.236839,-5356.237931,-5059.004433,-15339.443426,3956.057603,8123.629764,-457.517857,0.026000,0.974000,0.200000,192.000000,0.000000,0.000000,0.000000,0.000000,0.000000,0.000000,0.000000,0.000000,0.000000,1647928044.110417,0.000000
58.000000,-36618.550017,-32256.964714,-5363.569303,-5067.632206,-15348.629993,3951.319033,8112.185670,-465.676244,0.026000,0.974000,0.200000,192.000000,0.000000,0.000000,0.000000,0.000000,0.000000,0.000000,0.000000,0.000000,0.000000,1647928044.110434,0.000000
59.000000,-36607.329441,-32249.231011,-5351.611120,-5057.775087,-15338.012914,3969.401594,8146.875578,-435.188465,0.026000,0.974000,0.200000,192.000000,0.000000,0.000000,0.000000,0.000000,0.000000,0.000000,0.000000,0.000000,0.000000,1647928044.117892,0.000000
60.000000,-36613.073839,-32254.304857,-5360.596521,-5065.262921,-15345.053714,3961.690242,8136.705534,-447.884255,0.026000,0.974000,0.200000,192.000000,0.000000,0.000000,0.000000,0.000000,0.000000,0.000000,0.000000,0.000000,0.000000,1647928044.117909,0.000000
61.000000,-36609.855188,-32251.063854,-5364.709242,-5069.889733,-15347.713572,3955.141181,8110.285772,-468.470212,0.026000,0.974000,0.200000,192.000000,0.000000,0.000000,0.000000,0.000000,0.000000,0.000000,0.000000,0.000000,0.000000,1647928044.124895,0.000000
62.000000,-36598.656964,-32239.798574,-5357.556684,-5060.122020,-15339.823406,3962.986644,8100.048673,-467.799660,0.026000,0.974000,0.200000,192.000000,0.000000,0.000000,0.000000,0.000000,0.000000,0.000000,0.000000,0.000000,0.000000,1647928044.133003,0.000000
63.000000,-36594.365429,-32239.575057,-5355.142695,-5058.244474,-15336.738865,3972.486135,8114.756121,-450.521761,0.026000,0.974000,0.200000,192.000000,0.000000,0.000000,0.000000,0.000000,0.000000,0.000000,0.000000,0.000000,0.000000,1647928044.133020,0.000000
64.000000,-36597.315859,-32243.128984,-5353.488666,-5063.765355,-15337.811749,3976.956484,8150.541264,-446.856075,0.026000,0.974000,0.200000,192.000000,0.000000,0.000000,0.000000,0.000000,0.000000,0.000000,0.000000,0.000000,0.000000,1647928044.140085,0.000000
65.000000,-36601.361525,-32243.978351,-5356.975538,-5065.106459,-15346.104246,3971.279141,8147.814351,-459.082479,0.030000,0.964000,0.202000,192.000000,0.000000,240.000000,30.000000,32.000000,6.000000,80.000000,0.000000,0.000000,0.000000,1647928044.140120,0.000000
66.000000,-36596.868825,-32237.362234,-5352.840466,-5060.479648,-15342.997353,3966.719385,8117.550089,-468.626674,0.030000,0.964000,0.202000,192.000000,0.000000,0.000000,0.000000,0.000000,0.000000,0.000000,0.000000,0.000000,0.000000,1647928044.147531,0.000000
67.000000,-36609.631671,-32247.062891,-5361.647053,-5068.906256,-15349.479359,3960.192676,8120.299354,-468.604323,0.030000,0.964000,0.202000,192.000000,0.000000,0.000000,0.000000,0.000000,0.000000,0.000000,0.000000,0.000000,0.000000,1647928044.147548,0.000000
68.000000,-36609.341098,-32246.325284,-5361.289425,-5069.196829,-15349.367601,3958.739812,8127.183691,-476.114509,0.030000,0.964000,0.202000,192.000000,0.000000,0.000000,0.000000,0.000000,0.000000,0.000000,0.000000,0.000000,0.000000,1647928044.155545,0.000000
69.000000,-36599.662793,-32238.613932,-5350.359422,-5062.983044,-15346.618336,3963.366623,8119.449987,-483.647047,0.030000,0.964000,0.202000,192.000000,0.000000,0.000000,0.000000,0.000000,0.000000,0.000000,0.000000,0.000000,0.000000,1647928044.155562,0.000000
70.000000,-36603.015554,-32240.893810,-5354.449791,-5065.933474,-15351.803941,3960.304434,8101.345074,-490.419625,0.030000,0.964000,0.202000,192.000000,0.000000,0.000000,0.000000,0.000000,0.000000,0.000000,0.000000,0.000000,0.000000,1647928044.162736,0.000000
71.000000,-36604.937804,-32241.854935,-5361.490591,-5067.699262,-15356.363697,3958.270426,8087.531696,-493.951201,0.030000,0.964000,0.202000,192.000000,0.000000,0.000000,0.000000,0.000000,0.000000,0.000000,0.000000,0.000000,0.000000,1647928044.162752,0.000000
72.000000,-36608.737601,-32245.006531,-5364.329262,-5069.889733,-15359.716458,3962.584312,8111.090435,-485.524593,0.030000,0.964000,0.202000,192.000000,0.000000,0.000000,0.000000,0.000000,0.000000,0.000000,0.000000,0.000000,0.000000,1647928044.169956,0.000000
73.000000,-36614.146723,-32250.661522,-5372.241780,-5072.124907,-15364.387973,3959.119792,8117.907717,-486.686884,0.030000,0.964000,0.202000,192.000000,0.000000,0.000000,0.000000,0.000000,0.000000,0.000000,0.000000,0.000000,0.000000,1647928044.169965,0.000000
74.000000,-36603.149665,-32241.407900,-5361.512942,-5062.223084,-15355.827255,3962.360795,8118.667676,-484.027026,0.030000,0.964000,0.202000,192.000000,0.000000,0.000000,0.000000,0.000000,0.000000,0.000000,0.000000,0.000000,0.000000,1647928044.177839,0.000000
75.000000,-36609.631671,-32242.145508,-5364.195152,-5063.586541,-15356.520159,3965.221818,8125.909641,-464.782174,0.022000,0.958000,0.200000,192.000000,0.000000,176.000000,29.000000,240.000000,6.000000,64.000000,0.000000,0.000000,0.000000,1647928044.177846,0.000000
76.000000,-36593.918394,-32220.911350,-5353.466314,-5048.789686,-15343.064409,3966.764088,8122.400418,-473.007616,0.022000,0.958000,0.200000,192.000000,0.000000,0.000000,0.000000,0.000000,0.000000,0.000000,0.000000,0.000000,0.000000,1647928044.184839,0.000000
77.000000,-36596.310031,-32227.393356,-5357.266111,-5055.204636,-15345.478397,3960.617359,8116.790130,-475.332198,0.022000,0.958000,0.200000,192.000000,0.000000,0.000000,0.000000,0.000000,0.000000,0.000000,0.000000,0.000000,0.000000,1647928044.184846,0.000000
78.000000,-36600.288641,-32238.792746,-5359.098954,-5056.098706,-15346.461874,3958.762164,8102.239144,-483.110605,0.022000,0.958000,0.200000,192.000000,0.000000,0.000000,0.000000,0.000000,0.000000,0.000000,0.000000,0.000000,0.000000,1647928044.191920,0.000000
79.000000,-36610.101057,-32249.610990,-5362.004681,-5060.680814,-15350.306374,3959.052737,8114.174976,-488.765596,0.022000,0.958000,0.200000,192.000000,0.000000,0.000000,0.000000,0.000000,0.000000,0.000000,0.000000,0.000000,0.000000,1647928044.199436,0.000000
80.000000,-36606.368316,-32250.192136,-5354.047460,-5059.652634,-15348.764104,3960.595007,8111.023380,-496.923983,0.022000,0.958000,0.200000,192.000000,0.000000,0.000000,0.000000,0.000000,0.000000,0.000000,0.000000,0.000000,0.000000,1647928044.199441,0.000000
81.000000,-36610.861017,-32257.568211,-5356.908483,-5065.061756,-15351.558072,3953.867132,8090.169202,-511.497320,0.022000,0.958000,0.200000,192.000000,0.000000,0.000000,0.000000,0.000000,0.000000,0.000000,0.000000,0.000000,0.000000,1647928044.207469,0.000000
82.000000,-36601.629746,-32248.627513,-5353.198094,-5060.166724,-15348.182958,3959.812696,8125.686124,-512.391390,0.022000,0.958000,0.200000,192.000000,0.000000,0.000000,0.000000,0.000000,0.000000,0.000000,0.000000,0.000000,0.000000,1647928044.207473,0.000000
83.000000,-36590.878557,-32241.027920,-5343.966823,-5051.091915,-15339.130502,3971.972045,8136.392610,-505.238832,0.022000,0.958000,0.200000,192.000000,0.000000,0.000000,0.000000,0.000000,0.000000,0.000000,0.000000,0.000000,0.000000,1647928044.215434,0.000000
84.000000,-36603.574348,-32250.259191,-5348.548931,-5054.757602,-15340.091627,3976.688263,8128.547147,-492.833613,0.022000,0.958000,0.200000,192.000000,0.000000,0.000000,0.000000,0.000000,0.000000,0.000000,0.000000,0.000000,0.000000,1647928044.215439,0.000000
85.000000,-36613.811447,-32258.082301,-5357.355518,-5063.608892,-15346.014839,3972.888466,8137.443142,-498.019218,0.020000,0.972000,0.200000,192.000000,0.000000,160.000000,30.000000,96.000000,6.000000,64.000000,0.000000,0.000000,0.000000,1647928044.222175,0.000000
86.000000,-36601.048601,-32241.407900,-5344.458561,-5048.342651,-15334.101359,3983.796118,8158.230264,-491.984247,0.020000,0.972000,0.200000,192.000000,0.000000,0.000000,0.000000,0.000000,0.000000,0.000000,0.000000,0.000000,0.000000,1647928044.222189,0.000000
87.000000,-36602.680278,-32241.631417,-5344.302099,-5049.035555,-15336.895327,3983.080862,8146.316784,-495.918154,0.020000,0.972000,0.200000,192.000000,0.000000,0.000000,0.000000,0.000000,0.000000,0.000000,0.000000,0.000000,0.000000,1647928044.230272,0.000000
88.000000,-36602.568519,-32245.788842,-5344.212692,-5055.003471,-15341.589194,3976.956484,8138.717191,-512.324335,0.020000,0.972000,0.200000,192.000000,0.000000,0.000000,0.000000,0.000000,0.000000,0.000000,0.000000,0.000000,0.000000,1647928044.230285,0.000000
89.000000,-36595.438313,-32242.614894,-5335.026125,-5049.996680,-15335.800092,3980.555115,8142.651098,-512.771370,0.020000,0.972000,0.200000,192.000000,0.000000,0.000000,0.000000,0.000000,0.000000,0.000000,0.000000,0.000000,0.000000,1647928044.238260,0.000000
90.000000,-36591.571461,-32237.116365,-5333.439151,-5045.325165,-15333.676676,3986.187754,8160.376031,-499.427378,0.020000,0.972000,0.200000,192.000000,0.000000,0.000000,0.000000,0.000000,0.000000,0.000000,0.000000,0.000000,0.000000,1647928044.238272,0.000000
91.000000,-36588.598679,-32231.975464,-5335.897843,-5042.978232,-15330.838004,3984.556077,8158.699651,-493.370055,0.020000,0.972000,0.200000,192.000000,0.000000,0.000000,0.000000,0.000000,0.000000,0.000000,0.000000,0.000000,0.000000,1647928044.245667,0.000000
92.000000,-36586.542319,-32228.175667,-5331.382791,-5039.469008,-15327.574650,3985.807775,8157.000918,-489.927887,0.020000,0.972000,0.200000,192.000000,0.000000,0.000000,0.000000,0.000000,0.000000,0.000000,0.000000,0.000000,0.000000,1647928044.245683,0.000000
93.000000,-36578.205118,-32221.939531,-5324.766675,-5033.501093,-15323.394874,3990.658103,8147.322613,-493.258297,0.020000,0.972000,0.200000,192.000000,0.000000,0.000000,0.000000,0.000000,0.000000,0.000000,0.000000,0.000000,0.000000,1647928044.252043,0.000000
94.000000,-36589.045714,-32231.126098,-5333.662669,-5043.760543,-15330.055693,3985.941885,8125.954345,-497.795701,0.020000,0.972000,0.200000,192.000000,0.000000,0.000000,0.000000,0.000000,0.000000,0.000000,0.000000,0.000000,0.000000,1647928044.260203,0.000000
95.000000,-36610.056354,-32249.096900,-5354.002756,-5063.161858,-15346.864205,3971.368548,8113.482072,-508.323372,0.028000,0.968000,0.206000,192.000000,0.000000,224.000000,30.000000,64.000000,6.000000,112.000000,0.000000,0.000000,0.000000,1647928044.260220,0.000000
96.000000,-36606.144799,-32243.777185,-5353.399259,-5058.132715,-15342.818539,3971.659121,8136.549072,-513.665439,0.028000,0.968000,0.206000,192.000000,0.000000,0.000000,0.000000,0.000000,0.000000,0.000000,0.000000,0.000000,0.000000,1647928044.268211,0.000000
97.000000,-36608.335269,-32247.822851,-5355.835599,-5060.189075,-15344.561976,3966.048833,8128.077761,-517.889919,0.028000,0.968000,0.206000,192.000000,0.000000,0.000000,0.000000,0.000000,0.000000,0.000000,0.000000,0.000000,0.000000,1647928044.268228,0.000000
98.000000,-36626.261369,-32263.223203,-5369.157239,-5077.444622,-15358.576519,3947.407478,8104.630781,-536.598329,0.028000,0.968000,0.206000,192.000000,0.000000,0.000000,0.000000,0.000000,0.000000,0.000000,0.000000,0.000000,0.000000,1647928044.274804,0.000000
99.000000,-36616.560711,-32252.851993,-5358.987195,-5068.705090,-15352.005106,3952.548379,8106.061292,-542.700355,0.028000,0.968000,0.206000,192.000000,0.000000,0.000000,0.000000,0.000000,0.000000,0.000000,0.000000,0.000000,0.000000,1647928044.274820,0.000000
100.000000,-36599.260461,-32239.619760,-5340.703468,-5053.528256,-15334.503691,3968.865152,8112.610354,-540.934568,0.028000,0.968000,0.206000,192.000000,0.000000,0.000000,0.000000,0.000000,0.000000,0.000000,0.000000,0.000000,0.000000,1647928044.282826,0.000000
101.000000,-36597.226452,-32240.960865,-5335.339050,-5055.092878,-15328.960458,3971.815583,8107.111824,-540.912216,0.028000,0.968000,0.206000,192.000000,0.000000,0.000000,0.000000,0.000000,0.000000,0.000000,0.000000,0.000000,0.000000,1647928044.282843,0.000000
102.000000,-36611.889197,-32256.852955,-5350.649995,-5072.437831,-15342.505615,3959.700937,8080.423842,-551.931626,0.028000,0.968000,0.206000,192.000000,0.000000,0.000000,0.000000,0.000000,0.000000,0.000000,0.000000,0.000000,0.000000,1647928044.290820,0.000000
103.000000,-36599.886310,-32244.827717,-5340.368192,-5061.396070,-15333.699028,3971.703824,8097.813499,-535.793666,0.028000,0.968000,0.206000,192.000000,0.000000,0.000000,0.000000,0.000000,0.000000,0.000000,0.000000,0.000000,0.000000,1647928044.290836,0.000000
104.000000,-36589.850377,-32232.578961,-5327.918271,-5049.415535,-15321.450272,3983.594952,8106.441272,-535.793666,0.028000,0.968000,0.206000,192.000000,0.000000,0.000000,0.000000,0.000000,0.000000,0.000000,0.000000,0.000000,0.000000,1647928044.298023,0.000000
105.000000,-36594.700705,-32237.094013,-5335.003774,-5055.025823,-15326.010028,3980.421004,8113.035037,-545.471972,0.032000,0.964000,0.208000,192.000000,1.000000,0.000000,30.000000,32.000000,6.000000,128.000000,0.000000,0.000000,0.000000,1647928044.298040,0.000000
106.000000,-36590.006839,-32229.025034,-5332.835654,-5045.012241,-15319.393911,3985.852478,8131.318764,-546.835428,0.032000,0.964000,0.208000,192.000000,0.000000,0.000000,0.000000,0.000000,0.000000,0.000000,0.000000,0.000000,0.000000,1647928044.305216,0.000000
107.000000,-36588.173996,-32226.700452,-5328.477064,-5042.397087,-15317.270496,3984.600781,8126.848415,-548.869437,0.032000,0.964000,0.208000,192.000000,0.000000,0.000000,0.000000,0.000000,0.000000,0.000000,0.000000,0.000000,0.000000,1647928044.305240,0.000000
108.000000,-36594.410133,-32236.468164,-5330.041686,-5048.365003,-15323.886612,3978.364644,8102.820289,-561.319359,0.032000,0.964000,0.208000,192.000000,0.000000,0.000000,0.000000,0.000000,0.000000,0.000000,0.000000,0.000000,0.000000,1647928044.312442,0.000000
109.000000,-36589.559804,-32230.924932,-5322.240927,-5042.151218,-15320.176222,3990.680455,8115.560784,-531.926815,0.032000,0.964000,0.208000,192.000000,0.000000,0.000000,0.000000,0.000000,0.000000,0.000000,0.000000,0.000000,0.000000,1647928044.320388,0.000000
110.000000,-36594.611298,-32235.708205,-5321.860948,-5047.627395,-15319.371560,3997.788310,8140.348868,-511.251451,0.032000,0.964000,0.208000,192.000000,0.000000,0.000000,0.000000,0.000000,0.000000,0.000000,0.000000,0.000000,0.000000,1647928044.320405,0.000000
111.000000,-36590.006839,-32227.572170,-5316.429474,-5040.787761,-15310.363807,4001.722217,8145.735639,-509.709181,0.032000,0.964000,0.208000,192.000000,0.000000,0.000000,0.000000,0.000000,0.000000,0.000000,0.000000,0.000000,0.000000,1647928044.327674,0.000000
112.000000,-36587.101112,-32218.609121,-5313.032009,-5034.037534,-15308.977998,3999.352932,8125.708476,-528.976384,0.032000,0.964000,0.208000,192.000000,0.000000,0.000000,0.000000,0.000000,0.000000,0.000000,0.000000,0.000000,0.000000,1647928044.327691,0.000000
113.000000,-36590.610336,-32219.905522,-5315.334238,-5036.384468,-15310.810841,3998.257696,8109.905792,-532.172684,0.032000,0.964000,0.208000,192.000000,0.000000,0.000000,0.000000,0.000000,0.000000,0.000000,0.000000,0.000000,0.000000,1647928044.335121,0.000000
114.000000,-36579.345057,-32213.423516,-5309.142805,-5029.053095,-15304.999388,4009.388865,8147.568482,-513.754846,0.032000,0.964000,0.208000,192.000000,0.000000,0.000000,0.000000,0.000000,0.000000,0.000000,0.000000,0.000000,0.000000,1647928044.335138,0.000000
115.000000,-36584.329496,-32214.854028,-5310.863890,-5031.176511,-15305.424071,4011.959316,8168.020328,-502.824843,0.034000,0.962000,0.210000,192.000000,1.000000,16.000000,30.000000,16.000000,6.000000,144.000000,0.000000,0.000000,0.000000,1647928044.343186,0.000000
116.000000,-36590.900909,-32217.402126,-5317.189433,-5035.490398,-15311.704911,4002.660990,8161.046584,-511.944355,0.034000,0.962000,0.210000,192.000000,0.000000,0.000000,0.000000,0.000000,0.000000,0.000000,0.000000,0.000000,0.000000,1647928044.343202,0.000000
117.000000,-36597.919357,-32226.678100,-5327.225367,-5043.358212,-15320.980885,3999.241173,8148.730773,-519.655707,0.034000,0.962000,0.210000,192.000000,0.000000,0.000000,0.000000,0.000000,0.000000,0.000000,0.000000,0.000000,0.000000,1647928044.351199,0.000000
118.000000,-36607.061220,-32239.172726,-5335.182588,-5055.562264,-15334.101359,3987.730025,8126.334325,-534.050230,0.034000,0.962000,0.210000,192.000000,0.000000,0.000000,0.000000,0.000000,0.000000,0.000000,0.000000,0.000000,0.000000,1647928044.351217,0.000000
119.000000,-36615.353717,-32242.100804,-5345.307928,-5060.457296,-15340.404551,3990.233420,8125.060275,-530.384544,0.034000,0.962000,0.210000,192.000000,0.000000,0.000000,0.000000,0.000000,0.000000,0.000000,0.000000,0.000000,0.000000,1647928044.357781,0.000000
120.000000,-36626.596645,-32250.035673,-5357.154352,-5070.515581,-15351.893348,3978.789327,8106.508327,-538.095896,0.034000,0.962000,0.210000,192.000000,0.000000,0.000000,0.000000,0.000000,0.000000,0.000000,0.000000,0.000000,0.000000,1647928044.357797,0.000000
121.000000,-36621.925130,-32245.833545,-5351.387602,-5068.682738,-15349.568766,3981.382129,8118.690028,-535.190169,0.034000,0.962000,0.210000,192.000000,0.000000,0.000000,0.000000,0.000000,0.000000,0.000000,0.000000,0.000000,0.000000,1647928044.365841,0.000000
122.000000,-36619.757011,-32244.313627,-5351.119381,-5068.302759,-15351.043981,3974.028405,8096.092414,-542.454486,0.034000,0.962000,0.210000,192.000000,0.000000,0.000000,0.000000,0.000000,0.000000,0.000000,0.000000,0.000000,0.000000,1647928044.365857,0.000000
123.000000,-36618.572368,-32245.542973,-5345.956128,-5065.464087,-15349.188787,3978.766975,8116.208984,-524.662498,0.034000,0.962000,0.210000,192.000000,0.000000,0.000000,0.000000,0.000000,0.000000,0.000000,0.000000,0.000000,0.000000,1647928044.372846,0.000000
124.000000,-36613.364412,-32240.044444,-5341.686945,-5059.786744,-15348.048848,3981.940923,8131.855206,-522.293213,0.034000,0.962000,0.210000,192.000000,0.000000,0.000000,0.000000,0.000000,0.000000,0.000000,0.000000,0.000000,0.000000,1647928044.381708,0.000000
125.000000,-36614.370240,-32237.496345,-5340.926986,-5058.959730,-15348.093551,3976.889429,8114.353790,-538.185303,0.044000,0.968000,0.210000,192.000000,1.000000,96.000000,30.000000,64.000000,6.000000,144.000000,0.000000,0.000000,0.000000,1647928044.381726,0.000000
126.000000,-36622.752145,-32242.637246,-5342.670422,-5065.620549,-15348.920566,3976.442394,8123.607412,-525.020126,0.044000,0.968000,0.210000,192.000000,0.000000,0.000000,0.000000,0.000000,0.000000,0.000000,0.000000,0.000000,0.000000,1647928044.387862,0.000000
127.000000,-36613.878502,-32232.131926,-5333.640317,-5056.545741,-15339.532833,3982.365606,8119.964077,-524.528387,0.044000,0.968000,0.210000,192.000000,0.000000,0.000000,0.000000,0.000000,0.000000,0.000000,0.000000,0.000000,0.000000,1647928044.387879,0.000000
128.000000,-36619.332328,-32235.887019,-5342.603367,-5059.429116,-15344.852548,3978.632865,8111.403359,-537.090068,0.044000,0.968000,0.210000,192.000000,0.000000,0.000000,0.000000,0.000000,0.000000,0.000000,0.000000,0.000000,0.000000,1647928044.395496,0.000000
129.000000,-36619.220569,-32234.367101,-5340.457599,-5054.914064,-15344.561976,3984.578429,8127.071932,-537.514751,0.044000,0.968000,0.210000,192.000000,0.000000,0.000000,0.000000,0.000000,0.000000,0.000000,0.000000,0.000000,0.000000,1647928044.395531,0.000000
130.000000,-36625.143781,-32239.575057,-5344.570320,-5059.540875,-15345.165473,3985.830127,8129.888252,-523.746076,0.044000,0.968000,0.210000,192.000000,0.000000,0.000000,0.000000,0.000000,0.000000,0.000000,0.000000,0.000000,0.000000,1647928044.403311,0.000000
131.000000,-36612.559749,-32230.343787,-5335.495512,-5050.890750,-15335.442464,3984.623132,8109.190537,-527.188245,0.044000,0.968000,0.210000,192.000000,0.000000,0.000000,0.000000,0.000000,0.000000,0.000000,0.000000,0.000000,0.000000,1647928044.403327,0.000000
132.000000,-36604.736639,-32225.091127,-5330.444018,-5043.738192,-15328.915754,3983.505545,8106.508327,-545.717841,0.044000,0.968000,0.210000,192.000000,0.000000,0.000000,0.000000,0.000000,0.000000,0.000000,0.000000,0.000000,0.000000,1647928044.409975,0.000000
133.000000,-36615.152552,-32235.887019,-5339.183550,-5050.577825,-15334.481339,3984.086690,8118.958249,-534.519617,0.044000,0.968000,0.210000,192.000000,0.000000,0.000000,0.000000,0.000000,0.000000,0.000000,0.000000,0.000000,0.000000,1647928044.409991,0.000000
134.000000,-36625.255540,-32248.135775,-5348.168951,-5058.892674,-15344.941955,3982.477365,8114.264383,-527.903501,0.044000,0.968000,0.210000,192.000000,0.000000,0.000000,0.000000,0.000000,0.000000,0.000000,0.000000,0.000000,0.000000,1647928044.418145,0.000000
135.000000,-36630.463497,-32255.489499,-5353.332204,-5064.279445,-15355.670793,3972.374376,8090.683292,-550.612873,0.048000,0.966000,0.212000,192.000000,1.000000,128.000000,30.000000,48.000000,6.000000,160.000000,0.000000,0.000000,0.000000,1647928044.418162,0.000000
136.000000,-36607.374144,-32234.098880,-5330.555776,-5044.319337,-15336.761217,3989.898144,8107.558859,-538.386469,0.048000,0.966000,0.212000,192.000000,0.000000,0.000000,0.000000,0.000000,0.000000,0.000000,0.000000,0.000000,0.000000,1647928044.426111,0.000000
137.000000,-36597.069990,-32224.688795,-5320.922175,-5036.116247,-15327.306429,4000.023484,8120.478168,-532.016222,0.048000,0.966000,0.212000,192.000000,0.000000,0.000000,0.000000,0.000000,0.000000,0.000000,0.000000,0.000000,0.000000,1647928044.426128,0.000000
138.000000,-36614.571406,-32240.469127,-5331.718067,-5053.170628,-15341.388028,3987.931190,8102.529717,-546.097821,0.048000,0.966000,0.212000,192.000000,0.000000,0.000000,0.000000,0.000000,0.000000,0.000000,0.000000,0.000000,0.000000,1647928044.433328,0.000000
139.000000,-36618.795886,-32241.765528,-5333.953242,-5056.501038,-15349.188787,3981.918571,8095.891249,-549.987024,0.048000,0.966000,0.212000,192.000000,0.000000,0.000000,0.000000,0.000000,0.000000,0.000000,0.000000,0.000000,0.000000,1647928044.433344,0.000000
140.000000,-36617.566540,-32242.190211,-5332.589785,-5053.528256,-15349.524063,3985.718368,8101.434481,-552.803344,0.048000,0.966000,0.212000,192.000000,0.000000,0.000000,0.000000,0.000000,0.000000,0.000000,0.000000,0.000000,0.000000,1647928044.439840,0.000000
141.000000,-36615.152552,-32240.692644,-5332.925061,-5052.164799,-15349.099380,3984.712539,8105.323685,-555.530257,0.048000,0.966000,0.212000,192.000000,0.000000,0.000000,0.000000,0.000000,0.000000,0.000000,0.000000,0.000000,0.000000,1647928044.447772,0.000000
142.000000,-36609.095229,-32235.328226,-5326.331297,-5045.928663,-15342.304449,3986.455975,8097.232353,-554.703242,0.048000,0.966000,0.212000,192.000000,0.000000,0.000000,0.000000,0.000000,0.000000,0.000000,0.000000,0.000000,0.000000,1647928044.447788,0.000000
143.000000,-36606.725944,-32230.299083,-5323.671439,-5043.380564,-15339.085798,3987.238286,8096.584153,-550.568169,0.048000,0.966000,0.212000,192.000000,0.000000,0.000000,0.000000,0.000000,0.000000,0.000000,0.000000,0.000000,0.000000,1647928044.455483,0.000000
144.000000,-36608.223511,-32233.025996,-5329.125265,-5047.627395,-15344.450217,3982.834993,8087.509345,-563.509829,0.048000,0.966000,0.212000,192.000000,0.000000,0.000000,0.000000,0.000000,0.000000,0.000000,0.000000,0.000000,0.000000,1647928044.455492,0.000000
145.000000,-36622.126296,-32249.566287,-5343.229216,-5062.692471,-15358.822389,3973.134336,8084.603618,-571.914085,0.046000,0.966000,0.212000,192.000000,1.000000,112.000000,30.000000,48.000000,6.000000,160.000000,0.000000,0.000000,0.000000,1647928044.463005,0.000000
146.000000,-36625.032023,-32251.175612,-5344.995003,-5062.536009,-15360.364659,3978.364644,8092.180859,-562.392242,0.046000,0.966000,0.212000,192.000000,0.000000,0.000000,0.000000,0.000000,0.000000,0.000000,0.000000,0.000000,0.000000,1647928044.463021,0.000000
147.000000,-36624.495581,-32248.940438,-5342.759829,-5056.903369,-15359.828217,3981.940923,8100.853336,-552.892751,0.046000,0.966000,0.212000,192.000000,0.000000,0.000000,0.000000,0.000000,0.000000,0.000000,0.000000,0.000000,0.000000,1647928044.470361,0.000000
148.000000,-36622.573331,-32242.994874,-5342.268091,-5051.337785,-15356.967194,3984.176097,8099.959266,-554.457373,0.046000,0.966000,0.212000,192.000000,0.000000,0.000000,0.000000,0.000000,0.000000,0.000000,0.000000,0.000000,0.000000,1647928044.470378,0.000000
149.000000,-36623.087421,-32241.050272,-5340.167027,-5046.330994,-15355.246109,3990.814566,8106.217755,-542.476838,0.046000,0.966000,0.212000,192.000000,0.000000,0.000000,0.000000,0.000000,0.000000,0.000000,0.000000,0.000000,0.000000,1647928044.478472,0.000000
150.000000,-36617.164209,-32237.406938,-5332.187454,-5044.498151,-15352.765066,3989.808737,8099.623990,-548.981196,0.046000,0.966000,0.212000,192.000000,0.000000,0.000000,0.000000,0.000000,0.000000,0.000000,0.000000,0.000000,0.000000,1647928044.478507,0.000000
151.000000,-36610.905720,-32230.679063,-5327.605346,-5042.307680,-15347.735923,3986.478327,8090.504478,-559.352405,0.046000,0.966000,0.212000,192.000000,0.000000,0.000000,0.000000,0.000000,0.000000,0.000000,0.000000,0.000000,0.000000,1647928044.486489,0.000000
152.000000,-36613.587929,-32232.243685,-5325.280765,-5040.698354,-15341.231566,3992.714464,8096.181821,-545.740193,0.046000,0.966000,0.212000,192.000000,0.000000,0.000000,0.000000,0.000000,0.000000,0.000000,0.000000,0.000000,0.000000,1647928044.486506,0.000000
153.000000,-36611.933900,-32229.762641,-5324.185529,-5039.469008,-15340.181034,3994.524955,8094.304275,-551.663405,0.046000,0.966000,0.212000,192.000000,0.000000,0.000000,0.000000,0.000000,0.000000,0.000000,0.000000,0.000000,0.000000,1647928044.493073,0.000000
154.000000,-36615.286662,-32232.646016,-5328.253547,-5044.520503,-15343.779664,3995.977818,8113.482072,-557.117231,0.046000,0.966000,0.212000,192.000000,0.000000,0.000000,0.000000,0.000000,0.000000,0.000000,0.000000,0.000000,0.000000,1647928044.493090,0.000000
155.000000,-36615.085496,-32231.461374,-5329.706410,-5045.034593,-15346.283060,3993.228554,8122.266307,-565.432079,0.046000,0.976000,0.208000,192.000000,1.000000,112.000000,30.000000,128.000000,6.000000,128.000000,0.000000,0.000000,0.000000,1647928044.500171,0.000000
156.000000,-36615.040793,-32229.695586,-5327.739457,-5043.671136,-15343.600851,3996.603667,8129.128293,-551.775164,0.046000,0.976000,0.208000,192.000000,0.000000,0.000000,0.000000,0.000000,0.000000,0.000000,0.000000,0.000000,0.000000,1647928044.508160,0.000000
157.000000,-36620.874598,-32234.948246,-5332.433323,-5046.442753,-15347.311240,3993.563830,8126.043752,-535.123114,0.046000,0.976000,0.208000,192.000000,0.000000,0.000000,0.000000,0.000000,0.000000,0.000000,0.000000,0.000000,0.000000,1647928044.508176,0.000000
158.000000,-36620.896950,-32238.345711,-5333.483855,-5053.014166,-15355.134351,3981.784461,8095.377159,-552.758640,0.046000,0.976000,0.208000,192.000000,0.000000,0.000000,0.000000,0.000000,0.000000,0.000000,0.000000,0.000000,0.000000,1647928044.515361,0.000000
159.000000,-36628.943578,-32247.666388,-5345.151466,-5060.971387,-15365.863188,3973.424908,8065.403469,-573.791632,0.046000,0.976000,0.208000,192.000000,0.000000,0.000000,0.000000,0.000000,0.000000,0.000000,0.000000,0.000000,0.000000,1647928044.515378,0.000000
160.000000,-36617.365374,-32234.858839,-5326.845387,-5043.425267,-15350.485188,3994.614362,8096.092414,-547.751850,0.046000,0.976000,0.208000,192.000000,0.000000,0.000000,0.000000,0.000000,0.000000,0.000000,0.000000,0.000000,0.000000,1647928044.522795,0.000000
161.000000,-36625.769630,-32240.737348,-5332.366268,-5044.542854,-15352.385086,3989.182888,8089.588057,-563.062795,0.046000,0.976000,0.208000,192.000000,0.000000,0.000000,0.000000,0.000000,0.000000,0.000000,0.000000,0.000000,0.000000,1647928044.522811,0.000000
162.000000,-36625.322595,-32239.351540,-5335.450808,-5042.218273,-15352.496845,3986.925362,8089.342188,-573.411652,0.046000,0.976000,0.208000,192.000000,0.000000,0.000000,0.000000,0.000000,0.000000,0.000000,0.000000,0.000000,0.000000,1647928044.530788,0.000000
163.000000,-36611.799790,-32227.885095,-5332.388619,-5036.339764,-15343.936127,3997.028350,8103.692008,-569.321283,0.046000,0.976000,0.208000,192.000000,0.000000,0.000000,0.000000,0.000000,0.000000,0.000000,0.000000,0.000000,0.000000,1647928044.530804,0.000000
164.000000,-36612.805618,-32225.672272,-5329.751114,-5035.557453,-15343.578499,4002.437473,8105.994237,-570.103594,0.046000,0.976000,0.208000,192.000000,0.000000,0.000000,0.000000,0.000000,0.000000,0.000000,0.000000,0.000000,0.000000,1647928044.538808,0.000000
