%OpenBCI Raw EEG Data
%Number of channels = 8
%Sample Rate = 256 Hz
%Board = OpenBCI_GUI$BoardCytonSerial
%Channels = Fp1, Fp2, F3, F4, Fz, Pz, O1, O2
%Data recorded at AIMS Lab (http://aimsl.uiu.ac.bd) by Rana Depto (mail@ranadepto.com)
%Brainwaves were obtained via the Ultracortex Mark IV Headset using the OpenBCI Cyton Board
%Recording Application = ConcentrateToday (https://concentrate.today)
%Data type = RAW data with noise
%Day No = 10
%Subject ID = 2
%Session ID = 7
%Record starting timestamp (UTC+6) = 2022-03-21T14:46:58.820276
%Record ending timestamp (UTC+6)   = 2022-03-21T14:47:24.676079
%Recorded durations = ~25 seconds
Sample Index, EXG Channel 0, EXG Channel 1, EXG Channel 2, EXG Channel 3, EXG Channel 4, EXG Channel 5, EXG Channel 6, EXG Channel 7, Accel Channel 0, Accel Channel 1, Accel Channel 2, Other, Other, Other, Other, Other, Other, Other, Analog Channel 0, Analog Channel 1, Analog Channel 2, Timestamp, Timestamp (Formatted)
221.000000,18304.581142,17492.944597,12659.335155,-13068.081506,16768.077525,16216.436472,5471.125897,4719.816711,0.004000,0.972000,0.188000,192.000000,0.000000,0.000000,0.000000,0.000000,0.000000,0.000000,0.000000,0.000000,0.000000,1647852418.827270,0.000000
222.000000,18314.259447,17496.029138,12665.615996,-13064.706393,16771.474990,16218.291666,5475.842115,4718.967345,0.004000,0.972000,0.188000,192.000000,0.000000,0.000000,30.000000,48.000000,5.000000,160.000000,0.000000,0.000000,0.000000,1647852418.827277,0.000000
223.000000,18310.482003,17493.235170,12663.604339,-13066.963919,16768.457504,16214.737739,5471.282360,4731.126694,0.004000,0.972000,0.188000,192.000000,0.000000,0.000000,0.000000,0.000000,0.000000,0.000000,0.000000,0.000000,0.000000,1647852418.834265,0.000000
224.000000,18309.587933,17498.353720,12660.542150,-13059.520788,16773.665461,16232.194451,5494.684636,4749.566883,0.004000,0.972000,0.188000,192.000000,0.000000,0.000000,0.000000,0.000000,0.000000,0.000000,0.000000,0.000000,0.000000,1647852418.834271,0.000000
225.000000,18310.794927,17495.202124,12650.461513,-13065.131076,16765.797647,16221.197393,5484.201668,4742.213159,0.004000,0.972000,0.188000,192.000000,0.000000,0.000000,0.000000,0.000000,0.000000,0.000000,0.000000,0.000000,0.000000,1647852418.841795,0.000000
226.000000,18296.825087,17480.271158,12637.229280,-13077.603349,16754.174740,16214.201297,5469.605979,4730.143217,0.004000,0.972000,0.188000,192.000000,0.000000,0.000000,0.000000,0.000000,0.000000,0.000000,0.000000,0.000000,0.000000,1647852418.841800,0.000000
227.000000,18301.273084,17478.952405,12640.716152,-13079.167972,16756.476969,16213.866021,5467.706080,4729.405609,0.004000,0.972000,0.188000,192.000000,0.000000,0.000000,0.000000,0.000000,0.000000,0.000000,0.000000,0.000000,0.000000,1647852418.849807,0.000000
228.000000,18306.145764,17487.356661,12656.407077,-13070.361384,16765.551778,16220.638599,5472.556409,4734.479455,0.004000,0.972000,0.188000,192.000000,0.000000,0.000000,0.000000,0.000000,0.000000,0.000000,0.000000,0.000000,0.000000,1647852418.849811,0.000000
229.000000,18290.387784,17474.213836,12640.425580,-13083.548913,16748.363286,16202.153707,5458.564217,4721.381333,0.004000,0.972000,0.188000,192.000000,0.000000,0.000000,0.000000,0.000000,0.000000,0.000000,0.000000,0.000000,0.000000,1647852418.857710,0.000000
230.000000,18299.864924,17483.042775,12652.897853,-13071.277806,16759.695621,16211.295570,5469.248351,4730.970231,0.004000,0.972000,0.188000,192.000000,0.000000,0.000000,0.000000,0.000000,0.000000,0.000000,0.000000,0.000000,0.000000,1647852418.857715,0.000000
231.000000,18313.924171,17488.921283,12659.603376,-13060.236044,16772.816094,16228.931097,5479.038415,4743.844836,0.004000,0.972000,0.188000,192.000000,0.000000,0.000000,0.000000,0.000000,0.000000,0.000000,0.000000,0.000000,0.000000,1647852418.863753,0.000000
232.000000,18306.056357,17475.890216,12638.548033,-13078.318605,16754.420609,16200.432622,5456.261987,4725.650516,0.004000,0.972000,0.188000,192.000000,0.000000,0.000000,0.000000,0.000000,0.000000,0.000000,0.000000,0.000000,0.000000,1647852418.863757,0.000000
233.000000,18313.208915,17490.195333,12659.670432,-13063.857027,16769.508036,16224.930134,5472.936389,4744.135409,0.004000,0.972000,0.188000,192.000000,0.000000,0.000000,30.000000,80.000000,5.000000,160.000000,0.000000,0.000000,0.000000,1647852418.871554,0.000000
234.000000,18304.871715,17482.126353,12649.768609,-13071.255454,16758.399219,16213.150765,5462.743993,4736.848740,0.004000,0.972000,0.188000,192.000000,0.000000,0.000000,0.000000,0.000000,0.000000,0.000000,0.000000,0.000000,0.000000,1647852418.879486,0.000000
235.000000,18298.970854,17474.616167,12659.044583,-13076.016376,16757.974536,16209.596838,5462.229903,4732.780723,0.004000,0.972000,0.188000,192.000000,0.000000,0.000000,0.000000,0.000000,0.000000,0.000000,0.000000,0.000000,0.000000,1647852418.879499,0.000000
236.000000,18295.774555,17474.347946,12642.638402,-13075.323471,16755.269975,16212.301399,5468.086060,4737.072258,0.004000,0.972000,0.188000,192.000000,0.000000,0.000000,0.000000,0.000000,0.000000,0.000000,0.000000,0.000000,0.000000,1647852418.887453,0.000000
237.000000,18297.227418,17473.140952,12636.111693,-13077.469239,16750.062019,16201.840782,5459.994729,4732.691316,0.004000,0.972000,0.188000,192.000000,0.000000,0.000000,0.000000,0.000000,0.000000,0.000000,0.000000,0.000000,0.000000,1647852418.887458,0.000000
238.000000,18310.079671,17483.735679,12663.403173,-13066.069849,16766.959937,16215.251829,5458.161886,4738.525121,0.004000,0.972000,0.188000,192.000000,0.000000,0.000000,0.000000,0.000000,0.000000,0.000000,0.000000,0.000000,0.000000,1647852418.894010,0.000000
239.000000,18300.826049,17474.549112,12651.579100,-13075.457582,16757.840426,16203.740681,5437.866502,4730.500845,0.004000,0.972000,0.188000,192.000000,0.000000,0.000000,0.000000,0.000000,0.000000,0.000000,0.000000,0.000000,0.000000,1647852418.894014,0.000000
240.000000,18308.157421,17487.289606,12654.998917,-13067.545064,16764.009507,16217.151727,5465.582665,4743.084877,0.004000,0.972000,0.188000,192.000000,0.000000,0.000000,0.000000,0.000000,0.000000,0.000000,0.000000,0.000000,0.000000,1647852418.902103,0.000000
241.000000,18319.355645,17498.577237,12654.238958,-13063.387640,16765.551778,16211.116756,5471.058842,4739.106266,0.004000,0.972000,0.188000,192.000000,0.000000,0.000000,0.000000,0.000000,0.000000,0.000000,0.000000,0.000000,0.000000,1647852418.902107,0.000000
242.000000,18315.488793,17492.564618,12637.676315,-13069.109687,16760.254414,16206.244076,5467.996653,4725.203481,0.004000,0.972000,0.188000,192.000000,0.000000,0.000000,0.000000,0.000000,0.000000,0.000000,0.000000,0.000000,0.000000,1647852418.910139,0.000000
243.000000,18301.541305,17465.787228,12639.889138,-13076.753983,16757.840426,16217.688169,5476.914999,4755.355985,-0.010000,0.980000,0.176000,192.000000,255.000000,176.000000,30.000000,160.000000,5.000000,128.000000,0.000000,0.000000,0.000000,1647852418.910143,0.000000
244.000000,18310.169078,17469.139990,12659.469266,-13072.261282,16765.685888,16219.275143,5465.068575,4756.875903,-0.010000,0.980000,0.176000,192.000000,0.000000,0.000000,0.000000,0.000000,0.000000,0.000000,0.000000,0.000000,0.000000,1647852418.917177,0.000000
245.000000,18302.457726,17472.224530,12656.921167,-13066.896864,16769.798609,16226.740626,5477.160868,4763.648482,-0.010000,0.980000,0.176000,192.000000,0.000000,0.000000,0.000000,0.000000,0.000000,0.000000,0.000000,0.000000,0.000000,1647852418.917181,0.000000
246.000000,18281.670604,17453.180844,12629.696742,-13089.449774,16746.508091,16206.780518,5467.393156,4747.152894,-0.010000,0.980000,0.176000,192.000000,0.000000,0.000000,0.000000,0.000000,0.000000,0.000000,0.000000,0.000000,0.000000,1647852418.924594,0.000000
247.000000,18289.605473,17457.673545,12635.485844,-13084.487687,16752.900690,16209.239210,5465.739127,4751.019746,-0.010000,0.980000,0.176000,192.000000,0.000000,0.000000,0.000000,0.000000,0.000000,0.000000,0.000000,0.000000,0.000000,1647852418.924598,0.000000
248.000000,18319.936790,17484.428583,12672.008595,-13056.816227,16780.661557,16233.535556,5487.062691,4773.237380,-0.010000,0.980000,0.176000,192.000000,0.000000,0.000000,0.000000,0.000000,0.000000,0.000000,0.000000,0.000000,0.000000,1647852418.931666,0.000000
249.000000,18303.664720,17473.163304,12653.277833,-13066.963919,16768.457504,16227.500585,5481.385348,4770.219895,-0.010000,0.980000,0.176000,192.000000,0.000000,0.000000,0.000000,0.000000,0.000000,0.000000,0.000000,0.000000,0.000000,1647852418.939729,0.000000
250.000000,18301.630712,17471.375164,12655.311841,-13066.986271,16769.776257,16224.214879,5479.038415,4767.202409,-0.010000,0.980000,0.176000,192.000000,0.000000,0.000000,0.000000,0.000000,0.000000,0.000000,0.000000,0.000000,0.000000,1647852418.939734,0.000000
251.000000,18295.372223,17465.429600,12644.895928,-13073.222407,16761.819036,16212.368454,5467.102583,4756.808848,-0.010000,0.980000,0.176000,192.000000,0.000000,0.000000,0.000000,0.000000,0.000000,0.000000,0.000000,0.000000,0.000000,1647852418.946311,0.000000
252.000000,18310.906686,17474.638519,12652.272004,-13064.281710,16769.642147,16223.141995,5474.031624,4765.838953,-0.010000,0.980000,0.176000,192.000000,0.000000,0.000000,0.000000,0.000000,0.000000,0.000000,0.000000,0.000000,0.000000,1647852418.946314,0.000000
253.000000,18320.495584,17483.154533,12666.934749,-13052.167064,16780.572150,16233.870832,5482.659397,4774.131450,-0.010000,0.980000,0.174000,192.000000,255.000000,176.000000,30.000000,160.000000,5.000000,112.000000,0.000000,0.000000,0.000000,1647852418.954268,0.000000
254.000000,18309.565581,17473.275062,12650.595623,-13065.600463,16767.362269,16218.962219,5471.863505,4764.184924,-0.010000,0.980000,0.174000,192.000000,0.000000,0.000000,0.000000,0.000000,0.000000,0.000000,0.000000,0.000000,0.000000,1647852418.954272,0.000000
255.000000,18301.608360,17460.735734,12632.825986,-13080.933759,16752.632469,16199.449146,5454.607958,4751.422078,-0.010000,0.980000,0.174000,192.000000,0.000000,0.000000,0.000000,0.000000,0.000000,0.000000,0.000000,0.000000,0.000000,1647852418.962289,0.000000
0.000000,18320.920267,17482.260464,12660.050411,-13056.100971,16775.855932,16224.416044,5476.222095,4772.611531,-0.010000,0.980000,0.174000,192.000000,0.000000,0.000000,0.000000,0.000000,0.000000,0.000000,0.000000,0.000000,0.000000,1647852418.962292,0.000000
1.000000,18324.317732,17491.111754,12678.043566,-13042.488759,16789.803420,16242.252736,5488.672017,4779.853497,-0.010000,0.980000,0.174000,192.000000,0.000000,0.000000,0.000000,0.000000,0.000000,0.000000,0.000000,0.000000,0.000000,1647852418.969397,0.000000
2.000000,18306.190468,17470.771667,12634.748237,-13068.148561,16757.594557,16213.575448,5460.240598,4754.640729,-0.010000,0.980000,0.174000,192.000000,0.000000,0.000000,0.000000,0.000000,0.000000,0.000000,0.000000,0.000000,0.000000,1647852418.969400,0.000000
3.000000,18302.681244,17465.630766,12652.182597,-13070.607253,16761.528464,16216.436472,5459.950025,4753.858418,-0.010000,0.980000,0.174000,192.000000,0.000000,0.000000,0.000000,0.000000,0.000000,0.000000,0.000000,0.000000,0.000000,1647852418.976916,0.000000
4.000000,18306.883372,17470.034059,12657.614071,-13064.862855,16766.110571,16218.939867,5461.291130,4758.373470,-0.010000,0.980000,0.174000,192.000000,0.000000,0.000000,0.000000,0.000000,0.000000,0.000000,0.000000,0.000000,0.000000,1647852418.976919,0.000000
5.000000,18299.060261,17461.875673,12645.857054,-13069.668480,16757.751019,16214.916553,5461.827572,4757.546456,-0.010000,0.980000,0.174000,192.000000,0.000000,0.000000,0.000000,0.000000,0.000000,0.000000,0.000000,0.000000,0.000000,1647852418.984888,0.000000
6.000000,18298.635578,17466.167207,12650.282699,-13061.152465,16763.271900,16223.589030,5468.354281,4766.151877,-0.010000,0.980000,0.174000,192.000000,0.000000,0.000000,0.000000,0.000000,0.000000,0.000000,0.000000,0.000000,0.000000,1647852418.984892,0.000000
7.000000,18296.981549,17468.625899,12664.453705,-13057.240910,16767.876359,16222.180870,5468.354281,4769.169363,-0.006000,0.968000,0.168000,192.000000,255.000000,208.000000,30.000000,64.000000,5.000000,64.000000,0.000000,0.000000,0.000000,1647852418.991985,0.000000
8.000000,18282.229398,17452.532643,12633.608298,-13074.697623,16744.675248,16200.678492,5446.047240,4753.210217,-0.006000,0.968000,0.168000,192.000000,0.000000,0.000000,0.000000,0.000000,0.000000,0.000000,0.000000,0.000000,0.000000,1647852418.998987,0.000000
9.000000,18300.423718,17460.646327,12649.343926,-13067.232140,16753.995926,16205.238248,5461.559351,4759.871037,-0.006000,0.968000,0.168000,192.000000,0.000000,0.000000,0.000000,0.000000,0.000000,0.000000,0.000000,0.000000,0.000000,1647852418.998991,0.000000
10.000000,18305.162287,17463.708516,12658.731658,-13053.217596,16764.903577,16219.409254,5460.553522,4766.800078,-0.006000,0.968000,0.168000,192.000000,0.000000,0.000000,0.000000,0.000000,0.000000,0.000000,0.000000,0.000000,0.000000,1647852419.006618,0.000000
11.000000,18296.534514,17462.099190,12651.333231,-13052.837617,16762.646051,16225.801852,5453.557426,4766.420098,-0.006000,0.968000,0.168000,192.000000,0.000000,0.000000,0.000000,0.000000,0.000000,0.000000,0.000000,0.000000,0.000000,1647852419.006623,0.000000
12.000000,18276.060316,17445.178919,12632.378952,-13068.953224,16744.116455,16210.692073,5438.380592,4745.878845,-0.006000,0.968000,0.168000,192.000000,0.000000,0.000000,0.000000,0.000000,0.000000,0.000000,0.000000,0.000000,0.000000,1647852419.015901,0.000000
13.000000,18292.891180,17449.738675,12636.111693,-13069.713184,16741.858928,16201.840782,5447.209531,4745.700031,-0.006000,0.968000,0.168000,192.000000,0.000000,0.000000,0.000000,0.000000,0.000000,0.000000,0.000000,0.000000,0.000000,1647852419.015906,0.000000
14.000000,18306.101061,17458.411152,12644.292431,-13056.927986,16754.800588,16222.918477,5473.070499,4758.619339,-0.006000,0.968000,0.168000,192.000000,0.000000,0.000000,0.000000,0.000000,0.000000,0.000000,0.000000,0.000000,0.000000,1647852419.022568,0.000000
15.000000,18299.842572,17459.037001,12656.496484,-13053.239948,16761.036725,16239.302306,5490.929543,4788.481270,-0.006000,0.968000,0.168000,192.000000,0.000000,0.000000,0.000000,0.000000,0.000000,0.000000,0.000000,0.000000,0.000000,1647852419.022572,0.000000
16.000000,18285.828028,17450.409228,12643.174844,-13060.928948,16748.944431,16226.762977,5475.886819,4778.668854,-0.006000,0.968000,0.168000,192.000000,0.000000,0.000000,0.000000,0.000000,0.000000,0.000000,0.000000,0.000000,0.000000,1647852419.029166,0.000000
17.000000,18290.566598,17455.863053,12653.769571,-13052.994079,16756.834597,16230.942754,5481.005368,4783.027444,-0.002000,0.954000,0.174000,192.000000,255.000000,240.000000,29.000000,208.000000,5.000000,112.000000,0.000000,0.000000,0.000000,1647852419.029169,0.000000
18.000000,18278.116677,17441.602640,12605.221582,-13073.490628,16727.933792,16214.469518,5471.684691,4765.704842,-0.002000,0.954000,0.174000,192.000000,0.000000,0.000000,0.000000,0.000000,0.000000,0.000000,0.000000,0.000000,0.000000,1647852419.037214,0.000000
19.000000,18286.789153,17445.067161,12633.518891,-13068.930873,16736.539213,16217.129376,5481.832383,4769.437584,-0.002000,0.954000,0.174000,192.000000,0.000000,0.000000,0.000000,0.000000,0.000000,0.000000,0.000000,0.000000,0.000000,1647852419.037217,0.000000
20.000000,18289.516066,17451.415056,12643.733638,-13055.609233,16745.971649,16226.159480,5482.637046,4774.511430,-0.002000,0.954000,0.174000,192.000000,0.000000,0.000000,0.000000,0.000000,0.000000,0.000000,0.000000,0.000000,0.000000,1647852419.045263,0.000000
21.000000,18297.652101,17451.213890,12635.687010,-13057.196207,16743.982344,16223.924306,5480.983017,4772.276255,-0.002000,0.954000,0.174000,192.000000,0.000000,0.000000,0.000000,0.000000,0.000000,0.000000,0.000000,0.000000,0.000000,1647852419.045267,0.000000
22.000000,18289.292549,17443.390780,12630.881385,-13065.846332,16737.120359,16218.224611,5476.713833,4769.437584,-0.002000,0.954000,0.174000,192.000000,0.000000,0.000000,0.000000,0.000000,0.000000,0.000000,0.000000,0.000000,0.000000,1647852419.052313,0.000000
23.000000,18290.030156,17449.179882,12639.933841,-13054.290480,16746.686905,16229.042855,5484.671054,4779.115889,-0.002000,0.954000,0.174000,192.000000,0.000000,0.000000,0.000000,0.000000,0.000000,0.000000,0.000000,0.000000,0.000000,1647852419.058936,0.000000
24.000000,18279.100153,17439.233355,12633.563594,-13063.074716,16738.573222,16216.257658,5474.366900,4770.510467,-0.002000,0.954000,0.174000,192.000000,0.000000,0.000000,0.000000,0.000000,0.000000,0.000000,0.000000,0.000000,0.000000,1647852419.058940,0.000000
25.000000,18276.440296,17431.700818,12621.426597,-13072.574207,16727.643219,16201.214934,5464.308615,4760.608645,-0.002000,0.954000,0.174000,192.000000,0.000000,0.000000,0.000000,0.000000,0.000000,0.000000,0.000000,0.000000,0.000000,1647852419.066811,0.000000
26.000000,18296.869790,17446.743542,12637.206928,-13056.369192,16745.882242,16228.886393,5484.425185,4778.400633,-0.002000,0.954000,0.174000,192.000000,0.000000,0.000000,0.000000,0.000000,0.000000,0.000000,0.000000,0.000000,0.000000,1647852419.066815,0.000000
27.000000,18289.560770,17442.027323,12632.021324,-13059.476085,16740.361362,16221.063283,5475.909171,4772.812697,-0.002000,0.966000,0.182000,192.000000,255.000000,240.000000,30.000000,48.000000,5.000000,176.000000,0.000000,0.000000,0.000000,1647852419.074864,0.000000
28.000000,18288.957273,17438.004009,12623.170033,-13067.947396,16733.901707,16213.977780,5471.014139,4770.733985,-0.002000,0.966000,0.182000,192.000000,0.000000,0.000000,0.000000,0.000000,0.000000,0.000000,0.000000,0.000000,0.000000,1647852419.074868,0.000000
29.000000,18286.990319,17434.427730,12630.009667,-13069.489666,16738.148539,16213.933076,5469.494220,4769.728156,-0.002000,0.966000,0.182000,192.000000,0.000000,0.000000,0.000000,0.000000,0.000000,0.000000,0.000000,0.000000,0.000000,1647852419.081543,0.000000
30.000000,18288.443183,17436.506443,12622.410074,-13068.081506,16737.880318,16222.739663,5478.680787,4775.740776,-0.002000,0.966000,0.182000,192.000000,0.000000,0.000000,0.000000,0.000000,0.000000,0.000000,0.000000,0.000000,0.000000,1647852419.081547,0.000000
31.000000,18288.666700,17442.541414,12622.432425,-13070.160218,16736.382751,16215.654160,5474.009272,4770.935150,-0.002000,0.966000,0.182000,192.000000,0.000000,0.000000,0.000000,0.000000,0.000000,0.000000,0.000000,0.000000,0.000000,1647852419.089525,0.000000
32.000000,18288.152610,17442.943745,12608.820213,-13077.268073,16724.983361,16202.243114,5461.849923,4759.625168,-0.002000,0.966000,0.182000,192.000000,0.000000,0.000000,0.000000,0.000000,0.000000,0.000000,0.000000,0.000000,0.000000,1647852419.089530,0.000000
33.000000,18279.167209,17433.645419,12612.329437,-13074.027070,16728.447882,16210.759128,5468.108412,4771.560999,-0.002000,0.966000,0.182000,192.000000,0.000000,0.000000,0.000000,0.000000,0.000000,0.000000,0.000000,0.000000,0.000000,1647852419.097413,0.000000
34.000000,18279.927168,17430.896155,12634.010629,-13066.159256,16742.305963,16223.879602,5476.467964,4784.480308,-0.002000,0.966000,0.182000,192.000000,0.000000,0.000000,0.000000,0.000000,0.000000,0.000000,0.000000,0.000000,0.000000,1647852419.097417,0.000000
35.000000,18276.484999,17430.762044,12625.673428,-13080.598483,16730.303077,16214.246001,5480.446575,4778.333578,-0.002000,0.966000,0.182000,192.000000,0.000000,0.000000,0.000000,0.000000,0.000000,0.000000,0.000000,0.000000,0.000000,1647852419.105492,0.000000
36.000000,18274.629804,17425.621143,12624.131158,-13082.431326,16726.346818,16211.027349,5474.411604,4776.321921,-0.002000,0.966000,0.182000,192.000000,0.000000,0.000000,0.000000,0.000000,0.000000,0.000000,0.000000,0.000000,0.000000,1647852419.105495,0.000000
37.000000,18271.969947,17421.508422,12597.242009,-13091.349672,16710.521783,16201.460803,5460.464115,4770.622226,0.002000,0.970000,0.186000,192.000000,0.000000,16.000000,30.000000,80.000000,5.000000,208.000000,0.000000,0.000000,0.000000,1647852419.111591,0.000000
38.000000,18263.096304,17410.354902,12595.006835,-13106.660617,16697.490716,16183.400593,5452.261025,4756.987662,0.002000,0.970000,0.186000,192.000000,0.000000,0.000000,0.000000,0.000000,0.000000,0.000000,0.000000,0.000000,0.000000,1647852419.111595,0.000000
39.000000,18273.691031,17419.764986,12614.832832,-13090.969693,16716.288533,16200.276160,5471.327063,4770.622226,0.002000,0.970000,0.186000,192.000000,0.000000,0.000000,0.000000,0.000000,0.000000,0.000000,0.000000,0.000000,0.000000,1647852419.118995,0.000000
40.000000,18267.589005,17412.120689,12599.387777,-13094.188344,16712.421681,16209.172155,5476.423261,4770.108136,0.002000,0.970000,0.186000,192.000000,0.000000,0.000000,0.000000,0.000000,0.000000,0.000000,0.000000,0.000000,0.000000,1647852419.127178,0.000000
41.000000,18276.775572,17421.620181,12605.981541,-13088.220428,16720.624771,16215.229477,5479.641912,4769.974025,0.002000,0.970000,0.186000,192.000000,0.000000,0.000000,0.000000,0.000000,0.000000,0.000000,0.000000,0.000000,0.000000,1647852419.127183,0.000000
42.000000,18280.240092,17423.497727,12611.390664,-13087.639283,16722.167042,16216.369416,5483.419357,4772.902104,0.002000,0.970000,0.186000,192.000000,0.000000,0.000000,0.000000,0.000000,0.000000,0.000000,0.000000,0.000000,0.000000,1647852419.134356,0.000000
43.000000,18287.727927,17425.665847,12618.632629,-13081.738422,16728.269068,16223.991361,5497.098624,4784.457956,0.002000,0.970000,0.186000,192.000000,0.000000,0.000000,0.000000,0.000000,0.000000,0.000000,0.000000,0.000000,0.000000,1647852419.134367,0.000000
44.000000,18284.799848,17423.497727,12612.910582,-13084.442983,16727.263239,16224.684265,5494.349360,4786.067281,0.002000,0.970000,0.186000,192.000000,0.000000,0.000000,0.000000,0.000000,0.000000,0.000000,0.000000,0.000000,0.000000,1647852419.141767,0.000000
45.000000,18277.088496,17418.200364,12601.645303,-13092.511963,16719.417777,16215.207126,5484.805165,4779.898200,0.002000,0.970000,0.186000,192.000000,0.000000,0.000000,0.000000,0.000000,0.000000,0.000000,0.000000,0.000000,0.000000,1647852419.141770,0.000000
46.000000,18279.055450,17416.680445,12595.699739,-13096.982312,16714.567448,16205.819393,5478.121993,4775.606665,0.002000,0.970000,0.186000,192.000000,0.000000,0.000000,0.000000,0.000000,0.000000,0.000000,0.000000,0.000000,0.000000,1647852419.149800,0.000000
47.000000,18286.275063,17421.419015,12603.232277,-13089.539181,16721.161213,16215.475347,5485.810993,4781.015787,-0.002000,0.968000,0.180000,192.000000,255.000000,240.000000,30.000000,64.000000,5.000000,160.000000,0.000000,0.000000,0.000000,1647852419.149804,0.000000
48.000000,18281.245921,17414.981713,12590.424727,-13094.434213,16715.416815,16211.072053,5484.425185,4776.657197,-0.002000,0.968000,0.180000,192.000000,0.000000,0.000000,0.000000,0.000000,0.000000,0.000000,0.000000,0.000000,0.000000,1647852419.157802,0.000000
49.000000,18276.417944,17414.624085,12607.702626,-13090.209733,16726.525632,16221.443262,5488.984941,4782.289837,-0.002000,0.968000,0.180000,192.000000,0.000000,0.000000,0.000000,0.000000,0.000000,0.000000,0.000000,0.000000,0.000000,1647852419.157806,0.000000
50.000000,18265.823217,17412.523021,12607.255591,-13091.886114,16723.664608,16216.436472,5482.190011,4778.780613,-0.002000,0.968000,0.180000,192.000000,0.000000,0.000000,0.000000,0.000000,0.000000,0.000000,0.000000,0.000000,0.000000,1647852419.164427,0.000000
51.000000,18280.351851,17421.754291,12619.303181,-13080.978463,16733.588783,16221.912649,5487.308560,4785.463784,-0.002000,0.968000,0.180000,192.000000,0.000000,0.000000,0.000000,0.000000,0.000000,0.000000,0.000000,0.000000,0.000000,1647852419.164430,0.000000
52.000000,18271.053525,17411.271323,12605.668617,-13092.757832,16722.524669,16211.854364,5478.814897,4778.020653,-0.002000,0.968000,0.180000,192.000000,0.000000,0.000000,0.000000,0.000000,0.000000,0.000000,0.000000,0.000000,0.000000,1647852419.172397,0.000000
53.000000,18259.609432,17400.743651,12595.185649,-13104.090167,16713.382806,16207.227553,5470.053014,4770.622226,-0.002000,0.968000,0.180000,192.000000,0.000000,0.000000,0.000000,0.000000,0.000000,0.000000,0.000000,0.000000,0.000000,1647852419.172401,0.000000
54.000000,18270.360621,17411.360730,12603.768719,-13094.233047,16723.083463,16217.554059,5479.172525,4779.093537,-0.002000,0.968000,0.180000,192.000000,0.000000,0.000000,0.000000,0.000000,0.000000,0.000000,0.000000,0.000000,0.000000,1647852419.179465,0.000000
55.000000,18272.975775,17410.712530,12594.716262,-13096.065890,16720.490661,16212.368454,5472.668168,4778.355930,-0.002000,0.968000,0.180000,192.000000,0.000000,0.000000,0.000000,0.000000,0.000000,0.000000,0.000000,0.000000,0.000000,1647852419.187470,0.000000
56.000000,18272.461685,17409.572591,12587.586056,-13095.216524,16720.244792,16215.877678,5477.987883,4790.001189,-0.002000,0.968000,0.180000,192.000000,0.000000,0.000000,0.000000,0.000000,0.000000,0.000000,0.000000,0.000000,0.000000,1647852419.187474,0.000000
57.000000,18270.047697,17405.325759,12598.381948,-13097.049367,16719.797757,16212.256695,5479.261932,4781.284008,-0.002000,0.976000,0.174000,192.000000,255.000000,240.000000,30.000000,128.000000,5.000000,112.000000,0.000000,0.000000,0.000000,1647852419.194218,0.000000
58.000000,18264.929147,17403.001178,12602.137041,-13099.619818,16717.406120,16212.971951,5482.547639,4783.452127,-0.002000,0.976000,0.174000,192.000000,0.000000,0.000000,0.000000,0.000000,0.000000,0.000000,0.000000,0.000000,0.000000,1647852419.194222,0.000000
59.000000,18262.246938,17397.212076,12588.323663,-13109.186364,16707.169021,16196.275198,5466.700252,4769.236418,-0.002000,0.976000,0.174000,192.000000,0.000000,0.000000,0.000000,0.000000,0.000000,0.000000,0.000000,0.000000,0.000000,1647852419.202067,0.000000
60.000000,18262.626918,17396.630930,12583.294521,-13105.654789,16708.107794,16197.705710,5463.660415,4749.566883,-0.002000,0.976000,0.174000,192.000000,0.000000,0.000000,0.000000,0.000000,0.000000,0.000000,0.000000,0.000000,0.000000,1647852419.202071,0.000000
61.000000,18266.694935,17397.502649,12586.982559,-13103.509021,16713.159289,16215.877678,5472.019967,4774.131450,-0.002000,0.976000,0.174000,192.000000,0.000000,0.000000,0.000000,0.000000,0.000000,0.000000,0.000000,0.000000,0.000000,1647852419.210645,0.000000
62.000000,18271.209988,17399.871933,12597.733748,-13100.200963,16720.490661,16219.051626,5477.339682,4784.972046,-0.002000,0.976000,0.174000,192.000000,0.000000,0.000000,0.000000,0.000000,0.000000,0.000000,0.000000,0.000000,0.000000,1647852419.210649,0.000000
63.000000,18273.802790,17401.324797,12600.862992,-13096.401166,16725.296286,16219.744530,5482.569990,4779.987607,-0.002000,0.976000,0.174000,192.000000,0.000000,0.000000,0.000000,0.000000,0.000000,0.000000,0.000000,0.000000,0.000000,1647852419.217170,0.000000
64.000000,18272.394630,17402.598846,12602.762890,-13089.583884,16729.029027,16223.097291,5479.999540,4795.656180,-0.002000,0.976000,0.174000,192.000000,0.000000,0.000000,0.000000,0.000000,0.000000,0.000000,0.000000,0.000000,0.000000,1647852419.217174,0.000000
65.000000,18272.126409,17402.040053,12605.132175,-13086.097012,16732.404141,16236.821262,5505.704046,4812.576450,-0.002000,0.976000,0.174000,192.000000,0.000000,0.000000,0.000000,0.000000,0.000000,0.000000,0.000000,0.000000,0.000000,1647852419.224721,0.000000
66.000000,18268.639537,17394.932198,12600.639474,-13093.629550,16727.777329,16239.235251,5513.482453,4808.329619,-0.002000,0.976000,0.174000,192.000000,0.000000,0.000000,0.000000,0.000000,0.000000,0.000000,0.000000,0.000000,0.000000,1647852419.224725,0.000000
67.000000,18253.239185,17383.778677,12593.710434,-13101.050329,16718.344893,16226.003018,5493.209421,4799.075997,-0.002000,0.964000,0.176000,192.000000,255.000000,240.000000,30.000000,32.000000,5.000000,128.000000,0.000000,0.000000,0.000000,1647852419.232729,0.000000
68.000000,18240.543394,17370.121762,12590.134155,-13110.371007,16711.572315,16223.812547,5496.964514,4795.097386,-0.002000,0.964000,0.176000,192.000000,0.000000,0.000000,0.000000,0.000000,0.000000,0.000000,0.000000,0.000000,0.000000,1647852419.232734,0.000000
69.000000,18224.584249,17352.977974,12576.209018,-13125.816062,16697.066033,16213.329579,5490.817784,4784.882639,-0.002000,0.964000,0.176000,192.000000,0.000000,0.000000,0.000000,0.000000,0.000000,0.000000,0.000000,0.000000,0.000000,1647852419.239850,0.000000
70.000000,18222.416129,17348.149997,12578.399489,-13125.033751,16697.893047,16216.950562,5489.543735,4788.034235,-0.002000,0.964000,0.176000,192.000000,0.000000,0.000000,0.000000,0.000000,0.000000,0.000000,0.000000,0.000000,0.000000,1647852419.246329,0.000000
71.000000,18216.202344,17333.934287,12559.624023,-13135.315554,16685.644291,16209.239210,5485.587476,4786.916648,-0.002000,0.964000,0.176000,192.000000,0.000000,0.000000,0.000000,0.000000,0.000000,0.000000,0.000000,0.000000,0.000000,1647852419.246332,0.000000
72.000000,18206.568743,17323.585430,12563.334413,-13136.164920,16684.817277,16216.950562,5490.169584,4793.868040,-0.002000,0.964000,0.176000,192.000000,0.000000,0.000000,0.000000,0.000000,0.000000,0.000000,0.000000,0.000000,0.000000,1647852419.254449,0.000000
73.000000,18203.104222,17320.389130,12564.541407,-13134.242670,16687.074803,16223.700788,5500.607848,4801.534689,-0.002000,0.964000,0.176000,192.000000,0.000000,0.000000,0.000000,0.000000,0.000000,0.000000,0.000000,0.000000,0.000000,1647852419.254452,0.000000
74.000000,18189.581417,17302.910066,12553.209073,-13144.099789,16679.318747,16219.945695,5501.233697,4800.372398,-0.002000,0.964000,0.176000,192.000000,0.000000,0.000000,0.000000,0.000000,0.000000,0.000000,0.000000,0.000000,0.000000,1647852419.262338,0.000000
75.000000,18155.517358,17273.025784,12525.917593,-13165.669223,16656.631727,16211.250867,5489.163755,4791.744625,-0.002000,0.964000,0.176000,192.000000,0.000000,0.000000,0.000000,0.000000,0.000000,0.000000,0.000000,0.000000,0.000000,1647852419.262342,0.000000
76.000000,18159.294803,17268.018993,12548.157578,-13165.155132,16662.845512,16212.815489,5490.482508,4794.650351,-0.002000,0.964000,0.176000,192.000000,0.000000,0.000000,0.000000,0.000000,0.000000,0.000000,0.000000,0.000000,0.000000,1647852419.269677,0.000000
77.000000,18150.599974,17254.451484,12538.971012,-13171.234807,16659.068067,16215.095367,5492.069482,4791.252886,0.002000,0.964000,0.178000,192.000000,0.000000,16.000000,30.000000,32.000000,5.000000,144.000000,0.000000,0.000000,0.000000,1647852419.269681,0.000000
78.000000,18129.946963,17230.602173,12516.440453,-13187.551580,16641.186671,16202.913666,5483.531115,4783.496831,0.002000,0.964000,0.178000,192.000000,0.000000,0.000000,0.000000,0.000000,0.000000,0.000000,0.000000,0.000000,0.000000,1647852419.277025,0.000000
79.000000,18112.780823,17212.117280,12498.894334,-13206.304694,16621.763005,16184.808753,5465.113278,4772.365662,0.002000,0.964000,0.178000,192.000000,0.000000,0.000000,0.000000,0.000000,0.000000,0.000000,0.000000,0.000000,0.000000,1647852419.277030,0.000000
80.000000,18103.482497,17208.161021,12501.665950,-13204.158927,16621.427729,16187.200390,5469.293054,4778.110060,0.002000,0.964000,0.178000,192.000000,0.000000,0.000000,0.000000,0.000000,0.000000,0.000000,0.000000,0.000000,0.000000,1647852419.285018,0.000000
81.000000,18101.292026,17201.790774,12505.085767,-13204.069520,16624.489918,16200.678492,5481.720624,4780.434642,0.002000,0.964000,0.178000,192.000000,0.000000,0.000000,0.000000,0.000000,0.000000,0.000000,0.000000,0.000000,0.000000,1647852419.285022,0.000000
82.000000,18097.983968,17198.393309,12505.599857,-13206.818784,16622.768834,16197.169268,5473.271665,4775.204334,0.002000,0.964000,0.178000,192.000000,0.000000,0.000000,0.000000,0.000000,0.000000,0.000000,0.000000,0.000000,0.000000,1647852419.293043,0.000000
83.000000,18111.193849,17212.921943,12513.758244,-13197.207534,16633.743540,16201.237285,5480.983017,4780.054662,0.002000,0.964000,0.178000,192.000000,0.000000,0.000000,0.000000,0.000000,0.000000,0.000000,0.000000,0.000000,0.000000,1647852419.293048,0.000000
84.000000,18119.642808,17216.967609,12516.529860,-13193.921828,16639.063256,16209.216858,5497.322142,4795.075035,0.002000,0.964000,0.178000,192.000000,0.000000,0.000000,0.000000,0.000000,0.000000,0.000000,0.000000,0.000000,0.000000,1647852419.299120,0.000000
85.000000,18107.237590,17207.669283,12503.185869,-13203.935409,16625.696912,16202.824259,5486.526249,4783.116851,0.002000,0.964000,0.178000,192.000000,0.000000,0.000000,0.000000,0.000000,0.000000,0.000000,0.000000,0.000000,0.000000,1647852419.306742,0.000000
86.000000,18112.154974,17214.218344,12505.219877,-13202.527249,16625.741616,16193.905913,5474.568066,4766.084822,0.002000,0.964000,0.178000,192.000000,0.000000,0.000000,0.000000,0.000000,0.000000,0.000000,0.000000,0.000000,0.000000,1647852419.306766,0.000000
87.000000,18113.876058,17213.637199,12512.841822,-13203.443671,16626.568631,16194.084727,5471.908208,4748.158723,0.002000,0.964000,0.178000,192.000000,0.000000,0.000000,0.000000,0.000000,0.000000,0.000000,0.000000,0.000000,0.000000,1647852419.314690,0.000000
88.000000,18128.739968,17221.907344,12503.744662,-13205.589438,16624.176994,16198.979759,5472.556409,4779.875848,0.004000,0.964000,0.182000,192.000000,0.000000,32.000000,30.000000,32.000000,5.000000,176.000000,0.000000,0.000000,0.000000,1647852419.314694,0.000000
89.000000,18137.323038,17231.093911,12500.570715,-13199.889743,16628.557936,16202.824259,5477.205572,4805.245078,0.004000,0.964000,0.182000,192.000000,0.000000,0.000000,0.000000,0.000000,0.000000,0.000000,0.000000,0.000000,0.000000,1647852419.322979,0.000000
90.000000,18151.136416,17246.896594,12520.776692,-13182.164810,16646.551090,16219.297495,5495.802223,4808.217860,0.004000,0.964000,0.182000,192.000000,0.000000,0.000000,0.000000,0.000000,0.000000,0.000000,0.000000,0.000000,0.000000,1647852419.322986,0.000000
91.000000,18167.989632,17265.895577,12523.861232,-13177.515647,16649.523872,16213.575448,5486.593304,4798.114872,0.004000,0.964000,0.182000,192.000000,0.000000,0.000000,0.000000,0.000000,0.000000,0.000000,0.000000,0.000000,0.000000,1647852419.329334,0.000000
92.000000,18184.216998,17278.993699,12524.263564,-13170.720717,16653.748352,16216.280009,5490.504860,4800.372398,0.004000,0.964000,0.182000,192.000000,0.000000,0.000000,0.000000,0.000000,0.000000,0.000000,0.000000,0.000000,0.000000,1647852419.329343,0.000000
93.000000,18175.633928,17269.494208,12509.198488,-13182.611845,16640.516119,16205.327655,5482.190011,4785.553191,0.004000,0.964000,0.182000,192.000000,0.000000,0.000000,0.000000,0.000000,0.000000,0.000000,0.000000,0.000000,0.000000,1647852419.337785,0.000000
94.000000,18169.062515,17265.560301,12508.483232,-13190.122031,16631.530718,16187.558018,5466.677900,4771.784517,0.004000,0.964000,0.182000,192.000000,0.000000,0.000000,0.000000,0.000000,0.000000,0.000000,0.000000,0.000000,0.000000,1647852419.337801,0.000000
95.000000,18165.285071,17263.392182,12502.090633,-13195.598208,16626.680389,16192.453050,5471.505877,4773.013863,0.004000,0.964000,0.182000,192.000000,0.000000,0.000000,0.000000,0.000000,0.000000,0.000000,0.000000,0.000000,0.000000,1647852419.345712,0.000000
96.000000,18177.578530,17274.679813,12506.672741,-13188.557409,16634.481148,16200.097346,5481.564162,4781.954561,0.004000,0.964000,0.182000,192.000000,0.000000,0.000000,0.000000,0.000000,0.000000,0.000000,0.000000,0.000000,0.000000,1647852419.345729,0.000000
97.000000,18196.711623,17290.840124,12518.452110,-13174.811086,16644.539433,16208.434547,5490.348398,4793.152784,0.004000,0.964000,0.182000,192.000000,0.000000,0.000000,0.000000,0.000000,0.000000,0.000000,0.000000,0.000000,0.000000,1647852419.352767,0.000000
98.000000,18195.974016,17291.287159,12514.831128,-13179.057917,16637.386875,16200.723195,5485.408662,4787.587200,0.004000,0.966000,0.184000,192.000000,0.000000,32.000000,30.000000,48.000000,5.000000,192.000000,0.000000,0.000000,0.000000,1647852419.352783,0.000000
99.000000,18197.069251,17289.722537,12503.297627,-13184.377633,16631.843642,16192.810678,5481.452403,4783.385072,0.004000,0.966000,0.184000,192.000000,0.000000,0.000000,0.000000,0.000000,0.000000,0.000000,0.000000,0.000000,0.000000,1647852419.359305,0.000000
100.000000,18208.267475,17297.813868,12508.237363,-13180.443726,16636.246936,16194.174134,5486.302732,4786.916648,0.004000,0.966000,0.184000,192.000000,0.000000,0.000000,0.000000,0.000000,0.000000,0.000000,0.000000,0.000000,0.000000,1647852419.359322,0.000000
101.000000,18216.872897,17308.028615,12514.249982,-13175.258121,16640.046732,16202.354873,5489.387273,4792.906915,0.004000,0.966000,0.184000,192.000000,0.000000,0.000000,0.000000,0.000000,0.000000,0.000000,0.000000,0.000000,0.000000,1647852419.367388,0.000000
102.000000,18211.687292,17305.793441,12507.522107,-13179.080269,16635.129349,16198.286855,5482.167659,4789.710616,0.004000,0.966000,0.184000,192.000000,0.000000,0.000000,0.000000,0.000000,0.000000,0.000000,0.000000,0.000000,0.000000,1647852419.374925,0.000000
103.000000,18224.204269,17316.969313,12514.965238,-13171.234807,16644.248860,16207.004035,5485.699235,4795.700883,0.004000,0.966000,0.184000,192.000000,0.000000,0.000000,0.000000,0.000000,0.000000,0.000000,0.000000,0.000000,0.000000,1647852419.374932,0.000000
104.000000,18223.220792,17314.689435,12507.611514,-13174.252292,16638.124482,16199.717367,5480.737147,4786.693130,0.004000,0.966000,0.184000,192.000000,0.000000,0.000000,0.000000,0.000000,0.000000,0.000000,0.000000,0.000000,0.000000,1647852419.381676,0.000000
105.000000,18227.154699,17316.097595,12501.978874,-13174.520513,16637.364523,16200.969064,5477.987883,4791.923439,0.004000,0.966000,0.184000,192.000000,0.000000,0.000000,0.000000,0.000000,0.000000,0.000000,0.000000,0.000000,0.000000,1647852419.381686,0.000000
106.000000,18227.624086,17319.316246,12499.698997,-13174.811086,16636.872785,16200.454974,5477.049110,4790.112947,0.004000,0.966000,0.184000,192.000000,0.000000,0.000000,0.000000,0.000000,0.000000,0.000000,0.000000,0.000000,0.000000,1647852419.389903,0.000000
107.000000,18222.125557,17314.801194,12494.982778,-13179.460249,16631.687180,16194.799983,5472.467002,4783.586238,0.004000,0.966000,0.184000,192.000000,0.000000,0.000000,0.000000,0.000000,0.000000,0.000000,0.000000,0.000000,0.000000,1647852419.389937,0.000000
108.000000,18222.416129,17318.556287,12502.403558,-13174.319348,16635.598735,16199.292684,5488.560258,4791.185831,0.010000,0.970000,0.186000,192.000000,0.000000,80.000000,30.000000,80.000000,5.000000,208.000000,0.000000,0.000000,0.000000,1647852419.397830,0.000000
109.000000,18227.109996,17325.530031,12509.757282,-13166.585644,16641.186671,16200.186753,5485.810993,4792.906915,0.010000,0.970000,0.186000,192.000000,0.000000,0.000000,0.000000,0.000000,0.000000,0.000000,0.000000,0.000000,0.000000,1647852419.397847,0.000000
110.000000,18229.702798,17326.133528,12504.191697,-13168.038507,16639.376180,16204.366530,5478.658435,4792.839860,0.010000,0.970000,0.186000,192.000000,0.000000,0.000000,0.000000,0.000000,0.000000,0.000000,0.000000,0.000000,0.000000,1647852419.405011,0.000000
111.000000,18235.916583,17326.491156,12497.910857,-13170.854827,16636.023418,16194.978797,5463.906284,4789.040064,0.010000,0.970000,0.186000,192.000000,0.000000,0.000000,0.000000,0.000000,0.000000,0.000000,0.000000,0.000000,0.000000,1647852419.405026,0.000000
112.000000,18258.536548,17337.510566,12515.702846,-13161.735316,16647.825140,16205.774689,5492.136537,4795.522069,0.010000,0.970000,0.186000,192.000000,0.000000,0.000000,0.000000,0.000000,0.000000,0.000000,0.000000,0.000000,0.000000,1647852419.412386,0.000000
113.000000,18255.988450,17334.917764,12511.500718,-13164.819856,16646.774608,16210.580314,5508.498014,4802.696979,0.010000,0.970000,0.186000,192.000000,0.000000,0.000000,0.000000,0.000000,0.000000,0.000000,0.000000,0.000000,0.000000,1647852419.412402,0.000000
114.000000,18250.400513,17334.470729,12502.671779,-13166.339775,16642.460721,16207.473422,5498.439729,4802.853442,0.010000,0.970000,0.186000,192.000000,0.000000,0.000000,0.000000,0.000000,0.000000,0.000000,0.000000,0.000000,0.000000,1647852419.420593,0.000000
115.000000,18250.735790,17333.330790,12506.762148,-13165.870388,16644.584137,16207.942809,5498.484433,4800.573564,0.010000,0.970000,0.186000,192.000000,0.000000,0.000000,0.000000,0.000000,0.000000,0.000000,0.000000,0.000000,0.000000,1647852419.420608,0.000000
116.000000,18250.288755,17330.067436,12502.939999,-13168.284377,16641.052561,16202.086652,5494.014084,4794.695055,0.010000,0.970000,0.186000,192.000000,0.000000,0.000000,0.000000,0.000000,0.000000,0.000000,0.000000,0.000000,0.000000,1647852419.427497,0.000000
117.000000,18246.108979,17323.160746,12489.730118,-13173.559388,16633.520023,16202.690149,5490.326046,4796.974933,0.010000,0.970000,0.186000,192.000000,0.000000,0.000000,0.000000,0.000000,0.000000,0.000000,0.000000,0.000000,0.000000,1647852419.434697,0.000000
118.000000,18246.980697,17322.669008,12494.647502,-13173.157057,16634.369389,16202.131355,5486.459194,4793.175136,0.012000,0.958000,0.184000,192.000000,0.000000,96.000000,29.000000,240.000000,5.000000,192.000000,0.000000,0.000000,0.000000,1647852419.434713,0.000000
119.000000,18249.349981,17325.775901,12496.502697,-13173.425278,16634.816424,16202.891314,5485.140441,4795.097386,0.012000,0.958000,0.184000,192.000000,0.000000,0.000000,0.000000,0.000000,0.000000,0.000000,0.000000,0.000000,0.000000,1647852419.442218,0.000000
120.000000,18241.325705,17318.645694,12489.417194,-13180.555484,16626.702741,16198.935056,5480.714796,4790.716444,0.012000,0.958000,0.184000,192.000000,0.000000,0.000000,0.000000,0.000000,0.000000,0.000000,0.000000,0.000000,0.000000,1647852419.442234,0.000000
121.000000,18243.404417,17321.059682,12492.635845,-13174.431106,16630.770758,16205.148841,5483.754633,4794.359779,0.012000,0.958000,0.184000,192.000000,0.000000,0.000000,0.000000,0.000000,0.000000,0.000000,0.000000,0.000000,0.000000,1647852419.450074,0.000000
122.000000,18248.366505,17323.026636,12493.820488,-13170.966586,16634.011761,16205.372358,5480.960665,4796.416139,0.012000,0.958000,0.184000,192.000000,0.000000,0.000000,0.000000,0.000000,0.000000,0.000000,0.000000,0.000000,0.000000,1647852419.450090,0.000000
123.000000,18242.666810,17316.209354,12482.309339,-13178.074441,16625.473395,16193.682396,5472.690519,4785.240267,0.012000,0.958000,0.184000,192.000000,0.000000,0.000000,0.000000,0.000000,0.000000,0.000000,0.000000,0.000000,0.000000,1647852419.458228,0.000000
124.000000,18254.356772,17320.031502,12487.539648,-13173.581740,16630.323724,16202.846611,5480.334816,4792.281066,0.012000,0.958000,0.184000,192.000000,0.000000,0.000000,0.000000,0.000000,0.000000,0.000000,0.000000,0.000000,0.000000,1647852419.458244,0.000000
125.000000,18251.227528,17315.918781,12481.951711,-13174.721679,16625.540450,16193.145954,5470.656511,4781.060491,0.012000,0.958000,0.184000,192.000000,0.000000,0.000000,0.000000,0.000000,0.000000,0.000000,0.000000,0.000000,0.000000,1647852419.464824,0.000000
126.000000,18250.355810,17320.657351,12486.377357,-13172.464153,16626.434520,16196.163439,5469.225999,4783.161555,0.012000,0.958000,0.184000,192.000000,0.000000,0.000000,0.000000,0.000000,0.000000,0.000000,0.000000,0.000000,0.000000,1647852419.464840,0.000000
127.000000,18256.144912,17327.586392,12486.757336,-13166.026850,16630.949572,16207.674588,5485.252200,4798.360741,0.012000,0.958000,0.184000,192.000000,0.000000,0.000000,0.000000,0.000000,0.000000,0.000000,0.000000,0.000000,0.000000,1647852419.472847,0.000000
128.000000,18252.032191,17321.640828,12479.291854,-13170.340737,16624.668732,16206.489945,5485.699235,4797.600782,0.014000,0.970000,0.180000,192.000000,0.000000,112.000000,30.000000,80.000000,5.000000,160.000000,0.000000,0.000000,0.000000,1647852419.472863,0.000000
129.000000,18257.664830,17324.144223,12486.891447,-13169.021984,16627.283886,16210.245038,5482.145307,4803.523994,0.014000,0.970000,0.180000,192.000000,0.000000,0.000000,0.000000,0.000000,0.000000,0.000000,0.000000,0.000000,0.000000,1647852419.480888,0.000000
130.000000,18253.976793,17320.657351,12489.394842,-13171.346566,16625.316933,16205.998207,5463.861580,4801.557040,0.014000,0.970000,0.180000,192.000000,0.000000,0.000000,0.000000,0.000000,0.000000,0.000000,0.000000,0.000000,0.000000,1647852419.480904,0.000000
131.000000,18259.654136,17324.971238,12493.552267,-13163.970490,16630.614296,16213.486041,5481.362996,4811.570622,0.014000,0.970000,0.180000,192.000000,0.000000,0.000000,0.000000,0.000000,0.000000,0.000000,0.000000,0.000000,0.000000,1647852419.487976,0.000000
132.000000,18261.218758,17321.171441,12480.543552,-13170.318385,16622.902944,16207.048739,5488.336741,4802.406407,0.014000,0.970000,0.180000,192.000000,0.000000,0.000000,0.000000,0.000000,0.000000,0.000000,0.000000,0.000000,0.000000,1647852419.494480,0.000000
133.000000,18255.474359,17316.768148,12473.480400,-13175.839266,16617.538526,16200.790250,5460.397060,4799.344218,0.014000,0.970000,0.180000,192.000000,0.000000,0.000000,0.000000,0.000000,0.000000,0.000000,0.000000,0.000000,0.000000,1647852419.494497,0.000000
134.000000,18255.921394,17319.316246,12475.380299,-13172.531208,16619.907811,16200.969064,5467.773136,4804.283953,0.014000,0.970000,0.180000,192.000000,0.000000,0.000000,0.000000,0.000000,0.000000,0.000000,0.000000,0.000000,0.000000,1647852419.502450,0.000000
135.000000,18258.536548,17318.913915,12478.375432,-13171.055993,16622.165337,16204.880620,5495.958685,4801.847613,0.014000,0.970000,0.180000,192.000000,0.000000,0.000000,0.000000,0.000000,0.000000,0.000000,0.000000,0.000000,0.000000,1647852419.502466,0.000000
136.000000,18262.693973,17319.897392,12477.436659,-13170.877179,16622.835889,16196.923399,5481.787679,4804.351008,0.014000,0.970000,0.180000,192.000000,0.000000,0.000000,0.000000,0.000000,0.000000,0.000000,0.000000,0.000000,0.000000,1647852419.510476,0.000000
137.000000,18270.360621,17323.697188,12483.248113,-13167.032679,16629.340247,16209.462727,5497.277438,4810.385979,0.014000,0.970000,0.180000,192.000000,0.000000,0.000000,0.000000,0.000000,0.000000,0.000000,0.000000,0.000000,0.000000,1647852419.510493,0.000000
138.000000,18272.416982,17323.853651,12480.700014,-13168.284377,16626.926258,16203.293646,5490.795432,4800.551212,0.018000,0.972000,0.180000,192.000000,0.000000,144.000000,30.000000,96.000000,5.000000,160.000000,0.000000,0.000000,0.000000,1647852419.516921,0.000000
139.000000,18262.313993,17317.617514,12477.436659,-13173.827609,16619.349017,16199.963236,5485.699235,4807.502604,0.018000,0.972000,0.180000,192.000000,0.000000,0.000000,0.000000,0.000000,0.000000,0.000000,0.000000,0.000000,0.000000,1647852419.516938,0.000000
140.000000,18255.452008,17308.766223,12462.058659,-13182.142458,16606.809688,16192.073070,5475.797412,4799.835956,0.018000,0.972000,0.180000,192.000000,0.000000,0.000000,0.000000,0.000000,0.000000,0.000000,0.000000,0.000000,0.000000,1647852419.525115,0.000000
141.000000,18258.380086,17307.045139,12453.833217,-13185.405813,16602.428747,16190.128468,5473.048147,4798.964238,0.018000,0.972000,0.180000,192.000000,0.000000,0.000000,0.000000,0.000000,0.000000,0.000000,0.000000,0.000000,0.000000,1647852419.525131,0.000000
142.000000,18258.938880,17309.123851,12470.641729,-13178.834400,16609.983636,16194.755279,5474.925694,4796.416139,0.018000,0.972000,0.180000,192.000000,0.000000,0.000000,0.000000,0.000000,0.000000,0.000000,0.000000,0.000000,0.000000,1647852419.533176,0.000000
143.000000,18258.782418,17312.834241,12467.043098,-13180.756650,16606.541467,16191.693090,5472.556409,4802.026427,0.018000,0.972000,0.180000,192.000000,0.000000,0.000000,0.000000,0.000000,0.000000,0.000000,0.000000,0.000000,0.000000,1647852419.533192,0.000000
144.000000,18265.554996,17317.215182,12457.051868,-13187.998615,16598.405433,16190.016710,5467.013176,4801.601744,0.018000,0.972000,0.180000,192.000000,0.000000,0.000000,0.000000,0.000000,0.000000,0.000000,0.000000,0.000000,0.000000,1647852419.540163,0.000000
145.000000,18256.659002,17302.284217,12448.826426,-13195.799374,16590.224694,16187.714480,5464.420374,4797.444319,0.018000,0.972000,0.180000,192.000000,0.000000,0.000000,0.000000,0.000000,0.000000,0.000000,0.000000,0.000000,0.000000,1647852419.540179,0.000000
146.000000,18244.857281,17291.398918,12447.574728,-13192.357205,16591.722261,16197.906875,5473.271665,4808.307267,0.018000,0.972000,0.180000,192.000000,0.000000,0.000000,0.000000,0.000000,0.000000,0.000000,0.000000,0.000000,0.000000,1647852419.546774,0.000000
147.000000,18244.991391,17291.689490,12457.051868,-13192.580723,16594.337415,16197.571599,5478.926656,4805.446244,0.018000,0.972000,0.180000,192.000000,0.000000,0.000000,0.000000,0.000000,0.000000,0.000000,0.000000,0.000000,0.000000,1647852419.554460,0.000000
148.000000,18238.822310,17282.458220,12447.284156,-13204.337740,16582.870970,16182.573579,5462.296958,4791.431700,0.016000,0.968000,0.180000,192.000000,0.000000,128.000000,30.000000,64.000000,5.000000,160.000000,0.000000,0.000000,0.000000,1647852419.554471,0.000000
149.000000,18238.107054,17277.429077,12438.164644,-13211.713816,16572.835037,16170.503637,5448.975319,4781.105194,0.016000,0.968000,0.180000,192.000000,0.000000,0.000000,0.000000,0.000000,0.000000,0.000000,0.000000,0.000000,0.000000,1647852419.562763,0.000000
150.000000,18246.444255,17285.073374,12445.652478,-13203.711892,16578.020642,16177.052698,5455.412621,4782.468651,0.016000,0.968000,0.180000,192.000000,0.000000,0.000000,0.000000,0.000000,0.000000,0.000000,0.000000,0.000000,0.000000,1647852419.562797,0.000000
151.000000,18254.624993,17294.550514,12454.973156,-13192.156040,16586.849581,16191.693090,5473.741051,4792.258715,0.016000,0.968000,0.180000,192.000000,0.000000,0.000000,0.000000,0.000000,0.000000,0.000000,0.000000,0.000000,0.000000,1647852419.569942,0.000000
152.000000,18255.072028,17292.896484,12451.329822,-13193.094813,16584.189723,16189.904951,5470.097717,4792.526936,0.016000,0.968000,0.180000,192.000000,0.000000,0.000000,0.000000,0.000000,0.000000,0.000000,0.000000,0.000000,0.000000,1647852419.569958,0.000000
153.000000,18261.106999,17297.858572,12451.508635,-13192.491316,16585.195552,16191.179000,5471.729394,4801.110006,0.016000,0.968000,0.180000,192.000000,0.000000,0.000000,0.000000,0.000000,0.000000,0.000000,0.000000,0.000000,0.000000,1647852419.577280,0.000000
154.000000,18250.668734,17285.520409,12433.984868,-13207.064653,16571.672746,16178.706727,5462.498124,4786.961351,0.016000,0.968000,0.180000,192.000000,0.000000,0.000000,0.000000,0.000000,0.000000,0.000000,0.000000,0.000000,0.000000,1647852419.577296,0.000000
155.000000,18240.230470,17275.350365,12426.273516,-13214.016046,16565.414258,16181.835971,5462.587531,4788.816546,0.016000,0.968000,0.180000,192.000000,0.000000,0.000000,0.000000,0.000000,0.000000,0.000000,0.000000,0.000000,0.000000,1647852419.585424,0.000000
156.000000,18258.134217,17291.488325,12440.310411,-13200.426185,16577.528903,16195.850515,5470.030662,4798.874831,0.016000,0.968000,0.180000,192.000000,0.000000,0.000000,0.000000,0.000000,0.000000,0.000000,0.000000,0.000000,0.000000,1647852419.585440,0.000000
157.000000,18256.435484,17290.549551,12435.929470,-13204.829479,16571.963319,16190.664910,5469.181296,4793.488061,0.016000,0.968000,0.180000,192.000000,0.000000,0.000000,0.000000,0.000000,0.000000,0.000000,0.000000,0.000000,0.000000,1647852419.593305,0.000000
158.000000,18244.030266,17280.312452,12426.497033,-13211.065616,16563.983746,16188.049756,5466.968473,4786.268447,0.014000,0.970000,0.184000,192.000000,0.000000,112.000000,30.000000,80.000000,5.000000,192.000000,0.000000,0.000000,0.000000,1647852419.593322,0.000000
159.000000,18249.953479,17281.832371,12428.307525,-13212.362017,16563.514359,16187.960349,5470.142421,4791.252886,0.014000,0.970000,0.184000,192.000000,0.000000,0.000000,0.000000,0.000000,0.000000,0.000000,0.000000,0.000000,0.000000,1647852419.600056,0.000000
160.000000,18253.149778,17284.872208,12430.632106,-13207.779909,16567.068287,16195.604646,5477.205572,4796.214973,0.014000,0.970000,0.184000,192.000000,0.000000,0.000000,0.000000,0.000000,0.000000,0.000000,0.000000,0.000000,0.000000,1647852419.600073,0.000000
161.000000,18228.406397,17266.879054,12409.196783,-13223.984924,16548.292821,16180.003128,5457.334871,4779.361758,0.014000,0.970000,0.184000,192.000000,0.000000,0.000000,0.000000,0.000000,0.000000,0.000000,0.000000,0.000000,0.000000,1647852419.607044,0.000000
162.000000,18231.267420,17269.918891,12410.649647,-13224.655476,16547.577566,16175.264558,5445.354336,4776.746604,0.014000,0.970000,0.184000,192.000000,0.000000,0.000000,0.000000,0.000000,0.000000,0.000000,0.000000,0.000000,0.000000,1647852419.607061,0.000000
163.000000,18236.453025,17273.182246,12410.940219,-13220.922735,16550.215071,16177.522084,5438.805275,4781.596933,0.014000,0.970000,0.184000,192.000000,0.000000,0.000000,0.000000,0.000000,0.000000,0.000000,0.000000,0.000000,0.000000,1647852419.615040,0.000000
164.000000,18244.522005,17277.250263,12418.204536,-13214.396025,16556.406505,16190.709614,5455.032641,4790.515279,0.014000,0.970000,0.184000,192.000000,0.000000,0.000000,0.000000,0.000000,0.000000,0.000000,0.000000,0.000000,0.000000,1647852419.622422,0.000000
165.000000,18257.731886,17285.922740,12428.039304,-13208.249296,16564.944871,16201.907838,5486.526249,4796.729064,0.014000,0.970000,0.184000,192.000000,0.000000,0.000000,0.000000,0.000000,0.000000,0.000000,0.000000,0.000000,0.000000,1647852419.622438,0.000000
166.000000,18254.692048,17280.714784,12421.087911,-13215.290095,16559.267528,16196.163439,5477.451441,4792.638694,0.014000,0.970000,0.184000,192.000000,0.000000,0.000000,0.000000,0.000000,0.000000,0.000000,0.000000,0.000000,0.000000,1647852419.630461,0.000000
167.000000,18248.880595,17278.747830,12421.222022,-13217.145290,16556.898243,16193.347119,5477.540848,4792.951619,0.014000,0.970000,0.184000,192.000000,0.000000,0.000000,0.000000,0.000000,0.000000,0.000000,0.000000,0.000000,0.000000,1647852419.630478,0.000000
168.000000,18248.835891,17278.144333,12418.293943,-13218.039360,16555.355973,16188.362680,5472.958740,4783.988569,0.008000,0.972000,0.180000,192.000000,0.000000,64.000000,30.000000,96.000000,5.000000,160.000000,0.000000,0.000000,0.000000,1647852419.637444,0.000000
169.000000,18250.489920,17279.373679,12418.383350,-13214.999523,16556.562967,16191.514276,5477.004406,4794.717407,0.008000,0.972000,0.180000,192.000000,0.000000,0.000000,0.000000,0.000000,0.000000,0.000000,0.000000,0.000000,0.000000,1647852419.637460,0.000000
170.000000,18244.477301,17272.936377,12413.175394,-13221.794453,16551.198548,16187.558018,5467.527266,4790.828203,0.008000,0.972000,0.180000,192.000000,0.000000,0.000000,0.000000,0.000000,0.000000,0.000000,0.000000,0.000000,0.000000,1647852419.644960,0.000000
171.000000,18244.298487,17272.914025,12412.415434,-13223.001447,16548.315173,16181.344233,5462.073441,4785.419081,0.008000,0.972000,0.180000,192.000000,0.000000,0.000000,0.000000,0.000000,0.000000,0.000000,0.000000,0.000000,0.000000,1647852419.644994,0.000000
172.000000,18237.704723,17265.269728,12402.826536,-13230.243412,16538.234536,16177.767954,5453.579778,4771.784517,0.008000,0.972000,0.180000,192.000000,0.000000,0.000000,0.000000,0.000000,0.000000,0.000000,0.000000,0.000000,0.000000,1647852419.653004,0.000000
173.000000,18222.885516,17246.963650,12382.821725,-13249.957651,16516.665103,16157.405514,5436.592452,4750.662118,0.008000,0.972000,0.180000,192.000000,0.000000,0.000000,0.000000,0.000000,0.000000,0.000000,0.000000,0.000000,0.000000,1647852419.653020,0.000000
174.000000,18237.749426,17257.357211,12395.115184,-13239.452331,16528.511528,16174.906930,5457.826609,4782.625113,0.008000,0.972000,0.180000,192.000000,0.000000,0.000000,0.000000,0.000000,0.000000,0.000000,0.000000,0.000000,0.000000,1647852419.660977,0.000000
175.000000,18234.396664,17256.776065,12390.846001,-13237.798302,16528.600935,16178.170285,5458.810086,4780.881677,0.008000,0.972000,0.180000,192.000000,0.000000,0.000000,0.000000,0.000000,0.000000,0.000000,0.000000,0.000000,0.000000,1647852419.660993,0.000000
176.000000,18235.760121,17259.391220,12394.042300,-13236.792473,16529.673818,16179.444334,5457.267816,4765.973063,0.008000,0.972000,0.180000,192.000000,0.000000,0.000000,0.000000,0.000000,0.000000,0.000000,0.000000,0.000000,0.000000,1647852419.667578,0.000000
177.000000,18240.342228,17259.882958,12395.428109,-13237.708895,16529.182080,16182.573579,5460.352356,4773.125621,0.008000,0.972000,0.180000,192.000000,0.000000,0.000000,0.000000,0.000000,0.000000,0.000000,0.000000,0.000000,0.000000,1647852419.667595,0.000000
178.000000,18237.950592,17254.004449,12388.052033,-13239.094703,16525.605801,16184.406422,5462.118144,4786.424909,0.008000,0.968000,0.178000,192.000000,0.000000,64.000000,30.000000,64.000000,5.000000,144.000000,0.000000,0.000000,0.000000,1647852419.674584,0.000000
179.000000,18240.029304,17256.172568,12382.598207,-13237.977116,16525.359932,16188.295625,5467.281397,4787.922476,0.008000,0.968000,0.178000,192.000000,0.000000,0.000000,0.000000,0.000000,0.000000,0.000000,0.000000,0.000000,0.000000,1647852419.682435,0.000000
180.000000,18240.945726,17259.927661,12388.566123,-13235.853700,16528.019789,16194.576465,5471.394118,4800.685322,0.008000,0.968000,0.178000,192.000000,0.000000,0.000000,0.000000,0.000000,0.000000,0.000000,0.000000,0.000000,0.000000,1647852419.682450,0.000000
181.000000,18243.560880,17266.163798,12398.199725,-13228.455273,16532.646600,16199.471497,5474.791583,4801.668799,0.008000,0.968000,0.178000,192.000000,0.000000,0.000000,0.000000,0.000000,0.000000,0.000000,0.000000,0.000000,0.000000,1647852419.690475,0.000000
182.000000,18241.862147,17260.866435,12391.829478,-13235.093741,16524.398807,16189.524971,5462.408717,4785.284970,0.008000,0.968000,0.178000,192.000000,0.000000,0.000000,0.000000,0.000000,0.000000,0.000000,0.000000,0.000000,0.000000,1647852419.690491,0.000000
183.000000,18233.413188,17247.768312,12374.730393,-13248.258918,16509.512545,16177.499733,5456.820781,4778.758261,0.008000,0.968000,0.178000,192.000000,0.000000,0.000000,0.000000,0.000000,0.000000,0.000000,0.000000,0.000000,0.000000,1647852419.697250,0.000000
184.000000,18232.675580,17248.416513,12372.964605,-13248.147160,16510.630132,16178.393802,5460.061784,4784.010921,0.008000,0.968000,0.178000,192.000000,0.000000,0.000000,0.000000,0.000000,0.000000,0.000000,0.000000,0.000000,0.000000,1647852419.697267,0.000000
185.000000,18230.686275,17250.495225,12374.261007,-13245.688468,16512.082995,16174.661061,5458.295996,4780.456994,0.008000,0.968000,0.178000,192.000000,0.000000,0.000000,0.000000,0.000000,0.000000,0.000000,0.000000,0.000000,0.000000,1647852419.705369,0.000000
186.000000,18232.675580,17252.506882,12372.875198,-13242.447465,16513.804080,16181.344233,5460.933502,4782.692168,0.008000,0.968000,0.178000,192.000000,0.000000,0.000000,0.000000,0.000000,0.000000,0.000000,0.000000,0.000000,0.000000,1647852419.705385,0.000000
187.000000,18230.887441,17248.438865,12366.951986,-13247.968346,16508.394958,16172.068259,5442.962699,4773.237380,0.008000,0.968000,0.178000,192.000000,0.000000,0.000000,0.000000,0.000000,0.000000,0.000000,0.000000,0.000000,0.000000,1647852419.713316,0.000000
188.000000,18241.929202,17257.625432,12372.674033,-13239.497034,16514.787557,16180.181942,5451.702231,4775.181982,0.008000,0.968000,0.178000,192.000000,0.000000,0.000000,0.000000,0.000000,0.000000,0.000000,0.000000,0.000000,0.000000,1647852419.713332,0.000000
189.000000,18245.997220,17259.055943,12375.311539,-13239.161758,16516.128661,16190.731965,5475.663301,4794.136261,0.006000,0.972000,0.182000,192.000000,0.000000,48.000000,30.000000,96.000000,5.000000,176.000000,0.000000,0.000000,0.000000,1647852419.719880,0.000000
190.000000,18243.784397,17257.133693,12373.903379,-13238.312392,16516.575696,16197.817468,5491.555392,4804.842747,0.006000,0.972000,0.182000,192.000000,0.000000,0.000000,0.000000,0.000000,0.000000,0.000000,0.000000,0.000000,0.000000,1647852419.719896,0.000000
191.000000,18234.128443,17244.460254,12362.816913,-13252.058715,16503.164649,16184.048794,5468.600150,4787.363683,0.006000,0.972000,0.182000,192.000000,0.000000,0.000000,0.000000,0.000000,0.000000,0.000000,0.000000,0.000000,0.000000,1647852419.727781,0.000000
192.000000,18232.787339,17242.158025,12363.621576,-13254.338593,16499.811888,16175.108096,5458.720679,4782.736872,0.006000,0.972000,0.182000,192.000000,0.000000,0.000000,0.000000,0.000000,0.000000,0.000000,0.000000,0.000000,0.000000,1647852419.727797,0.000000
193.000000,18225.590077,17237.307696,12349.607032,-13259.524198,16491.362928,16171.621224,5462.073441,4777.417156,0.006000,0.972000,0.182000,192.000000,0.000000,0.000000,0.000000,0.000000,0.000000,0.000000,0.000000,0.000000,0.000000,1647852419.734954,0.000000
194.000000,18221.320894,17233.619658,12344.823759,-13261.155875,16488.412498,16169.944843,5456.463153,4776.098403,0.006000,0.972000,0.182000,192.000000,0.000000,0.000000,0.000000,0.000000,0.000000,0.000000,0.000000,0.000000,0.000000,1647852419.742727,0.000000
195.000000,18237.011819,17248.349458,12370.550617,-13245.979040,16503.835202,16181.455991,5463.414545,4790.291761,0.006000,0.972000,0.182000,192.000000,0.000000,0.000000,0.000000,0.000000,0.000000,0.000000,0.000000,0.000000,0.000000,1647852419.742742,0.000000
196.000000,18247.763008,17250.495225,12367.399021,-13246.895462,16501.242399,16183.512352,5463.973339,4791.632866,0.006000,0.972000,0.182000,192.000000,0.000000,0.000000,0.000000,0.000000,0.000000,0.000000,0.000000,0.000000,0.000000,1647852419.749558,0.000000
197.000000,18239.358752,17240.883975,12364.716812,-13251.768142,16493.486344,16180.204294,5463.682766,4786.581372,0.006000,0.972000,0.182000,192.000000,0.000000,0.000000,0.000000,0.000000,0.000000,0.000000,0.000000,0.000000,0.000000,1647852419.749574,0.000000
198.000000,18234.977810,17240.839272,12366.504951,-13251.142293,16492.927550,16182.059489,5468.443688,4785.977875,0.006000,0.972000,0.182000,192.000000,0.000000,0.000000,0.000000,0.000000,0.000000,0.000000,0.000000,0.000000,0.000000,1647852419.757556,0.000000
199.000000,18227.445272,17234.714894,12351.126951,-13260.552378,16483.293949,16175.421020,5466.186162,4782.111023,0.008000,0.974000,0.178000,192.000000,0.000000,64.000000,30.000000,112.000000,5.000000,144.000000,0.000000,0.000000,0.000000,1647852419.757571,0.000000
200.000000,18237.570612,17242.895632,12354.256195,-13257.400782,16487.339614,16177.902064,5464.576836,4783.116851,0.008000,0.974000,0.178000,192.000000,0.000000,0.000000,0.000000,0.000000,0.000000,0.000000,0.000000,0.000000,0.000000,1647852419.765590,0.000000
201.000000,18230.730978,17243.320315,12345.941346,-13265.626224,16479.918835,16166.994413,5450.115258,4770.778688,0.008000,0.974000,0.178000,192.000000,0.000000,0.000000,0.000000,0.000000,0.000000,0.000000,0.000000,0.000000,0.000000,1647852419.765608,0.000000
202.000000,18227.467624,17238.514690,12345.986050,-13265.246244,16480.567036,16164.401610,5439.252310,4757.993490,0.008000,0.974000,0.178000,192.000000,0.000000,0.000000,0.000000,0.000000,0.000000,0.000000,0.000000,0.000000,0.000000,1647852419.772664,0.000000
203.000000,18215.464737,17222.555545,12343.505006,-13266.520294,16478.644786,16167.486151,5437.128894,4750.282139,0.008000,0.974000,0.178000,192.000000,0.000000,0.000000,0.000000,0.000000,0.000000,0.000000,0.000000,0.000000,0.000000,1647852419.772680,0.000000
204.000000,18225.858298,17228.366998,12348.467094,-13259.233625,16488.077222,16188.005053,5472.087022,4791.811680,0.008000,0.974000,0.178000,192.000000,0.000000,0.000000,0.000000,0.000000,0.000000,0.000000,0.000000,0.000000,0.000000,1647852419.780018,0.000000
205.000000,18226.752368,17225.058940,12344.488483,-13266.810866,16483.539818,16183.713518,5464.845057,4791.364645,0.008000,0.974000,0.178000,192.000000,0.000000,0.000000,0.000000,0.000000,0.000000,0.000000,0.000000,0.000000,0.000000,1647852419.780035,0.000000
206.000000,18223.399606,17223.606077,12339.861672,-13271.169456,16476.655480,16176.873884,5454.160923,4782.222781,0.008000,0.974000,0.178000,192.000000,0.000000,0.000000,0.000000,0.000000,0.000000,0.000000,0.000000,0.000000,0.000000,1647852419.788222,0.000000
207.000000,18230.730978,17229.529289,12343.437951,-13265.559169,16480.455277,16181.880675,5459.815915,4786.044930,0.008000,0.974000,0.178000,192.000000,0.000000,0.000000,0.000000,0.000000,0.000000,0.000000,0.000000,0.000000,0.000000,1647852419.788239,0.000000
208.000000,18241.281002,17235.743074,12345.449608,-13261.558206,16483.875094,16191.961311,5470.500048,4795.611476,0.008000,0.974000,0.178000,192.000000,0.000000,0.000000,0.000000,0.000000,0.000000,0.000000,0.000000,0.000000,0.000000,1647852419.795219,0.000000
209.000000,18234.888403,17227.338818,12336.643021,-13270.923587,16473.973271,16182.864151,5460.888798,4781.775747,0.008000,0.974000,0.186000,192.000000,0.000000,64.000000,30.000000,112.000000,5.000000,208.000000,0.000000,0.000000,0.000000,1647852419.802341,0.000000
210.000000,18221.991446,17213.659550,12323.656657,-13284.088765,16460.763390,16171.241244,5455.949063,4772.276255,0.008000,0.974000,0.186000,192.000000,0.000000,0.000000,0.000000,0.000000,0.000000,0.000000,0.000000,0.000000,0.000000,1647852419.802358,0.000000
211.000000,18227.713493,17217.682864,12328.462282,-13284.848724,16460.919852,16167.866131,5451.545769,4769.012900,0.008000,0.974000,0.186000,192.000000,0.000000,0.000000,0.000000,0.000000,0.000000,0.000000,0.000000,0.000000,0.000000,1647852419.809830,0.000000
212.000000,18235.000162,17224.544850,12330.138663,-13277.964387,16466.954823,16175.152800,5452.126915,4768.767031,0.008000,0.974000,0.186000,192.000000,0.000000,0.000000,0.000000,0.000000,0.000000,0.000000,0.000000,0.000000,0.000000,1647852419.809847,0.000000
213.000000,18229.300467,17217.951085,12324.886003,-13280.356023,16462.685640,16176.985643,5464.174505,4784.301494,0.008000,0.974000,0.186000,192.000000,0.000000,0.000000,0.000000,0.000000,0.000000,0.000000,0.000000,0.000000,0.000000,1647852419.817794,0.000000
214.000000,18231.066255,17219.716873,12318.403997,-13282.121811,16459.444637,16174.459895,5462.408717,4786.357854,0.008000,0.974000,0.186000,192.000000,0.000000,0.000000,0.000000,0.000000,0.000000,0.000000,0.000000,0.000000,0.000000,1647852419.817828,0.000000
215.000000,18235.961287,17227.987019,12336.911242,-13273.426983,16470.017012,16183.892332,5470.678862,4793.800985,0.008000,0.974000,0.186000,192.000000,0.000000,0.000000,0.000000,0.000000,0.000000,0.000000,0.000000,0.000000,0.000000,1647852419.825910,0.000000
216.000000,18225.679484,17218.576934,12322.673180,-13281.384204,16458.908195,16176.046869,5461.447592,4783.787404,0.008000,0.974000,0.186000,192.000000,0.000000,0.000000,0.000000,0.000000,0.000000,0.000000,0.000000,0.000000,0.000000,1647852419.825926,0.000000
217.000000,18226.752368,17218.196955,12321.667352,-13284.222875,16457.500035,16172.448238,5457.089002,4778.422985,0.008000,0.974000,0.186000,192.000000,0.000000,0.000000,0.000000,0.000000,0.000000,0.000000,0.000000,0.000000,0.000000,1647852419.832501,0.000000
218.000000,18223.913696,17213.860716,12320.929744,-13290.146087,16453.566128,16167.843779,5450.875217,4773.416194,0.008000,0.974000,0.186000,192.000000,0.000000,0.000000,0.000000,0.000000,0.000000,0.000000,0.000000,0.000000,0.000000,1647852419.832517,0.000000
219.000000,18222.661999,17208.630408,12309.798576,-13292.180096,16448.067599,16165.921529,5448.193007,4770.286950,0.008000,0.972000,0.180000,192.000000,0.000000,64.000000,30.000000,96.000000,5.000000,160.000000,0.000000,0.000000,0.000000,1647852419.840483,0.000000
220.000000,18235.938935,17224.410739,12320.080378,-13276.757392,16460.137541,16179.265520,5459.927673,4784.614418,0.008000,0.972000,0.180000,192.000000,0.000000,0.000000,0.000000,0.000000,0.000000,0.000000,0.000000,0.000000,0.000000,1647852419.840500,0.000000
221.000000,18230.261592,17220.923867,12320.348599,-13280.646596,16457.008297,16173.185846,5446.293109,4776.031348,0.008000,0.972000,0.180000,192.000000,0.000000,0.000000,0.000000,0.000000,0.000000,0.000000,0.000000,0.000000,0.000000,1647852419.848512,0.000000
222.000000,18225.299504,17213.659550,12314.514794,-13288.357948,16450.615698,16166.502674,5433.776132,4771.918627,0.008000,0.972000,0.180000,192.000000,0.000000,0.000000,0.000000,0.000000,0.000000,0.000000,0.000000,0.000000,0.000000,1647852419.848528,0.000000
223.000000,18234.866051,17218.733396,12317.018189,-13284.334634,16454.035515,16174.638709,5455.792601,4778.043005,0.008000,0.972000,0.180000,192.000000,0.000000,0.000000,0.000000,0.000000,0.000000,0.000000,0.000000,0.000000,0.000000,1647852419.855711,0.000000
224.000000,18227.869955,17218.867507,12313.397206,-13284.960483,16452.537948,16178.617320,5466.633197,4780.836973,0.008000,0.972000,0.180000,192.000000,0.000000,0.000000,0.000000,0.000000,0.000000,0.000000,0.000000,0.000000,0.000000,1647852419.855727,0.000000
225.000000,18217.744615,17207.356358,12303.920067,-13296.493983,16441.518538,16169.184884,5452.037508,4772.410366,0.008000,0.972000,0.180000,192.000000,0.000000,0.000000,0.000000,0.000000,0.000000,0.000000,0.000000,0.000000,0.000000,1647852419.862156,0.000000
226.000000,18221.097376,17204.160059,12299.382663,-13301.612532,16434.991829,16160.624166,5431.049219,4764.453145,0.008000,0.972000,0.180000,192.000000,0.000000,0.000000,0.000000,0.000000,0.000000,0.000000,0.000000,0.000000,0.000000,1647852419.870094,0.000000
227.000000,18222.170260,17201.969588,12295.426404,-13304.674721,16431.370846,16157.137293,5429.529301,4756.987662,0.008000,0.972000,0.180000,192.000000,0.000000,0.000000,0.000000,0.000000,0.000000,0.000000,0.000000,0.000000,0.000000,1647852419.870110,0.000000
228.000000,18222.192612,17204.920018,12287.737404,-13300.673759,16429.895631,16162.412305,5448.304766,4775.427851,0.008000,0.972000,0.180000,192.000000,0.000000,0.000000,0.000000,0.000000,0.000000,0.000000,0.000000,0.000000,0.000000,1647852419.878116,0.000000
229.000000,18234.620182,17217.124071,12305.954076,-13288.514410,16443.686657,16171.218892,5454.049165,4786.022578,0.008000,0.972000,0.182000,192.000000,0.000000,64.000000,30.000000,96.000000,5.000000,176.000000,0.000000,0.000000,0.000000,1647852419.878132,0.000000
230.000000,18239.671676,17222.264972,12309.798576,-13285.698090,16448.894614,16183.199428,5463.168676,4788.995360,0.008000,0.972000,0.182000,192.000000,0.000000,0.000000,0.000000,0.000000,0.000000,0.000000,0.000000,0.000000,0.000000,1647852419.884741,0.000000
231.000000,18248.210043,17231.317429,12318.091073,-13277.182076,16457.030649,16183.557055,5458.877141,4786.961351,0.008000,0.972000,0.182000,192.000000,0.000000,0.000000,0.000000,0.000000,0.000000,0.000000,0.000000,0.000000,0.000000,1647852419.884757,0.000000
232.000000,18249.953479,17230.177490,12313.553669,-13282.792363,16450.615698,16173.319956,5439.207606,4778.735909,0.008000,0.972000,0.182000,192.000000,0.000000,0.000000,0.000000,0.000000,0.000000,0.000000,0.000000,0.000000,0.000000,1647852419.892628,0.000000
233.000000,18224.114862,17208.965684,12290.732538,-13306.664027,16422.944239,16145.827311,5401.321399,4753.210217,0.008000,0.972000,0.182000,192.000000,0.000000,0.000000,0.000000,0.000000,0.000000,0.000000,0.000000,0.000000,0.000000,1647852419.892644,0.000000
234.000000,18222.349074,17203.958893,12284.809325,-13307.759262,16420.530250,16143.972116,5414.508929,4745.007127,0.008000,0.972000,0.182000,192.000000,0.000000,0.000000,0.000000,0.000000,0.000000,0.000000,0.000000,0.000000,0.000000,1647852419.900780,0.000000
235.000000,18231.379179,17209.882106,12288.184439,-13301.634884,16427.571050,16157.472570,5446.762496,4752.003223,0.008000,0.972000,0.182000,192.000000,0.000000,0.000000,0.000000,0.000000,0.000000,0.000000,0.000000,0.000000,0.000000,1647852419.900814,0.000000
236.000000,18231.110958,17214.620675,12294.152354,-13296.918666,16431.303791,16166.614433,5457.044298,4773.617360,0.008000,0.972000,0.182000,192.000000,0.000000,0.000000,0.000000,0.000000,0.000000,0.000000,0.000000,0.000000,0.000000,1647852419.907667,0.000000
237.000000,18225.567725,17207.691635,12281.478915,-13301.321960,16426.542869,16164.982756,5455.211455,4774.354967,0.008000,0.972000,0.182000,192.000000,0.000000,0.000000,0.000000,0.000000,0.000000,0.000000,0.000000,0.000000,0.000000,1647852419.907683,0.000000
238.000000,18221.790281,17202.863658,12275.801572,-13304.719425,16424.061826,16163.507541,5450.562292,4770.890447,0.008000,0.972000,0.182000,192.000000,0.000000,0.000000,0.000000,0.000000,0.000000,0.000000,0.000000,0.000000,0.000000,1647852419.915304,0.000000
239.000000,18224.986580,17206.685806,12276.919160,-13298.706806,16427.146366,16169.788381,5455.971415,4778.624151,0.008000,0.964000,0.182000,192.000000,0.000000,64.000000,30.000000,32.000000,5.000000,176.000000,0.000000,0.000000,0.000000,1647852419.915315,0.000000
240.000000,18221.879688,17201.813126,12274.326357,-13304.630018,16422.944239,16167.463799,5450.942272,4771.896276,0.008000,0.964000,0.182000,192.000000,0.000000,0.000000,0.000000,0.000000,0.000000,0.000000,0.000000,0.000000,0.000000,1647852419.922380,0.000000
241.000000,18223.936048,17200.583780,12268.380793,-13307.915724,16419.703236,16165.295680,5445.376688,4774.958464,0.008000,0.964000,0.182000,192.000000,0.000000,0.000000,0.000000,0.000000,0.000000,0.000000,0.000000,0.000000,0.000000,1647852419.930448,0.000000
242.000000,18221.455004,17197.946274,12268.738421,-13309.815623,16418.406834,16162.300546,5443.990880,4774.913761,0.008000,0.964000,0.182000,192.000000,0.000000,0.000000,0.000000,0.000000,0.000000,0.000000,0.000000,0.000000,0.000000,1647852419.930463,0.000000
243.000000,18223.287847,17200.226152,12269.453677,-13308.809794,16417.803337,16163.261671,5447.209531,4775.785479,0.008000,0.964000,0.182000,192.000000,0.000000,0.000000,0.000000,0.000000,0.000000,0.000000,0.000000,0.000000,0.000000,1647852419.937433,0.000000
244.000000,18224.181917,17200.449669,12272.515866,-13307.200468,16418.496241,16167.217930,5451.679880,4781.462822,0.008000,0.964000,0.182000,192.000000,0.000000,0.000000,0.000000,0.000000,0.000000,0.000000,0.000000,0.000000,0.000000,1647852419.937449,0.000000
245.000000,18224.919525,17196.716928,12260.445924,-13311.737873,16412.528326,16163.954576,5454.764420,4776.634845,0.008000,0.964000,0.182000,192.000000,0.000000,0.000000,0.000000,0.000000,0.000000,0.000000,0.000000,0.000000,0.000000,1647852419.945015,0.000000
246.000000,18230.887441,17203.064824,12268.581959,-13303.937114,16420.485547,16169.184884,5452.506894,4781.596933,0.008000,0.964000,0.182000,192.000000,0.000000,0.000000,0.000000,0.000000,0.000000,0.000000,0.000000,0.000000,0.000000,1647852419.945031,0.000000
247.000000,18223.198440,17201.455498,12274.438116,-13300.964332,16422.631314,16166.301509,5455.122048,4781.284008,0.008000,0.964000,0.182000,192.000000,0.000000,0.000000,0.000000,0.000000,0.000000,0.000000,0.000000,0.000000,0.000000,1647852419.952854,0.000000
248.000000,18218.728092,17192.537152,12263.664575,-13312.453128,16413.467099,16162.412305,5440.436952,4774.645540,0.008000,0.964000,0.182000,192.000000,0.000000,0.000000,0.000000,0.000000,0.000000,0.000000,0.000000,0.000000,0.000000,1647852419.952869,0.000000
249.000000,18223.332551,17196.783983,12261.876436,-13312.475480,16411.634256,16155.058581,5428.657583,4769.214066,0.010000,0.966000,0.180000,192.000000,0.000000,80.000000,30.000000,48.000000,5.000000,160.000000,0.000000,0.000000,0.000000,1647852419.961032,0.000000
250.000000,18216.403510,17194.325291,12262.524636,-13313.838937,16408.549715,16157.159645,5446.024888,4767.001243,0.010000,0.966000,0.180000,192.000000,0.000000,0.000000,0.000000,0.000000,0.000000,0.000000,0.000000,0.000000,0.000000,1647852419.961048,0.000000
251.000000,18223.891345,17197.163963,12259.775372,-13311.626114,16410.516669,16166.860302,5463.012214,4774.869058,0.010000,0.966000,0.180000,192.000000,0.000000,0.000000,0.000000,0.000000,0.000000,0.000000,0.000000,0.000000,0.000000,1647852419.967604,0.000000
252.000000,18237.749426,17203.891838,12260.222406,-13306.373454,16413.422395,16164.982756,5461.961682,4776.478383,0.010000,0.966000,0.180000,192.000000,0.000000,0.000000,0.000000,0.000000,0.000000,0.000000,0.000000,0.000000,0.000000,1647852419.967619,0.000000
253.000000,18219.555106,17187.552713,12240.597575,-13324.590126,16393.171715,16140.105264,5428.143493,4752.316147,0.010000,0.966000,0.180000,192.000000,0.000000,0.000000,0.000000,0.000000,0.000000,0.000000,0.000000,0.000000,0.000000,1647852419.975599,0.000000
254.000000,18221.164432,17191.240751,12252.399296,-13320.119777,16396.233904,16141.088741,5415.157129,4759.312243,0.010000,0.966000,0.180000,192.000000,0.000000,0.000000,0.000000,0.000000,0.000000,0.000000,0.000000,0.000000,0.000000,1647852419.975616,0.000000
255.000000,18232.027380,17199.086213,12258.434267,-13313.905992,16401.240695,16151.527006,5437.039487,4780.009959,0.010000,0.966000,0.180000,192.000000,0.000000,0.000000,0.000000,0.000000,0.000000,0.000000,0.000000,0.000000,0.000000,1647852419.982734,0.000000
0.000000,18225.008932,17194.705271,12251.348764,-13318.599858,16395.764517,16151.571709,5461.492295,4771.091613,0.010000,0.966000,0.180000,192.000000,0.000000,0.000000,0.000000,0.000000,0.000000,0.000000,0.000000,0.000000,0.000000,1647852419.990633,0.000000
1.000000,18223.958400,17190.883123,12249.918252,-13323.517242,16391.987072,16147.101360,5453.490371,4755.624206,0.010000,0.966000,0.180000,192.000000,0.000000,0.000000,0.000000,0.000000,0.000000,0.000000,0.000000,0.000000,0.000000,1647852419.990668,0.000000
2.000000,18228.540507,17194.682919,12251.706392,-13317.146995,16395.138668,16155.527968,5460.374708,4779.719386,0.010000,0.966000,0.180000,192.000000,0.000000,0.000000,0.000000,0.000000,0.000000,0.000000,0.000000,0.000000,0.000000,1647852419.997261,0.000000
3.000000,18226.998237,17196.068728,12247.168988,-13319.806852,16392.948197,16153.538663,5453.468019,4778.847668,0.008000,0.958000,0.178000,192.000000,0.000000,64.000000,29.000000,240.000000,5.000000,144.000000,0.000000,0.000000,0.000000,1647852419.997277,0.000000
4.000000,18219.756272,17186.055146,12239.725857,-13329.105178,16384.700404,16143.279212,5440.101676,4764.363738,0.008000,0.958000,0.178000,192.000000,0.000000,0.000000,0.000000,0.000000,0.000000,0.000000,0.000000,0.000000,0.000000,1647852420.005014,0.000000
5.000000,18219.666865,17184.557579,12235.300211,-13327.317038,16384.454535,16142.698067,5437.240653,4761.815639,0.008000,0.958000,0.178000,192.000000,0.000000,0.000000,0.000000,0.000000,0.000000,0.000000,0.000000,0.000000,0.000000,1647852420.005023,0.000000
6.000000,18229.926316,17196.448707,12239.636450,-13317.191698,16393.395232,16148.308354,5445.689612,4769.504639,0.008000,0.958000,0.178000,192.000000,0.000000,0.000000,0.000000,0.000000,0.000000,0.000000,0.000000,0.000000,0.000000,1647852420.014686,0.000000
7.000000,18223.556068,17192.134820,12237.423627,-13320.477405,16389.729546,16151.549357,5446.360164,4772.388014,0.008000,0.958000,0.178000,192.000000,0.000000,0.000000,0.000000,0.000000,0.000000,0.000000,0.000000,0.000000,0.000000,1647852420.014702,0.000000
8.000000,18229.367522,17194.615864,12238.541214,-13319.315114,16389.729546,16151.884634,5448.595339,4772.723290,0.008000,0.958000,0.178000,192.000000,0.000000,0.000000,0.000000,0.000000,0.000000,0.000000,0.000000,0.000000,0.000000,1647852420.020946,0.000000
9.000000,18230.798034,17192.850076,12244.352668,-13318.868079,16389.461325,16153.739828,5449.645871,4771.046909,0.008000,0.958000,0.178000,192.000000,0.000000,0.000000,0.000000,0.000000,0.000000,0.000000,0.000000,0.000000,0.000000,1647852420.020962,0.000000
10.000000,18223.846641,17185.585759,12232.282726,-13327.942887,16377.860770,16140.440540,5436.257176,4762.776764,0.008000,0.958000,0.178000,192.000000,0.000000,0.000000,0.000000,0.000000,0.000000,0.000000,0.000000,0.000000,0.000000,1647852420.027857,0.000000
11.000000,18228.093472,17190.681957,12232.215671,-13323.807815,16379.559503,16147.570747,5444.169693,4769.728156,0.008000,0.958000,0.178000,192.000000,0.000000,0.000000,0.000000,0.000000,0.000000,0.000000,0.000000,0.000000,0.000000,1647852420.027874,0.000000
12.000000,18231.602696,17193.274759,12236.842482,-13319.940963,16381.168828,16153.091628,5446.248406,4769.012900,0.008000,0.958000,0.178000,192.000000,0.000000,0.000000,0.000000,0.000000,0.000000,0.000000,0.000000,0.000000,0.000000,1647852420.035895,0.000000
13.000000,18228.495804,17189.072631,12227.812377,-13326.311210,16373.010441,16145.872014,5436.659507,4766.822430,0.004000,0.970000,0.178000,192.000000,0.000000,32.000000,30.000000,80.000000,5.000000,144.000000,0.000000,0.000000,0.000000,1647852420.035906,0.000000
14.000000,18233.904926,17189.832591,12219.050493,-13326.646486,16371.021136,16146.743732,5433.954946,4776.880715,0.004000,0.970000,0.178000,192.000000,0.000000,0.000000,0.000000,0.000000,0.000000,0.000000,0.000000,0.000000,0.000000,1647852420.043067,0.000000
15.000000,18224.673656,17183.149419,12223.520842,-13331.228594,16367.646023,16139.635878,5429.149321,4773.505601,0.004000,0.970000,0.178000,192.000000,0.000000,0.000000,0.000000,0.000000,0.000000,0.000000,0.000000,0.000000,0.000000,1647852420.049476,0.000000
16.000000,18205.473507,17167.212625,12203.158403,-13348.327678,16348.714095,16119.564011,5408.049274,4757.769973,0.004000,0.970000,0.178000,192.000000,0.000000,0.000000,0.000000,0.000000,0.000000,0.000000,0.000000,0.000000,0.000000,1647852420.049492,0.000000
17.000000,18200.444365,17161.535282,12193.435394,-13356.374306,16339.862804,16117.194726,5427.204719,4750.885636,0.004000,0.970000,0.178000,192.000000,0.000000,0.000000,0.000000,0.000000,0.000000,0.000000,0.000000,0.000000,0.000000,1647852420.057628,0.000000
18.000000,18218.102243,17180.802486,12212.121452,-13339.342277,16357.855959,16127.141252,5418.241670,4766.263636,0.004000,0.970000,0.178000,192.000000,0.000000,0.000000,0.000000,0.000000,0.000000,0.000000,0.000000,0.000000,0.000000,1647852420.057644,0.000000
19.000000,18229.278115,17192.246579,12224.683133,-13326.825300,16368.338927,16131.164566,5402.550745,4775.293741,0.004000,0.970000,0.178000,192.000000,0.000000,0.000000,0.000000,0.000000,0.000000,0.000000,0.000000,0.000000,0.000000,1647852420.065638,0.000000
20.000000,18243.538528,17200.494373,12232.997982,-13320.946791,16375.871465,16147.704857,5457.603092,4779.294703,0.004000,0.970000,0.178000,192.000000,0.000000,0.000000,0.000000,0.000000,0.000000,0.000000,0.000000,0.000000,0.000000,1647852420.065654,0.000000
21.000000,18238.710551,17191.598379,12220.659819,-13328.389922,16369.858845,16148.867148,5471.103546,4781.775747,0.004000,0.970000,0.178000,192.000000,0.000000,0.000000,0.000000,0.000000,0.000000,0.000000,0.000000,0.000000,0.000000,1647852420.072638,0.000000
22.000000,18234.977810,17187.485658,12215.183641,-13330.558041,16366.528436,16139.881747,5455.300862,4774.757299,0.004000,0.970000,0.178000,192.000000,0.000000,0.000000,0.000000,0.000000,0.000000,0.000000,0.000000,0.000000,0.000000,1647852420.072672,0.000000
23.000000,18227.311161,17185.943387,12216.502394,-13334.111969,16364.337965,16135.366694,5446.315461,4768.945845,0.008000,0.968000,0.184000,192.000000,0.000000,64.000000,30.000000,64.000000,5.000000,192.000000,0.000000,0.000000,0.000000,1647852420.080249,0.000000
24.000000,18224.830118,17183.037660,12209.975685,-13338.381152,16359.107656,16134.070293,5441.845112,4770.599874,0.008000,0.968000,0.184000,192.000000,0.000000,0.000000,0.000000,0.000000,0.000000,0.000000,0.000000,0.000000,0.000000,1647852420.080265,0.000000
25.000000,18234.910755,17186.926864,12212.121452,-13335.788350,16361.566348,16137.154834,5442.806237,4775.629017,0.008000,0.968000,0.184000,192.000000,0.000000,0.000000,0.000000,0.000000,0.000000,0.000000,0.000000,0.000000,0.000000,1647852420.088179,0.000000
26.000000,18239.224641,17192.335986,12220.391598,-13329.932193,16365.723773,16144.217985,5446.270757,4779.719386,0.008000,0.968000,0.184000,192.000000,0.000000,0.000000,0.000000,0.000000,0.000000,0.000000,0.000000,0.000000,0.000000,1647852420.088195,0.000000
27.000000,18223.645475,17181.204817,12207.584048,-13341.733914,16352.379781,16134.629087,5433.954946,4768.834087,0.008000,0.968000,0.184000,192.000000,0.000000,0.000000,0.000000,0.000000,0.000000,0.000000,0.000000,0.000000,0.000000,1647852420.096259,0.000000
28.000000,18227.132347,17187.418602,12211.227383,-13336.101274,16357.073648,16141.155796,5436.905377,4772.030386,0.008000,0.968000,0.184000,192.000000,0.000000,0.000000,0.000000,0.000000,0.000000,0.000000,0.000000,0.000000,0.000000,1647852420.096275,0.000000
29.000000,18216.202344,17173.381707,12195.759975,-13351.211053,16340.712171,16128.191784,5421.683839,4758.887560,0.008000,0.968000,0.184000,192.000000,0.000000,0.000000,0.000000,0.000000,0.000000,0.000000,0.000000,0.000000,0.000000,1647852420.102424,0.000000
30.000000,18225.478318,17180.735431,12202.510202,-13341.175120,16348.021191,16135.657267,5430.065743,4765.995415,0.008000,0.968000,0.184000,192.000000,0.000000,0.000000,0.000000,0.000000,0.000000,0.000000,0.000000,0.000000,0.000000,1647852420.102439,0.000000
31.000000,18229.076949,17184.557579,12200.766766,-13339.834015,16347.998839,16136.059598,5430.825702,4767.135354,0.008000,0.968000,0.184000,192.000000,0.000000,0.000000,0.000000,0.000000,0.000000,0.000000,0.000000,0.000000,0.000000,1647852420.109807,0.000000
32.000000,18230.820385,17186.055146,12201.258505,-13340.616326,16347.171825,16131.879822,5429.372839,4765.369566,0.008000,0.968000,0.184000,192.000000,0.000000,0.000000,0.000000,0.000000,0.000000,0.000000,0.000000,0.000000,0.000000,1647852420.117852,0.000000
33.000000,18228.316990,17181.271873,12196.050548,-13346.517187,16343.193214,16124.906078,5423.136702,4758.373470,0.008000,0.964000,0.182000,192.000000,0.000000,64.000000,30.000000,32.000000,5.000000,176.000000,0.000000,0.000000,0.000000,1647852420.117868,0.000000
34.000000,18231.490938,17187.016271,12189.166211,-13345.220786,16340.488653,16126.560107,5419.381609,4754.908950,0.008000,0.964000,0.182000,192.000000,0.000000,0.000000,0.000000,0.000000,0.000000,0.000000,0.000000,0.000000,0.000000,1647852420.125964,0.000000
35.000000,18242.219775,17197.923922,12210.333313,-13337.464730,16351.061028,16135.634915,5427.025905,4761.547418,0.008000,0.964000,0.182000,192.000000,0.000000,0.000000,0.000000,0.000000,0.000000,0.000000,0.000000,0.000000,0.000000,1647852420.125982,0.000000
36.000000,18237.570612,17188.670300,12199.000978,-13342.873853,16343.394380,16132.572726,5426.467112,4761.279197,0.008000,0.964000,0.182000,192.000000,0.000000,0.000000,0.000000,0.000000,0.000000,0.000000,0.000000,0.000000,0.000000,1647852420.132467,0.000000
37.000000,18225.411263,17175.393364,12192.876600,-13352.440399,16335.459511,16129.421130,5419.202795,4754.260749,0.008000,0.964000,0.182000,192.000000,0.000000,0.000000,0.000000,0.000000,0.000000,0.000000,0.000000,0.000000,0.000000,1647852420.132483,0.000000
38.000000,18217.610504,17173.515817,12192.362510,-13356.083734,16332.553784,16127.632991,5412.787844,4744.783609,0.008000,0.964000,0.182000,192.000000,0.000000,0.000000,0.000000,0.000000,0.000000,0.000000,0.000000,0.000000,0.000000,1647852420.140505,0.000000
39.000000,18219.733920,17175.840399,12190.484964,-13355.368478,16332.039694,16131.879822,5419.783940,4757.300586,0.008000,0.964000,0.182000,192.000000,0.000000,0.000000,0.000000,0.000000,0.000000,0.000000,0.000000,0.000000,0.000000,1647852420.140522,0.000000
40.000000,18224.137214,17177.829704,12195.312941,-13350.853425,16337.091188,16139.658229,5428.881100,4766.800078,0.008000,0.964000,0.182000,192.000000,0.000000,0.000000,0.000000,0.000000,0.000000,0.000000,0.000000,0.000000,0.000000,1647852420.148356,0.000000
41.000000,18225.590077,17176.354489,12189.568542,-13356.106085,16331.458548,16136.774854,5434.513740,4764.050813,0.008000,0.964000,0.182000,192.000000,0.000000,0.000000,0.000000,0.000000,0.000000,0.000000,0.000000,0.000000,0.000000,1647852420.148372,0.000000
42.000000,18226.797071,17172.979375,12176.716289,-13358.140094,16324.507156,16130.203441,5426.936499,4757.568807,0.008000,0.964000,0.182000,192.000000,0.000000,0.000000,0.000000,0.000000,0.000000,0.000000,0.000000,0.000000,0.000000,1647852420.155087,0.000000
43.000000,18226.931182,17176.443896,12185.545228,-13356.083734,16329.089264,16131.946877,5427.607051,4758.641691,0.008000,0.964000,0.182000,192.000000,0.000000,0.000000,0.000000,0.000000,0.000000,0.000000,0.000000,0.000000,0.000000,1647852420.155120,0.000000
44.000000,18234.173147,17190.190219,12195.849382,-13345.019620,16340.890985,16143.659192,5442.448609,4769.035252,0.012000,0.968000,0.180000,192.000000,0.000000,96.000000,30.000000,64.000000,5.000000,160.000000,0.000000,0.000000,0.000000,1647852420.163045,0.000000
45.000000,18227.333513,17185.563408,12190.104984,-13351.523978,16334.051351,16134.584383,5434.267871,4751.377374,0.012000,0.968000,0.180000,192.000000,0.000000,0.000000,0.000000,0.000000,0.000000,0.000000,0.000000,0.000000,0.000000,1647852420.163061,0.000000
46.000000,18229.859260,17186.166905,12189.836763,-13351.859254,16332.822005,16135.344343,5431.429199,4741.229682,0.012000,0.968000,0.180000,192.000000,0.000000,0.000000,0.000000,0.000000,0.000000,0.000000,0.000000,0.000000,0.000000,1647852420.169995,0.000000
47.000000,18237.347095,17191.888951,12191.669606,-13348.618251,16332.866708,16136.596040,5430.535129,4751.131505,0.012000,0.968000,0.180000,192.000000,0.000000,0.000000,0.000000,0.000000,0.000000,0.000000,0.000000,0.000000,0.000000,1647852420.178195,0.000000
48.000000,18240.655153,17188.290320,12185.209952,-13352.999193,16326.854089,16135.456101,5432.680897,4775.986645,0.012000,0.968000,0.180000,192.000000,0.000000,0.000000,0.000000,0.000000,0.000000,0.000000,0.000000,0.000000,0.000000,1647852420.178211,0.000000
49.000000,18232.429711,17185.205780,12179.666719,-13355.033202,16322.160223,16136.707799,5429.752818,4770.979854,0.012000,0.968000,0.180000,192.000000,0.000000,0.000000,0.000000,0.000000,0.000000,0.000000,0.000000,0.000000,0.000000,1647852420.184801,0.000000
50.000000,18237.704723,17196.001672,12196.654045,-13344.237309,16333.000819,16143.458026,5434.066705,4771.337482,0.012000,0.968000,0.180000,192.000000,0.000000,0.000000,0.000000,0.000000,0.000000,0.000000,0.000000,0.000000,0.000000,1647852420.184817,0.000000
51.000000,18235.916583,17193.140649,12192.630731,-13347.277146,16329.022208,16145.022648,5431.652717,4767.247113,0.012000,0.968000,0.180000,192.000000,0.000000,0.000000,0.000000,0.000000,0.000000,0.000000,0.000000,0.000000,0.000000,1647852420.192715,0.000000
52.000000,18236.587135,17192.783021,12188.495658,-13350.160521,16325.133005,16137.668924,5427.294126,4763.335557,0.012000,0.968000,0.180000,192.000000,0.000000,0.000000,0.000000,0.000000,0.000000,0.000000,0.000000,0.000000,0.000000,1647852420.192732,0.000000
53.000000,18237.324743,17190.391384,12181.119583,-13353.513283,16320.461490,16133.287982,5425.975374,4758.418174,0.012000,0.968000,0.180000,192.000000,0.000000,0.000000,0.000000,0.000000,0.000000,0.000000,0.000000,0.000000,0.000000,1647852420.200497,0.000000
54.000000,18240.453987,17196.918094,12181.454859,-13349.802893,16321.936705,16135.858433,5430.222205,4760.608645,0.010000,0.968000,0.176000,192.000000,0.000000,80.000000,30.000000,64.000000,5.000000,128.000000,0.000000,0.000000,0.000000,1647852420.200513,0.000000
55.000000,18241.728037,17194.638216,12173.050603,-13354.474408,16315.678217,16131.097511,5426.131836,4756.585331,0.010000,0.968000,0.176000,192.000000,0.000000,0.000000,0.000000,0.000000,0.000000,0.000000,0.000000,0.000000,0.000000,1647852420.207887,0.000000
56.000000,18238.084702,17188.737355,12172.737679,-13360.218806,16311.364330,16124.012008,5414.911260,4750.103325,0.010000,0.968000,0.176000,192.000000,0.000000,0.000000,0.000000,0.000000,0.000000,0.000000,0.000000,0.000000,0.000000,1647852420.207903,0.000000
57.000000,18239.224641,17195.174658,12178.705594,-13353.557986,16317.980447,16133.891479,5423.717847,4756.294758,0.010000,0.968000,0.176000,192.000000,0.000000,0.000000,0.000000,0.000000,0.000000,0.000000,0.000000,0.000000,0.000000,1647852420.215356,0.000000
58.000000,18237.145929,17195.621693,12175.509295,-13353.490931,16315.834679,16135.813729,5425.438932,4760.429831,0.010000,0.968000,0.176000,192.000000,0.000000,0.000000,0.000000,0.000000,0.000000,0.000000,0.000000,0.000000,0.000000,1647852420.215372,0.000000
59.000000,18232.407359,17187.418602,12160.645385,-13366.209074,16303.608275,16123.833194,5415.246536,4753.679604,0.010000,0.968000,0.176000,192.000000,0.000000,0.000000,0.000000,0.000000,0.000000,0.000000,0.000000,0.000000,0.000000,1647852420.223370,0.000000
60.000000,18237.101226,17194.995844,12165.003975,-13358.698888,16309.732653,16128.862337,5418.040504,4754.506618,0.010000,0.968000,0.176000,192.000000,0.000000,0.000000,0.000000,0.000000,0.000000,0.000000,0.000000,0.000000,0.000000,1647852420.223385,0.000000
61.000000,18233.502595,17194.347643,12169.384917,-13361.850484,16307.922162,16127.700046,5421.482673,4747.510522,0.010000,0.968000,0.176000,192.000000,0.000000,0.000000,0.000000,0.000000,0.000000,0.000000,0.000000,0.000000,0.000000,1647852420.230437,0.000000
62.000000,18236.587135,17196.135783,12169.876655,-13357.894225,16309.978522,16126.001313,5422.175577,4744.671851,0.010000,0.968000,0.176000,192.000000,0.000000,0.000000,0.000000,0.000000,0.000000,0.000000,0.000000,0.000000,0.000000,1647852420.237640,0.000000
63.000000,18242.331534,17198.058033,12177.364490,-13357.447190,16313.666560,16135.679619,5428.322307,4752.383203,0.010000,0.968000,0.176000,192.000000,0.000000,0.000000,0.000000,0.000000,0.000000,0.000000,0.000000,0.000000,0.000000,1647852420.237656,0.000000
64.000000,18240.163414,17197.432184,12172.715327,-13358.676536,16310.090281,16132.460968,5423.829606,4748.896330,0.012000,0.968000,0.168000,192.000000,0.000000,96.000000,30.000000,64.000000,5.000000,64.000000,0.000000,0.000000,0.000000,1647852420.245021,0.000000
65.000000,18237.525909,17196.068728,12166.300376,-13360.039992,16306.491650,16131.052808,5410.820891,4744.984775,0.012000,0.968000,0.168000,192.000000,0.000000,0.000000,0.000000,0.000000,0.000000,0.000000,0.000000,0.000000,0.000000,1647852420.245055,0.000000
66.000000,18236.184804,17192.805373,12168.937882,-13360.867007,16307.609237,16135.389046,5426.243594,4749.276310,0.012000,0.968000,0.168000,192.000000,0.000000,0.000000,0.000000,0.000000,0.000000,0.000000,0.000000,0.000000,0.000000,1647852420.253035,0.000000
67.000000,18239.828138,17195.509934,12166.926225,-13359.771771,16307.005740,16137.177186,5429.752818,4748.382240,0.012000,0.968000,0.168000,192.000000,0.000000,0.000000,0.000000,0.000000,0.000000,0.000000,0.000000,0.000000,0.000000,1647852420.253051,0.000000
68.000000,18236.743598,17193.163001,12160.891254,-13362.297519,16303.071833,16138.160662,5434.580795,4753.523142,0.012000,0.968000,0.168000,192.000000,0.000000,0.000000,0.000000,0.000000,0.000000,0.000000,0.000000,0.000000,0.000000,1647852420.260802,0.000000
69.000000,18234.307257,17190.994882,12165.965100,-13360.732896,16303.340054,16145.223814,5434.647850,4758.775802,0.012000,0.968000,0.168000,192.000000,0.000000,0.000000,0.000000,0.000000,0.000000,0.000000,0.000000,0.000000,0.000000,1647852420.260813,0.000000
70.000000,18232.452063,17189.966701,12158.812542,-13362.677498,16297.975635,16140.440540,5423.851958,4756.518275,0.012000,0.968000,0.168000,192.000000,0.000000,0.000000,0.000000,0.000000,0.000000,0.000000,0.000000,0.000000,0.000000,1647852420.267471,0.000000
71.000000,18238.799958,17193.163001,12158.566673,-13360.554082,16299.093223,16140.082912,5420.096865,4756.205351,0.012000,0.968000,0.168000,192.000000,0.000000,0.000000,0.000000,0.000000,0.000000,0.000000,0.000000,0.000000,0.000000,1647852420.267487,0.000000
72.000000,18238.844662,17188.379727,12154.610414,-13363.124533,16294.958150,16137.892441,5418.778112,4755.691261,0.012000,0.968000,0.168000,192.000000,0.000000,0.000000,0.000000,0.000000,0.000000,0.000000,0.000000,0.000000,0.000000,1647852420.275422,0.000000
73.000000,18241.258650,17193.051242,12159.974833,-13357.737763,16299.853182,16148.308354,5443.968528,4765.257807,0.012000,0.968000,0.168000,192.000000,0.000000,0.000000,0.000000,0.000000,0.000000,0.000000,0.000000,0.000000,0.000000,1647852420.275439,0.000000
74.000000,18240.789263,17193.297111,12154.632766,-13359.660013,16299.026167,16144.933241,5440.101676,4761.972101,0.014000,0.972000,0.168000,192.000000,0.000000,112.000000,30.000000,96.000000,5.000000,64.000000,0.000000,0.000000,0.000000,1647852420.283418,0.000000
75.000000,18243.136197,17194.660568,12157.851417,-13360.330565,16298.981464,16138.764160,5432.636193,4757.345290,0.014000,0.972000,0.168000,192.000000,0.000000,0.000000,0.000000,0.000000,0.000000,0.000000,0.000000,0.000000,0.000000,1647852420.283434,0.000000
76.000000,18239.157586,17191.464268,12157.873769,-13364.286824,16295.338129,16139.971154,5429.998688,4752.673775,0.014000,0.972000,0.168000,192.000000,0.000000,0.000000,0.000000,0.000000,0.000000,0.000000,0.000000,0.000000,0.000000,1647852420.289718,0.000000
77.000000,18234.731941,17189.631425,12156.934995,-13367.527827,16292.722975,16138.026552,5435.094885,4749.745697,0.014000,0.972000,0.168000,192.000000,0.000000,0.000000,0.000000,0.000000,0.000000,0.000000,0.000000,0.000000,0.000000,1647852420.297273,0.000000
78.000000,18235.268382,17189.027928,12152.509350,-13369.114801,16290.867781,16132.908002,5424.611917,4752.584368,0.014000,0.972000,0.168000,192.000000,0.000000,0.000000,0.000000,0.000000,0.000000,0.000000,0.000000,0.000000,0.000000,1647852420.297289,0.000000
79.000000,18221.566763,17172.398230,12124.882594,-13388.851391,16269.253644,16116.546526,5394.235896,4747.197598,0.014000,0.972000,0.168000,192.000000,0.000000,0.000000,0.000000,0.000000,0.000000,0.000000,0.000000,0.000000,0.000000,1647852420.305190,0.000000
80.000000,18232.742635,17182.881198,12145.110922,-13375.038013,16284.139905,16129.711703,5423.404923,4749.991566,0.014000,0.972000,0.168000,192.000000,0.000000,0.000000,0.000000,0.000000,0.000000,0.000000,0.000000,0.000000,0.000000,1647852420.305206,0.000000
81.000000,18247.315973,17195.554637,12151.481170,-13365.203245,16292.454754,16132.773892,5432.055048,4752.271444,0.014000,0.972000,0.168000,192.000000,0.000000,0.000000,0.000000,0.000000,0.000000,0.000000,0.000000,0.000000,0.000000,1647852420.313233,0.000000
82.000000,18241.124540,17187.396251,12142.518120,-13375.663862,16282.776449,16123.721436,5414.799501,4730.567900,0.014000,0.972000,0.168000,192.000000,0.000000,0.000000,0.000000,0.000000,0.000000,0.000000,0.000000,0.000000,0.000000,1647852420.313249,0.000000
83.000000,18241.795092,17187.440954,12139.344172,-13375.596806,16281.658862,16124.615505,5423.427275,4735.887615,0.014000,0.972000,0.168000,192.000000,0.000000,0.000000,0.000000,0.000000,0.000000,0.000000,0.000000,0.000000,0.000000,1647852420.319784,0.000000
84.000000,18239.269345,17188.960873,12140.461760,-13372.981652,16284.005795,16130.382255,5428.769342,4761.301549,0.022000,0.966000,0.170000,192.000000,0.000000,176.000000,30.000000,48.000000,5.000000,80.000000,0.000000,0.000000,0.000000,1647852420.319800,0.000000
85.000000,18226.752368,17181.964777,12139.970021,-13378.904865,16278.283748,16123.855546,5413.793673,4750.282139,0.022000,0.966000,0.170000,192.000000,0.000000,0.000000,0.000000,0.000000,0.000000,0.000000,0.000000,0.000000,0.000000,1647852420.327784,0.000000
86.000000,18231.334475,17184.132896,12145.334440,-13373.741612,16281.837676,16126.202479,5414.821853,4751.936168,0.022000,0.966000,0.170000,192.000000,0.000000,0.000000,0.000000,0.000000,0.000000,0.000000,0.000000,0.000000,0.000000,1647852420.327819,0.000000
87.000000,18239.850490,17191.978358,12144.350963,-13368.779524,16283.692871,16128.549412,5425.058952,4753.254921,0.022000,0.966000,0.170000,192.000000,0.000000,0.000000,0.000000,0.000000,0.000000,0.000000,0.000000,0.000000,0.000000,1647852420.335937,0.000000
88.000000,18241.795092,17191.486620,12137.891309,-13372.869894,16278.887246,16129.823462,5425.237766,4756.071240,0.022000,0.966000,0.170000,192.000000,0.000000,0.000000,0.000000,0.000000,0.000000,0.000000,0.000000,0.000000,0.000000,1647852420.335953,0.000000
89.000000,18243.046790,17192.559504,12139.657097,-13371.014699,16280.518923,16132.460968,5429.976336,4758.038194,0.022000,0.966000,0.170000,192.000000,0.000000,0.000000,0.000000,0.000000,0.000000,0.000000,0.000000,0.000000,0.000000,1647852420.343017,0.000000
90.000000,18233.860223,17181.562445,12121.127501,-13381.542371,16266.437324,16121.486261,5418.688705,4743.464857,0.022000,0.966000,0.170000,192.000000,0.000000,0.000000,0.000000,0.000000,0.000000,0.000000,0.000000,0.000000,0.000000,1647852420.343034,0.000000
91.000000,18225.925353,17172.487637,12112.007989,-13394.104051,16252.601594,16114.557220,5406.641115,4740.246205,0.022000,0.966000,0.170000,192.000000,0.000000,0.000000,0.000000,0.000000,0.000000,0.000000,0.000000,0.000000,0.000000,1647852420.349544,0.000000
92.000000,18230.015723,17181.361280,12130.247012,-13383.263455,16262.302251,16120.078101,5415.648868,4745.431810,0.022000,0.966000,0.170000,192.000000,0.000000,0.000000,0.000000,0.000000,0.000000,0.000000,0.000000,0.000000,0.000000,1647852420.349574,0.000000
93.000000,18243.203252,17196.873390,12142.316954,-13365.471466,16278.306100,16136.551337,5434.849016,4761.569770,0.022000,0.966000,0.170000,192.000000,0.000000,0.000000,0.000000,0.000000,0.000000,0.000000,0.000000,0.000000,0.000000,1647852420.357517,0.000000
94.000000,18230.485109,17183.708213,12125.888422,-13382.458792,16262.324603,16117.418244,5416.319420,4746.012955,0.020000,0.966000,0.178000,192.000000,0.000000,160.000000,30.000000,48.000000,5.000000,144.000000,0.000000,0.000000,0.000000,1647852420.365610,0.000000
95.000000,18226.975885,17178.433201,12123.720303,-13387.175010,16257.831902,16108.544601,5409.256269,4737.832217,0.020000,0.966000,0.178000,192.000000,0.000000,0.000000,0.000000,0.000000,0.000000,0.000000,0.000000,0.000000,0.000000,1647852420.365626,0.000000
96.000000,18231.289772,17179.528437,12120.479300,-13386.862086,16259.038896,16121.977999,5419.359257,4747.912854,0.020000,0.966000,0.178000,192.000000,0.000000,0.000000,0.000000,0.000000,0.000000,0.000000,0.000000,0.000000,0.000000,1647852420.372303,0.000000
97.000000,18241.012781,17189.318501,12127.006009,-13378.390775,16266.392620,16125.755444,5431.205682,4755.467743,0.020000,0.966000,0.178000,192.000000,0.000000,0.000000,0.000000,0.000000,0.000000,0.000000,0.000000,0.000000,0.000000,1647852420.372312,0.000000
98.000000,18233.860223,17180.355451,12115.830137,-13386.973844,16257.921309,16120.480433,5420.074513,4748.516351,0.020000,0.966000,0.178000,192.000000,0.000000,0.000000,0.000000,0.000000,0.000000,0.000000,0.000000,0.000000,0.000000,1647852420.380070,0.000000
99.000000,18231.781510,17174.856922,12117.886498,-13390.863048,16255.440266,16115.719511,5401.835489,4740.045040,0.020000,0.966000,0.178000,192.000000,0.000000,0.000000,0.000000,0.000000,0.000000,0.000000,0.000000,0.000000,0.000000,1647852420.380082,0.000000
100.000000,18223.690179,17166.899701,12110.130442,-13401.860106,16245.404332,16110.444499,5403.288353,4737.027554,0.020000,0.966000,0.178000,192.000000,0.000000,0.000000,0.000000,0.000000,0.000000,0.000000,0.000000,0.000000,0.000000,1647852420.388130,0.000000
101.000000,18216.917600,17160.820026,12102.128518,-13406.576324,16239.034085,16111.785604,5418.599298,4738.681583,0.020000,0.966000,0.178000,192.000000,0.000000,0.000000,0.000000,0.000000,0.000000,0.000000,0.000000,0.000000,0.000000,1647852420.388147,0.000000
102.000000,18226.573554,17170.207759,12105.682445,-13396.227467,16247.103065,16119.273438,5424.522510,4745.923548,0.020000,0.966000,0.178000,192.000000,0.000000,0.000000,0.000000,0.000000,0.000000,0.000000,0.000000,0.000000,0.000000,1647852420.396107,0.000000
103.000000,18227.445272,17173.493466,12106.844736,-13392.405318,16250.075847,16117.530002,5422.779074,4745.185941,0.020000,0.966000,0.178000,192.000000,0.000000,0.000000,0.000000,0.000000,0.000000,0.000000,0.000000,0.000000,0.000000,1647852420.396122,0.000000
104.000000,18225.299504,17168.754896,12101.547373,-13399.893153,16245.024353,16107.829345,5412.050237,4730.925528,0.022000,0.974000,0.184000,192.000000,0.000000,176.000000,30.000000,112.000000,5.000000,192.000000,0.000000,0.000000,0.000000,1647852420.402737,0.000000
105.000000,18223.801938,17167.369088,12096.428823,-13398.239124,16243.705600,16115.093662,5420.320382,4747.242301,0.022000,0.974000,0.184000,192.000000,0.000000,0.000000,0.000000,0.000000,0.000000,0.000000,0.000000,0.000000,0.000000,1647852420.402753,0.000000
106.000000,18235.290734,17178.388498,12110.331608,-13390.103089,16251.416952,16125.040188,5428.881100,4758.954615,0.022000,0.974000,0.184000,192.000000,0.000000,0.000000,0.000000,0.000000,0.000000,0.000000,0.000000,0.000000,0.000000,1647852420.410795,0.000000
107.000000,18235.067217,17179.126105,12120.881631,-13381.810591,16258.457751,16125.487223,5423.069647,4747.778743,0.022000,0.974000,0.184000,192.000000,0.000000,0.000000,0.000000,0.000000,0.000000,0.000000,0.000000,0.000000,0.000000,1647852420.410830,0.000000
108.000000,18237.570612,17185.161076,12116.165413,-13379.284844,16258.658917,16128.303543,5423.404923,4761.145086,0.022000,0.974000,0.184000,192.000000,0.000000,0.000000,0.000000,0.000000,0.000000,0.000000,0.000000,0.000000,0.000000,1647852420.417830,0.000000
109.000000,18253.239185,17200.762594,12124.636725,-13372.288748,16265.878530,16131.119863,5427.808217,4763.782592,0.022000,0.974000,0.184000,192.000000,0.000000,0.000000,0.000000,0.000000,0.000000,0.000000,0.000000,0.000000,0.000000,1647852420.424955,0.000000
110.000000,18238.375275,17178.969643,12111.605658,-13388.829039,16252.623946,16115.853621,5420.275679,4750.438601,0.022000,0.974000,0.184000,192.000000,0.000000,0.000000,0.000000,0.000000,0.000000,0.000000,0.000000,0.000000,0.000000,1647852420.424970,0.000000
111.000000,18215.911772,17152.058143,12096.831154,-13411.449005,16234.384922,16096.474659,5405.747045,4732.713667,0.022000,0.974000,0.184000,192.000000,0.000000,0.000000,0.000000,0.000000,0.000000,0.000000,0.000000,0.000000,0.000000,1647852420.432374,0.000000
112.000000,18226.595906,17166.206797,12102.083814,-13404.676426,16239.235251,16114.110185,5411.871423,4743.107229,0.022000,0.974000,0.184000,192.000000,0.000000,0.000000,0.000000,0.000000,0.000000,0.000000,0.000000,0.000000,0.000000,1647852420.432391,0.000000
113.000000,18232.295600,17172.509989,12104.162527,-13399.088490,16243.146806,16111.047996,5408.518661,4741.006165,0.022000,0.974000,0.184000,192.000000,0.000000,0.000000,0.000000,0.000000,0.000000,0.000000,0.000000,0.000000,0.000000,1647852420.440290,0.000000
114.000000,18227.065292,17166.787942,12093.165468,-13405.771661,16232.976762,16096.921694,5380.020187,4727.572766,0.018000,0.976000,0.182000,192.000000,0.000000,144.000000,30.000000,128.000000,5.000000,176.000000,0.000000,0.000000,0.000000,1647852420.440305,0.000000
115.000000,18227.758196,17170.073649,12085.811744,-13410.733749,16228.059379,16103.135479,5390.704321,4736.133484,0.018000,0.976000,0.182000,192.000000,0.000000,0.000000,0.000000,0.000000,0.000000,0.000000,0.000000,0.000000,0.000000,1647852420.448408,0.000000
116.000000,18232.295600,17175.438067,12089.075099,-13403.022397,16234.831957,16106.443537,5424.924842,4743.464857,0.018000,0.976000,0.182000,192.000000,0.000000,0.000000,0.000000,0.000000,0.000000,0.000000,0.000000,0.000000,0.000000,1647852420.448424,0.000000
117.000000,18242.733865,17185.384594,12097.412300,-13391.600656,16245.605498,16117.105319,5436.704211,4756.987662,0.018000,0.976000,0.182000,192.000000,0.000000,0.000000,0.000000,0.000000,0.000000,0.000000,0.000000,0.000000,0.000000,1647852420.454953,0.000000
118.000000,18249.126464,17194.392347,12105.593038,-13382.101164,16254.970879,16141.312258,5441.733353,4770.152839,0.018000,0.976000,0.182000,192.000000,0.000000,0.000000,0.000000,0.000000,0.000000,0.000000,0.000000,0.000000,0.000000,1647852420.454970,0.000000
119.000000,18246.354848,17190.771364,12099.356902,-13386.996196,16248.779446,16120.167508,5418.062856,4750.483304,0.018000,0.976000,0.182000,192.000000,0.000000,0.000000,0.000000,0.000000,0.000000,0.000000,0.000000,0.000000,0.000000,1647852420.462964,0.000000
120.000000,18248.880595,17191.620730,12097.993445,-13388.270246,16247.728914,16114.020778,5403.422463,4741.095572,0.018000,0.976000,0.182000,192.000000,0.000000,0.000000,0.000000,0.000000,0.000000,0.000000,0.000000,0.000000,0.000000,1647852420.462981,0.000000
121.000000,18246.265441,17184.646986,12087.912808,-13397.054481,16239.749341,16102.777851,5396.225202,4717.246260,0.018000,0.976000,0.182000,192.000000,0.000000,0.000000,0.000000,0.000000,0.000000,0.000000,0.000000,0.000000,0.000000,1647852420.471146,0.000000
122.000000,18244.745522,17181.964777,12086.348186,-13401.815403,16236.620097,16104.923618,5402.170766,4729.696182,0.018000,0.976000,0.182000,192.000000,0.000000,0.000000,0.000000,0.000000,0.000000,0.000000,0.000000,0.000000,0.000000,1647852420.471162,0.000000
123.000000,18244.007915,17180.556617,12081.475506,-13400.787222,16235.927193,16104.029549,5401.813138,4738.279252,0.018000,0.976000,0.182000,192.000000,0.000000,0.000000,0.000000,0.000000,0.000000,0.000000,0.000000,0.000000,0.000000,1647852420.478165,0.000000
124.000000,18235.536603,17175.773344,12072.713622,-13407.068063,16229.132262,16094.574761,5377.002701,4730.143217,0.012000,0.972000,0.188000,192.000000,0.000000,96.000000,30.000000,96.000000,5.000000,224.000000,0.000000,0.000000,0.000000,1647852420.484567,0.000000
125.000000,18229.881612,17173.716983,12079.620311,-13406.218696,16232.440321,16103.962493,5391.821908,4737.206368,0.012000,0.972000,0.188000,192.000000,0.000000,0.000000,0.000000,0.000000,0.000000,0.000000,0.000000,0.000000,0.000000,1647852420.484583,0.000000
126.000000,18239.872842,17183.194123,12093.143117,-13394.886362,16243.258565,16115.451290,5428.612879,4745.431810,0.012000,0.972000,0.188000,192.000000,0.000000,0.000000,0.000000,0.000000,0.000000,0.000000,0.000000,0.000000,0.000000,1647852420.492793,0.000000
127.000000,18237.347095,17178.835533,12086.817573,-13397.456813,16239.972858,16114.266648,5424.835435,4755.177171,0.012000,0.972000,0.188000,192.000000,0.000000,0.000000,0.000000,0.000000,0.000000,0.000000,0.000000,0.000000,0.000000,1647852420.492810,0.000000
128.000000,18236.765949,17178.388498,12085.118840,-13399.513173,16238.855271,16108.902229,5416.162958,4753.970176,0.012000,0.972000,0.188000,192.000000,0.000000,0.000000,0.000000,0.000000,0.000000,0.000000,0.000000,0.000000,0.000000,1647852420.500671,0.000000
129.000000,18233.189670,17177.494428,12079.530904,-13400.519002,16237.447111,16109.125746,5409.770359,4749.164551,0.012000,0.972000,0.188000,192.000000,0.000000,0.000000,0.000000,0.000000,0.000000,0.000000,0.000000,0.000000,0.000000,1647852420.500706,0.000000
130.000000,18238.867013,17185.541056,12093.120765,-13391.332435,16247.103065,16121.888592,5415.782978,4756.093592,0.012000,0.972000,0.188000,192.000000,0.000000,0.000000,0.000000,0.000000,0.000000,0.000000,0.000000,0.000000,0.000000,1647852420.507815,0.000000
131.000000,18236.810653,17179.036698,12082.414279,-13400.004911,16237.447111,16114.825441,5420.096865,4747.979909,0.012000,0.972000,0.188000,192.000000,0.000000,0.000000,0.000000,0.000000,0.000000,0.000000,0.000000,0.000000,0.000000,1647852420.507831,0.000000
132.000000,18235.178975,17173.046431,12065.561064,-13408.587981,16226.897088,16095.669996,5407.468129,4734.166531,0.012000,0.972000,0.188000,192.000000,0.000000,0.000000,0.000000,0.000000,0.000000,0.000000,0.000000,0.000000,0.000000,1647852420.515430,0.000000
133.000000,18239.246993,17174.141666,12071.283111,-13407.693912,16227.925268,16106.510592,5405.612934,4735.060601,0.012000,0.972000,0.188000,192.000000,0.000000,0.000000,0.000000,0.000000,0.000000,0.000000,0.000000,0.000000,0.000000,1647852420.515446,0.000000
134.000000,18236.542432,17175.482771,12073.250064,-13403.380025,16230.518071,16119.675770,5411.312629,4752.405554,0.008000,0.970000,0.190000,192.000000,0.000000,64.000000,30.000000,80.000000,5.000000,240.000000,0.000000,0.000000,0.000000,1647852420.523444,0.000000
135.000000,18240.252821,17182.210646,12081.319044,-13398.999083,16234.519033,16121.776834,5412.631382,4756.562979,0.008000,0.970000,0.190000,192.000000,0.000000,0.000000,0.000000,0.000000,0.000000,0.000000,0.000000,0.000000,0.000000,1647852420.523460,0.000000
136.000000,18242.264478,17182.814143,12077.899227,-13398.932028,16232.797948,16127.029494,5414.553632,4758.775802,0.008000,0.970000,0.190000,192.000000,0.000000,0.000000,0.000000,0.000000,0.000000,0.000000,0.000000,0.000000,0.000000,1647852420.531379,0.000000
137.000000,18234.173147,17173.873445,12065.426953,-13409.482051,16220.303323,16110.086871,5401.500213,4743.576615,0.008000,0.970000,0.190000,192.000000,0.000000,0.000000,0.000000,0.000000,0.000000,0.000000,0.000000,0.000000,0.000000,1647852420.531396,0.000000
138.000000,18229.591039,17169.000765,12060.397811,-13416.142871,16214.178945,16106.354130,5400.606144,4742.794304,0.008000,0.970000,0.190000,192.000000,0.000000,0.000000,0.000000,0.000000,0.000000,0.000000,0.000000,0.000000,0.000000,1647852420.537345,0.000000
139.000000,18239.381103,17177.606187,12054.943985,-13410.979618,16216.414120,16110.153927,5401.924896,4749.298662,0.008000,0.970000,0.190000,192.000000,0.000000,0.000000,0.000000,0.000000,0.000000,0.000000,0.000000,0.000000,0.000000,1647852420.545099,0.000000
140.000000,18243.292659,17176.868579,12061.336584,-13412.700702,16218.112852,16112.389101,5402.438987,4747.979909,0.008000,0.970000,0.190000,192.000000,0.000000,0.000000,0.000000,0.000000,0.000000,0.000000,0.000000,0.000000,0.000000,1647852420.545115,0.000000
141.000000,18243.426769,17181.651852,12067.103334,-13409.929086,16221.018579,16117.105319,5407.736350,4754.976005,0.008000,0.970000,0.190000,192.000000,0.000000,0.000000,0.000000,0.000000,0.000000,0.000000,0.000000,0.000000,0.000000,1647852420.553132,0.000000
142.000000,18243.672638,17185.071669,12065.136381,-13402.396548,16222.873774,16118.446424,5412.229051,4759.759278,0.008000,0.970000,0.190000,192.000000,0.000000,0.000000,0.000000,0.000000,0.000000,0.000000,0.000000,0.000000,0.000000,1647852420.553148,0.000000
143.000000,18238.621144,17179.327271,12058.587320,-13405.145813,16221.800890,16121.128633,5418.331077,4757.658214,0.008000,0.970000,0.190000,192.000000,0.000000,0.000000,0.000000,0.000000,0.000000,0.000000,0.000000,0.000000,0.000000,1647852420.561014,0.000000
144.000000,18231.937973,17174.052259,12055.033392,-13414.041807,16216.548230,16113.663151,5409.032751,4749.812752,0.008000,0.970000,0.190000,192.000000,0.000000,0.000000,0.000000,0.000000,0.000000,0.000000,0.000000,0.000000,0.000000,1647852420.561029,0.000000
145.000000,18228.652266,17170.207759,12052.261776,-13420.926144,16208.970989,16101.146174,5393.721806,4741.095572,0.014000,0.960000,0.184000,192.000000,0.000000,112.000000,30.000000,0.000000,5.000000,192.000000,0.000000,0.000000,0.000000,1647852420.567627,0.000000
146.000000,18236.251859,17176.309785,12055.592186,-13415.092339,16213.530745,16108.544601,5402.774263,4753.143162,0.014000,0.960000,0.184000,192.000000,0.000000,0.000000,0.000000,0.000000,0.000000,0.000000,0.000000,0.000000,0.000000,1647852420.567644,0.000000
147.000000,18251.227528,17186.032794,12065.896340,-13404.989350,16223.678437,16119.809880,5419.739237,4760.340424,0.014000,0.960000,0.184000,192.000000,0.000000,0.000000,0.000000,0.000000,0.000000,0.000000,0.000000,0.000000,0.000000,1647852420.575725,0.000000
148.000000,18245.237260,17180.467210,12050.294822,-13412.320723,16214.357759,16104.476584,5401.902545,4743.666022,0.014000,0.960000,0.184000,192.000000,0.000000,0.000000,0.000000,0.000000,0.000000,0.000000,0.000000,0.000000,0.000000,1647852420.575741,0.000000
149.000000,18245.930165,17179.439030,12049.110180,-13411.806632,16213.933076,16108.119918,5399.466205,4749.097496,0.014000,0.960000,0.184000,192.000000,0.000000,0.000000,0.000000,0.000000,0.000000,0.000000,0.000000,0.000000,0.000000,1647852420.583426,0.000000
150.000000,18240.565746,17174.007556,12037.956660,-13419.294467,16205.059434,16105.057729,5404.227126,4753.612549,0.014000,0.960000,0.184000,192.000000,0.000000,0.000000,0.000000,0.000000,0.000000,0.000000,0.000000,0.000000,0.000000,1647852420.583461,0.000000
151.000000,18242.108016,17178.790829,12054.295785,-13412.410130,16213.508393,16117.574706,5422.577908,4762.776764,0.014000,0.960000,0.184000,192.000000,0.000000,0.000000,0.000000,0.000000,0.000000,0.000000,0.000000,0.000000,0.000000,1647852420.590116,0.000000
152.000000,18236.184804,17175.929806,12052.820570,-13412.477185,16211.340274,16109.438671,5406.752873,4752.964348,0.014000,0.960000,0.184000,192.000000,0.000000,0.000000,0.000000,0.000000,0.000000,0.000000,0.000000,0.000000,0.000000,1647852420.590133,0.000000
153.000000,18240.476339,17179.394326,12055.703945,-13411.069025,16214.916553,16114.803089,5410.262097,4757.166476,0.014000,0.960000,0.184000,192.000000,0.000000,0.000000,0.000000,0.000000,0.000000,0.000000,0.000000,0.000000,0.000000,1647852420.597303,0.000000
154.000000,18236.587135,17172.442934,12043.432837,-13425.821176,16201.818431,16103.917790,5400.092053,4749.321014,0.014000,0.960000,0.184000,192.000000,0.000000,0.000000,0.000000,0.000000,0.000000,0.000000,0.000000,0.000000,0.000000,1647852420.597318,0.000000
155.000000,18243.382066,17177.494428,12047.254985,-13420.903792,16203.070128,16105.571819,5392.738329,4750.438601,0.018000,0.966000,0.176000,192.000000,0.000000,144.000000,30.000000,48.000000,5.000000,128.000000,0.000000,0.000000,0.000000,1647852420.605302,0.000000
156.000000,18233.837871,17173.158189,12040.124779,-13422.177842,16199.091518,16102.062595,5388.849126,4747.868150,0.018000,0.966000,0.176000,192.000000,0.000000,0.000000,0.000000,0.000000,0.000000,0.000000,0.000000,0.000000,0.000000,1647852420.613306,0.000000
157.000000,18237.838833,17173.828742,12035.654430,-13425.530604,16196.364605,16093.524229,5384.110556,4748.091668,0.018000,0.966000,0.176000,192.000000,0.000000,0.000000,0.000000,0.000000,0.000000,0.000000,0.000000,0.000000,0.000000,1647852420.613322,0.000000
158.000000,18254.356772,17187.709175,12047.545558,-13414.265324,16208.926285,16117.574706,5419.091036,4763.536723,0.018000,0.966000,0.176000,192.000000,0.000000,0.000000,0.000000,0.000000,0.000000,0.000000,0.000000,0.000000,0.000000,1647852420.619836,0.000000
159.000000,18254.826159,17186.882161,12043.298726,-13415.338208,16208.143974,16125.308409,5426.400057,4765.034290,0.018000,0.966000,0.176000,192.000000,0.000000,0.000000,0.000000,0.000000,0.000000,0.000000,0.000000,0.000000,0.000000,1647852420.619853,0.000000
160.000000,18240.722208,17174.611053,12027.876023,-13430.425636,16191.782497,16104.901267,5401.991952,4749.991566,0.018000,0.966000,0.176000,192.000000,0.000000,0.000000,0.000000,0.000000,0.000000,0.000000,0.000000,0.000000,0.000000,1647852420.627973,0.000000
161.000000,18231.803862,17166.944404,12023.651543,-13435.097150,16185.635768,16097.413432,5394.280600,4746.527046,0.018000,0.966000,0.176000,192.000000,0.000000,0.000000,0.000000,0.000000,0.000000,0.000000,0.000000,0.000000,0.000000,1647852420.627989,0.000000
162.000000,18235.737769,17171.258291,12030.200604,-13430.872671,16190.955483,16095.826458,5390.100824,4747.108191,0.018000,0.966000,0.176000,192.000000,0.000000,0.000000,0.000000,0.000000,0.000000,0.000000,0.000000,0.000000,0.000000,1647852420.635915,0.000000
163.000000,18245.594888,17181.003652,12035.900299,-13423.273077,16198.376262,16102.219057,5395.577001,4754.216046,0.018000,0.966000,0.176000,192.000000,0.000000,0.000000,0.000000,0.000000,0.000000,0.000000,0.000000,0.000000,0.000000,1647852420.635931,0.000000
164.000000,18252.501577,17186.904512,12045.220976,-13413.818289,16207.227553,16115.116014,5409.524490,4767.381223,0.018000,0.966000,0.176000,192.000000,0.000000,0.000000,0.000000,0.000000,0.000000,0.000000,0.000000,0.000000,0.000000,1647852420.643027,0.000000
165.000000,18251.629859,17184.199951,12036.660258,-13416.321685,16202.444279,16114.713682,5408.362199,4768.230589,0.020000,0.972000,0.174000,192.000000,0.000000,160.000000,30.000000,96.000000,5.000000,112.000000,0.000000,0.000000,0.000000,1647852420.643044,0.000000
