%OpenBCI Raw EEG Data
%Number of channels = 8
%Sample Rate = 256 Hz
%Board = OpenBCI_GUI$BoardCytonSerial
%Channels = Fp1, Fp2, F3, F4, Fz, Pz, O1, O2
%Data recorded at AIMS Lab (http://aimsl.uiu.ac.bd) by Rana Depto (mail@ranadepto.com)
%Brainwaves were obtained via the Ultracortex Mark IV Headset using the OpenBCI Cyton Board
%Recording Application = ConcentrateToday (https://concentrate.today)
%Data type = RAW data with noise
%Day No = 1
%Subject ID = 7
%Session ID = 7
%Record starting timestamp (UTC+6) = 2022-03-15T11:35:11.378233
%Record ending timestamp (UTC+6)   = 2022-03-15T11:35:27.258121
%Recorded durations = ~15 seconds
Sample Index, EXG Channel 0, EXG Channel 1, EXG Channel 2, EXG Channel 3, EXG Channel 4, EXG Channel 5, EXG Channel 6, EXG Channel 7, Accel Channel 0, Accel Channel 1, Accel Channel 2, Other, Other, Other, Other, Other, Other, Other, Analog Channel 0, Analog Channel 1, Analog Channel 2, Timestamp, Timestamp (Formatted)
219.000000,55274.142954,62117.867126,21021.435681,29406.089116,32589.491616,72722.987559,40099.118960,40110.339536,-0.020000,0.972000,-0.242000,192.000000,0.000000,0.000000,0.000000,0.000000,0.000000,0.000000,0.000000,0.000000,0.000000,1647322511.380807,0.000000
220.000000,55272.533628,62123.142138,21019.334617,29407.564331,32580.483863,72639.548497,40076.253125,40058.930523,-0.020000,0.972000,-0.242000,192.000000,0.000000,0.000000,0.000000,0.000000,0.000000,0.000000,0.000000,0.000000,0.000000,1647322511.380813,0.000000
221.000000,55274.768802,62130.540565,21023.447338,29414.135744,32587.122332,72585.256110,40081.774006,40049.386328,-0.020000,0.972000,-0.242000,192.000000,0.000000,0.000000,0.000000,0.000000,0.000000,0.000000,0.000000,0.000000,0.000000,1647322511.388793,0.000000
222.000000,55277.652178,62122.449234,21020.943942,29410.492410,32594.900739,72648.913878,40102.136445,40087.764274,-0.020000,0.962000,-0.236000,192.000000,255.000000,96.000000,30.000000,16.000000,248.000000,160.000000,0.000000,0.000000,0.000000,1647322511.388800,0.000000
223.000000,55268.264445,62107.898248,21008.091689,29394.399154,32585.848282,72721.378234,40104.818655,40111.568881,-0.020000,0.962000,-0.236000,192.000000,0.000000,0.000000,0.000000,0.000000,0.000000,0.000000,0.000000,0.000000,0.000000,1647322511.395903,0.000000
224.000000,55262.184770,62102.422071,21007.979930,29392.409848,32574.091264,72712.817515,40085.417340,40093.665134,-0.020000,0.962000,-0.236000,192.000000,0.000000,0.000000,0.000000,0.000000,0.000000,0.000000,0.000000,0.000000,0.000000,1647322511.395910,0.000000
225.000000,55271.348986,62114.536716,21020.943942,29404.658604,32580.036829,72646.097558,40073.615619,40052.739090,-0.020000,0.962000,-0.236000,192.000000,0.000000,0.000000,0.000000,0.000000,0.000000,0.000000,0.000000,0.000000,0.000000,1647322511.402399,0.000000
226.000000,55271.460744,62117.174222,21021.390977,29404.345680,32580.640326,72596.968424,40072.922715,40044.133668,-0.020000,0.962000,-0.236000,192.000000,0.000000,0.000000,0.000000,0.000000,0.000000,0.000000,0.000000,0.000000,0.000000,1647322511.402404,0.000000
227.000000,55276.489887,62120.392873,21019.602838,29400.501180,32588.798712,72655.798215,40095.497977,40084.791492,-0.020000,0.962000,-0.236000,192.000000,0.000000,0.000000,0.000000,0.000000,0.000000,0.000000,0.000000,0.000000,0.000000,1647322511.410462,0.000000
228.000000,55274.366471,62121.219888,21015.356006,29394.935595,32591.436218,72725.558010,40106.875015,40112.038268,-0.020000,0.962000,-0.236000,192.000000,0.000000,0.000000,0.000000,0.000000,0.000000,0.000000,0.000000,0.000000,0.000000,1647322511.418489,0.000000
229.000000,55261.648329,62109.619333,21010.908009,29391.783999,32579.388628,72711.521114,40092.905175,40086.289058,-0.020000,0.962000,-0.236000,192.000000,0.000000,0.000000,0.000000,0.000000,0.000000,0.000000,0.000000,0.000000,0.000000,1647322511.418495,0.000000
230.000000,55267.236265,62122.337475,21021.502736,29404.323328,32583.121369,72645.315247,40082.690428,40054.907209,-0.020000,0.962000,-0.236000,192.000000,0.000000,0.000000,0.000000,0.000000,0.000000,0.000000,0.000000,0.000000,0.000000,1647322511.425579,0.000000
231.000000,55268.107983,62123.857394,21020.653370,29404.323328,32583.210776,72592.609834,40076.521346,40028.688613,-0.020000,0.962000,-0.236000,192.000000,0.000000,0.000000,0.000000,0.000000,0.000000,0.000000,0.000000,0.000000,0.000000,1647322511.425583,0.000000
232.000000,55266.990395,62110.423995,21012.003244,29396.947252,32584.730695,72652.646619,40090.915870,40071.849832,-0.020000,0.960000,-0.234000,192.000000,255.000000,96.000000,30.000000,0.000000,248.000000,176.000000,0.000000,0.000000,0.000000,1647322511.433016,0.000000
233.000000,55263.481172,62106.177164,21004.850686,29388.542996,32582.204948,72732.330588,40102.963460,40108.774913,-0.020000,0.960000,-0.234000,192.000000,0.000000,0.000000,0.000000,0.000000,0.000000,0.000000,0.000000,0.000000,0.000000,1647322511.433022,0.000000
234.000000,55256.015689,62101.840925,21001.252055,29385.547863,32570.023247,72729.760138,40088.948916,40091.720532,-0.020000,0.960000,-0.234000,192.000000,0.000000,0.000000,0.000000,0.000000,0.000000,0.000000,0.000000,0.000000,0.000000,1647322511.441039,0.000000
235.000000,55262.318881,62115.587248,21011.019768,29396.299052,32574.560651,72662.257870,40079.091797,40052.940256,-0.020000,0.960000,-0.234000,192.000000,0.000000,0.000000,0.000000,0.000000,0.000000,0.000000,0.000000,0.000000,0.000000,1647322511.441053,0.000000
236.000000,55267.437430,62127.321914,21018.373492,29403.742183,32583.143721,72616.593256,40080.835233,40037.495200,-0.020000,0.960000,-0.234000,192.000000,0.000000,0.000000,0.000000,0.000000,0.000000,0.000000,0.000000,0.000000,0.000000,1647322511.449006,0.000000
237.000000,55268.778535,62115.363731,21014.417233,29398.847151,32589.469265,72670.684477,40097.308468,40071.648666,-0.020000,0.960000,-0.234000,192.000000,0.000000,0.000000,0.000000,0.000000,0.000000,0.000000,0.000000,0.000000,0.000000,1647322511.449013,0.000000
238.000000,55265.761049,62110.848678,21008.605779,29392.275738,32590.922128,72748.200327,40108.819617,40102.181149,-0.020000,0.960000,-0.234000,192.000000,0.000000,0.000000,0.000000,0.000000,0.000000,0.000000,0.000000,0.000000,0.000000,1647322511.455660,0.000000
239.000000,55256.596834,62104.232562,21004.247189,29387.693630,32580.014477,72748.110920,40089.217137,40081.349323,-0.020000,0.960000,-0.234000,192.000000,0.000000,0.000000,0.000000,0.000000,0.000000,0.000000,0.000000,0.000000,0.000000,1647322511.455667,0.000000
240.000000,55255.613357,62109.865202,21010.639788,29394.242691,32580.573270,72679.513416,40078.443596,40053.856677,-0.020000,0.960000,-0.234000,192.000000,0.000000,0.000000,0.000000,0.000000,0.000000,0.000000,0.000000,0.000000,0.000000,1647322511.463705,0.000000
241.000000,55261.022480,62116.593077,21012.450279,29396.522569,32583.456645,72627.120927,40079.829404,40042.054956,-0.020000,0.960000,-0.234000,192.000000,0.000000,0.000000,0.000000,0.000000,0.000000,0.000000,0.000000,0.000000,0.000000,1647322511.463712,0.000000
242.000000,55263.369413,62113.732053,21006.482364,29392.655717,32587.703477,72671.131512,40093.821596,40071.894535,-0.020000,0.960000,-0.232000,192.000000,255.000000,96.000000,30.000000,0.000000,248.000000,192.000000,0.000000,0.000000,0.000000,1647322511.470643,0.000000
243.000000,55260.866017,62115.453138,21001.207352,29385.234938,32588.530491,72738.589077,40106.383277,40098.783684,-0.020000,0.960000,-0.232000,192.000000,0.000000,0.000000,0.000000,0.000000,0.000000,0.000000,0.000000,0.000000,0.000000,1647322511.477761,0.000000
244.000000,55260.888369,62114.916696,21007.667006,29389.839398,32586.518834,72740.868955,40096.235585,40085.037361,-0.020000,0.960000,-0.232000,192.000000,0.000000,0.000000,0.000000,0.000000,0.000000,0.000000,0.000000,0.000000,0.000000,1647322511.477767,0.000000
245.000000,55265.068145,62113.061501,21014.126660,29395.807313,32585.915337,72677.613518,40085.394989,40052.627331,-0.020000,0.960000,-0.232000,192.000000,0.000000,0.000000,0.000000,0.000000,0.000000,0.000000,0.000000,0.000000,0.000000,1647322511.485280,0.000000
246.000000,55266.342195,62119.543507,21020.452204,29402.132857,32593.269061,72617.800250,40084.724436,40034.880046,-0.020000,0.960000,-0.232000,192.000000,0.000000,0.000000,0.000000,0.000000,0.000000,0.000000,0.000000,0.000000,0.000000,1647322511.485285,0.000000
247.000000,55267.504486,62121.711626,21018.373492,29398.824799,32599.907529,72663.844843,40101.175320,40070.776948,-0.020000,0.960000,-0.232000,192.000000,0.000000,0.000000,0.000000,0.000000,0.000000,0.000000,0.000000,0.000000,0.000000,1647322511.493340,0.000000
248.000000,55261.357756,62121.979847,21004.180134,29387.492464,32594.945442,72745.875746,40109.668983,40108.618451,-0.020000,0.960000,-0.232000,192.000000,0.000000,0.000000,0.000000,0.000000,0.000000,0.000000,0.000000,0.000000,0.000000,1647322511.493346,0.000000
249.000000,55252.685279,62108.546449,20995.552360,29379.401133,32577.622840,72747.462719,40083.629201,40088.703047,-0.020000,0.960000,-0.232000,192.000000,0.000000,0.000000,0.000000,0.000000,0.000000,0.000000,0.000000,0.000000,0.000000,1647322511.501306,0.000000
250.000000,55251.925320,62109.217001,21002.034366,29384.877310,32575.387666,72678.574643,40072.743901,40052.627331,-0.020000,0.960000,-0.232000,192.000000,0.000000,0.000000,0.000000,0.000000,0.000000,0.000000,0.000000,0.000000,0.000000,1647322511.501312,0.000000
251.000000,55256.730945,62115.810766,21004.828334,29388.587700,32578.539262,72619.789555,40075.359055,40037.651663,-0.020000,0.960000,-0.232000,192.000000,0.000000,0.000000,0.000000,0.000000,0.000000,0.000000,0.000000,0.000000,0.000000,1647322511.508405,0.000000
252.000000,55252.886445,62109.149946,20993.339538,29375.333115,32575.320610,72670.170387,40088.725399,40070.084044,-0.024000,0.958000,-0.232000,192.000000,255.000000,64.000000,29.000000,240.000000,248.000000,192.000000,0.000000,0.000000,0.000000,1647322511.508413,0.000000
253.000000,55257.893235,62106.713606,20995.597064,29372.896775,32581.422637,72740.824251,40105.690373,40107.165588,-0.024000,0.958000,-0.232000,192.000000,0.000000,0.000000,0.000000,0.000000,0.000000,0.000000,0.000000,0.000000,0.000000,1647322511.515880,0.000000
254.000000,55259.234340,62106.735957,21002.570808,29375.489578,32578.695724,72741.763025,40095.945012,40099.253070,-0.024000,0.958000,-0.232000,192.000000,0.000000,0.000000,0.000000,0.000000,0.000000,0.000000,0.000000,0.000000,0.000000,1647322511.515885,0.000000
255.000000,55258.966119,62111.787452,21004.627169,29376.093075,32573.912451,72677.971146,40077.661285,40065.121956,-0.024000,0.958000,-0.232000,192.000000,0.000000,0.000000,0.000000,0.000000,0.000000,0.000000,0.000000,0.000000,0.000000,1647322511.523976,0.000000
0.000000,55258.988471,62121.421054,21010.259808,29378.551767,32575.901756,72626.204506,40069.614657,40040.400927,-0.024000,0.958000,-0.232000,192.000000,0.000000,0.000000,0.000000,0.000000,0.000000,0.000000,0.000000,0.000000,0.000000,1647322511.523982,0.000000
1.000000,55263.212951,62125.399664,21009.142221,29375.266060,32584.998916,72678.105256,40089.641820,40077.661285,-0.024000,0.958000,-0.232000,192.000000,0.000000,0.000000,0.000000,0.000000,0.000000,0.000000,0.000000,0.000000,0.000000,1647322511.531072,0.000000
2.000000,55256.127448,62113.463833,20993.943035,29361.564441,32578.136930,72748.870879,40092.055809,40107.925547,-0.024000,0.958000,-0.232000,192.000000,0.000000,0.000000,0.000000,0.000000,0.000000,0.000000,0.000000,0.000000,0.000000,1647322511.537592,0.000000
3.000000,55257.490904,62107.942952,20999.866247,29371.645078,32577.064047,72732.643513,40069.927582,40077.437768,-0.024000,0.958000,-0.232000,192.000000,0.000000,0.000000,0.000000,0.000000,0.000000,0.000000,0.000000,0.000000,0.000000,1647322511.537599,0.000000
4.000000,55256.328613,62109.954609,20999.352157,29373.880252,32569.307991,72658.145149,40054.348416,40038.702195,-0.024000,0.958000,-0.232000,192.000000,0.000000,0.000000,0.000000,0.000000,0.000000,0.000000,0.000000,0.000000,0.000000,1647322511.545570,0.000000
5.000000,55257.893235,62113.083853,20997.005224,29372.114464,32566.223450,72593.302738,40057.187087,40016.775133,-0.024000,0.958000,-0.232000,192.000000,0.000000,0.000000,0.000000,0.000000,0.000000,0.000000,0.000000,0.000000,0.000000,1647322511.545578,0.000000
6.000000,55256.149799,62105.461908,20994.680642,29364.559575,32572.884270,72638.743834,40083.293925,40058.148212,-0.024000,0.970000,-0.226000,192.000000,255.000000,64.000000,30.000000,80.000000,248.000000,240.000000,0.000000,0.000000,0.000000,1647322511.553518,0.000000
7.000000,55246.762067,62092.944931,20986.298738,29350.768548,32569.643267,72712.191667,40095.877957,40098.694277,-0.024000,0.970000,-0.226000,192.000000,0.000000,0.000000,0.000000,0.000000,0.000000,0.000000,0.000000,0.000000,0.000000,1647322511.553523,0.000000
8.000000,55240.771799,62090.262722,20984.577654,29345.828813,32559.026189,72714.046861,40081.505785,40082.332800,-0.024000,0.970000,-0.226000,192.000000,0.000000,0.000000,0.000000,0.000000,0.000000,0.000000,0.000000,0.000000,0.000000,1647322511.560701,0.000000
9.000000,55242.671697,62096.074175,20988.466857,29345.784109,32554.444081,72638.833241,40067.245372,40032.778982,-0.024000,0.970000,-0.226000,192.000000,0.000000,0.000000,0.000000,0.000000,0.000000,0.000000,0.000000,0.000000,0.000000,1647322511.560706,0.000000
10.000000,55242.671697,62096.409452,20989.115058,29342.632513,32550.800747,72569.431075,40063.870259,40006.336869,-0.024000,0.970000,-0.226000,192.000000,0.000000,0.000000,0.000000,0.000000,0.000000,0.000000,0.000000,0.000000,0.000000,1647322511.568167,0.000000
11.000000,55246.672660,62097.996425,20987.148105,29341.067891,32557.729788,72624.908105,40087.026666,40066.083081,-0.024000,0.970000,-0.226000,192.000000,0.000000,0.000000,0.000000,0.000000,0.000000,0.000000,0.000000,0.000000,0.000000,1647322511.568171,0.000000
12.000000,55246.315032,62091.045033,20979.369697,29333.892981,32556.992180,72691.359841,40100.460064,40095.050942,-0.024000,0.970000,-0.226000,192.000000,0.000000,0.000000,0.000000,0.000000,0.000000,0.000000,0.000000,0.000000,0.000000,1647322511.576197,0.000000
13.000000,55245.040982,62094.084870,20983.549474,29337.692778,32553.795881,72682.106219,40092.234623,40085.462044,-0.024000,0.970000,-0.226000,192.000000,0.000000,0.000000,0.000000,0.000000,0.000000,0.000000,0.000000,0.000000,0.000000,1647322511.576201,0.000000
14.000000,55239.341288,62091.268550,20981.962500,29333.982388,32544.944590,72604.299796,40071.693369,40049.989825,-0.024000,0.970000,-0.226000,192.000000,0.000000,0.000000,0.000000,0.000000,0.000000,0.000000,0.000000,0.000000,0.000000,1647322511.584278,0.000000
15.000000,55242.291718,62095.604789,20984.085916,29335.524659,32546.509212,72558.009333,40062.350340,40040.892665,-0.024000,0.970000,-0.226000,192.000000,0.000000,0.000000,0.000000,0.000000,0.000000,0.000000,0.000000,0.000000,0.000000,1647322511.584283,0.000000
16.000000,55243.543415,62094.777774,20976.106343,29324.639359,32548.789090,72608.591331,40080.723474,40064.339645,-0.022000,0.966000,-0.230000,192.000000,255.000000,80.000000,30.000000,48.000000,248.000000,208.000000,0.000000,0.000000,0.000000,1647322511.590418,0.000000
17.000000,55244.392782,62086.619387,20970.585462,29313.441135,32550.063139,72673.411390,40095.654439,40106.495035,-0.022000,0.966000,-0.230000,192.000000,0.000000,0.000000,0.000000,0.000000,0.000000,0.000000,0.000000,0.000000,0.000000,1647322511.597863,0.000000
18.000000,55243.543415,62091.693233,20975.346383,29318.067946,32547.671503,72668.382247,40085.015009,40094.626259,-0.022000,0.966000,-0.230000,192.000000,0.000000,0.000000,0.000000,0.000000,0.000000,0.000000,0.000000,0.000000,0.000000,1647322511.597868,0.000000
19.000000,55238.648383,62086.887608,20977.290985,29319.476106,32542.552953,72613.687529,40067.401834,40063.065596,-0.022000,0.966000,-0.230000,192.000000,0.000000,0.000000,0.000000,0.000000,0.000000,0.000000,0.000000,0.000000,0.000000,1647322511.605896,0.000000
20.000000,55235.742657,62084.451268,20975.525197,29312.927045,32536.272113,72557.025857,40048.939293,40033.494238,-0.022000,0.966000,-0.230000,192.000000,0.000000,0.000000,0.000000,0.000000,0.000000,0.000000,0.000000,0.000000,0.000000,1647322511.605902,0.000000
21.000000,55235.563843,62088.407527,20967.903253,29301.460600,32534.171049,72602.444601,40072.676846,40060.986884,-0.022000,0.966000,-0.230000,192.000000,0.000000,0.000000,0.000000,0.000000,0.000000,0.000000,0.000000,0.000000,0.000000,1647322511.613900,0.000000
22.000000,55240.280061,62088.049899,20967.009183,29299.359536,32538.082604,72664.895375,40089.038323,40097.330820,-0.022000,0.966000,-0.230000,192.000000,0.000000,0.000000,0.000000,0.000000,0.000000,0.000000,0.000000,0.000000,0.000000,1647322511.613939,0.000000
23.000000,55240.660040,62090.106260,20969.534930,29302.220559,32534.059290,72663.263698,40078.667114,40087.965439,-0.022000,0.966000,-0.230000,192.000000,0.000000,0.000000,0.000000,0.000000,0.000000,0.000000,0.000000,0.000000,0.000000,1647322511.620468,0.000000
24.000000,55235.563843,62085.099469,20970.987793,29305.103934,32529.052499,72604.478610,40062.864430,40045.742994,-0.022000,0.966000,-0.230000,192.000000,0.000000,0.000000,0.000000,0.000000,0.000000,0.000000,0.000000,0.000000,0.000000,1647322511.620473,0.000000
25.000000,55237.351982,62082.819591,20972.619471,29308.546103,32529.164258,72552.779025,40059.444613,40024.799409,-0.022000,0.966000,-0.230000,192.000000,0.000000,0.000000,0.000000,0.000000,0.000000,0.000000,0.000000,0.000000,0.000000,1647322511.628484,0.000000
26.000000,55242.090552,62082.998405,20968.685564,29304.768658,32533.724014,72607.741965,40078.085968,40064.093776,-0.018000,0.954000,-0.224000,192.000000,255.000000,112.000000,29.000000,208.000000,249.000000,0.000000,0.000000,0.000000,0.000000,1647322511.628491,0.000000
27.000000,55240.369468,62081.702004,20961.667116,29296.185588,32532.941703,72676.786503,40077.393064,40089.038323,-0.018000,0.954000,-0.224000,192.000000,0.000000,0.000000,0.000000,0.000000,0.000000,0.000000,0.000000,0.000000,0.000000,1647322511.636494,0.000000
28.000000,55234.155683,62079.310367,20961.108322,29294.620966,32525.118592,72679.580471,40047.575837,40060.495145,-0.018000,0.954000,-0.224000,192.000000,0.000000,0.000000,0.000000,0.000000,0.000000,0.000000,0.000000,0.000000,0.000000,1647322511.636499,0.000000
29.000000,55240.727096,62090.597998,20973.513540,29307.540275,32530.997101,72613.151087,40058.997579,40041.406756,-0.018000,0.954000,-0.224000,192.000000,0.000000,0.000000,0.000000,0.000000,0.000000,0.000000,0.000000,0.000000,0.000000,1647322511.643705,0.000000
30.000000,55246.158570,62097.124707,20981.381354,29314.804592,32537.076776,72552.264935,40057.991750,40033.404831,-0.018000,0.954000,-0.224000,192.000000,0.000000,0.000000,0.000000,0.000000,0.000000,0.000000,0.000000,0.000000,0.000000,1647322511.643711,0.000000
31.000000,55249.399573,62094.777774,20979.168532,29312.345900,32545.883363,72605.707956,40074.152061,40070.285209,-0.018000,0.954000,-0.224000,192.000000,0.000000,0.000000,0.000000,0.000000,0.000000,0.000000,0.000000,0.000000,0.000000,1647322511.650168,0.000000
32.000000,55250.338346,62092.006158,20975.256977,29306.556798,32547.805613,72676.562986,40084.746788,40090.602945,-0.018000,0.954000,-0.224000,192.000000,0.000000,0.000000,0.000000,0.000000,0.000000,0.000000,0.000000,0.000000,0.000000,1647322511.650174,0.000000
33.000000,55242.247014,62084.406565,20970.317241,29301.527655,32535.914485,72676.630041,40055.197782,40067.334779,-0.018000,0.954000,-0.224000,192.000000,0.000000,0.000000,0.000000,0.000000,0.000000,0.000000,0.000000,0.000000,0.000000,1647322511.658097,0.000000
34.000000,55246.315032,62088.429879,20975.391087,29305.059231,32531.980578,72601.215255,40046.838230,40027.079287,-0.018000,0.954000,-0.224000,192.000000,0.000000,0.000000,0.000000,0.000000,0.000000,0.000000,0.000000,0.000000,0.000000,1647322511.666134,0.000000
35.000000,55252.640575,62098.085832,20983.393011,29313.664653,32537.724976,72534.964685,40045.899456,40014.852883,-0.018000,0.954000,-0.224000,192.000000,0.000000,0.000000,0.000000,0.000000,0.000000,0.000000,0.000000,0.000000,0.000000,1647322511.666138,0.000000
36.000000,55246.091514,62091.179143,20973.245320,29300.253606,32537.814383,72592.431020,40051.912076,40056.538887,-0.026000,0.952000,-0.222000,192.000000,255.000000,48.000000,29.000000,192.000000,249.000000,16.000000,0.000000,0.000000,0.000000,1647322511.673235,0.000000
37.000000,55253.020555,62094.800126,20975.122866,29296.073830,32545.011645,72663.643678,40077.370712,40080.924640,-0.026000,0.952000,-0.222000,192.000000,0.000000,0.000000,0.000000,0.000000,0.000000,0.000000,0.000000,0.000000,0.000000,1647322511.673239,0.000000
38.000000,55242.761104,62089.435707,20972.060677,29291.871702,32532.606427,72671.399733,40059.645779,40054.393119,-0.026000,0.952000,-0.222000,192.000000,0.000000,0.000000,0.000000,0.000000,0.000000,0.000000,0.000000,0.000000,0.000000,1647322511.680791,0.000000
39.000000,55234.692125,62076.896379,20971.032497,29291.558777,32521.609369,72604.568017,40031.527285,40013.310613,-0.026000,0.952000,-0.222000,192.000000,0.000000,0.000000,0.000000,0.000000,0.000000,0.000000,0.000000,0.000000,0.000000,1647322511.680797,0.000000
40.000000,55247.767895,62094.040167,20983.661232,29302.242911,32530.684177,72545.358246,40040.110354,40006.180406,-0.026000,0.952000,-0.222000,192.000000,0.000000,0.000000,0.000000,0.000000,0.000000,0.000000,0.000000,0.000000,0.000000,1647322511.688793,0.000000
41.000000,55251.724154,62100.186896,20976.016936,29294.531559,32533.522848,72590.374659,40062.886782,40040.892665,-0.026000,0.952000,-0.222000,192.000000,0.000000,0.000000,0.000000,0.000000,0.000000,0.000000,0.000000,0.000000,0.000000,1647322511.688799,0.000000
42.000000,55256.172151,62095.671844,20975.726363,29299.538350,32539.513116,72680.765114,40085.260878,40097.531986,-0.026000,0.952000,-0.222000,192.000000,0.000000,0.000000,0.000000,0.000000,0.000000,0.000000,0.000000,0.000000,0.000000,1647322511.695999,0.000000
43.000000,55248.572558,62088.429879,20972.753581,29298.688984,32528.516058,72688.655280,40065.233715,40072.676846,-0.026000,0.952000,-0.222000,192.000000,0.000000,0.000000,0.000000,0.000000,0.000000,0.000000,0.000000,0.000000,0.000000,1647322511.696010,0.000000
44.000000,55238.246052,62082.037280,20966.696258,29291.715239,32517.898979,72615.006282,40031.482581,40021.424296,-0.026000,0.952000,-0.222000,192.000000,0.000000,0.000000,0.000000,0.000000,0.000000,0.000000,0.000000,0.000000,0.000000,1647322511.703438,0.000000
45.000000,55237.441389,62082.372556,20964.125808,29289.658879,32514.322700,72557.584650,40033.673052,40001.643002,-0.026000,0.952000,-0.222000,192.000000,0.000000,0.000000,0.000000,0.000000,0.000000,0.000000,0.000000,0.000000,0.000000,1647322511.703443,0.000000
46.000000,55240.391820,62087.200533,20964.282270,29288.630699,32523.375156,72611.027671,40053.521401,40050.772137,-0.020000,0.948000,-0.212000,192.000000,255.000000,96.000000,29.000000,160.000000,249.000000,96.000000,0.000000,0.000000,0.000000,1647322511.711421,0.000000
47.000000,55241.576462,62083.400736,20958.716686,29282.908652,32522.637549,72683.268509,40057.410605,40081.662247,-0.020000,0.948000,-0.212000,192.000000,0.000000,0.000000,0.000000,0.000000,0.000000,0.000000,0.000000,0.000000,0.000000,1647322511.711425,0.000000
48.000000,55242.336421,62083.892475,20963.254090,29286.686097,32518.860104,72684.430800,40047.441727,40061.500974,-0.020000,0.948000,-0.212000,192.000000,0.000000,0.000000,0.000000,0.000000,0.000000,0.000000,0.000000,0.000000,0.000000,1647322511.718436,0.000000
49.000000,55243.923395,62088.519286,20970.607814,29292.050516,32518.591883,72617.934360,40033.181314,40014.741124,-0.020000,0.948000,-0.212000,192.000000,0.000000,0.000000,0.000000,0.000000,0.000000,0.000000,0.000000,0.000000,0.000000,1647322511.725707,0.000000
50.000000,55251.679450,62099.091661,20977.201578,29296.722030,32523.553970,72555.863566,40027.727488,39994.937479,-0.020000,0.948000,-0.212000,192.000000,0.000000,0.000000,0.000000,0.000000,0.000000,0.000000,0.000000,0.000000,0.000000,1647322511.725711,0.000000
51.000000,55257.937939,62097.728204,20971.591290,29287.244891,32528.069023,72593.392145,40035.304729,40033.918921,-0.020000,0.948000,-0.212000,192.000000,0.000000,0.000000,0.000000,0.000000,0.000000,0.000000,0.000000,0.000000,0.000000,1647322511.733067,0.000000
52.000000,55243.968099,62083.356033,20960.862453,29271.799835,32522.861066,72668.851634,40052.180296,40080.857585,-0.020000,0.948000,-0.212000,192.000000,0.000000,0.000000,0.000000,0.000000,0.000000,0.000000,0.000000,0.000000,0.000000,1647322511.733072,0.000000
53.000000,55236.144988,62072.068402,20960.236604,29272.202167,32517.049613,72672.964355,40044.021910,40067.044207,-0.020000,0.948000,-0.212000,192.000000,0.000000,0.000000,0.000000,0.000000,0.000000,0.000000,0.000000,0.000000,0.000000,1647322511.741035,0.000000
54.000000,55247.387916,62091.626178,20974.094686,29293.771600,32527.778450,72606.847895,40032.957796,40030.812029,-0.020000,0.948000,-0.212000,192.000000,0.000000,0.000000,0.000000,0.000000,0.000000,0.000000,0.000000,0.000000,0.000000,1647322511.741039,0.000000
55.000000,55257.177980,62110.044016,20979.906139,29301.885283,32532.561723,72537.982170,40026.676956,39992.277621,-0.020000,0.948000,-0.212000,192.000000,0.000000,0.000000,0.000000,0.000000,0.000000,0.000000,0.000000,0.000000,0.000000,1647322511.749043,0.000000
56.000000,55252.528817,62094.151925,20973.290023,29293.413972,32535.914485,72596.186113,40052.940256,40048.246389,-0.026000,0.952000,-0.214000,192.000000,255.000000,48.000000,29.000000,192.000000,249.000000,80.000000,0.000000,0.000000,0.000000,1647322511.749048,0.000000
57.000000,55249.287814,62085.926483,20964.058753,29286.708449,32534.215752,72684.050820,40061.031587,40091.586422,-0.026000,0.952000,-0.214000,192.000000,0.000000,0.000000,0.000000,0.000000,0.000000,0.000000,0.000000,0.000000,0.000000,1647322511.755714,0.000000
58.000000,55249.220759,62088.675748,20968.909081,29294.643318,32532.673482,72696.679556,40052.627331,40081.394026,-0.026000,0.952000,-0.214000,192.000000,0.000000,0.000000,0.000000,0.000000,0.000000,0.000000,0.000000,0.000000,0.000000,1647322511.755719,0.000000
59.000000,55245.085686,62084.853600,20970.898386,29295.492684,32526.549104,72628.931419,40031.884912,40040.423279,-0.026000,0.952000,-0.214000,192.000000,0.000000,0.000000,0.000000,0.000000,0.000000,0.000000,0.000000,0.000000,0.000000,1647322511.763772,0.000000
60.000000,55251.098305,62094.286036,20978.676793,29299.426591,32529.812459,72561.652668,40022.944215,40013.847055,-0.026000,0.952000,-0.214000,192.000000,0.000000,0.000000,0.000000,0.000000,0.000000,0.000000,0.000000,0.000000,0.000000,1647322511.763777,0.000000
61.000000,55252.774686,62092.095565,20974.161741,29289.524769,32533.344034,72608.256055,40034.723584,40053.029663,-0.026000,0.952000,-0.214000,192.000000,0.000000,0.000000,0.000000,0.000000,0.000000,0.000000,0.000000,0.000000,0.000000,1647322511.771691,0.000000
62.000000,55244.906872,62081.187914,20962.650593,29275.040838,32528.806630,72687.537692,40046.882933,40091.273497,-0.026000,0.952000,-0.214000,192.000000,0.000000,0.000000,0.000000,0.000000,0.000000,0.000000,0.000000,0.000000,0.000000,1647322511.771695,0.000000
63.000000,55241.308241,62085.010062,20962.628241,29277.007792,32522.481087,72692.857408,40031.706099,40076.230773,-0.026000,0.952000,-0.214000,192.000000,0.000000,0.000000,0.000000,0.000000,0.000000,0.000000,0.000000,0.000000,0.000000,1647322511.778878,0.000000
64.000000,55248.505503,62095.224809,20972.574767,29289.256548,32526.347938,72617.867305,40029.694442,40029.202703,-0.026000,0.952000,-0.214000,192.000000,0.000000,0.000000,0.000000,0.000000,0.000000,0.000000,0.000000,0.000000,0.000000,1647322511.785261,0.000000
65.000000,55247.611433,62099.248123,20971.725401,29293.145751,32526.102069,72551.952011,40025.179389,40016.059877,-0.026000,0.952000,-0.214000,192.000000,0.000000,0.000000,0.000000,0.000000,0.000000,0.000000,0.000000,0.000000,0.000000,1647322511.785271,0.000000
66.000000,55248.170227,62088.474582,20965.131636,29289.122437,32530.035976,72604.143334,40038.255160,40057.477660,-0.026000,0.952000,-0.214000,192.000000,0.000000,0.000000,0.000000,0.000000,0.000000,0.000000,0.000000,0.000000,0.000000,1647322511.793292,0.000000
67.000000,55251.902968,62083.043108,20961.220081,29285.657917,32533.433441,72685.928367,40053.856677,40098.113131,-0.022000,0.958000,-0.222000,192.000000,255.000000,80.000000,29.000000,240.000000,249.000000,16.000000,0.000000,0.000000,0.000000,1647322511.793296,0.000000
68.000000,55246.940881,62084.406565,20965.221043,29288.206016,32530.617122,72706.402565,40046.860581,40100.683582,-0.022000,0.958000,-0.222000,192.000000,0.000000,0.000000,0.000000,0.000000,0.000000,0.000000,0.000000,0.000000,0.000000,1647322511.801320,0.000000
69.000000,55240.570633,62081.567893,20966.428037,29288.720106,32522.034052,72634.407596,40027.235750,40055.264837,-0.022000,0.958000,-0.222000,192.000000,0.000000,0.000000,0.000000,0.000000,0.000000,0.000000,0.000000,0.000000,0.000000,1647322511.801324,0.000000
70.000000,55244.549244,62084.898303,20967.813846,29290.262376,32521.385851,72548.107511,40006.314517,40009.957851,-0.022000,0.958000,-0.222000,192.000000,0.000000,0.000000,0.000000,0.000000,0.000000,0.000000,0.000000,0.000000,0.000000,1647322511.808506,0.000000
71.000000,55237.776665,62078.349242,20956.749732,29277.052495,32520.491781,72578.371773,40023.055973,40029.180351,-0.022000,0.958000,-0.222000,192.000000,0.000000,0.000000,0.000000,0.000000,0.000000,0.000000,0.000000,0.000000,0.000000,1647322511.808512,0.000000
72.000000,55240.570633,62081.165562,20955.833311,29276.650164,32525.967959,72663.576622,40045.139497,40083.740960,-0.022000,0.958000,-0.222000,192.000000,0.000000,0.000000,0.000000,0.000000,0.000000,0.000000,0.000000,0.000000,0.000000,1647322511.815986,0.000000
73.000000,55239.900081,62084.205399,20956.213290,29276.359591,32517.049613,72682.441495,40018.004479,40077.191898,-0.022000,0.958000,-0.222000,192.000000,0.000000,0.000000,0.000000,0.000000,0.000000,0.000000,0.000000,0.000000,0.000000,1647322511.815990,0.000000
74.000000,55237.597851,62083.736012,20957.062657,29274.951431,32507.639528,72615.967407,39996.055066,40033.561293,-0.022000,0.958000,-0.222000,192.000000,0.000000,0.000000,0.000000,0.000000,0.000000,0.000000,0.000000,0.000000,0.000000,1647322511.823991,0.000000
75.000000,55236.033229,62083.177219,20965.310450,29279.131207,32511.595787,72550.253278,39999.631345,40001.710057,-0.022000,0.958000,-0.222000,192.000000,0.000000,0.000000,0.000000,0.000000,0.000000,0.000000,0.000000,0.000000,0.000000,1647322511.823995,0.000000
76.000000,55242.984622,62077.566931,20965.958651,29277.164254,32522.659901,72599.404764,40041.652625,40053.074366,-0.022000,0.958000,-0.222000,192.000000,0.000000,0.000000,0.000000,0.000000,0.000000,0.000000,0.000000,0.000000,0.000000,1647322511.832814,0.000000
77.000000,55242.023497,62075.398812,20962.494130,29269.542309,32524.336281,72681.368611,40044.267779,40100.795341,-0.018000,0.964000,-0.210000,192.000000,255.000000,112.000000,30.000000,32.000000,249.000000,112.000000,0.000000,0.000000,0.000000,1647322511.832818,0.000000
78.000000,55235.921471,62070.973166,20961.153026,29265.295478,32515.507342,72694.980823,40027.638081,40081.394026,-0.018000,0.964000,-0.210000,192.000000,0.000000,0.000000,0.000000,0.000000,0.000000,0.000000,0.000000,0.000000,0.000000,1647322511.838838,0.000000
79.000000,55234.245090,62068.603881,20962.315316,29271.665725,32511.528732,72624.103442,40017.691555,40038.545732,-0.018000,0.964000,-0.210000,192.000000,0.000000,0.000000,0.000000,0.000000,0.000000,0.000000,0.000000,0.000000,0.000000,1647322511.846464,0.000000
80.000000,55231.965212,62073.253044,20962.203558,29274.392638,32510.299386,72566.905328,40015.858712,40030.364994,-0.018000,0.964000,-0.210000,192.000000,0.000000,0.000000,0.000000,0.000000,0.000000,0.000000,0.000000,0.000000,0.000000,1647322511.846467,0.000000
81.000000,55238.514273,62090.195667,20957.286174,29273.722085,32517.630758,72612.815811,40015.054049,40054.907209,-0.018000,0.964000,-0.210000,192.000000,0.000000,0.000000,0.000000,0.000000,0.000000,0.000000,0.000000,0.000000,0.000000,1647322511.852943,0.000000
82.000000,55238.223700,62073.990652,20951.385313,29267.932983,32518.502476,72672.405561,40000.480712,40066.060730,-0.018000,0.964000,-0.210000,192.000000,0.000000,0.000000,0.000000,0.000000,0.000000,0.000000,0.000000,0.000000,0.000000,1647322511.852948,0.000000
83.000000,55229.283003,62065.452285,20945.953840,29261.003943,32506.343127,72678.887567,39980.654714,40053.610808,-0.018000,0.964000,-0.210000,192.000000,0.000000,0.000000,0.000000,0.000000,0.000000,0.000000,0.000000,0.000000,0.000000,1647322511.860938,0.000000
84.000000,55233.395724,62074.549445,20955.520386,29266.435417,32507.103086,72625.623360,40020.150247,40036.578779,-0.018000,0.964000,-0.210000,192.000000,0.000000,0.000000,0.000000,0.000000,0.000000,0.000000,0.000000,0.000000,0.000000,1647322511.860941,0.000000
85.000000,55231.808750,62072.895416,20954.067523,29263.999076,32501.179874,72571.219214,39992.590546,40021.424296,-0.018000,0.964000,-0.210000,192.000000,0.000000,0.000000,0.000000,0.000000,0.000000,0.000000,0.000000,0.000000,0.000000,1647322511.868990,0.000000
86.000000,55226.824311,62070.772001,20944.277459,29253.985495,32498.609423,72609.731270,39991.405903,40039.506857,-0.018000,0.964000,-0.210000,192.000000,0.000000,0.000000,0.000000,0.000000,0.000000,0.000000,0.000000,0.000000,0.000000,1647322511.869001,0.000000
87.000000,55223.851529,62063.395925,20937.057845,29244.396596,32496.441304,72682.106219,40022.296014,40069.502898,-0.018000,0.960000,-0.212000,192.000000,255.000000,112.000000,30.000000,0.000000,249.000000,96.000000,0.000000,0.000000,0.000000,1647322511.876125,0.000000
88.000000,55225.214985,62055.908091,20938.913040,29247.011751,32492.529749,72716.125574,40034.455363,40087.876032,-0.018000,0.960000,-0.212000,192.000000,0.000000,0.000000,0.000000,0.000000,0.000000,0.000000,0.000000,0.000000,0.000000,1647322511.876129,0.000000
89.000000,55226.600793,62065.519341,20951.809997,29258.679361,32496.106028,72643.594163,39998.804331,40051.286227,-0.018000,0.960000,-0.212000,192.000000,0.000000,0.000000,0.000000,0.000000,0.000000,0.000000,0.000000,0.000000,0.000000,1647322511.883642,0.000000
90.000000,55227.383104,62075.689384,20955.006296,29264.647277,32496.418953,72575.957784,39986.890851,40027.347508,-0.018000,0.960000,-0.212000,192.000000,0.000000,0.000000,0.000000,0.000000,0.000000,0.000000,0.000000,0.000000,0.000000,1647322511.883646,0.000000
91.000000,55234.602718,62088.206361,20951.564127,29262.501509,32504.376174,72620.594218,40009.644927,40063.423224,-0.018000,0.960000,-0.212000,192.000000,0.000000,0.000000,0.000000,0.000000,0.000000,0.000000,0.000000,0.000000,0.000000,1647322511.891530,0.000000
92.000000,55233.038096,62078.706870,20945.484453,29255.170137,32504.040897,72690.555178,40031.773154,40098.157835,-0.018000,0.960000,-0.212000,192.000000,0.000000,0.000000,0.000000,0.000000,0.000000,0.000000,0.000000,0.000000,0.000000,1647322511.891534,0.000000
93.000000,55223.650363,62071.107277,20939.628296,29245.223611,32490.763961,72711.096431,40025.492314,40095.386218,-0.018000,0.960000,-0.212000,192.000000,0.000000,0.000000,0.000000,0.000000,0.000000,0.000000,0.000000,0.000000,0.000000,1647322511.898587,0.000000
94.000000,55228.053657,62079.377422,20950.178319,29257.561774,32494.474351,72641.180174,40001.553595,40050.660378,-0.018000,0.960000,-0.212000,192.000000,0.000000,0.000000,0.000000,0.000000,0.000000,0.000000,0.000000,0.000000,0.000000,1647322511.898591,0.000000
95.000000,55230.668811,62071.666070,20955.788607,29265.966030,32497.134208,72572.850892,39977.614877,40019.479694,-0.018000,0.960000,-0.212000,192.000000,0.000000,0.000000,0.000000,0.000000,0.000000,0.000000,0.000000,0.000000,0.000000,1647322511.905966,0.000000
96.000000,55230.333535,62074.683556,20951.094741,29259.394617,32502.029240,72614.849820,40003.788770,40053.946084,-0.018000,0.960000,-0.212000,192.000000,0.000000,0.000000,0.000000,0.000000,0.000000,0.000000,0.000000,0.000000,0.000000,1647322511.913461,0.000000
97.000000,55223.292735,62067.195722,20940.544717,29245.044797,32496.374249,72689.124666,40025.805238,40089.977096,-0.030000,0.954000,-0.216000,192.000000,255.000000,16.000000,29.000000,208.000000,249.000000,64.000000,0.000000,0.000000,0.000000,1647322511.913472,0.000000
98.000000,55221.370485,62070.637890,20943.495148,29247.682303,32493.312060,72709.084774,40004.213453,40085.417340,-0.030000,0.954000,-0.216000,192.000000,0.000000,0.000000,0.000000,0.000000,0.000000,0.000000,0.000000,0.000000,0.000000,1647322511.921510,0.000000
99.000000,55220.945802,62085.524152,20948.412531,29250.006884,32490.898072,72637.201564,39986.913203,40042.658453,-0.030000,0.954000,-0.216000,192.000000,0.000000,0.000000,0.000000,0.000000,0.000000,0.000000,0.000000,0.000000,0.000000,1647322511.921521,0.000000
100.000000,55223.113921,62082.372556,20953.978116,29253.136129,32490.674554,72565.050133,39972.652790,40012.952985,-0.030000,0.954000,-0.216000,192.000000,0.000000,0.000000,0.000000,0.000000,0.000000,0.000000,0.000000,0.000000,0.000000,1647322511.929655,0.000000
101.000000,55231.026439,62080.226789,20951.586479,29253.471405,32500.084639,72612.502886,39996.144473,40059.131689,-0.030000,0.954000,-0.216000,192.000000,0.000000,0.000000,0.000000,0.000000,0.000000,0.000000,0.000000,0.000000,0.000000,1647322511.929671,0.000000
102.000000,55235.206215,62080.025623,20942.824595,29246.564716,32499.615252,72685.235463,39996.502101,40098.381352,-0.030000,0.954000,-0.216000,192.000000,0.000000,0.000000,0.000000,0.000000,0.000000,0.000000,0.000000,0.000000,0.000000,1647322511.936084,0.000000
103.000000,55216.721322,62068.358012,20938.108377,29242.586105,32488.685249,72697.171294,39975.826737,40084.478567,-0.030000,0.954000,-0.216000,192.000000,0.000000,0.000000,0.000000,0.000000,0.000000,0.000000,0.000000,0.000000,0.000000,1647322511.936095,0.000000
104.000000,55214.597906,62077.812800,20940.879994,29244.374245,32484.080790,72635.659294,39970.328208,40049.721605,-0.030000,0.954000,-0.216000,192.000000,0.000000,0.000000,0.000000,0.000000,0.000000,0.000000,0.000000,0.000000,0.000000,1647322511.944035,0.000000
105.000000,55217.146005,62069.296786,20940.879994,29245.894163,32481.733856,72559.193976,39954.212600,40014.271738,-0.030000,0.954000,-0.216000,192.000000,0.000000,0.000000,0.000000,0.000000,0.000000,0.000000,0.000000,0.000000,0.000000,1647322511.944046,0.000000
106.000000,55214.307334,62059.462018,20929.994694,29232.237247,32479.252813,72594.956767,39962.102766,40052.180296,-0.030000,0.954000,-0.216000,192.000000,0.000000,0.000000,0.000000,0.000000,0.000000,0.000000,0.000000,0.000000,0.000000,1647322511.952072,0.000000
107.000000,55206.037188,62054.365820,20919.042339,29220.390823,32475.810644,72685.324870,39982.286392,40086.400817,-0.028000,0.956000,-0.214000,192.000000,255.000000,32.000000,29.000000,224.000000,249.000000,80.000000,0.000000,0.000000,0.000000,1647322511.952097,0.000000
108.000000,55200.672770,62051.884777,20919.131746,29221.463707,32470.423874,72718.472507,39972.451624,40082.109282,-0.028000,0.956000,-0.214000,192.000000,0.000000,0.000000,0.000000,0.000000,0.000000,0.000000,0.000000,0.000000,0.000000,1647322511.959046,0.000000
109.000000,55209.680523,62062.725373,20934.085063,29236.908762,32478.626964,72651.640791,39965.276714,40043.507820,-0.028000,0.956000,-0.214000,192.000000,0.000000,0.000000,0.000000,0.000000,0.000000,0.000000,0.000000,0.000000,0.000000,1647322511.959057,0.000000
110.000000,55213.010933,62067.307480,20942.154043,29243.033140,32484.885452,72587.200712,39950.569266,40020.217302,-0.028000,0.956000,-0.214000,192.000000,0.000000,0.000000,0.000000,0.000000,0.000000,0.000000,0.000000,0.000000,0.000000,1647322511.965575,0.000000
111.000000,55205.970133,62060.356088,20929.368845,29228.817431,32482.605574,72636.754529,39954.212600,40057.075328,-0.028000,0.956000,-0.214000,192.000000,0.000000,0.000000,0.000000,0.000000,0.000000,0.000000,0.000000,0.000000,0.000000,1647322511.973854,0.000000
112.000000,55204.807842,62053.672916,20917.902400,29216.613378,32476.883528,72705.933178,39951.239818,40082.288096,-0.028000,0.956000,-0.214000,192.000000,0.000000,0.000000,0.000000,0.000000,0.000000,0.000000,0.000000,0.000000,0.000000,1647322511.973869,0.000000
113.000000,55201.589191,62050.431913,20915.376653,29216.166343,32471.116778,72713.666882,39938.186400,40069.614657,-0.028000,0.956000,-0.214000,192.000000,0.000000,0.000000,0.000000,0.000000,0.000000,0.000000,0.000000,0.000000,0.000000,1647322511.981891,0.000000
114.000000,55208.272363,62067.530998,20928.005389,29233.243076,32478.895185,72654.211242,39939.013414,40049.721605,-0.028000,0.956000,-0.214000,192.000000,0.000000,0.000000,0.000000,0.000000,0.000000,0.000000,0.000000,0.000000,0.000000,1647322511.981908,0.000000
115.000000,55211.580421,62076.069364,20928.854755,29237.601666,32478.895185,72595.023822,39941.002720,40035.058860,-0.028000,0.956000,-0.214000,192.000000,0.000000,0.000000,0.000000,0.000000,0.000000,0.000000,0.000000,0.000000,0.000000,1647322511.988646,0.000000
116.000000,55217.034247,62078.103373,20932.811014,29238.406329,32491.300403,72639.436738,39955.218429,40064.071424,-0.028000,0.956000,-0.214000,192.000000,0.000000,0.000000,0.000000,0.000000,0.000000,0.000000,0.000000,0.000000,0.000000,1647322511.988655,0.000000
117.000000,55214.933183,62072.135457,20929.592363,29229.487983,32492.865025,72705.799068,39953.027958,40089.574765,-0.028000,0.958000,-0.214000,192.000000,255.000000,32.000000,29.000000,240.000000,249.000000,80.000000,0.000000,0.000000,0.000000,1647322511.996385,0.000000
118.000000,55210.731055,62071.666070,20927.223078,29225.777593,32482.516167,72729.335455,39947.216504,40085.193823,-0.028000,0.958000,-0.214000,192.000000,0.000000,0.000000,0.000000,0.000000,0.000000,0.000000,0.000000,0.000000,0.000000,1647322511.996401,0.000000
119.000000,55210.909869,62076.918730,20932.676903,29234.494774,32481.376228,72667.644640,39937.649958,40048.201686,-0.028000,0.958000,-0.214000,192.000000,0.000000,0.000000,0.000000,0.000000,0.000000,0.000000,0.000000,0.000000,0.000000,1647322512.004242,0.000000
120.000000,55211.647476,62078.036318,20935.336761,29239.725082,32481.800912,72609.708918,39914.471199,40017.691555,-0.028000,0.958000,-0.214000,192.000000,0.000000,0.000000,0.000000,0.000000,0.000000,0.000000,0.000000,0.000000,0.000000,1647322512.004251,0.000000
121.000000,55208.160604,62070.593187,20924.384406,29230.024425,32480.325697,72646.276372,39907.184530,40032.533113,-0.028000,0.958000,-0.214000,192.000000,0.000000,0.000000,0.000000,0.000000,0.000000,0.000000,0.000000,0.000000,0.000000,1647322512.011282,0.000000
122.000000,55208.831156,62062.054820,20919.355264,29224.727061,32482.180891,72707.944835,39921.959033,40067.915925,-0.028000,0.958000,-0.214000,192.000000,0.000000,0.000000,0.000000,0.000000,0.000000,0.000000,0.000000,0.000000,0.000000,1647322512.011290,0.000000
123.000000,55204.986656,62060.311384,20920.808127,29226.761070,32477.889356,72731.302408,39933.850161,40079.561183,-0.028000,0.958000,-0.214000,192.000000,0.000000,0.000000,0.000000,0.000000,0.000000,0.000000,0.000000,0.000000,0.000000,1647322512.018763,0.000000
124.000000,55206.551278,62067.620405,20925.278476,29232.974855,32475.721237,72650.076169,39895.986306,40034.410660,-0.028000,0.958000,-0.214000,192.000000,0.000000,0.000000,0.000000,0.000000,0.000000,0.000000,0.000000,0.000000,0.000000,1647322512.018770,0.000000
125.000000,55208.920563,62071.710774,20926.731339,29234.695939,32473.955449,72589.547645,39887.760864,40020.060840,-0.028000,0.958000,-0.214000,192.000000,0.000000,0.000000,0.000000,0.000000,0.000000,0.000000,0.000000,0.000000,0.000000,1647322512.025847,0.000000
126.000000,55205.925430,62066.949852,20920.741072,29222.625997,32473.262545,72633.982913,39907.452751,40050.995654,-0.028000,0.958000,-0.214000,192.000000,0.000000,0.000000,0.000000,0.000000,0.000000,0.000000,0.000000,0.000000,0.000000,1647322512.033856,0.000000
127.000000,55201.969171,62059.685535,20911.822726,29214.981701,32472.144958,72708.235408,39925.244740,40078.220079,-0.026000,0.960000,-0.210000,192.000000,255.000000,48.000000,30.000000,0.000000,249.000000,112.000000,0.000000,0.000000,0.000000,1647322512.033868,0.000000
128.000000,55195.911848,62055.930442,20907.307673,29215.629901,32462.868984,72734.163431,39919.567397,40082.668076,-0.026000,0.960000,-0.210000,192.000000,0.000000,0.000000,0.000000,0.000000,0.000000,0.000000,0.000000,0.000000,0.000000,1647322512.041077,0.000000
129.000000,55193.006121,62061.808951,20906.771232,29219.474401,32453.548307,72672.293803,39898.444998,40047.486430,-0.026000,0.960000,-0.210000,192.000000,0.000000,0.000000,0.000000,0.000000,0.000000,0.000000,0.000000,0.000000,0.000000,1647322512.041091,0.000000
130.000000,55193.788432,62061.272509,20906.882990,29224.414137,32449.592048,72599.382412,39884.251640,40023.503008,-0.026000,0.960000,-0.210000,192.000000,0.000000,0.000000,0.000000,0.000000,0.000000,0.000000,0.000000,0.000000,0.000000,1647322512.048502,0.000000
131.000000,55198.214078,62064.558216,20904.290188,29220.971968,32456.610496,72645.829337,39906.268109,40061.702140,-0.026000,0.960000,-0.210000,192.000000,0.000000,0.000000,0.000000,0.000000,0.000000,0.000000,0.000000,0.000000,0.000000,1647322512.048511,0.000000
132.000000,55201.768005,62067.888626,20907.039452,29220.860210,32463.718350,72723.881629,39925.535312,40098.716628,-0.026000,0.960000,-0.210000,192.000000,0.000000,0.000000,0.000000,0.000000,0.000000,0.000000,0.000000,0.000000,0.000000,1647322512.058182,0.000000
133.000000,55197.588229,62070.749649,20904.916037,29219.608512,32458.666856,72747.797996,39912.459542,40095.073294,-0.026000,0.960000,-0.210000,192.000000,0.000000,0.000000,0.000000,0.000000,0.000000,0.000000,0.000000,0.000000,0.000000,1647322512.058193,0.000000
134.000000,55199.644589,62062.345393,20907.553543,29222.246018,32452.676589,72680.586300,39897.282707,40051.643855,-0.026000,0.960000,-0.210000,192.000000,0.000000,0.000000,0.000000,0.000000,0.000000,0.000000,0.000000,0.000000,0.000000,1647322512.064653,0.000000
135.000000,55194.458985,62056.980974,20910.414566,29222.447183,32446.865135,72616.593256,39884.855137,40018.205645,-0.026000,0.960000,-0.210000,192.000000,0.000000,0.000000,0.000000,0.000000,0.000000,0.000000,0.000000,0.000000,0.000000,1647322512.064668,0.000000
136.000000,55186.769985,62062.792428,20897.405851,29213.059451,32444.562905,72657.899279,39891.448902,40045.541828,-0.026000,0.960000,-0.210000,192.000000,0.000000,0.000000,0.000000,0.000000,0.000000,0.000000,0.000000,0.000000,0.000000,1647322512.071336,0.000000
137.000000,55181.897304,62053.605861,20885.782943,29206.800962,32442.283027,72733.537583,39913.822998,40084.925602,-0.028000,0.964000,-0.218000,192.000000,255.000000,32.000000,30.000000,32.000000,249.000000,48.000000,0.000000,0.000000,0.000000,1647322512.071353,0.000000
138.000000,55172.241351,62041.848843,20876.238749,29202.800000,32430.391899,72755.107016,39896.321582,40079.270611,-0.028000,0.964000,-0.218000,192.000000,0.000000,0.000000,0.000000,0.000000,0.000000,0.000000,0.000000,0.000000,0.000000,1647322512.079521,0.000000
139.000000,55177.538714,62050.409561,20882.988975,29213.506486,32431.576542,72679.513416,39882.552908,40038.635139,-0.028000,0.964000,-0.218000,192.000000,0.000000,0.000000,0.000000,0.000000,0.000000,0.000000,0.000000,0.000000,0.000000,1647322512.079537,0.000000
140.000000,55183.417223,62061.987765,20893.740164,29223.721233,32438.662045,72615.922703,39877.367303,40017.915072,-0.028000,0.964000,-0.218000,192.000000,0.000000,0.000000,0.000000,0.000000,0.000000,0.000000,0.000000,0.000000,0.000000,1647322512.086178,0.000000
141.000000,55184.870086,62061.227806,20894.097792,29218.602683,32446.418100,72658.435721,39894.466388,40045.720642,-0.028000,0.964000,-0.218000,192.000000,0.000000,0.000000,0.000000,0.000000,0.000000,0.000000,0.000000,0.000000,0.000000,1647322512.094661,0.000000
142.000000,55182.746671,62061.026640,20891.281473,29210.734869,32447.468632,72740.488975,39904.792894,40071.291038,-0.028000,0.964000,-0.218000,192.000000,0.000000,0.000000,0.000000,0.000000,0.000000,0.000000,0.000000,0.000000,0.000000,1647322512.094676,0.000000
143.000000,55185.250066,62057.293899,20894.835400,29217.619207,32445.613437,72770.328554,39893.929946,40068.944105,-0.028000,0.964000,-0.218000,192.000000,0.000000,0.000000,0.000000,0.000000,0.000000,0.000000,0.000000,0.000000,0.000000,1647322512.100852,0.000000
144.000000,55182.634912,62056.198663,20896.489429,29220.770803,32436.605684,72714.248027,39874.483928,40040.132706,-0.028000,0.964000,-0.218000,192.000000,0.000000,0.000000,0.000000,0.000000,0.000000,0.000000,0.000000,0.000000,0.000000,1647322512.100869,0.000000
145.000000,55185.138307,62067.463942,20899.909246,29227.901009,32434.526972,72639.570849,39864.760919,40012.573005,-0.028000,0.964000,-0.218000,192.000000,0.000000,0.000000,0.000000,0.000000,0.000000,0.000000,0.000000,0.000000,0.000000,1647322512.108800,0.000000
146.000000,55184.534810,62058.120913,20885.157095,29214.601721,32431.353024,72689.929329,39872.896954,40045.251256,-0.028000,0.964000,-0.218000,192.000000,0.000000,0.000000,0.000000,0.000000,0.000000,0.000000,0.000000,0.000000,0.000000,1647322512.108811,0.000000
147.000000,55188.155793,62056.288070,20882.407830,29209.840800,32435.465745,72763.667734,39897.863853,40080.678771,-0.024000,0.966000,-0.234000,192.000000,255.000000,64.000000,30.000000,48.000000,248.000000,176.000000,0.000000,0.000000,0.000000,1647322512.116991,0.000000
148.000000,55183.126650,62053.717620,20884.598301,29212.031271,32432.917647,72794.155514,39894.578146,40077.527175,-0.024000,0.966000,-0.234000,192.000000,0.000000,0.000000,0.000000,0.000000,0.000000,0.000000,0.000000,0.000000,0.000000,1647322512.117008,0.000000
149.000000,55190.033339,62068.670937,20898.121106,29225.107041,32439.332597,72733.671693,39873.656913,40033.650700,-0.024000,0.966000,-0.234000,192.000000,0.000000,0.000000,0.000000,0.000000,0.000000,0.000000,0.000000,0.000000,0.000000,1647322512.124099,0.000000
150.000000,55191.597961,62068.358012,20905.698348,29231.946675,32444.026464,72671.824416,39858.524782,40008.594395,-0.024000,0.966000,-0.234000,192.000000,0.000000,0.000000,0.000000,0.000000,0.000000,0.000000,0.000000,0.000000,0.000000,1647322512.124125,0.000000
151.000000,55191.843831,62063.686498,20899.082231,29226.358739,32446.194583,72707.050765,39875.601515,40035.505895,-0.024000,0.966000,-0.234000,192.000000,0.000000,0.000000,0.000000,0.000000,0.000000,0.000000,0.000000,0.000000,0.000000,1647322512.131587,0.000000
152.000000,55194.861316,62070.414373,20896.958816,29227.230457,32450.866097,72775.625917,39887.872623,40072.632143,-0.024000,0.966000,-0.234000,192.000000,0.000000,0.000000,0.000000,0.000000,0.000000,0.000000,0.000000,0.000000,0.000000,1647322512.131605,0.000000
153.000000,55189.876877,62065.832265,20892.935502,29226.537553,32443.288856,72802.291549,39880.518899,40075.046131,-0.024000,0.966000,-0.234000,192.000000,0.000000,0.000000,0.000000,0.000000,0.000000,0.000000,0.000000,0.000000,0.000000,1647322512.139508,0.000000
154.000000,55178.119859,62056.221015,20885.984109,29220.189657,32428.514353,72744.691103,39867.554887,40041.719680,-0.024000,0.966000,-0.234000,192.000000,0.000000,0.000000,0.000000,0.000000,0.000000,0.000000,0.000000,0.000000,0.000000,1647322512.139519,0.000000
155.000000,55177.404604,62060.490198,20888.353394,29222.961274,32426.368585,72668.650468,39860.335274,40013.601186,-0.024000,0.966000,-0.234000,192.000000,0.000000,0.000000,0.000000,0.000000,0.000000,0.000000,0.000000,0.000000,0.000000,1647322512.146635,0.000000
156.000000,55179.952703,62058.009155,20880.507932,29218.043890,32429.162553,72703.496838,39878.663704,40044.804221,-0.024000,0.966000,-0.234000,192.000000,0.000000,0.000000,0.000000,0.000000,0.000000,0.000000,0.000000,0.000000,0.000000,1647322512.146645,0.000000
157.000000,55177.404604,62055.662221,20870.919033,29211.159552,32428.268484,72784.566615,39884.206937,40080.745826,-0.020000,0.966000,-0.236000,192.000000,255.000000,96.000000,30.000000,48.000000,248.000000,160.000000,0.000000,0.000000,0.000000,1647322512.153904,0.000000
158.000000,55170.274397,62053.494102,20868.661507,29209.460820,32419.797173,72814.316787,39870.371207,40079.784701,-0.020000,0.966000,-0.236000,192.000000,0.000000,0.000000,0.000000,0.000000,0.000000,0.000000,0.000000,0.000000,0.000000,1647322512.161354,0.000000
159.000000,55176.912865,62063.932367,20883.592473,29222.514239,32424.066356,72745.562821,39857.183678,40044.156020,-0.020000,0.966000,-0.236000,192.000000,0.000000,0.000000,0.000000,0.000000,0.000000,0.000000,0.000000,0.000000,0.000000,1647322512.161369,0.000000
160.000000,55189.161621,62073.387155,20895.327138,29235.701768,32432.627074,72678.820512,39855.127317,40023.011270,-0.020000,0.966000,-0.236000,192.000000,0.000000,0.000000,0.000000,0.000000,0.000000,0.000000,0.000000,0.000000,0.000000,1647322512.169462,0.000000
161.000000,55187.328778,62066.301652,20890.834438,29226.336387,32435.152821,72720.148888,39866.683169,40058.729358,-0.020000,0.966000,-0.236000,192.000000,0.000000,0.000000,0.000000,0.000000,0.000000,0.000000,0.000000,0.000000,0.000000,1647322512.169479,0.000000
162.000000,55176.085851,62059.707887,20877.982185,29216.054585,32429.475478,72791.227435,39873.791024,40088.457178,-0.020000,0.966000,-0.236000,192.000000,0.000000,0.000000,0.000000,0.000000,0.000000,0.000000,0.000000,0.000000,0.000000,1647322512.177383,0.000000
163.000000,55172.978958,62050.901300,20873.668298,29221.173134,32424.088707,72825.537363,39867.376073,40093.016934,-0.020000,0.966000,-0.236000,192.000000,0.000000,0.000000,0.000000,0.000000,0.000000,0.000000,0.000000,0.000000,0.000000,1647322512.177400,0.000000
164.000000,55180.645607,62060.020812,20882.430182,29232.930152,32427.553228,72761.276097,39861.139937,40056.672997,-0.020000,0.966000,-0.236000,192.000000,0.000000,0.000000,0.000000,0.000000,0.000000,0.000000,0.000000,0.000000,0.000000,1647322512.183785,0.000000
165.000000,55182.590208,62064.893492,20884.218321,29234.360663,32426.927379,72699.697041,39852.713329,40030.320290,-0.020000,0.966000,-0.236000,192.000000,0.000000,0.000000,0.000000,0.000000,0.000000,0.000000,0.000000,0.000000,0.000000,1647322512.183801,0.000000
166.000000,55183.528982,62068.916806,20879.055068,29226.381090,32432.448260,72733.604638,39862.346931,40053.431994,-0.020000,0.966000,-0.236000,192.000000,0.000000,0.000000,0.000000,0.000000,0.000000,0.000000,0.000000,0.000000,0.000000,1647322512.191849,0.000000
167.000000,55181.450269,62059.864349,20872.215435,29218.580332,32432.850591,72794.982528,39870.818242,40081.774006,-0.020000,0.974000,-0.242000,192.000000,255.000000,96.000000,30.000000,112.000000,248.000000,112.000000,0.000000,0.000000,0.000000,1647322512.191866,0.000000
168.000000,55177.203438,62054.432875,20872.193083,29220.569637,32427.933208,72827.973703,39862.458690,40086.691390,-0.020000,0.974000,-0.242000,192.000000,0.000000,0.000000,0.000000,0.000000,0.000000,0.000000,0.000000,0.000000,0.000000,1647322512.199761,0.000000
169.000000,55181.673787,62062.837131,20884.866522,29235.344140,32432.425908,72765.791150,39849.874657,40048.693424,-0.020000,0.974000,-0.242000,192.000000,0.000000,0.000000,0.000000,0.000000,0.000000,0.000000,0.000000,0.000000,0.000000,1647322512.199772,0.000000
170.000000,55191.821479,62072.046050,20896.981167,29247.324675,32440.785461,72691.270434,39845.091384,40021.938386,-0.020000,0.974000,-0.242000,192.000000,0.000000,0.000000,0.000000,0.000000,0.000000,0.000000,0.000000,0.000000,0.000000,1647322512.206495,0.000000
171.000000,55188.289903,62064.737030,20886.229978,29234.204201,32439.846687,72716.103222,39854.993207,40039.529209,-0.020000,0.974000,-0.242000,192.000000,0.000000,0.000000,0.000000,0.000000,0.000000,0.000000,0.000000,0.000000,0.000000,1647322512.206520,0.000000
172.000000,55186.255894,62064.334698,20879.032717,29228.504506,32440.293722,72795.496618,39865.453823,40093.307506,-0.020000,0.974000,-0.242000,192.000000,0.000000,0.000000,0.000000,0.000000,0.000000,0.000000,0.000000,0.000000,0.000000,1647322512.213423,0.000000
173.000000,55176.152906,62061.451323,20870.673164,29220.189657,32425.966254,72825.403252,39849.405271,40096.079123,-0.020000,0.974000,-0.242000,192.000000,0.000000,0.000000,0.000000,0.000000,0.000000,0.000000,0.000000,0.000000,0.000000,1647322512.221622,0.000000
174.000000,55186.233543,62067.352184,20880.463228,29231.879620,32428.492001,72764.226528,39832.686166,40052.783794,-0.020000,0.974000,-0.242000,192.000000,0.000000,0.000000,0.000000,0.000000,0.000000,0.000000,0.000000,0.000000,0.000000,1647322512.221639,0.000000
175.000000,55193.117880,62072.828361,20883.547769,29235.366492,32429.654292,72689.392887,39824.125448,40017.736258,-0.020000,0.974000,-0.242000,192.000000,0.000000,0.000000,0.000000,0.000000,0.000000,0.000000,0.000000,0.000000,0.000000,1647322512.229695,0.000000
176.000000,55188.312255,62065.027602,20879.367993,29227.096346,32432.962350,72723.546353,39834.921340,40040.736203,-0.020000,0.974000,-0.242000,192.000000,0.000000,0.000000,0.000000,0.000000,0.000000,0.000000,0.000000,0.000000,0.000000,1647322512.229712,0.000000
177.000000,55182.724319,62055.014021,20873.914167,29221.754279,32433.856420,72792.300319,39842.543285,40069.391140,-0.018000,0.974000,-0.238000,192.000000,255.000000,112.000000,30.000000,112.000000,248.000000,144.000000,0.000000,0.000000,0.000000,1647322512.236258,0.000000
178.000000,55177.002272,62056.221015,20871.857807,29222.737756,32429.587237,72812.394537,39830.898026,40065.859564,-0.018000,0.974000,-0.238000,192.000000,0.000000,0.000000,0.000000,0.000000,0.000000,0.000000,0.000000,0.000000,0.000000,1647322512.236283,0.000000
179.000000,55174.118897,62055.796332,20873.623594,29224.995282,32424.133411,72747.842699,39817.151703,40034.097735,-0.018000,0.974000,-0.238000,192.000000,0.000000,0.000000,0.000000,0.000000,0.000000,0.000000,0.000000,0.000000,0.000000,1647322512.244051,0.000000
180.000000,55174.118897,62056.198663,20877.222225,29230.292646,32423.686376,72676.585338,39815.229453,40002.090037,-0.018000,0.974000,-0.238000,192.000000,0.000000,0.000000,0.000000,0.000000,0.000000,0.000000,0.000000,0.000000,0.000000,1647322512.244060,0.000000
181.000000,55176.287016,62060.914881,20871.969565,29224.034157,32428.804926,72713.331606,39838.408212,40035.237674,-0.018000,0.974000,-0.238000,192.000000,0.000000,0.000000,0.000000,0.000000,0.000000,0.000000,0.000000,0.000000,0.000000,1647322512.252041,0.000000
182.000000,55169.603845,62051.080114,20860.905452,29210.868980,32423.641673,72798.245883,39847.192448,40089.284192,-0.018000,0.974000,-0.238000,192.000000,0.000000,0.000000,0.000000,0.000000,0.000000,0.000000,0.000000,0.000000,0.000000,1647322512.252049,0.000000
183.000000,55173.895380,62050.990707,20867.141589,29218.513276,32426.815620,72832.734624,39838.922303,40088.121902,-0.018000,0.974000,-0.238000,192.000000,0.000000,0.000000,0.000000,0.000000,0.000000,0.000000,0.000000,0.000000,0.000000,1647322512.259307,0.000000
184.000000,55183.126650,62066.927501,20877.937481,29230.069128,32431.330673,72767.579289,39825.265387,40043.463116,-0.018000,0.974000,-0.238000,192.000000,0.000000,0.000000,0.000000,0.000000,0.000000,0.000000,0.000000,0.000000,0.000000,1647322512.259319,0.000000
185.000000,55188.267551,62077.186951,20886.811124,29242.340236,32437.052719,72688.767038,39819.766858,40008.929671,-0.018000,0.974000,-0.238000,192.000000,0.000000,0.000000,0.000000,0.000000,0.000000,0.000000,0.000000,0.000000,0.000000,1647322512.266900,0.000000
186.000000,55190.055691,62072.023698,20884.508894,29238.048701,32443.020635,72717.176106,39833.803753,40043.038433,-0.018000,0.974000,-0.238000,192.000000,0.000000,0.000000,0.000000,0.000000,0.000000,0.000000,0.000000,0.000000,0.000000,1647322512.266916,0.000000
187.000000,55183.908961,62059.149094,20875.702307,29226.314035,32440.226667,72782.890234,39840.889256,40075.023779,-0.018000,0.974000,-0.238000,192.000000,0.000000,0.000000,0.000000,0.000000,0.000000,0.000000,0.000000,0.000000,0.000000,1647322512.273851,0.000000
188.000000,55178.075156,62056.444532,20872.193083,29220.636692,32431.285969,72814.719118,39832.999090,40078.823576,-0.014000,0.968000,-0.238000,192.000000,255.000000,144.000000,30.000000,64.000000,248.000000,144.000000,0.000000,0.000000,0.000000,1647322512.281849,0.000000
189.000000,55183.171354,62057.450361,20881.938443,29228.392747,32429.497830,72747.060388,39825.734773,40041.116183,-0.014000,0.968000,-0.238000,192.000000,0.000000,0.000000,0.000000,0.000000,0.000000,0.000000,0.000000,0.000000,0.000000,1647322512.281865,0.000000
190.000000,55185.808860,62063.083001,20885.917054,29236.327617,32431.397728,72669.902166,39811.854340,40003.498197,-0.014000,0.968000,-0.238000,192.000000,0.000000,0.000000,0.000000,0.000000,0.000000,0.000000,0.000000,0.000000,0.000000,1647322512.288949,0.000000
191.000000,55191.396796,62066.614576,20885.648833,29238.272218,32444.026464,72707.564856,39838.810544,40053.230828,-0.014000,0.968000,-0.238000,192.000000,0.000000,0.000000,0.000000,0.000000,0.000000,0.000000,0.000000,0.000000,0.000000,1647322512.288960,0.000000
192.000000,55191.128575,62061.317213,20879.949138,29227.833954,32443.802946,72786.354755,39858.390672,40090.021800,-0.014000,0.968000,-0.238000,192.000000,0.000000,0.000000,0.000000,0.000000,0.000000,0.000000,0.000000,0.000000,0.000000,1647322512.296376,0.000000
193.000000,55190.949761,62062.948890,20880.932615,29228.929189,32440.047853,72818.049528,39852.467460,40091.452311,-0.014000,0.968000,-0.238000,192.000000,0.000000,0.000000,0.000000,0.000000,0.000000,0.000000,0.000000,0.000000,0.000000,1647322512.296410,0.000000
194.000000,55186.032377,62061.071344,20879.323289,29229.778556,32430.682472,72752.357751,39836.620073,40047.866410,-0.014000,0.968000,-0.238000,192.000000,0.000000,0.000000,0.000000,0.000000,0.000000,0.000000,0.000000,0.000000,0.000000,1647322512.304296,0.000000
195.000000,55181.271455,62064.513512,20879.770324,29228.705672,32424.669853,72678.440532,39816.928186,40008.259119,-0.014000,0.968000,-0.238000,192.000000,0.000000,0.000000,0.000000,0.000000,0.000000,0.000000,0.000000,0.000000,0.000000,1647322512.304308,0.000000
196.000000,55180.332682,62055.662221,20877.445743,29225.263503,32431.129507,72712.750460,39826.695898,40036.735241,-0.014000,0.968000,-0.238000,192.000000,0.000000,0.000000,0.000000,0.000000,0.000000,0.000000,0.000000,0.000000,0.000000,1647322512.312285,0.000000
197.000000,55171.056708,62041.021829,20866.783961,29213.282968,32426.860324,72776.922319,39834.183733,40057.254142,-0.014000,0.968000,-0.238000,192.000000,0.000000,0.000000,0.000000,0.000000,0.000000,0.000000,0.000000,0.000000,0.000000,1647322512.312296,0.000000
198.000000,55170.497915,62045.223957,20861.844225,29209.907855,32418.701937,72807.410098,39836.105983,40065.747805,-0.012000,0.952000,-0.232000,192.000000,255.000000,160.000000,29.000000,192.000000,248.000000,192.000000,0.000000,0.000000,0.000000,1647322512.319183,0.000000
199.000000,55171.101412,62045.246308,20869.712039,29216.389861,32416.936149,72743.037074,39832.239131,40046.078270,-0.012000,0.952000,-0.232000,192.000000,0.000000,0.000000,0.000000,0.000000,0.000000,0.000000,0.000000,0.000000,0.000000,1647322512.319199,0.000000
200.000000,55177.918694,62053.203530,20881.692574,29226.358739,32423.328748,72683.648489,39818.872788,40010.986031,-0.012000,0.952000,-0.232000,192.000000,0.000000,0.000000,0.000000,0.000000,0.000000,0.000000,0.000000,0.000000,0.000000,1647322512.327088,0.000000
201.000000,55181.517325,62057.562120,20878.943310,29221.530762,32428.290835,72716.594960,39837.558846,40041.093831,-0.012000,0.952000,-0.232000,192.000000,0.000000,0.000000,0.000000,0.000000,0.000000,0.000000,0.000000,0.000000,0.000000,1647322512.327100,0.000000
202.000000,55182.187877,62054.745800,20872.371897,29216.881599,32428.827277,72781.660888,39850.209934,40073.883840,-0.012000,0.952000,-0.232000,192.000000,0.000000,0.000000,0.000000,0.000000,0.000000,0.000000,0.000000,0.000000,0.000000,1647322512.333941,0.000000
203.000000,55175.974092,62052.152998,20866.091057,29213.081802,32421.428850,72812.975682,39838.743489,40080.544660,-0.012000,0.952000,-0.232000,192.000000,0.000000,0.000000,0.000000,0.000000,0.000000,0.000000,0.000000,0.000000,0.000000,1647322512.342251,0.000000
204.000000,55178.522191,62058.031506,20871.075496,29223.497715,32420.199504,72744.735807,39815.162398,40036.265854,-0.012000,0.952000,-0.232000,192.000000,0.000000,0.000000,0.000000,0.000000,0.000000,0.000000,0.000000,0.000000,0.000000,1647322512.342269,0.000000
205.000000,55174.834153,62058.344431,20877.557502,29229.800907,32421.272388,72664.828320,39813.284852,40005.018116,-0.012000,0.952000,-0.232000,192.000000,0.000000,0.000000,0.000000,0.000000,0.000000,0.000000,0.000000,0.000000,0.000000,1647322512.348718,0.000000
206.000000,55178.946874,62056.735105,20877.266929,29230.404404,32432.112984,72700.658166,39841.358643,40032.041375,-0.012000,0.952000,-0.232000,192.000000,0.000000,0.000000,0.000000,0.000000,0.000000,0.000000,0.000000,0.000000,0.000000,1647322512.348729,0.000000
207.000000,55179.103336,62049.403733,20869.488522,29223.810640,32430.883638,72773.435446,39830.339233,40058.237619,-0.012000,0.952000,-0.232000,192.000000,0.000000,0.000000,0.000000,0.000000,0.000000,0.000000,0.000000,0.000000,0.000000,1647322512.356675,0.000000
208.000000,55172.733089,62038.071399,20860.726638,29215.652253,32416.936149,72791.987394,39817.129352,40053.163773,-0.016000,0.946000,-0.230000,192.000000,255.000000,128.000000,29.000000,144.000000,248.000000,208.000000,0.000000,0.000000,0.000000,1647322512.356690,0.000000
209.000000,55176.242313,62046.229785,20867.275699,29222.827163,32412.778725,72736.488013,39822.024384,40041.160886,-0.016000,0.946000,-0.230000,192.000000,0.000000,0.000000,0.000000,0.000000,0.000000,0.000000,0.000000,0.000000,0.000000,1647322512.364517,0.000000
210.000000,55179.997406,62053.516454,20876.551673,29225.867000,32413.516332,72655.507643,39803.226567,39997.239709,-0.016000,0.946000,-0.230000,192.000000,0.000000,0.000000,0.000000,0.000000,0.000000,0.000000,0.000000,0.000000,0.000000,1647322512.364527,0.000000
211.000000,55182.031415,62053.494102,20874.517664,29221.083727,32420.333614,72690.644585,39839.011710,40027.436915,-0.016000,0.946000,-0.230000,192.000000,0.000000,0.000000,0.000000,0.000000,0.000000,0.000000,0.000000,0.000000,0.000000,1647322512.371851,0.000000
212.000000,55184.132479,62050.834245,20870.293185,29220.390823,32425.429812,72774.262461,39843.750279,40084.366808,-0.016000,0.946000,-0.230000,192.000000,0.000000,0.000000,0.000000,0.000000,0.000000,0.000000,0.000000,0.000000,0.000000,1647322512.371868,0.000000
213.000000,55182.523153,62050.074285,20870.561405,29219.295587,32425.429812,72798.089421,39839.436393,40075.582573,-0.016000,0.946000,-0.230000,192.000000,0.000000,0.000000,0.000000,0.000000,0.000000,0.000000,0.000000,0.000000,0.000000,1647322512.379488,0.000000
214.000000,55179.975054,62053.941137,20876.708135,29222.827163,32425.094536,72729.067234,39826.785305,40030.812029,-0.016000,0.946000,-0.230000,192.000000,0.000000,0.000000,0.000000,0.000000,0.000000,0.000000,0.000000,0.000000,0.000000,1647322512.379522,0.000000
215.000000,55180.131516,62052.532977,20877.557502,29224.928227,32427.106193,72656.826396,39801.192558,40003.274680,-0.016000,0.946000,-0.230000,192.000000,0.000000,0.000000,0.000000,0.000000,0.000000,0.000000,0.000000,0.000000,0.000000,1647322512.387200,0.000000
216.000000,55182.947836,62050.186044,20871.366068,29219.787326,32433.610551,72688.632928,39821.353831,40039.350395,-0.016000,0.946000,-0.230000,192.000000,0.000000,0.000000,0.000000,0.000000,0.000000,0.000000,0.000000,0.000000,0.000000,1647322512.387210,0.000000
217.000000,55184.087775,62050.297803,20870.404943,29220.301416,32441.165440,72766.014667,39839.145820,40071.469852,-0.016000,0.946000,-0.230000,192.000000,0.000000,0.000000,0.000000,0.000000,0.000000,0.000000,0.000000,0.000000,0.000000,1647322512.394418,0.000000
218.000000,55182.187877,62051.437742,20866.783961,29219.027367,32434.370510,72803.364432,39836.865942,40077.236602,-0.016000,0.950000,-0.214000,192.000000,255.000000,128.000000,29.000000,176.000000,249.000000,80.000000,0.000000,0.000000,0.000000,1647322512.394430,0.000000
219.000000,55188.111089,62056.422181,20876.372859,29228.705672,32433.409385,72732.777623,39816.436448,40030.901436,-0.016000,0.950000,-0.214000,192.000000,0.000000,0.000000,0.000000,0.000000,0.000000,0.000000,0.000000,0.000000,0.000000,1647322512.401680,0.000000
220.000000,55185.339473,62052.242404,20876.931653,29228.951541,32430.302492,72662.816663,39809.283889,40005.599261,-0.016000,0.950000,-0.214000,192.000000,0.000000,0.000000,0.000000,0.000000,0.000000,0.000000,0.000000,0.000000,0.000000,1647322512.408743,0.000000
221.000000,55190.681540,62057.495064,20871.902510,29223.765936,32436.516277,72699.428821,39819.342174,40034.008328,-0.016000,0.950000,-0.214000,192.000000,0.000000,0.000000,0.000000,0.000000,0.000000,0.000000,0.000000,0.000000,0.000000,1647322512.408754,0.000000
222.000000,55187.149964,62052.331811,20866.672202,29216.255750,32439.131431,72773.636612,39825.198331,40070.173451,-0.016000,0.950000,-0.214000,192.000000,0.000000,0.000000,0.000000,0.000000,0.000000,0.000000,0.000000,0.000000,0.000000,1647322512.416796,0.000000
223.000000,55193.520211,62066.346355,20877.401039,29223.922399,32446.216934,72807.074822,39829.981605,40082.288096,-0.016000,0.950000,-0.214000,192.000000,0.000000,0.000000,0.000000,0.000000,0.000000,0.000000,0.000000,0.000000,0.000000,1647322512.416807,0.000000
224.000000,55184.154830,62061.920710,20872.975394,29218.513276,32434.571676,72728.821365,39812.949576,40032.421354,-0.016000,0.950000,-0.214000,192.000000,0.000000,0.000000,0.000000,0.000000,0.000000,0.000000,0.000000,0.000000,0.000000,1647322512.424026,0.000000
225.000000,55177.583418,62044.732218,20869.220301,29215.451087,32426.882676,72653.518337,39790.620183,40000.212491,-0.016000,0.950000,-0.214000,192.000000,0.000000,0.000000,0.000000,0.000000,0.000000,0.000000,0.000000,0.000000,0.000000,1647322512.424037,0.000000
226.000000,55179.885647,62039.904242,20864.794655,29208.544398,32431.777708,72682.016812,39808.523930,40025.402907,-0.016000,0.950000,-0.214000,192.000000,0.000000,0.000000,0.000000,0.000000,0.000000,0.000000,0.000000,0.000000,0.000000,1647322512.431375,0.000000
227.000000,55177.851639,62044.933384,20858.312650,29203.135276,32433.588199,72753.743560,39822.627881,40063.065596,-0.016000,0.950000,-0.214000,192.000000,0.000000,0.000000,0.000000,0.000000,0.000000,0.000000,0.000000,0.000000,0.000000,1647322512.431381,0.000000
228.000000,55176.309368,62044.419294,20858.491463,29203.291738,32431.308321,72792.076801,39807.428695,40063.982018,-0.020000,0.956000,-0.214000,192.000000,255.000000,96.000000,29.000000,224.000000,249.000000,80.000000,0.000000,0.000000,0.000000,1647322512.439420,0.000000
229.000000,55170.766136,62036.730294,20856.077475,29204.029346,32421.272388,72727.770833,39791.938936,40023.614767,-0.020000,0.956000,-0.214000,192.000000,0.000000,0.000000,0.000000,0.000000,0.000000,0.000000,0.000000,0.000000,0.000000,1647322512.439427,0.000000
230.000000,55179.304502,62051.325983,20863.967641,29216.389861,32425.206295,72654.635925,39793.078875,39997.083246,-0.020000,0.956000,-0.214000,192.000000,0.000000,0.000000,0.000000,0.000000,0.000000,0.000000,0.000000,0.000000,0.000000,1647322512.447366,0.000000
231.000000,55177.538714,62042.921727,20857.753856,29209.594930,32427.329710,72691.426896,39805.908776,40034.500067,-0.020000,0.956000,-0.214000,192.000000,0.000000,0.000000,0.000000,0.000000,0.000000,0.000000,0.000000,0.000000,0.000000,1647322512.447372,0.000000
232.000000,55176.979921,62033.086959,20851.338905,29203.470552,32427.687338,72764.293583,39810.781456,40062.484451,-0.020000,0.956000,-0.214000,192.000000,0.000000,0.000000,0.000000,0.000000,0.000000,0.000000,0.000000,0.000000,0.000000,1647322512.453915,0.000000
233.000000,55177.158734,62036.752646,20852.121216,29205.728079,32426.100364,72793.864941,39804.835892,40049.341625,-0.020000,0.956000,-0.214000,192.000000,0.000000,0.000000,0.000000,0.000000,0.000000,0.000000,0.000000,0.000000,0.000000,1647322512.453921,0.000000
234.000000,55182.612560,62051.258928,20865.666373,29223.408308,32432.023577,72739.013760,39790.754293,40028.822723,-0.020000,0.956000,-0.214000,192.000000,0.000000,0.000000,0.000000,0.000000,0.000000,0.000000,0.000000,0.000000,0.000000,1647322512.461028,0.000000
235.000000,55187.038206,62062.680669,20878.071592,29235.791175,32438.594990,72671.019753,39794.218814,40012.125970,-0.020000,0.956000,-0.214000,192.000000,0.000000,0.000000,0.000000,0.000000,0.000000,0.000000,0.000000,0.000000,0.000000,1647322512.468980,0.000000
236.000000,55187.596999,62057.740934,20869.667336,29224.145916,32440.517240,72702.245140,39813.575424,40039.439802,-0.020000,0.956000,-0.214000,192.000000,0.000000,0.000000,0.000000,0.000000,0.000000,0.000000,0.000000,0.000000,0.000000,1647322512.468985,0.000000
237.000000,55188.155793,62048.822588,20867.230996,29216.814544,32440.405481,72766.126426,39817.509331,40064.317294,-0.020000,0.956000,-0.214000,192.000000,0.000000,0.000000,0.000000,0.000000,0.000000,0.000000,0.000000,0.000000,0.000000,1647322512.477090,0.000000
238.000000,55176.465830,62035.880928,20855.406923,29202.710593,32423.976949,72805.040813,39800.007915,40067.781814,-0.018000,0.964000,-0.220000,192.000000,255.000000,112.000000,30.000000,32.000000,249.000000,32.000000,0.000000,0.000000,0.000000,1647322512.477095,0.000000
239.000000,55180.176220,62043.257003,20863.520606,29211.807753,32422.613492,72744.869917,39790.083741,40024.061802,-0.018000,0.964000,-0.220000,192.000000,0.000000,0.000000,0.000000,0.000000,0.000000,0.000000,0.000000,0.000000,0.000000,1647322512.483666,0.000000
240.000000,55182.187877,62050.409561,20867.320403,29216.479268,32423.082879,72673.254928,39784.384046,40012.394191,-0.018000,0.964000,-0.220000,192.000000,0.000000,0.000000,0.000000,0.000000,0.000000,0.000000,0.000000,0.000000,0.000000,1647322512.483674,0.000000
241.000000,55187.418185,62059.193797,20864.526434,29216.255750,32432.224742,72708.570684,39810.133256,40045.944160,-0.018000,0.964000,-0.220000,192.000000,0.000000,0.000000,0.000000,0.000000,0.000000,0.000000,0.000000,0.000000,0.000000,1647322512.491777,0.000000
242.000000,55192.804956,62058.858521,20867.163940,29222.134259,32441.970103,72773.055467,39817.755201,40070.016989,-0.018000,0.964000,-0.220000,192.000000,0.000000,0.000000,0.000000,0.000000,0.000000,0.000000,0.000000,0.000000,0.000000,1647322512.491787,0.000000
243.000000,55185.741804,62048.308497,20862.648888,29216.792192,32432.738833,72791.786229,39804.075933,40073.123881,-0.018000,0.964000,-0.220000,192.000000,0.000000,0.000000,0.000000,0.000000,0.000000,0.000000,0.000000,0.000000,0.000000,1647322512.499744,0.000000
244.000000,55181.316159,62045.738047,20863.811179,29215.272273,32421.227684,72729.402510,39785.412226,40039.171581,-0.018000,0.964000,-0.220000,192.000000,0.000000,0.000000,0.000000,0.000000,0.000000,0.000000,0.000000,0.000000,0.000000,1647322512.499753,0.000000
245.000000,55172.978958,62043.882852,20863.654716,29213.528837,32406.497885,72664.291878,39770.302447,40013.087095,-0.018000,0.964000,-0.220000,192.000000,0.000000,0.000000,0.000000,0.000000,0.000000,0.000000,0.000000,0.000000,0.000000,1647322512.506854,0.000000
246.000000,55184.244237,62054.410524,20869.555577,29217.619207,32413.024594,72689.459943,39788.876747,40040.937369,-0.018000,0.964000,-0.220000,192.000000,0.000000,0.000000,0.000000,0.000000,0.000000,0.000000,0.000000,0.000000,0.000000,1647322512.506863,0.000000
247.000000,55191.240333,62062.501855,20866.918071,29212.299491,32415.930321,72755.084664,39802.444256,40078.018913,-0.018000,0.964000,-0.220000,192.000000,0.000000,0.000000,0.000000,0.000000,0.000000,0.000000,0.000000,0.000000,0.000000,1647322512.514401,0.000000
248.000000,55187.462889,62044.888681,20869.086190,29211.427773,32414.209236,72792.166208,39797.593927,40086.445521,-0.018000,0.956000,-0.222000,192.000000,255.000000,112.000000,29.000000,224.000000,249.000000,16.000000,0.000000,0.000000,0.000000,1647322512.514412,0.000000
249.000000,55182.791374,62037.244384,20871.455475,29214.244093,32408.442486,72731.727091,39793.995296,40047.464078,-0.018000,0.956000,-0.222000,192.000000,0.000000,0.000000,0.000000,0.000000,0.000000,0.000000,0.000000,0.000000,0.000000,1647322512.521524,0.000000
250.000000,55185.406528,62042.742913,20873.780057,29218.401518,32405.626167,72664.940079,39777.298543,40014.808180,-0.018000,0.956000,-0.222000,192.000000,0.000000,0.000000,0.000000,0.000000,0.000000,0.000000,0.000000,0.000000,0.000000,1647322512.529382,0.000000
251.000000,55186.881743,62046.967393,20872.841283,29217.328634,32413.158704,72695.316100,39797.638631,40039.417450,-0.018000,0.956000,-0.222000,192.000000,0.000000,0.000000,0.000000,0.000000,0.000000,0.000000,0.000000,0.000000,0.000000,1647322512.529395,0.000000
252.000000,55177.918694,62038.719599,20856.815083,29202.800000,32404.307414,72772.697839,39807.093418,40070.598134,-0.018000,0.956000,-0.222000,192.000000,0.000000,0.000000,0.000000,0.000000,0.000000,0.000000,0.000000,0.000000,0.000000,1647322512.536368,0.000000
253.000000,55177.896342,62043.704038,20855.228109,29201.391840,32399.211216,72800.615168,39796.498692,40067.021855,-0.018000,0.956000,-0.222000,192.000000,0.000000,0.000000,0.000000,0.000000,0.000000,0.000000,0.000000,0.000000,0.000000,1647322512.536374,0.000000
254.000000,55177.516362,62045.849806,20861.419542,29207.560922,32396.372544,72739.729016,39779.824290,40043.440764,-0.018000,0.956000,-0.222000,192.000000,0.000000,0.000000,0.000000,0.000000,0.000000,0.000000,0.000000,0.000000,0.000000,1647322512.543923,0.000000
255.000000,55180.310330,62048.442608,20868.996783,29215.942826,32397.825408,72649.137396,39766.390892,40002.984107,-0.018000,0.956000,-0.222000,192.000000,0.000000,0.000000,0.000000,0.000000,0.000000,0.000000,0.000000,0.000000,0.000000,1647322512.543930,0.000000
0.000000,55175.348243,62041.580622,20857.664449,29204.364622,32394.852626,72679.133437,39782.528851,40028.934482,-0.018000,0.956000,-0.222000,192.000000,0.000000,0.000000,0.000000,0.000000,0.000000,0.000000,0.000000,0.000000,0.000000,1647322512.553362,0.000000
1.000000,55177.292845,62038.406675,20850.467187,29193.121695,32393.779742,72742.433577,39781.031284,40053.856677,-0.018000,0.956000,-0.222000,192.000000,0.000000,0.000000,0.000000,0.000000,0.000000,0.000000,0.000000,0.000000,0.000000,1647322512.553375,0.000000
2.000000,55175.795278,62032.706980,20852.925879,29194.485151,32396.126675,72781.772647,39782.707665,40069.949933,-0.016000,0.954000,-0.228000,192.000000,255.000000,128.000000,29.000000,208.000000,248.000000,224.000000,0.000000,0.000000,0.000000,1647322512.559910,0.000000
3.000000,55176.130554,62032.036428,20865.822836,29208.946730,32400.373507,72741.807728,39793.212985,40048.536962,-0.016000,0.954000,-0.228000,192.000000,0.000000,0.000000,0.000000,0.000000,0.000000,0.000000,0.000000,0.000000,0.000000,1647322512.559914,0.000000
4.000000,55183.640740,62045.425122,20875.523493,29218.401518,32403.435696,72672.293803,39777.477357,40013.958813,-0.016000,0.954000,-0.228000,192.000000,0.000000,0.000000,0.000000,0.000000,0.000000,0.000000,0.000000,0.000000,0.000000,1647322512.566520,0.000000
5.000000,55180.131516,62046.721524,20868.505045,29206.868018,32403.100419,72699.451172,39783.445273,40039.640968,-0.016000,0.954000,-0.228000,192.000000,0.000000,0.000000,0.000000,0.000000,0.000000,0.000000,0.000000,0.000000,0.000000,1647322512.566524,0.000000
6.000000,55174.342415,62044.821625,20859.027905,29195.043945,32397.132504,72769.278022,39801.661945,40071.894535,-0.016000,0.954000,-0.228000,192.000000,0.000000,0.000000,0.000000,0.000000,0.000000,0.000000,0.000000,0.000000,0.000000,1647322512.574551,0.000000
7.000000,55174.409470,62028.169576,20857.150359,29194.373392,32391.812788,72806.694842,39794.844663,40079.337666,-0.016000,0.954000,-0.228000,192.000000,0.000000,0.000000,0.000000,0.000000,0.000000,0.000000,0.000000,0.000000,0.000000,1647322512.574555,0.000000
8.000000,55177.382252,62034.316305,20861.620708,29202.598834,32388.325916,72751.754254,39771.956476,40043.530171,-0.016000,0.954000,-0.228000,192.000000,0.000000,0.000000,0.000000,0.000000,0.000000,0.000000,0.000000,0.000000,0.000000,1647322512.581674,0.000000
9.000000,55180.064461,62043.771093,20869.510873,29210.198427,32390.047001,72673.433742,39756.243200,40002.849996,-0.016000,0.954000,-0.228000,192.000000,0.000000,0.000000,0.000000,0.000000,0.000000,0.000000,0.000000,0.000000,0.000000,1647322512.589901,0.000000
10.000000,55175.437650,62036.462073,20860.190196,29195.870959,32389.555262,72704.234446,39765.809746,40038.232808,-0.016000,0.954000,-0.228000,192.000000,0.000000,0.000000,0.000000,0.000000,0.000000,0.000000,0.000000,0.000000,0.000000,1647322512.589912,0.000000
11.000000,55176.644644,62035.277430,20855.049295,29188.874863,32391.231643,72780.319784,39781.433616,40066.977151,-0.016000,0.954000,-0.228000,192.000000,0.000000,0.000000,0.000000,0.000000,0.000000,0.000000,0.000000,0.000000,0.000000,1647322512.596490,0.000000
12.000000,55171.481391,62036.551480,20851.115388,29185.276232,32387.521254,72820.485869,39777.432654,40075.806090,-0.020000,0.960000,-0.230000,192.000000,255.000000,96.000000,30.000000,0.000000,248.000000,208.000000,0.000000,0.000000,0.000000,1647322512.596501,0.000000
13.000000,55167.189856,62039.367800,20855.205757,29188.561939,32383.386181,72749.541432,39769.207212,40039.037471,-0.020000,0.960000,-0.230000,192.000000,0.000000,0.000000,0.000000,0.000000,0.000000,0.000000,0.000000,0.000000,0.000000,1647322512.604292,0.000000
14.000000,55178.678653,62042.944079,20872.304842,29208.007957,32394.852626,72659.888585,39766.726168,40007.901491,-0.020000,0.960000,-0.230000,192.000000,0.000000,0.000000,0.000000,0.000000,0.000000,0.000000,0.000000,0.000000,0.000000,1647322512.604303,0.000000
15.000000,55176.599941,62035.277430,20861.240728,29196.921491,32394.606757,72700.680518,39776.829156,40051.397985,-0.020000,0.960000,-0.230000,192.000000,0.000000,0.000000,0.000000,0.000000,0.000000,0.000000,0.000000,0.000000,0.000000,1647322512.612316,0.000000
16.000000,55177.024624,62036.059742,20855.049295,29190.774762,32395.813751,72774.374220,39792.430674,40076.074311,-0.020000,0.960000,-0.230000,192.000000,0.000000,0.000000,0.000000,0.000000,0.000000,0.000000,0.000000,0.000000,0.000000,1647322512.612326,0.000000
17.000000,55169.156810,62042.139416,20852.612955,29192.585253,32392.148065,72807.857133,39780.852470,40075.604925,-0.020000,0.960000,-0.230000,192.000000,0.000000,0.000000,0.000000,0.000000,0.000000,0.000000,0.000000,0.000000,0.000000,1647322512.619306,0.000000
18.000000,55170.453211,62039.434855,20856.457455,29199.111962,32388.415323,72744.534641,39761.764081,40034.120087,-0.020000,0.960000,-0.230000,192.000000,0.000000,0.000000,0.000000,0.000000,0.000000,0.000000,0.000000,0.000000,0.000000,1647322512.619331,0.000000
19.000000,55181.897304,62054.321117,20870.986089,29213.372375,32398.808884,72673.992535,39759.752424,40005.420447,-0.020000,0.960000,-0.230000,192.000000,0.000000,0.000000,0.000000,0.000000,0.000000,0.000000,0.000000,0.000000,0.000000,1647322512.627141,0.000000
20.000000,55182.053766,62051.661259,20863.654716,29204.029346,32400.395858,72697.886550,39776.404473,40034.589474,-0.020000,0.960000,-0.230000,192.000000,0.000000,0.000000,0.000000,0.000000,0.000000,0.000000,0.000000,0.000000,0.000000,1647322512.627152,0.000000
21.000000,55176.801107,62045.961564,20854.892833,29192.831122,32397.668946,72773.904833,39783.668790,40077.884803,-0.020000,0.960000,-0.230000,192.000000,0.000000,0.000000,0.000000,0.000000,0.000000,0.000000,0.000000,0.000000,0.000000,1647322512.634956,0.000000
22.000000,55167.547484,62036.573832,20848.433178,29186.572634,32389.912890,72819.725909,39773.923430,40082.556317,-0.024000,0.964000,-0.228000,192.000000,255.000000,64.000000,30.000000,32.000000,248.000000,224.000000,0.000000,0.000000,0.000000,1647322512.634976,0.000000
23.000000,55171.704909,62034.830396,20851.540071,29193.099343,32385.286079,72750.457853,39751.102299,40039.573913,-0.024000,0.964000,-0.228000,192.000000,0.000000,0.000000,0.000000,0.000000,0.000000,0.000000,0.000000,0.000000,0.000000,1647322512.642280,0.000000
24.000000,55174.498877,62040.641849,20857.619745,29199.693108,32384.280251,72667.510529,39742.943912,40003.900528,-0.024000,0.964000,-0.228000,192.000000,0.000000,0.000000,0.000000,0.000000,0.000000,0.000000,0.000000,0.000000,0.000000,1647322512.642297,0.000000
25.000000,55171.839019,62037.981992,20853.976411,29193.278157,32387.655364,72690.443419,39765.742691,40035.014157,-0.024000,0.964000,-0.228000,192.000000,0.000000,0.000000,0.000000,0.000000,0.000000,0.000000,0.000000,0.000000,0.000000,1647322512.648741,0.000000
26.000000,55166.519304,62028.169576,20843.024056,29181.789360,32384.436713,72771.356734,39774.839851,40080.388198,-0.024000,0.964000,-0.228000,192.000000,0.000000,0.000000,0.000000,0.000000,0.000000,0.000000,0.000000,0.000000,0.000000,1647322512.656805,0.000000
27.000000,55167.301615,62038.004343,20844.476920,29185.477398,32385.129617,72810.785211,39767.553183,40085.372637,-0.024000,0.964000,-0.228000,192.000000,0.000000,0.000000,0.000000,0.000000,0.000000,0.000000,0.000000,0.000000,0.000000,1647322512.656816,0.000000
28.000000,55174.208304,62041.044181,20857.955022,29196.139180,32388.080047,72738.566725,39753.717453,40039.395099,-0.024000,0.964000,-0.228000,192.000000,0.000000,0.000000,0.000000,0.000000,0.000000,0.000000,0.000000,0.000000,0.000000,1647322512.664796,0.000000
29.000000,55169.313272,62035.433893,20854.065818,29193.971061,32378.804073,72667.398771,39745.402604,40017.870369,-0.024000,0.964000,-0.228000,192.000000,0.000000,0.000000,0.000000,0.000000,0.000000,0.000000,0.000000,0.000000,0.000000,1647322512.664807,0.000000
30.000000,55169.201513,62036.909108,20844.186347,29189.232491,32380.480454,72701.261664,39761.719377,40048.335796,-0.024000,0.964000,-0.228000,192.000000,0.000000,0.000000,0.000000,0.000000,0.000000,0.000000,0.000000,0.000000,0.000000,1647322512.671905,0.000000
31.000000,55163.345356,62037.959640,20835.022132,29181.185863,32379.161701,72774.307164,39770.615372,40083.137463,-0.024000,0.964000,-0.228000,192.000000,0.000000,0.000000,0.000000,0.000000,0.000000,0.000000,0.000000,0.000000,0.000000,1647322512.671922,0.000000
32.000000,55159.702022,62027.588430,20831.758777,29176.089665,32371.495053,72811.902799,39761.361749,40089.239489,-0.026000,0.968000,-0.234000,192.000000,255.000000,48.000000,30.000000,64.000000,248.000000,176.000000,0.000000,0.000000,0.000000,1647322512.679179,0.000000
33.000000,55164.172371,62033.288125,20842.420559,29184.739791,32370.980963,72749.519080,39744.016796,40049.006349,-0.026000,0.968000,-0.234000,192.000000,0.000000,0.000000,0.000000,0.000000,0.000000,0.000000,0.000000,0.000000,0.000000,1647322512.679190,0.000000
34.000000,55162.697156,62031.656448,20845.236879,29186.974965,32368.365809,72673.769018,39735.433726,40015.434029,-0.026000,0.968000,-0.234000,192.000000,0.000000,0.000000,0.000000,0.000000,0.000000,0.000000,0.000000,0.000000,0.000000,1647322512.687255,0.000000
35.000000,55157.220978,62023.363951,20833.233992,29172.558090,32367.114111,72696.388983,39748.353034,40029.448572,-0.026000,0.968000,-0.234000,192.000000,0.000000,0.000000,0.000000,0.000000,0.000000,0.000000,0.000000,0.000000,0.000000,1647322512.687266,0.000000
36.000000,55153.689403,62013.998570,20823.667446,29164.757331,32367.382332,72760.024400,39761.831136,40072.520384,-0.026000,0.968000,-0.234000,192.000000,0.000000,0.000000,0.000000,0.000000,0.000000,0.000000,0.000000,0.000000,0.000000,1647322512.695566,0.000000
37.000000,55154.494066,62010.623456,20823.846260,29162.052770,32365.616544,72807.924188,39757.360787,40085.596154,-0.026000,0.968000,-0.234000,192.000000,0.000000,0.000000,0.000000,0.000000,0.000000,0.000000,0.000000,0.000000,0.000000,1647322512.695583,0.000000
38.000000,55153.778810,62018.290105,20836.050312,29172.781607,32365.527137,72745.384007,39736.931293,40043.440764,-0.026000,0.968000,-0.234000,192.000000,0.000000,0.000000,0.000000,0.000000,0.000000,0.000000,0.000000,0.000000,0.000000,1647322512.702141,0.000000
39.000000,55160.193760,62030.248288,20843.515795,29184.180997,32368.455216,72674.707791,39725.822476,40015.009345,-0.026000,0.968000,-0.234000,192.000000,0.000000,0.000000,0.000000,0.000000,0.000000,0.000000,0.000000,0.000000,0.000000,1647322512.702159,0.000000
40.000000,55158.316214,62027.633134,20833.859841,29175.776741,32369.461044,72701.820457,39748.151868,40045.698291,-0.026000,0.968000,-0.234000,192.000000,0.000000,0.000000,0.000000,0.000000,0.000000,0.000000,0.000000,0.000000,0.000000,1647322512.708931,0.000000
41.000000,55148.079115,62019.921782,20817.274847,29159.795244,32359.939201,72779.090438,39751.370520,40089.127730,-0.026000,0.968000,-0.234000,192.000000,0.000000,0.000000,0.000000,0.000000,0.000000,0.000000,0.000000,0.000000,0.000000,1647322512.717165,0.000000
42.000000,55147.117990,62012.478651,20816.537239,29156.286020,32354.395968,72809.309996,39740.351110,40077.370712,-0.024000,0.968000,-0.228000,192.000000,255.000000,64.000000,30.000000,64.000000,248.000000,224.000000,0.000000,0.000000,0.000000,1647322512.717181,0.000000
43.000000,55144.413429,62014.177384,20821.275809,29161.181052,32349.411529,72744.400530,39730.873970,40038.746898,-0.024000,0.968000,-0.228000,192.000000,0.000000,0.000000,0.000000,0.000000,0.000000,0.000000,0.000000,0.000000,0.000000,1647322512.724933,0.000000
44.000000,55144.122856,62016.390206,20822.952190,29165.718456,32347.645741,72676.227710,39724.906054,40011.343659,-0.024000,0.968000,-0.228000,192.000000,0.000000,0.000000,0.000000,0.000000,0.000000,0.000000,0.000000,0.000000,0.000000,1647322512.724949,0.000000
45.000000,55150.738973,62023.386302,20823.220411,29166.813691,32357.860489,72699.115896,39738.719432,40037.539904,-0.024000,0.968000,-0.228000,192.000000,0.000000,0.000000,0.000000,0.000000,0.000000,0.000000,0.000000,0.000000,0.000000,1647322512.731626,0.000000
46.000000,55152.795333,62025.263849,20823.265114,29168.154796,32366.555317,72774.307164,39752.935142,40075.940201,-0.024000,0.968000,-0.228000,192.000000,0.000000,0.000000,0.000000,0.000000,0.000000,0.000000,0.000000,0.000000,0.000000,1647322512.731643,0.000000
47.000000,55152.549464,62026.962582,20823.354521,29170.188805,32368.656381,72822.296360,39749.247104,40092.011105,-0.024000,0.968000,-0.228000,192.000000,0.000000,0.000000,0.000000,0.000000,0.000000,0.000000,0.000000,0.000000,0.000000,1647322512.739637,0.000000
48.000000,55147.497970,62020.927611,20819.174745,29170.121750,32358.642800,72766.953441,39724.369612,40050.280398,-0.024000,0.968000,-0.228000,192.000000,0.000000,0.000000,0.000000,0.000000,0.000000,0.000000,0.000000,0.000000,0.000000,1647322512.739652,0.000000
49.000000,55148.347336,62022.760454,20824.963847,29176.246128,32358.374579,72689.884626,39715.250101,40011.254252,-0.024000,0.968000,-0.228000,192.000000,0.000000,0.000000,0.000000,0.000000,0.000000,0.000000,0.000000,0.000000,0.000000,1647322512.747496,0.000000
50.000000,55150.426048,62022.447529,20822.102824,29171.284040,32363.984867,72700.568760,39744.016796,40038.881008,-0.024000,0.968000,-0.228000,192.000000,0.000000,0.000000,0.000000,0.000000,0.000000,0.000000,0.000000,0.000000,0.000000,1647322512.747507,0.000000
51.000000,55146.983879,62011.539878,20815.129079,29162.209232,32363.381370,72775.134179,39757.405491,40081.818710,-0.024000,0.968000,-0.228000,192.000000,0.000000,0.000000,0.000000,0.000000,0.000000,0.000000,0.000000,0.000000,0.000000,1647322512.754746,0.000000
52.000000,55149.666089,62011.964561,20815.196134,29159.504671,32359.983904,72822.989264,39748.196572,40092.636954,-0.026000,0.960000,-0.232000,192.000000,255.000000,48.000000,30.000000,0.000000,248.000000,192.000000,0.000000,0.000000,0.000000,1647322512.754757,0.000000
53.000000,55157.198627,62023.386302,20830.238858,29173.653325,32362.174375,72750.346094,39723.676708,40040.177410,-0.026000,0.960000,-0.232000,192.000000,0.000000,0.000000,0.000000,0.000000,0.000000,0.000000,0.000000,0.000000,0.000000,1647322512.762332,0.000000
54.000000,55155.656356,62035.858576,20832.831661,29175.217947,32360.408588,72678.529939,39712.769057,40009.533168,-0.026000,0.960000,-0.232000,192.000000,0.000000,0.000000,0.000000,0.000000,0.000000,0.000000,0.000000,0.000000,0.000000,1647322512.762348,0.000000
55.000000,55159.769077,62028.840128,20830.976466,29175.463817,32370.153948,72693.595015,39740.306406,40039.260988,-0.026000,0.960000,-0.232000,192.000000,0.000000,0.000000,0.000000,0.000000,0.000000,0.000000,0.000000,0.000000,0.000000,1647322512.769415,0.000000
56.000000,55158.472676,62020.257058,20827.377835,29172.356924,32374.311373,72772.027287,39756.287903,40081.394026,-0.026000,0.960000,-0.232000,192.000000,0.000000,0.000000,0.000000,0.000000,0.000000,0.000000,0.000000,0.000000,0.000000,1647322512.777447,0.000000
57.000000,55155.410487,62021.352294,20825.544992,29172.066351,32371.562108,72806.605435,39747.905999,40085.573803,-0.026000,0.960000,-0.232000,192.000000,0.000000,0.000000,0.000000,0.000000,0.000000,0.000000,0.000000,0.000000,0.000000,1647322512.777463,0.000000
58.000000,55146.201568,62017.127814,20820.828774,29168.400665,32359.670980,72744.758158,39724.950758,40044.558352,-0.026000,0.960000,-0.232000,192.000000,0.000000,0.000000,0.000000,0.000000,0.000000,0.000000,0.000000,0.000000,0.000000,1647322512.784194,0.000000
59.000000,55146.559196,62019.362988,20824.785033,29178.414247,32360.162718,72676.562986,39716.121819,40013.444723,-0.026000,0.960000,-0.232000,192.000000,0.000000,0.000000,0.000000,0.000000,0.000000,0.000000,0.000000,0.000000,0.000000,1647322512.784204,0.000000
60.000000,55151.700098,62025.219145,20825.589696,29181.834064,32370.198652,72689.683460,39731.477467,40033.158962,-0.026000,0.960000,-0.232000,192.000000,0.000000,0.000000,0.000000,0.000000,0.000000,0.000000,0.000000,0.000000,0.000000,1647322512.791838,0.000000
61.000000,55145.396906,62014.825584,20813.989140,29167.372485,32363.850756,72753.452987,39736.618368,40068.072387,-0.026000,0.960000,-0.232000,192.000000,0.000000,0.000000,0.000000,0.000000,0.000000,0.000000,0.000000,0.000000,0.000000,1647322512.791855,0.000000
62.000000,55144.279318,62009.282352,20810.032882,29161.002238,32357.189936,72807.253636,39738.272397,40087.496053,-0.026000,0.960000,-0.232000,192.000000,0.000000,0.000000,0.000000,0.000000,0.000000,0.000000,0.000000,0.000000,0.000000,1647322512.800044,0.000000
63.000000,55143.698173,62018.468919,20819.152393,29170.680543,32356.899364,72762.013705,39721.150961,40054.527230,-0.020000,0.960000,-0.232000,192.000000,255.000000,96.000000,30.000000,0.000000,248.000000,192.000000,0.000000,0.000000,0.000000,1647322512.800056,0.000000
64.000000,55149.643737,62023.833337,20829.903582,29181.409381,32362.420245,72686.151884,39705.214167,40018.250348,-0.020000,0.960000,-0.232000,192.000000,0.000000,0.000000,0.000000,0.000000,0.000000,0.000000,0.000000,0.000000,0.000000,1647322512.807207,0.000000
65.000000,55153.398830,62022.156956,20827.914277,29178.883633,32368.410512,72702.200437,39725.643662,40047.866410,-0.020000,0.960000,-0.232000,192.000000,0.000000,0.000000,0.000000,0.000000,0.000000,0.000000,0.000000,0.000000,0.000000,1647322512.807232,0.000000
66.000000,55155.321080,62022.380474,20821.119347,29172.200462,32368.879899,72768.965098,39736.730127,40079.941163,-0.020000,0.960000,-0.232000,192.000000,0.000000,0.000000,0.000000,0.000000,0.000000,0.000000,0.000000,0.000000,0.000000,1647322512.814575,0.000000
67.000000,55153.041202,62024.839166,20817.297198,29165.249069,32362.509651,72810.069956,39734.383194,40078.309486,-0.020000,0.960000,-0.232000,192.000000,0.000000,0.000000,0.000000,0.000000,0.000000,0.000000,0.000000,0.000000,0.000000,1647322512.814586,0.000000
68.000000,55146.693307,62023.319247,20820.918181,29166.299601,32356.094701,72752.916545,39715.943005,40043.329006,-0.020000,0.960000,-0.232000,192.000000,0.000000,0.000000,0.000000,0.000000,0.000000,0.000000,0.000000,0.000000,0.000000,1647322512.822475,0.000000
69.000000,55146.179217,62013.529183,20824.740329,29170.546433,32353.703064,72686.956547,39701.347315,40023.078325,-0.020000,0.960000,-0.232000,192.000000,0.000000,0.000000,0.000000,0.000000,0.000000,0.000000,0.000000,0.000000,0.000000,1647322512.822492,0.000000
70.000000,55151.387173,62018.066587,20823.198059,29169.987639,32360.900326,72707.453097,39721.799162,40048.000520,-0.020000,0.960000,-0.232000,192.000000,0.000000,0.000000,0.000000,0.000000,0.000000,0.000000,0.000000,0.000000,0.000000,1647322512.829648,0.000000
71.000000,55147.922653,62015.339674,20817.565419,29163.952668,32362.107320,72774.843606,39734.718470,40082.243393,-0.020000,0.960000,-0.232000,192.000000,0.000000,0.000000,0.000000,0.000000,0.000000,0.000000,0.000000,0.000000,0.000000,1647322512.837552,0.000000
72.000000,55148.526150,62010.936381,20814.793803,29161.471625,32358.620448,72815.926113,39715.607728,40082.243393,-0.020000,0.960000,-0.232000,192.000000,0.000000,0.000000,0.000000,0.000000,0.000000,0.000000,0.000000,0.000000,0.000000,1647322512.837563,0.000000
73.000000,55144.704002,62013.506831,20817.386605,29165.740808,32352.652532,72754.615278,39689.210318,40041.183238,-0.024000,0.956000,-0.226000,192.000000,255.000000,64.000000,29.000000,224.000000,248.000000,240.000000,0.000000,0.000000,0.000000,1647322512.843997,0.000000
74.000000,55148.995536,62021.642866,20825.612047,29174.525043,32355.334742,72682.307384,39702.867234,40012.729467,-0.024000,0.956000,-0.226000,192.000000,0.000000,0.000000,0.000000,0.000000,0.000000,0.000000,0.000000,0.000000,0.000000,1647322512.844008,0.000000
75.000000,55154.650528,62020.726445,20822.795728,29170.412322,32361.392064,72699.406469,39715.272452,40039.082174,-0.024000,0.956000,-0.226000,192.000000,0.000000,0.000000,0.000000,0.000000,0.000000,0.000000,0.000000,0.000000,0.000000,1647322512.852129,0.000000
76.000000,55155.298728,62019.988837,20817.788937,29163.393875,32360.855622,72767.691048,39724.347261,40069.324084,-0.024000,0.956000,-0.226000,192.000000,0.000000,0.000000,0.000000,0.000000,0.000000,0.000000,0.000000,0.000000,0.000000,1647322512.852140,0.000000
77.000000,55148.414391,62011.919857,20815.129079,29159.169395,32356.675846,72810.069956,39718.848731,40074.085006,-0.024000,0.956000,-0.226000,192.000000,0.000000,0.000000,0.000000,0.000000,0.000000,0.000000,0.000000,0.000000,0.000000,1647322512.859989,0.000000
78.000000,55145.978051,62012.478651,20819.890001,29161.270459,32352.563125,72749.250859,39696.519339,40038.881008,-0.024000,0.956000,-0.226000,192.000000,0.000000,0.000000,0.000000,0.000000,0.000000,0.000000,0.000000,0.000000,0.000000,1647322512.860000,0.000000
79.000000,55156.595130,62022.089901,20833.636324,29178.503654,32361.123843,72678.328774,39683.957658,40017.423334,-0.024000,0.956000,-0.226000,192.000000,0.000000,0.000000,0.000000,0.000000,0.000000,0.000000,0.000000,0.000000,0.000000,1647322512.866902,0.000000
80.000000,55166.496952,62031.924669,20836.363236,29182.035229,32372.053846,72697.126591,39710.600938,40044.066613,-0.024000,0.956000,-0.226000,192.000000,0.000000,0.000000,0.000000,0.000000,0.000000,0.000000,0.000000,0.000000,0.000000,1647322512.866919,0.000000
81.000000,55159.947891,62028.527204,20827.199021,29173.809787,32370.042189,72769.993278,39722.134438,40073.861489,-0.024000,0.956000,-0.226000,192.000000,0.000000,0.000000,0.000000,0.000000,0.000000,0.000000,0.000000,0.000000,0.000000,1647322512.874884,0.000000
82.000000,55151.767153,62023.006323,20819.666483,29167.953630,32361.570878,72811.276950,39727.141229,40084.925602,-0.024000,0.956000,-0.226000,192.000000,0.000000,0.000000,0.000000,0.000000,0.000000,0.000000,0.000000,0.000000,0.000000,1647322512.874901,0.000000
83.000000,55149.196702,62022.939268,20819.666483,29171.619317,32353.434843,72747.350961,39713.104333,40048.156982,-0.026000,0.954000,-0.218000,192.000000,255.000000,48.000000,29.000000,208.000000,249.000000,48.000000,0.000000,0.000000,0.000000,1647322512.882813,0.000000
84.000000,55145.352202,62011.048139,20817.118384,29172.915718,32345.276457,72679.222844,39694.328868,40010.628404,-0.026000,0.954000,-0.218000,192.000000,0.000000,0.000000,0.000000,0.000000,0.000000,0.000000,0.000000,0.000000,0.000000,1647322512.882830,0.000000
85.000000,55153.331775,62017.127814,20817.654826,29174.636802,32355.468852,72693.550312,39724.101391,40038.255160,-0.026000,0.954000,-0.218000,192.000000,0.000000,0.000000,0.000000,0.000000,0.000000,0.000000,0.000000,0.000000,0.000000,1647322512.889972,0.000000
86.000000,55151.342470,62013.998570,20809.831716,29163.952668,32353.993637,72762.348981,39731.388060,40089.798282,-0.026000,0.954000,-0.218000,192.000000,0.000000,0.000000,0.000000,0.000000,0.000000,0.000000,0.000000,0.000000,0.000000,1647322512.890006,0.000000
87.000000,55147.721487,62014.087977,20807.753004,29159.147043,32348.137480,72813.333310,39722.804990,40102.941108,-0.026000,0.954000,-0.218000,192.000000,0.000000,0.000000,0.000000,0.000000,0.000000,0.000000,0.000000,0.000000,0.000000,1647322512.896296,0.000000
88.000000,55152.236539,62014.244439,20820.247629,29168.154796,32348.875087,72755.285830,39706.555272,40050.258046,-0.026000,0.954000,-0.218000,192.000000,0.000000,0.000000,0.000000,0.000000,0.000000,0.000000,0.000000,0.000000,0.000000,1647322512.904292,0.000000
89.000000,55153.890568,62012.746872,20826.081434,29171.038171,32346.818727,72681.458018,39691.110217,40020.016136,-0.026000,0.954000,-0.218000,192.000000,0.000000,0.000000,0.000000,0.000000,0.000000,0.000000,0.000000,0.000000,0.000000,1647322512.904303,0.000000
90.000000,55154.695231,62013.842108,20820.404091,29164.466758,32350.395006,72691.762172,39704.565967,40045.474773,-0.026000,0.954000,-0.218000,192.000000,0.000000,0.000000,0.000000,0.000000,0.000000,0.000000,0.000000,0.000000,0.000000,1647322512.912312,0.000000
91.000000,55153.063554,62005.773128,20814.950265,29156.151909,32351.333779,72754.011781,39711.606766,40081.975172,-0.026000,0.954000,-0.218000,192.000000,0.000000,0.000000,0.000000,0.000000,0.000000,0.000000,0.000000,0.000000,0.000000,1647322512.912324,0.000000
92.000000,55149.733144,62005.683721,20808.043576,29154.363770,32346.639913,72803.900874,39702.040220,40084.813843,-0.026000,0.954000,-0.218000,192.000000,0.000000,0.000000,0.000000,0.000000,0.000000,0.000000,0.000000,0.000000,0.000000,1647322512.919732,0.000000
93.000000,55154.427010,62017.664256,20817.140736,29166.679581,32347.735148,72749.407321,39684.292934,40038.545732,-0.028000,0.964000,-0.216000,192.000000,255.000000,32.000000,30.000000,32.000000,249.000000,64.000000,0.000000,0.000000,0.000000,1647322512.919748,0.000000
94.000000,55159.210284,62022.983971,20826.103786,29174.256822,32349.433881,72674.305460,39682.482443,40022.318366,-0.028000,0.964000,-0.216000,192.000000,0.000000,0.000000,0.000000,0.000000,0.000000,0.000000,0.000000,0.000000,0.000000,1647322512.927166,0.000000
95.000000,55169.693252,62027.275506,20828.785995,29179.174206,32362.755521,72680.698059,39696.765208,40033.494238,-0.028000,0.964000,-0.216000,192.000000,0.000000,0.000000,0.000000,0.000000,0.000000,0.000000,0.000000,0.000000,0.000000,1647322512.927182,0.000000
96.000000,55167.033394,62027.119044,20824.986199,29173.183939,32364.521308,72757.342190,39696.988725,40061.389215,-0.028000,0.964000,-0.216000,192.000000,0.000000,0.000000,0.000000,0.000000,0.000000,0.000000,0.000000,0.000000,0.000000,1647322512.934898,0.000000
97.000000,55156.304557,62031.209413,20814.614989,29161.829252,32350.462061,72811.478115,39692.004286,40071.648666,-0.028000,0.964000,-0.216000,192.000000,0.000000,0.000000,0.000000,0.000000,0.000000,0.000000,0.000000,0.000000,0.000000,1647322512.934908,0.000000
98.000000,55148.526150,62019.117119,20811.150469,29162.388046,32338.302712,72750.480205,39670.837184,40025.045279,-0.028000,0.964000,-0.216000,192.000000,0.000000,0.000000,0.000000,0.000000,0.000000,0.000000,0.000000,0.000000,0.000000,1647322512.942984,0.000000
99.000000,55141.306536,62003.225029,20807.149506,29161.046941,32328.535000,72671.802064,39653.447527,39989.684819,-0.028000,0.964000,-0.216000,192.000000,0.000000,0.000000,0.000000,0.000000,0.000000,0.000000,0.000000,0.000000,0.000000,1647322512.942996,0.000000
100.000000,55143.295842,62005.013168,20799.684024,29150.809842,32329.987863,72681.323908,39675.508699,40002.380610,-0.028000,0.964000,-0.216000,192.000000,0.000000,0.000000,0.000000,0.000000,0.000000,0.000000,0.000000,0.000000,0.000000,1647322512.949820,0.000000
101.000000,55142.737048,62004.454375,20793.805515,29148.775834,32333.474735,72753.050655,39704.297746,40049.475735,-0.028000,0.964000,-0.216000,192.000000,0.000000,0.000000,0.000000,0.000000,0.000000,0.000000,0.000000,0.000000,0.000000,1647322512.949831,0.000000
102.000000,55146.201568,62010.712863,20797.940588,29154.386122,32337.073366,72809.980549,39706.667031,40085.260878,-0.028000,0.964000,-0.216000,192.000000,0.000000,0.000000,0.000000,0.000000,0.000000,0.000000,0.000000,0.000000,0.000000,1647322512.956892,0.000000
103.000000,55149.219054,62011.383416,20803.908504,29158.588250,32333.564142,72749.429673,39691.311382,40050.928599,-0.026000,0.964000,-0.220000,192.000000,255.000000,48.000000,30.000000,32.000000,249.000000,32.000000,0.000000,0.000000,0.000000,1647322512.964573,0.000000
104.000000,55146.358031,62004.275561,20809.921123,29161.046941,32333.050052,72669.790407,39675.419292,40013.623537,-0.026000,0.964000,-0.220000,192.000000,0.000000,0.000000,0.000000,0.000000,0.000000,0.000000,0.000000,0.000000,0.000000,1647322512.964583,0.000000
105.000000,55152.236539,62010.712863,20812.625684,29161.739845,32345.656436,72680.854521,39692.540728,40035.461192,-0.026000,0.964000,-0.220000,192.000000,0.000000,0.000000,0.000000,0.000000,0.000000,0.000000,0.000000,0.000000,0.000000,1647322512.974305,0.000000
106.000000,55154.114086,62011.092843,20810.435213,29157.761235,32350.663227,72752.067179,39703.694249,40068.206497,-0.026000,0.964000,-0.220000,192.000000,0.000000,0.000000,0.000000,0.000000,0.000000,0.000000,0.000000,0.000000,0.000000,1647322512.974315,0.000000
107.000000,55151.655394,62010.511698,20804.914332,29154.564936,32345.052939,72804.459668,39686.818682,40079.538832,-0.026000,0.964000,-0.220000,192.000000,0.000000,0.000000,0.000000,0.000000,0.000000,0.000000,0.000000,0.000000,0.000000,1647322512.980309,0.000000
108.000000,55155.544598,62015.697302,20810.390509,29164.958497,32341.700177,72737.180917,39675.441644,40035.975282,-0.026000,0.964000,-0.220000,192.000000,0.000000,0.000000,0.000000,0.000000,0.000000,0.000000,0.000000,0.000000,0.000000,1647322512.980324,0.000000
109.000000,55150.895435,62009.260000,20810.524620,29165.807863,32334.838192,72657.496948,39674.614629,39995.719790,-0.026000,0.964000,-0.220000,192.000000,0.000000,0.000000,0.000000,0.000000,0.000000,0.000000,0.000000,0.000000,0.000000,1647322512.987209,0.000000
110.000000,55147.922653,62006.175459,20802.902675,29156.062502,32333.988826,72665.968259,39683.421216,40017.088058,-0.026000,0.964000,-0.220000,192.000000,0.000000,0.000000,0.000000,0.000000,0.000000,0.000000,0.000000,0.000000,0.000000,1647322512.987220,0.000000
111.000000,55149.330813,62006.868363,20796.823001,29151.279229,32334.949951,72741.293638,39707.225824,40073.906192,-0.026000,0.964000,-0.220000,192.000000,0.000000,0.000000,0.000000,0.000000,0.000000,0.000000,0.000000,0.000000,0.000000,1647322512.995563,0.000000
112.000000,55143.184083,62006.622494,20792.486762,29146.741825,32330.323139,72802.850342,39703.582490,40093.173396,-0.026000,0.964000,-0.220000,192.000000,0.000000,0.000000,0.000000,0.000000,0.000000,0.000000,0.000000,0.000000,0.000000,1647322512.995579,0.000000
113.000000,55146.179217,62007.203639,20802.165067,29155.861337,32329.227904,72739.036112,39685.812853,40046.905285,-0.028000,0.964000,-0.222000,192.000000,255.000000,32.000000,30.000000,32.000000,249.000000,16.000000,0.000000,0.000000,0.000000,1647322513.002424,0.000000
114.000000,55147.877949,62003.940285,20804.579056,29157.202441,32324.623445,72659.486253,39672.982952,40017.892720,-0.028000,0.964000,-0.222000,192.000000,0.000000,0.000000,0.000000,0.000000,0.000000,0.000000,0.000000,0.000000,0.000000,1647322513.002436,0.000000
115.000000,55144.256967,61996.720671,20797.471201,29146.875935,32322.924712,72670.416256,39689.903222,40034.745936,-0.028000,0.964000,-0.222000,192.000000,0.000000,0.000000,0.000000,0.000000,0.000000,0.000000,0.000000,0.000000,0.000000,1647322513.009720,0.000000
116.000000,55140.121894,62003.962636,20792.464410,29141.153889,32322.768250,72741.383045,39706.443513,40073.816785,-0.028000,0.964000,-0.222000,192.000000,0.000000,0.000000,0.000000,0.000000,0.000000,0.000000,0.000000,0.000000,0.000000,1647322513.009726,0.000000
117.000000,55145.218092,62004.812003,20793.358480,29142.986732,32325.159886,72785.192464,39697.949850,40083.584497,-0.028000,0.964000,-0.222000,192.000000,0.000000,0.000000,0.000000,0.000000,0.000000,0.000000,0.000000,0.000000,0.000000,1647322513.016831,0.000000
118.000000,55140.814798,62000.073433,20794.453716,29142.472642,32316.107430,72733.202306,39672.602972,40045.810049,-0.028000,0.964000,-0.222000,192.000000,0.000000,0.000000,0.000000,0.000000,0.000000,0.000000,0.000000,0.000000,0.000000,1647322513.024812,0.000000
119.000000,55134.913937,61989.389299,20792.486762,29139.768081,32307.032622,72651.171404,39658.901353,40002.022982,-0.028000,0.964000,-0.222000,192.000000,0.000000,0.000000,0.000000,0.000000,0.000000,0.000000,0.000000,0.000000,0.000000,1647322513.024819,0.000000
120.000000,55138.646679,61991.400956,20788.932835,29139.253991,32314.229883,72664.917727,39673.027655,40024.330023,-0.028000,0.964000,-0.222000,192.000000,0.000000,0.000000,0.000000,0.000000,0.000000,0.000000,0.000000,0.000000,0.000000,1647322513.031437,0.000000
121.000000,55149.509627,62002.085090,20794.811344,29148.328799,32328.691462,72741.226583,39697.055781,40065.479584,-0.028000,0.964000,-0.222000,192.000000,0.000000,0.000000,0.000000,0.000000,0.000000,0.000000,0.000000,0.000000,0.000000,1647322513.031444,0.000000
122.000000,55151.096600,62001.414538,20797.560608,29153.357941,32332.580666,72797.821200,39697.793388,40078.287134,-0.028000,0.964000,-0.222000,192.000000,0.000000,0.000000,0.000000,0.000000,0.000000,0.000000,0.000000,0.000000,0.000000,1647322513.039772,0.000000
123.000000,55145.039278,62003.426195,20796.599483,29155.123729,32323.282340,72732.196478,39664.735158,40035.505895,-0.020000,0.956000,-0.212000,192.000000,255.000000,96.000000,29.000000,224.000000,249.000000,96.000000,0.000000,0.000000,0.000000,1647322513.039789,0.000000
124.000000,55144.681650,61999.224067,20797.314739,29154.140252,32318.476715,72657.318134,39650.675911,40001.933575,-0.020000,0.956000,-0.212000,192.000000,0.000000,0.000000,0.000000,0.000000,0.000000,0.000000,0.000000,0.000000,0.000000,1647322513.047739,0.000000
125.000000,55147.475618,61995.446622,20799.281692,29152.776796,32328.222075,72668.002268,39668.713769,40011.723639,-0.020000,0.956000,-0.212000,192.000000,0.000000,0.000000,0.000000,0.000000,0.000000,0.000000,0.000000,0.000000,0.000000,1647322513.047750,0.000000
126.000000,55142.714696,62000.185192,20788.821076,29143.456119,32326.612750,72733.045844,39675.955734,40051.018006,-0.020000,0.956000,-0.212000,192.000000,0.000000,0.000000,0.000000,0.000000,0.000000,0.000000,0.000000,0.000000,0.000000,1647322513.054827,0.000000
127.000000,55140.859501,61997.882962,20783.970747,29139.633970,32320.913055,72772.362563,39681.364856,40082.064579,-0.020000,0.956000,-0.212000,192.000000,0.000000,0.000000,0.000000,0.000000,0.000000,0.000000,0.000000,0.000000,0.000000,1647322513.054839,0.000000
128.000000,55140.457170,61994.999587,20788.217579,29148.485261,32317.895570,72719.634798,39677.475652,40054.326064,-0.020000,0.956000,-0.212000,192.000000,0.000000,0.000000,0.000000,0.000000,0.000000,0.000000,0.000000,0.000000,0.000000,1647322513.062343,0.000000
129.000000,55147.967356,62011.495174,20800.734556,29166.098436,32327.462116,72669.343373,39664.533992,40020.239654,-0.020000,0.956000,-0.212000,192.000000,0.000000,0.000000,0.000000,0.000000,0.000000,0.000000,0.000000,0.000000,0.000000,1647322513.062381,0.000000
130.000000,55154.896397,62013.193907,20799.616969,29168.534776,32336.894552,72680.228672,39668.467899,40026.140514,-0.020000,0.956000,-0.212000,192.000000,0.000000,0.000000,0.000000,0.000000,0.000000,0.000000,0.000000,0.000000,0.000000,1647322513.070292,0.000000
131.000000,55168.419202,62017.083110,20803.841448,29172.938069,32347.779852,72748.803824,39691.691362,40070.285209,-0.020000,0.956000,-0.212000,192.000000,0.000000,0.000000,0.000000,0.000000,0.000000,0.000000,0.000000,0.000000,0.000000,1647322513.070307,0.000000
132.000000,55161.981900,62020.145299,20797.717070,29165.025552,32340.157907,72805.800772,39692.943060,40090.871166,-0.020000,0.956000,-0.212000,192.000000,0.000000,0.000000,0.000000,0.000000,0.000000,0.000000,0.000000,0.000000,0.000000,1647322513.077399,0.000000
133.000000,55160.394926,62022.022846,20804.422594,29173.765084,32338.034491,72753.341228,39679.286144,40054.907209,-0.020000,0.962000,-0.216000,192.000000,255.000000,96.000000,30.000000,16.000000,249.000000,64.000000,0.000000,0.000000,0.000000,1647322513.084279,0.000000
134.000000,55163.546522,62020.078244,20813.162126,29181.856415,32339.219134,72674.327812,39659.661312,40014.763476,-0.020000,0.962000,-0.216000,192.000000,0.000000,0.000000,0.000000,0.000000,0.000000,0.000000,0.000000,0.000000,0.000000,1647322513.084290,0.000000
135.000000,55167.838057,62018.826547,20812.782146,29178.838930,32345.075291,72682.530902,39673.966429,40040.780907,-0.020000,0.962000,-0.216000,192.000000,0.000000,0.000000,0.000000,0.000000,0.000000,0.000000,0.000000,0.000000,0.000000,1647322513.091902,0.000000
136.000000,55166.765173,62015.764358,20806.143678,29170.725247,32344.628256,72750.793129,39685.321115,40076.946029,-0.020000,0.962000,-0.216000,192.000000,0.000000,0.000000,0.000000,0.000000,0.000000,0.000000,0.000000,0.000000,0.000000,1647322513.091918,0.000000
137.000000,55166.184028,62015.987875,20801.539219,29170.166453,32341.119032,72798.961139,39683.152995,40090.334724,-0.020000,0.962000,-0.216000,192.000000,0.000000,0.000000,0.000000,0.000000,0.000000,0.000000,0.000000,0.000000,0.000000,1647322513.100136,0.000000
138.000000,55167.882761,62021.620515,20804.735518,29175.776741,32334.681730,72733.582286,39664.668103,40049.140459,-0.020000,0.962000,-0.216000,192.000000,0.000000,0.000000,0.000000,0.000000,0.000000,0.000000,0.000000,0.000000,0.000000,1647322513.100153,0.000000
139.000000,55163.546522,62033.623401,20808.669425,29173.452160,32328.423241,72654.926497,39662.701149,40014.249386,-0.020000,0.962000,-0.216000,192.000000,0.000000,0.000000,0.000000,0.000000,0.000000,0.000000,0.000000,0.000000,0.000000,1647322513.107956,0.000000
140.000000,55166.765173,62033.355180,20805.875457,29167.216023,32331.977169,72672.897300,39678.682647,40041.451459,-0.020000,0.962000,-0.216000,192.000000,0.000000,0.000000,0.000000,0.000000,0.000000,0.000000,0.000000,0.000000,0.000000,1647322513.107971,0.000000
141.000000,55162.786563,62018.379512,20793.626701,29158.320029,32328.557352,72756.850452,39683.152995,40076.633105,-0.020000,0.962000,-0.216000,192.000000,0.000000,0.000000,0.000000,0.000000,0.000000,0.000000,0.000000,0.000000,0.000000,1647322513.114440,0.000000
142.000000,55157.355089,62001.369834,20786.362384,29152.732092,32322.589436,72812.573351,39673.653504,40081.885765,-0.020000,0.962000,-0.216000,192.000000,0.000000,0.000000,0.000000,0.000000,0.000000,0.000000,0.000000,0.000000,0.000000,1647322513.114450,0.000000
143.000000,55159.702022,62009.841145,20793.202018,29161.628087,32321.717718,72752.491862,39659.840126,40035.863523,-0.024000,0.958000,-0.218000,192.000000,255.000000,64.000000,29.000000,240.000000,249.000000,48.000000,0.000000,0.000000,0.000000,1647322513.122529,0.000000
144.000000,55164.194723,62016.747834,20802.522695,29171.373447,32324.601093,72687.649451,39655.325074,40027.436915,-0.024000,0.958000,-0.218000,192.000000,0.000000,0.000000,0.000000,0.000000,0.000000,0.000000,0.000000,0.000000,0.000000,1647322513.122545,0.000000
145.000000,55169.246217,62018.938305,20803.506172,29170.792302,32331.954817,72710.291768,39666.635056,40053.633160,-0.024000,0.958000,-0.218000,192.000000,0.000000,0.000000,0.000000,0.000000,0.000000,0.000000,0.000000,0.000000,0.000000,1647322513.130721,0.000000
146.000000,55170.877894,62020.145299,20805.651940,29168.601831,32337.609808,72764.405342,39672.424158,40074.844965,-0.024000,0.958000,-0.218000,192.000000,0.000000,0.000000,0.000000,0.000000,0.000000,0.000000,0.000000,0.000000,0.000000,1647322513.130738,0.000000
147.000000,55169.939121,62013.417424,20803.796745,29166.836043,32336.000483,72813.400366,39679.621420,40087.317239,-0.024000,0.958000,-0.218000,192.000000,0.000000,0.000000,0.000000,0.000000,0.000000,0.000000,0.000000,0.000000,0.000000,1647322513.137715,0.000000
148.000000,55167.368670,62010.824622,20804.981387,29166.947802,32326.903323,72757.141025,39663.148184,40048.581666,-0.024000,0.958000,-0.218000,192.000000,0.000000,0.000000,0.000000,0.000000,0.000000,0.000000,0.000000,0.000000,0.000000,1647322513.137731,0.000000
149.000000,55171.794316,62021.061721,20810.189344,29173.340401,32327.193895,72672.562024,39643.679815,40006.761552,-0.024000,0.958000,-0.218000,192.000000,0.000000,0.000000,0.000000,0.000000,0.000000,0.000000,0.000000,0.000000,0.000000,1647322513.144147,0.000000
150.000000,55169.626197,62016.032578,20798.588788,29163.527985,32326.433936,72682.106219,39653.402824,40024.888816,-0.024000,0.958000,-0.218000,192.000000,0.000000,0.000000,0.000000,0.000000,0.000000,0.000000,0.000000,0.000000,0.000000,1647322513.152112,0.000000
151.000000,55172.531923,62015.429081,20795.794820,29159.169395,32329.786698,72765.947612,39687.690400,40084.232698,-0.024000,0.958000,-0.218000,192.000000,0.000000,0.000000,0.000000,0.000000,0.000000,0.000000,0.000000,0.000000,0.000000,1647322513.152124,0.000000
152.000000,55169.581493,62009.215296,20792.352652,29154.654342,32326.635102,72826.364377,39675.441644,40094.425093,-0.024000,0.958000,-0.218000,192.000000,0.000000,0.000000,0.000000,0.000000,0.000000,0.000000,0.000000,0.000000,0.000000,1647322513.160123,0.000000
153.000000,55167.547484,62018.155994,20798.678195,29163.259764,32323.952892,72776.654098,39659.236629,40050.995654,-0.022000,0.960000,-0.224000,192.000000,255.000000,80.000000,30.000000,0.000000,249.000000,0.000000,0.000000,0.000000,0.000000,1647322513.160135,0.000000
154.000000,55168.150981,62015.786709,20805.763698,29172.468683,32325.472811,72703.340376,39651.860553,40017.423334,-0.022000,0.960000,-0.224000,192.000000,0.000000,0.000000,0.000000,0.000000,0.000000,0.000000,0.000000,0.000000,0.000000,1647322513.167207,0.000000
155.000000,55171.839019,62014.535012,20806.858934,29171.440503,32334.569971,72705.866123,39664.757510,40038.411622,-0.022000,0.960000,-0.224000,192.000000,0.000000,0.000000,0.000000,0.000000,0.000000,0.000000,0.000000,0.000000,0.000000,1647322513.167219,0.000000
156.000000,55168.977996,62014.780881,20799.393451,29166.657229,32335.665206,72772.921356,39670.099577,40072.185108,-0.022000,0.960000,-0.224000,192.000000,0.000000,0.000000,0.000000,0.000000,0.000000,0.000000,0.000000,0.000000,0.000000,1647322513.174895,0.000000
157.000000,55170.341452,62022.425177,20795.236027,29166.500767,32333.720605,72821.357587,39674.726388,40085.596154,-0.022000,0.960000,-0.224000,192.000000,0.000000,0.000000,0.000000,0.000000,0.000000,0.000000,0.000000,0.000000,0.000000,1647322513.174911,0.000000
