%OpenBCI Raw EEG Data
%Number of channels = 8
%Sample Rate = 256 Hz
%Board = OpenBCI_GUI$BoardCytonSerial
%Channels = Fp1, Fp2, F3, F4, Fz, Pz, O1, O2
%Data recorded at AIMS Lab (http://aimsl.uiu.ac.bd) by Rana Depto (mail@ranadepto.com)
%Brainwaves were obtained via the Ultracortex Mark IV Headset using the OpenBCI Cyton Board
%Recording Application = ConcentrateToday (https://concentrate.today)
%Data type = RAW data with noise
%Day No = 1
%Subject ID = 1
%Session ID = 7
%Record starting timestamp (UTC+6) = 2022-03-05T11:16:33.585370
%Record ending timestamp (UTC+6)   = 2022-03-05T11:17:34.496455
%Recorded durations = ~60 seconds
Sample Index, EXG Channel 0, EXG Channel 1, EXG Channel 2, EXG Channel 3, EXG Channel 4, EXG Channel 5, EXG Channel 6, EXG Channel 7, Accel Channel 0, Accel Channel 1, Accel Channel 2, Other, Other, Other, Other, Other, Other, Other, Analog Channel 0, Analog Channel 1, Analog Channel 2, Timestamp, Timestamp (Formatted)
219.000000,40706.438208,47849.988681,10891.088652,36107.656194,11786.611293,19789.452230,36065.634914,35680.201433,-0.060000,0.872000,0.392000,192.000000,0.000000,0.000000,0.000000,0.000000,0.000000,0.000000,0.000000,0.000000,0.000000,1646457393.585010,0.000000
220.000000,40715.960052,47838.186960,10916.167309,36124.174133,11643.001335,19805.746651,36066.081949,35669.874927,-0.060000,0.872000,0.392000,192.000000,0.000000,0.000000,0.000000,0.000000,0.000000,0.000000,0.000000,0.000000,0.000000,1646457393.585028,0.000000
221.000000,40732.165066,47850.122792,10954.880530,36136.467592,11745.417028,19812.385119,36062.282152,35673.875889,-0.060000,0.872000,0.392000,192.000000,0.000000,0.000000,0.000000,0.000000,0.000000,0.000000,0.000000,0.000000,0.000000,1646457393.592776,0.000000
222.000000,40729.192284,47851.039213,10965.050574,36129.046813,11918.017199,19784.244273,36015.991690,35618.130638,-0.062000,0.846000,0.430000,192.000000,254.000000,16.000000,26.000000,112.000000,13.000000,112.000000,0.000000,0.000000,0.000000,1646457393.592783,0.000000
223.000000,40716.027107,47839.840989,10955.819303,36106.784476,11987.486421,19756.192834,35977.345524,35585.586498,-0.062000,0.846000,0.430000,192.000000,0.000000,0.000000,0.000000,0.000000,0.000000,0.000000,0.000000,0.000000,0.000000,1646457393.600808,0.000000
224.000000,40702.794874,47815.365829,10950.991327,36105.756295,11821.994105,19763.211282,35962.123986,35604.183150,-0.062000,0.846000,0.430000,192.000000,0.000000,0.000000,0.000000,0.000000,0.000000,0.000000,0.000000,0.000000,0.000000,1646457393.600813,0.000000
225.000000,40709.813322,47796.031570,10968.582150,36124.576464,11682.943902,19779.684517,35957.474823,35599.332821,-0.062000,0.846000,0.430000,192.000000,0.000000,0.000000,0.000000,0.000000,0.000000,0.000000,0.000000,0.000000,0.000000,1646457393.606863,0.000000
226.000000,40728.789953,47801.463044,10997.013569,36142.480212,11771.479162,19778.097543,35946.544820,35589.788626,-0.062000,0.846000,0.430000,192.000000,0.000000,0.000000,0.000000,0.000000,0.000000,0.000000,0.000000,0.000000,0.000000,1646457393.614437,0.000000
227.000000,40722.062078,47790.175413,10994.398414,36126.297549,11929.304830,19743.429988,35899.404991,35548.683768,-0.062000,0.846000,0.430000,192.000000,0.000000,0.000000,0.000000,0.000000,0.000000,0.000000,0.000000,0.000000,0.000000,1646457393.614441,0.000000
228.000000,40715.021278,47794.176375,10993.414938,36119.524970,12001.456261,19724.207488,35864.223345,35519.805315,-0.062000,0.846000,0.430000,192.000000,0.000000,0.000000,0.000000,0.000000,0.000000,0.000000,0.000000,0.000000,0.000000,1646457393.622440,0.000000
229.000000,40712.003793,47777.949009,10997.460603,36130.946711,11841.954212,19737.238555,35851.505202,35524.298015,-0.062000,0.846000,0.430000,192.000000,0.000000,0.000000,0.000000,0.000000,0.000000,0.000000,0.000000,0.000000,0.000000,1646457393.622445,0.000000
230.000000,40716.183569,47752.356261,10999.852240,36135.931150,11702.389920,19743.720561,35842.609208,35524.655643,-0.062000,0.846000,0.430000,192.000000,0.000000,0.000000,0.000000,0.000000,0.000000,0.000000,0.000000,0.000000,0.000000,1646457393.630467,0.000000
231.000000,40720.989194,47744.533151,11005.686045,36133.986549,11769.713374,19734.198717,35821.553865,35515.871407,-0.062000,0.846000,0.430000,192.000000,0.000000,0.000000,0.000000,0.000000,0.000000,0.000000,0.000000,0.000000,0.000000,1646457393.630472,0.000000
232.000000,40716.250624,47733.334927,10997.684121,36120.441392,11922.420492,19707.287217,35781.320725,35495.710134,-0.064000,0.820000,0.468000,192.000000,254.000000,0.000000,25.000000,160.000000,14.000000,160.000000,0.000000,0.000000,0.000000,1646457393.637038,0.000000
233.000000,40710.193301,47700.768435,10978.506324,36109.846665,11989.945112,19689.182304,35744.574457,35491.887986,-0.064000,0.820000,0.468000,192.000000,0.000000,0.000000,0.000000,0.000000,0.000000,0.000000,0.000000,0.000000,0.000000,1646457393.637043,0.000000
234.000000,40714.708354,47663.999815,10967.464562,36120.620205,11834.488730,19697.787726,35718.154695,35473.939535,-0.064000,0.820000,0.468000,192.000000,0.000000,0.000000,0.000000,0.000000,0.000000,0.000000,0.000000,0.000000,0.000000,1646457393.645059,0.000000
235.000000,40721.525636,47625.241891,10963.508304,36128.309206,11694.276237,19704.023862,35693.947756,35455.097014,-0.064000,0.820000,0.468000,192.000000,0.000000,0.000000,0.000000,0.000000,0.000000,0.000000,0.000000,0.000000,0.000000,1646457393.645070,0.000000
236.000000,40737.753002,47608.075751,10971.420821,36138.702767,11763.924273,19701.364005,35677.407465,35458.539183,-0.064000,0.820000,0.468000,192.000000,0.000000,0.000000,0.000000,0.000000,0.000000,0.000000,0.000000,0.000000,0.000000,1646457393.653013,0.000000
237.000000,40727.918235,47595.648181,10955.215806,36119.815543,11906.193126,19672.954938,35641.622322,35436.992101,-0.064000,0.820000,0.468000,192.000000,0.000000,0.000000,0.000000,0.000000,0.000000,0.000000,0.000000,0.000000,0.000000,1646457393.653017,0.000000
238.000000,40719.782200,47596.296382,10939.815454,36108.214987,11970.454391,19654.090065,35613.548531,35419.624796,-0.064000,0.820000,0.468000,192.000000,0.000000,0.000000,0.000000,0.000000,0.000000,0.000000,0.000000,0.000000,0.000000,1646457393.660214,0.000000
239.000000,40731.338052,47588.249754,10944.330507,36123.056546,11824.810424,19675.033650,35611.380412,35423.044613,-0.064000,0.820000,0.468000,192.000000,0.000000,0.000000,0.000000,0.000000,0.000000,0.000000,0.000000,0.000000,0.000000,1646457393.660219,0.000000
240.000000,40739.474087,47574.749300,10953.360612,36143.463688,11697.316074,19700.693452,35619.114115,35435.606293,-0.064000,0.820000,0.468000,192.000000,0.000000,0.000000,0.000000,0.000000,0.000000,0.000000,0.000000,0.000000,0.000000,1646457393.666661,0.000000
241.000000,40753.376872,47578.213820,10968.090411,36158.349950,11766.360613,19708.605970,35624.120906,35456.214602,-0.064000,0.820000,0.468000,192.000000,0.000000,0.000000,0.000000,0.000000,0.000000,0.000000,0.000000,0.000000,0.000000,1646457393.674628,0.000000
242.000000,40745.956093,47571.150669,10954.567606,36140.200334,11908.629466,19674.698374,35594.907176,35415.959110,-0.070000,0.820000,0.496000,192.000000,253.000000,208.000000,25.000000,160.000000,15.000000,128.000000,0.000000,0.000000,0.000000,1646457393.674631,0.000000
243.000000,40726.554778,47554.543323,10928.326658,36112.171246,11968.778010,19641.796606,35573.047170,35387.527691,-0.070000,0.820000,0.496000,192.000000,0.000000,0.000000,0.000000,0.000000,0.000000,0.000000,0.000000,0.000000,0.000000,1646457393.682757,0.000000
244.000000,40728.655842,47539.120619,10926.650277,36116.932168,11817.791977,19658.426304,35578.031609,35401.452828,-0.070000,0.820000,0.496000,192.000000,0.000000,0.000000,0.000000,0.000000,0.000000,0.000000,0.000000,0.000000,0.000000,1646457393.682762,0.000000
245.000000,40736.255435,47529.039982,10930.986515,36124.621168,11681.044004,19674.519560,35586.100589,35436.075680,-0.070000,0.820000,0.496000,192.000000,0.000000,0.000000,0.000000,0.000000,0.000000,0.000000,0.000000,0.000000,0.000000,1646457393.689805,0.000000
246.000000,40753.958017,47539.992337,10955.349917,36140.647369,11751.966089,19690.076374,35607.290042,35476.018247,-0.070000,0.820000,0.496000,192.000000,0.000000,0.000000,0.000000,0.000000,0.000000,0.000000,0.000000,0.000000,0.000000,1646457393.689809,0.000000
247.000000,40759.702415,47550.788230,10960.691984,36143.195467,11907.131899,19679.816923,35603.892577,35464.507099,-0.070000,0.820000,0.496000,192.000000,0.000000,0.000000,0.000000,0.000000,0.000000,0.000000,0.000000,0.000000,0.000000,1646457393.697286,0.000000
248.000000,40755.612046,47560.220666,10951.706583,36134.031252,11982.501982,19656.749923,35581.272612,35427.403203,-0.070000,0.820000,0.496000,192.000000,0.000000,0.000000,0.000000,0.000000,0.000000,0.000000,0.000000,0.000000,0.000000,1646457393.697290,0.000000
249.000000,40759.925933,47552.978701,10953.628833,36142.860191,11835.248689,19671.747943,35586.078237,35430.912427,-0.070000,0.820000,0.496000,192.000000,0.000000,0.000000,0.000000,0.000000,0.000000,0.000000,0.000000,0.000000,0.000000,1646457393.705305,0.000000
250.000000,40777.427349,47545.893198,10972.940740,36166.955372,11713.051702,19705.096746,35614.017917,35468.888041,-0.070000,0.820000,0.496000,192.000000,0.000000,0.000000,0.000000,0.000000,0.000000,0.000000,0.000000,0.000000,0.000000,1646457393.705309,0.000000
251.000000,40785.384570,47547.591930,10991.559743,36181.193433,11776.463601,19710.997607,35627.026633,35470.989105,-0.070000,0.820000,0.496000,192.000000,0.000000,0.000000,0.000000,0.000000,0.000000,0.000000,0.000000,0.000000,0.000000,1646457393.713335,0.000000
252.000000,40777.293238,47554.811544,10985.547124,36169.726988,11925.728551,19685.494266,35606.284214,35444.301122,-0.070000,0.812000,0.508000,192.000000,253.000000,208.000000,25.000000,96.000000,15.000000,224.000000,0.000000,0.000000,0.000000,1646457393.713339,0.000000
253.000000,40767.480823,47546.764916,10966.838714,36146.928209,11992.515563,19654.537100,35584.178339,35418.417802,-0.070000,0.812000,0.508000,192.000000,0.000000,0.000000,0.000000,0.000000,0.000000,0.000000,0.000000,0.000000,0.000000,1646457393.719935,0.000000
254.000000,40763.479860,47525.709573,10957.428629,36143.888371,11834.265212,19656.906385,35579.462120,35406.504322,-0.070000,0.812000,0.508000,192.000000,0.000000,0.000000,0.000000,0.000000,0.000000,0.000000,0.000000,0.000000,0.000000,1646457393.719939,0.000000
255.000000,40775.683913,47514.488997,10970.102068,36162.865002,11700.646484,19672.552606,35585.631202,35392.713296,-0.070000,0.812000,0.508000,192.000000,0.000000,0.000000,0.000000,0.000000,0.000000,0.000000,0.000000,0.000000,0.000000,1646457393.726968,0.000000
0.000000,40785.876308,47514.287831,10988.005816,36172.453901,11760.504456,19680.398068,35607.602967,35416.182627,-0.070000,0.812000,0.508000,192.000000,0.000000,0.000000,0.000000,0.000000,0.000000,0.000000,0.000000,0.000000,0.000000,1646457393.734937,0.000000
1.000000,40786.077474,47514.399590,10985.837696,36164.384921,11909.300018,19663.008411,35596.896481,35414.953281,-0.070000,0.812000,0.508000,192.000000,0.000000,0.000000,0.000000,0.000000,0.000000,0.000000,0.000000,0.000000,0.000000,1646457393.734947,0.000000
2.000000,40779.282544,47508.923412,10975.734708,36156.315941,11992.023825,19646.199899,35579.618583,35395.663726,-0.070000,0.812000,0.508000,192.000000,0.000000,0.000000,0.000000,0.000000,0.000000,0.000000,0.000000,0.000000,0.000000,1646457393.743029,0.000000
3.000000,40779.707227,47497.635781,10976.069984,36166.441282,11849.531454,19655.118245,35572.756597,35378.385827,-0.070000,0.812000,0.508000,192.000000,0.000000,0.000000,0.000000,0.000000,0.000000,0.000000,0.000000,0.000000,0.000000,1646457393.743032,0.000000
4.000000,40784.915183,47485.856412,10981.322644,36175.627849,11710.972990,19665.981193,35566.341646,35367.567583,-0.070000,0.812000,0.508000,192.000000,0.000000,0.000000,0.000000,0.000000,0.000000,0.000000,0.000000,0.000000,0.000000,1646457393.749566,0.000000
5.000000,40795.420503,47490.773796,10997.058272,36187.496625,11757.509322,19670.608004,35569.359132,35371.345028,-0.070000,0.812000,0.508000,192.000000,0.000000,0.000000,0.000000,0.000000,0.000000,0.000000,0.000000,0.000000,0.000000,1646457393.749571,0.000000
6.000000,40791.576003,47493.567764,10996.119499,36180.478177,11906.573106,19653.240699,35563.145347,35374.161348,-0.070000,0.812000,0.508000,192.000000,0.000000,0.000000,0.000000,0.000000,0.000000,0.000000,0.000000,0.000000,0.000000,1646457393.757600,0.000000
7.000000,40784.155224,47483.308313,10985.994159,36166.106005,11990.727424,19632.274763,35542.581742,35357.375188,-0.064000,0.808000,0.520000,192.000000,254.000000,0.000000,25.000000,64.000000,16.000000,64.000000,0.000000,0.000000,0.000000,1646457393.757603,0.000000
8.000000,40790.726637,47472.780642,10989.033996,36176.678381,11852.526588,19648.390370,35543.162887,35352.949542,-0.064000,0.808000,0.520000,192.000000,0.000000,0.000000,0.000000,0.000000,0.000000,0.000000,0.000000,0.000000,0.000000,1646457393.765625,0.000000
9.000000,40806.439913,47469.807860,11002.199173,36197.241985,11725.903955,19670.630356,35552.215344,35353.284818,-0.064000,0.808000,0.520000,192.000000,0.000000,0.000000,0.000000,0.000000,0.000000,0.000000,0.000000,0.000000,0.000000,1646457393.765629,0.000000
10.000000,40816.162922,47472.065386,11012.950362,36205.042744,11767.478200,19668.864568,35549.600190,35335.783402,-0.064000,0.808000,0.520000,192.000000,0.000000,0.000000,0.000000,0.000000,0.000000,0.000000,0.000000,0.000000,0.000000,1646457393.772245,0.000000
11.000000,40815.492370,47484.694121,11009.664656,36197.443151,11918.598344,19650.513786,35540.368919,35330.642501,-0.064000,0.808000,0.520000,192.000000,0.000000,0.000000,0.000000,0.000000,0.000000,0.000000,0.000000,0.000000,0.000000,1646457393.772248,0.000000
12.000000,40797.163939,47486.057578,10990.240990,36175.314924,12002.037406,19633.839385,35530.690614,35368.595763,-0.064000,0.808000,0.520000,192.000000,0.000000,0.000000,0.000000,0.000000,0.000000,0.000000,0.000000,0.000000,0.000000,1646457393.780254,0.000000
13.000000,40802.841282,47484.671770,10991.895019,36181.975744,11865.378841,19649.642068,35532.210533,35379.928098,-0.064000,0.808000,0.520000,192.000000,0.000000,0.000000,0.000000,0.000000,0.000000,0.000000,0.000000,0.000000,0.000000,1646457393.780258,0.000000
14.000000,40803.020096,47471.148964,10990.464507,36185.529671,11728.519109,19656.436998,35530.891780,35364.013656,-0.064000,0.808000,0.520000,192.000000,0.000000,0.000000,0.000000,0.000000,0.000000,0.000000,0.000000,0.000000,0.000000,1646457393.787264,0.000000
15.000000,40823.516646,47490.505575,11010.201098,36203.656936,11766.159447,19666.584690,35546.627408,35371.277973,-0.064000,0.808000,0.520000,192.000000,0.000000,0.000000,0.000000,0.000000,0.000000,0.000000,0.000000,0.000000,0.000000,1646457393.787268,0.000000
16.000000,40817.056992,47499.803901,11002.556801,36190.961145,11913.211574,19641.550737,35529.014233,35355.989379,-0.064000,0.808000,0.520000,192.000000,0.000000,0.000000,0.000000,0.000000,0.000000,0.000000,0.000000,0.000000,0.000000,1646457393.795453,0.000000
17.000000,40808.719791,47506.598831,10994.398414,36179.137072,12004.943133,19624.116376,35515.625538,35337.795059,-0.064000,0.818000,0.536000,192.000000,254.000000,0.000000,25.000000,144.000000,16.000000,192.000000,0.000000,0.000000,0.000000,1646457393.801849,0.000000
18.000000,40816.542902,47504.430712,10998.108804,36188.636564,11870.407983,19641.282516,35527.494315,35337.862115,-0.064000,0.818000,0.536000,192.000000,0.000000,0.000000,0.000000,0.000000,0.000000,0.000000,0.000000,0.000000,0.000000,1646457393.801853,0.000000
19.000000,40824.813047,47494.081854,11005.462528,36201.779390,11733.436493,19659.208615,35534.959797,35345.394653,-0.064000,0.818000,0.536000,192.000000,0.000000,0.000000,0.000000,0.000000,0.000000,0.000000,0.000000,0.000000,0.000000,1646457393.809944,0.000000
20.000000,40831.987957,47498.038113,11015.140833,36213.603462,11764.237197,19665.109475,35545.554524,35349.306208,-0.064000,0.818000,0.536000,192.000000,0.000000,0.000000,0.000000,0.000000,0.000000,0.000000,0.000000,0.000000,0.000000,1646457393.809948,0.000000
21.000000,40829.417506,47509.482206,11010.312856,36202.405238,11916.340818,19639.360266,35527.293149,35316.493847,-0.064000,0.818000,0.536000,192.000000,0.000000,0.000000,0.000000,0.000000,0.000000,0.000000,0.000000,0.000000,0.000000,1646457393.818472,0.000000
22.000000,40814.195968,47512.231471,10999.472260,36187.049590,12006.261886,19619.534268,35513.435067,35302.747524,-0.064000,0.818000,0.536000,192.000000,0.000000,0.000000,0.000000,0.000000,0.000000,0.000000,0.000000,0.000000,0.000000,1646457393.818508,0.000000
23.000000,40809.099771,47495.311200,10993.258475,36187.720142,11869.558617,19634.956972,35521.615806,35336.498658,-0.064000,0.818000,0.536000,192.000000,0.000000,0.000000,0.000000,0.000000,0.000000,0.000000,0.000000,0.000000,0.000000,1646457393.825135,0.000000
24.000000,40821.728506,47478.368578,11004.367292,36203.701640,11734.174101,19662.896653,35545.643931,35374.161348,-0.064000,0.818000,0.536000,192.000000,0.000000,0.000000,0.000000,0.000000,0.000000,0.000000,0.000000,0.000000,0.000000,1646457393.825139,0.000000
25.000000,40837.777059,47491.019665,11025.243822,36222.253588,11763.432534,19674.586615,35559.680827,35378.363476,-0.064000,0.818000,0.536000,192.000000,0.000000,0.000000,0.000000,0.000000,0.000000,0.000000,0.000000,0.000000,0.000000,1646457393.832450,0.000000
26.000000,40839.721661,47507.627011,11029.334191,36222.208884,11924.186280,19657.152254,35552.461213,35361.443205,-0.064000,0.818000,0.536000,192.000000,0.000000,0.000000,0.000000,0.000000,0.000000,0.000000,0.000000,0.000000,0.000000,1646457393.832454,0.000000
27.000000,40832.613806,47506.352962,11018.381836,36211.502398,12013.459148,19632.811205,35531.204704,35327.021519,-0.058000,0.814000,0.538000,192.000000,254.000000,48.000000,25.000000,112.000000,16.000000,208.000000,0.000000,0.000000,0.000000,1646457393.840539,0.000000
28.000000,40826.422373,47489.969133,11011.788072,36207.680250,11874.408945,19637.236850,35527.270797,35308.737792,-0.058000,0.814000,0.538000,192.000000,0.000000,0.000000,0.000000,0.000000,0.000000,0.000000,0.000000,0.000000,0.000000,1646457393.840543,0.000000
29.000000,40834.357242,47482.481299,11022.606316,36224.354651,11743.852406,19658.158083,35539.452498,35313.588120,-0.058000,0.814000,0.538000,192.000000,0.000000,0.000000,0.000000,0.000000,0.000000,0.000000,0.000000,0.000000,0.000000,1646457393.848579,0.000000
30.000000,40849.444669,47493.008970,11041.851168,36242.906599,11766.695889,19668.842217,35552.215344,35321.657100,-0.058000,0.814000,0.538000,192.000000,0.000000,0.000000,0.000000,0.000000,0.000000,0.000000,0.000000,0.000000,0.000000,1646457393.848583,0.000000
31.000000,40847.656530,47503.715456,11043.840473,36239.777355,11916.989019,19651.899594,35544.146364,35310.436524,-0.058000,0.814000,0.538000,192.000000,0.000000,0.000000,0.000000,0.000000,0.000000,0.000000,0.000000,0.000000,0.000000,1646457393.854755,0.000000
32.000000,40836.100678,47498.328686,11033.804540,36227.729765,12015.180232,19632.140652,35529.930655,35294.969117,-0.058000,0.814000,0.538000,192.000000,0.000000,0.000000,0.000000,0.000000,0.000000,0.000000,0.000000,0.000000,0.000000,1646457393.862153,0.000000
33.000000,40825.215378,47475.954589,11021.086397,36219.772544,11881.092117,19628.832594,35517.748954,35271.008047,-0.058000,0.814000,0.538000,192.000000,0.000000,0.000000,0.000000,0.000000,0.000000,0.000000,0.000000,0.000000,0.000000,1646457393.862157,0.000000
34.000000,40823.203721,47453.558141,11020.728769,36225.181666,11740.320830,19639.494376,35518.911245,35264.593096,-0.058000,0.814000,0.538000,192.000000,0.000000,0.000000,0.000000,0.000000,0.000000,0.000000,0.000000,0.000000,0.000000,1646457393.870270,0.000000
35.000000,40843.119126,47462.990578,11039.303069,36241.967826,11757.978709,19648.368019,35532.411698,35267.901155,-0.058000,0.814000,0.538000,192.000000,0.000000,0.000000,0.000000,0.000000,0.000000,0.000000,0.000000,0.000000,0.000000,1646457393.870273,0.000000
36.000000,40846.829515,47469.472583,11041.314726,36236.625759,11906.483699,19634.554641,35531.450573,35270.896288,-0.058000,0.814000,0.538000,192.000000,0.000000,0.000000,0.000000,0.000000,0.000000,0.000000,0.000000,0.000000,0.000000,1646457393.878213,0.000000
37.000000,40832.010309,47461.783583,11027.143720,36217.403259,12006.418348,19613.119318,35514.709117,35262.715550,-0.046000,0.806000,0.544000,192.000000,254.000000,144.000000,25.000000,48.000000,17.000000,0.000000,0.000000,0.000000,0.000000,1646457393.878217,0.000000
38.000000,40819.269814,47436.459057,11012.346865,36207.724954,11867.971643,19606.592608,35497.431218,35227.086869,-0.046000,0.806000,0.544000,192.000000,0.000000,0.000000,0.000000,0.000000,0.000000,0.000000,0.000000,0.000000,0.000000,1646457393.884779,0.000000
39.000000,40829.059878,47434.179179,11023.433330,36226.165143,11734.084694,19623.803452,35502.572120,35210.948910,-0.046000,0.806000,0.544000,192.000000,0.000000,0.000000,0.000000,0.000000,0.000000,0.000000,0.000000,0.000000,0.000000,1646457393.884782,0.000000
40.000000,40846.941274,47447.701984,11042.678182,36243.018358,11744.142979,19634.085254,35509.769381,35211.507703,-0.046000,0.806000,0.544000,192.000000,0.000000,0.000000,0.000000,0.000000,0.000000,0.000000,0.000000,0.000000,0.000000,1646457393.892879,0.000000
41.000000,40846.985978,47461.202438,11044.421619,36239.129155,11894.614922,19637.594478,35533.596341,35293.896233,-0.046000,0.806000,0.544000,192.000000,0.000000,0.000000,0.000000,0.000000,0.000000,0.000000,0.000000,0.000000,0.000000,1646457393.892886,0.000000
42.000000,40837.911169,47461.157735,11038.029020,36229.920236,11997.276485,19627.670303,35530.154172,35317.231455,-0.046000,0.806000,0.544000,192.000000,0.000000,0.000000,0.000000,0.000000,0.000000,0.000000,0.000000,0.000000,0.000000,1646457393.900884,0.000000
43.000000,40835.519533,47450.294787,11032.999877,36229.227332,11871.726736,19628.720835,35524.812105,35291.638707,-0.046000,0.806000,0.544000,192.000000,0.000000,0.000000,0.000000,0.000000,0.000000,0.000000,0.000000,0.000000,0.000000,1646457393.900896,0.000000
44.000000,40844.750803,47443.835133,11038.766627,36238.682120,11733.861176,19640.991943,35528.164867,35275.590155,-0.046000,0.806000,0.544000,192.000000,0.000000,0.000000,0.000000,0.000000,0.000000,0.000000,0.000000,0.000000,0.000000,1646457393.908076,0.000000
45.000000,40855.636103,47451.993519,11054.859883,36255.490632,11740.834921,19652.011353,35540.748899,35273.086759,-0.046000,0.806000,0.544000,192.000000,0.000000,0.000000,0.000000,0.000000,0.000000,0.000000,0.000000,0.000000,0.000000,1646457393.908096,0.000000
46.000000,40852.350396,47460.107203,11050.613052,36247.332245,11895.374882,19630.017236,35525.080326,35252.120823,-0.046000,0.806000,0.544000,192.000000,0.000000,0.000000,0.000000,0.000000,0.000000,0.000000,0.000000,0.000000,0.000000,1646457393.914459,0.000000
47.000000,40852.193934,47466.276284,11047.394401,36242.213695,12007.714749,19621.881201,35524.566236,35265.889498,-0.046000,0.800000,0.550000,192.000000,254.000000,144.000000,25.000000,0.000000,17.000000,48.000000,0.000000,0.000000,0.000000,1646457393.922459,0.000000
48.000000,40851.679844,47452.261740,11042.834645,36243.532448,11884.288416,19628.989056,35522.174599,35256.054730,-0.046000,0.800000,0.550000,192.000000,0.000000,0.000000,0.000000,0.000000,0.000000,0.000000,0.000000,0.000000,0.000000,1646457393.922488,0.000000
49.000000,40851.612789,47440.594130,11047.215587,36253.613085,11749.909729,19643.249469,35523.605111,35245.683521,-0.046000,0.800000,0.550000,192.000000,0.000000,0.000000,0.000000,0.000000,0.000000,0.000000,0.000000,0.000000,0.000000,1646457393.930462,0.000000
50.000000,40879.731283,47473.853525,11071.958968,36279.474053,11753.776581,19660.884996,35541.374748,35263.699027,-0.046000,0.800000,0.550000,192.000000,0.000000,0.000000,0.000000,0.000000,0.000000,0.000000,0.000000,0.000000,0.000000,1646457393.930466,0.000000
51.000000,40882.033513,47489.611505,11066.996880,36267.135890,11903.577972,19634.174661,35528.634254,35246.510535,-0.046000,0.800000,0.550000,192.000000,0.000000,0.000000,0.000000,0.000000,0.000000,0.000000,0.000000,0.000000,0.000000,1646457393.937149,0.000000
52.000000,40862.766309,47463.236447,11052.356488,36246.572285,12004.361988,19612.292303,35514.016213,35224.628177,-0.046000,0.800000,0.550000,192.000000,0.000000,0.000000,0.000000,0.000000,0.000000,0.000000,0.000000,0.000000,0.000000,1646457393.937152,0.000000
53.000000,40857.513649,47446.494990,11052.557653,36253.546030,11891.820954,19632.364170,35523.649815,35232.183067,-0.046000,0.800000,0.550000,192.000000,0.000000,0.000000,0.000000,0.000000,0.000000,0.000000,0.000000,0.000000,0.000000,1646457393.945141,0.000000
54.000000,40867.884859,47449.579531,11060.939558,36269.393417,11760.683270,19648.859757,35527.673129,35230.350224,-0.046000,0.800000,0.550000,192.000000,0.000000,0.000000,0.000000,0.000000,0.000000,0.000000,0.000000,0.000000,0.000000,1646457393.945145,0.000000
55.000000,40881.385312,47454.966301,11072.897741,36279.406998,11744.947641,19654.335934,35536.390309,35223.510590,-0.046000,0.800000,0.550000,192.000000,0.000000,0.000000,0.000000,0.000000,0.000000,0.000000,0.000000,0.000000,0.000000,1646457393.953170,0.000000
56.000000,40877.496109,47460.889514,11073.255369,36267.113539,11896.447765,19647.026914,35546.716815,35268.549355,-0.046000,0.800000,0.550000,192.000000,0.000000,0.000000,0.000000,0.000000,0.000000,0.000000,0.000000,0.000000,0.000000,1646457393.953176,0.000000
57.000000,40869.717702,47461.761232,11063.398250,36254.015416,12002.484441,19625.032797,35527.069631,35270.046922,-0.040000,0.796000,0.554000,192.000000,254.000000,192.000000,24.000000,224.000000,17.000000,80.000000,0.000000,0.000000,0.000000,1646457393.960314,0.000000
58.000000,40857.133670,47437.420182,11047.439104,36244.895905,11879.572198,19620.875373,35515.670242,35247.829288,-0.040000,0.796000,0.554000,192.000000,0.000000,0.000000,0.000000,0.000000,0.000000,0.000000,0.000000,0.000000,0.000000,1646457393.960317,0.000000
59.000000,40877.205536,47437.420182,11066.818066,36268.633457,11758.515150,19643.093007,35522.465172,35244.789451,-0.040000,0.796000,0.554000,192.000000,0.000000,0.000000,0.000000,0.000000,0.000000,0.000000,0.000000,0.000000,0.000000,1646457393.967737,0.000000
60.000000,40897.009182,47447.679633,11092.567276,36291.767513,11756.771714,19658.091028,35533.216361,35230.171410,-0.040000,0.796000,0.554000,192.000000,0.000000,0.000000,0.000000,0.000000,0.000000,0.000000,0.000000,0.000000,0.000000,1646457393.967741,0.000000
61.000000,40893.946993,47452.753479,11088.879238,36281.373952,11904.114414,19644.970554,35533.775155,35257.597000,-0.040000,0.796000,0.554000,192.000000,0.000000,0.000000,0.000000,0.000000,0.000000,0.000000,0.000000,0.000000,0.000000,1646457393.974791,0.000000
62.000000,40884.447501,47455.413336,11076.138744,36266.510042,12006.820680,19630.263106,35521.101716,35289.112960,-0.040000,0.796000,0.554000,192.000000,0.000000,0.000000,0.000000,0.000000,0.000000,0.000000,0.000000,0.000000,0.000000,1646457393.982746,0.000000
63.000000,40880.223022,47450.495952,11069.857904,36262.866707,11892.826783,19631.850080,35513.680937,35261.039169,-0.040000,0.796000,0.554000,192.000000,0.000000,0.000000,0.000000,0.000000,0.000000,0.000000,0.000000,0.000000,0.000000,1646457393.982750,0.000000
64.000000,40878.948972,47444.885665,11073.300072,36270.242783,11757.911653,19643.540042,35515.871407,35245.616465,-0.040000,0.796000,0.554000,192.000000,0.000000,0.000000,0.000000,0.000000,0.000000,0.000000,0.000000,0.000000,0.000000,1646457393.989993,0.000000
65.000000,40897.970307,47466.253932,11094.109546,36291.745161,11746.355801,19655.162949,35524.454477,35242.509573,-0.040000,0.796000,0.554000,192.000000,0.000000,0.000000,0.000000,0.000000,0.000000,0.000000,0.000000,0.000000,0.000000,1646457393.990003,0.000000
66.000000,40903.357077,47488.918601,11096.590590,36286.671315,11897.967684,19637.594478,35522.420469,35228.495029,-0.040000,0.796000,0.554000,192.000000,0.000000,0.000000,0.000000,0.000000,0.000000,0.000000,0.000000,0.000000,0.000000,1646457393.997399,0.000000
67.000000,40893.164682,47501.010895,11086.554657,36273.573193,12009.681703,19621.545925,35517.033698,35224.941102,-0.040000,0.792000,0.564000,192.000000,254.000000,192.000000,24.000000,192.000000,17.000000,160.000000,0.000000,0.000000,0.000000,1646457393.997403,0.000000
68.000000,40889.208423,47498.105168,11078.060994,36268.454643,11894.570219,19622.529402,35505.321384,35208.780790,-0.040000,0.792000,0.564000,192.000000,0.000000,0.000000,0.000000,0.000000,0.000000,0.000000,0.000000,0.000000,0.000000,1646457394.005463,0.000000
69.000000,40893.723475,47479.620275,11083.671282,36279.608164,11761.689098,19635.582821,35508.025945,35206.612671,-0.040000,0.792000,0.564000,192.000000,0.000000,0.000000,0.000000,0.000000,0.000000,0.000000,0.000000,0.000000,0.000000,1646457394.005469,0.000000
70.000000,40909.682621,47473.495897,11104.078424,36294.315612,11742.779522,19646.266955,35515.267910,35208.959604,-0.040000,0.792000,0.564000,192.000000,0.000000,0.000000,0.000000,0.000000,0.000000,0.000000,0.000000,0.000000,0.000000,1646457394.013400,0.000000
71.000000,40915.449371,47479.284999,11108.861698,36290.761684,11898.705292,19628.877298,35504.516721,35188.865386,-0.040000,0.792000,0.564000,192.000000,0.000000,0.000000,0.000000,0.000000,0.000000,0.000000,0.000000,0.000000,0.000000,1646457394.013404,0.000000
72.000000,40908.900310,47462.498839,11102.983189,36279.541109,12011.022807,19607.598437,35491.753875,35177.689514,-0.040000,0.792000,0.564000,192.000000,0.000000,0.000000,0.000000,0.000000,0.000000,0.000000,0.000000,0.000000,0.000000,1646457394.020022,0.000000
73.000000,40910.286118,47442.270510,11099.295151,36282.268021,11905.969609,19616.516783,35488.267003,35187.546633,-0.040000,0.792000,0.564000,192.000000,0.000000,0.000000,0.000000,0.000000,0.000000,0.000000,0.000000,0.000000,0.000000,1646457394.020025,0.000000
74.000000,40921.797266,47438.448362,11113.600268,36300.842321,11779.995177,19636.409835,35496.760666,35177.622459,-0.040000,0.792000,0.564000,192.000000,0.000000,0.000000,0.000000,0.000000,0.000000,0.000000,0.000000,0.000000,0.000000,1646457394.028022,0.000000
75.000000,40933.442525,47440.750592,11128.598288,36309.805371,11756.481142,19639.427321,35493.586718,35146.955865,-0.040000,0.792000,0.564000,192.000000,0.000000,0.000000,0.000000,0.000000,0.000000,0.000000,0.000000,0.000000,0.000000,1646457394.028025,0.000000
76.000000,40933.889560,47446.450287,11130.922870,36305.804408,11909.478832,19636.029856,35496.648907,35203.259910,-0.040000,0.792000,0.564000,192.000000,0.000000,0.000000,0.000000,0.000000,0.000000,0.000000,0.000000,0.000000,0.000000,1646457394.035102,0.000000
77.000000,40931.475572,47461.604769,11127.435997,36300.797618,12023.852709,19624.697521,35483.684895,35229.791430,-0.054000,0.788000,0.574000,192.000000,254.000000,80.000000,24.000000,160.000000,17.000000,240.000000,0.000000,0.000000,0.000000,1646457394.035105,0.000000
78.000000,40922.579577,47465.628083,11119.903460,36294.337963,11913.837423,19619.847193,35470.095035,35187.077247,-0.054000,0.788000,0.574000,192.000000,0.000000,0.000000,0.000000,0.000000,0.000000,0.000000,0.000000,0.000000,0.000000,1646457394.043282,0.000000
79.000000,40927.452258,47468.109127,11131.146387,36302.451647,11779.279921,19643.338876,35488.937555,35206.523264,-0.054000,0.788000,0.574000,192.000000,0.000000,0.000000,0.000000,0.000000,0.000000,0.000000,0.000000,0.000000,0.000000,1646457394.049727,0.000000
80.000000,40939.186923,47474.747595,11145.183283,36312.778153,11741.550176,19651.564318,35496.157169,35202.030564,-0.054000,0.788000,0.574000,192.000000,0.000000,0.000000,0.000000,0.000000,0.000000,0.000000,0.000000,0.000000,0.000000,1646457394.049754,0.000000
81.000000,40937.108211,47475.082871,11141.830521,36299.456513,11887.819992,19626.776234,35477.538166,35180.148206,-0.054000,0.788000,0.574000,192.000000,0.000000,0.000000,0.000000,0.000000,0.000000,0.000000,0.000000,0.000000,0.000000,1646457394.057674,0.000000
82.000000,40928.726307,47470.634874,11132.755713,36287.766551,12003.177345,19604.335082,35458.963866,35158.534069,-0.054000,0.788000,0.574000,192.000000,0.000000,0.000000,0.000000,0.000000,0.000000,0.000000,0.000000,0.000000,0.000000,1646457394.057678,0.000000
83.000000,40922.914853,47456.285054,11124.552622,36289.085303,11907.534231,19618.997826,35475.772378,35193.380438,-0.054000,0.788000,0.574000,192.000000,0.000000,0.000000,0.000000,0.000000,0.000000,0.000000,0.000000,0.000000,0.000000,1646457394.065702,0.000000
84.000000,40929.150990,47442.203455,11133.023934,36300.574100,11775.591883,19642.444806,35488.781093,35220.761325,-0.054000,0.788000,0.574000,192.000000,0.000000,0.000000,0.000000,0.000000,0.000000,0.000000,0.000000,0.000000,0.000000,1646457394.065705,0.000000
85.000000,40946.250075,47442.918711,11155.442733,36320.757725,11745.171159,19659.208615,35502.885044,35230.327872,-0.054000,0.788000,0.574000,192.000000,0.000000,0.000000,0.000000,0.000000,0.000000,0.000000,0.000000,0.000000,0.000000,1646457394.072914,0.000000
86.000000,40949.155801,47450.361842,11157.946129,36314.946272,11888.155268,19642.020123,35494.771361,35223.398831,-0.054000,0.788000,0.574000,192.000000,0.000000,0.000000,0.000000,0.000000,0.000000,0.000000,0.000000,0.000000,0.000000,1646457394.072925,0.000000
87.000000,40947.501772,47456.799144,11152.358192,36306.363202,11999.377549,19623.445824,35484.735427,35207.283224,-0.060000,0.780000,0.578000,192.000000,254.000000,32.000000,24.000000,96.000000,18.000000,16.000000,0.000000,0.000000,0.000000,1646457394.080619,0.000000
88.000000,40940.818601,47434.693269,11143.641012,36305.826760,11902.773309,19621.523574,35474.654791,35186.987840,-0.060000,0.780000,0.578000,192.000000,0.000000,0.000000,0.000000,0.000000,0.000000,0.000000,0.000000,0.000000,0.000000,1646457394.080626,0.000000
89.000000,40944.596046,47405.680705,11146.770256,36313.314594,11761.577339,19629.793719,35471.793767,35175.968430,-0.060000,0.780000,0.578000,192.000000,0.000000,0.000000,0.000000,0.000000,0.000000,0.000000,0.000000,0.000000,0.000000,1646457394.088632,0.000000
90.000000,40951.614493,47389.296876,11159.488399,36323.238769,11717.879679,19635.851042,35475.682971,35171.073398,-0.060000,0.780000,0.578000,192.000000,0.000000,0.000000,0.000000,0.000000,0.000000,0.000000,0.000000,0.000000,0.000000,1646457394.088643,0.000000
91.000000,40953.827316,47391.800271,11164.316376,36318.991938,11868.776306,19626.217440,35483.461378,35194.520377,-0.060000,0.780000,0.578000,192.000000,0.000000,0.000000,0.000000,0.000000,0.000000,0.000000,0.000000,0.000000,0.000000,1646457394.095921,0.000000
92.000000,40952.262694,47385.184155,11162.282367,36310.811199,11990.369796,19609.252466,35478.029904,35186.786674,-0.060000,0.780000,0.578000,192.000000,0.000000,0.000000,0.000000,0.000000,0.000000,0.000000,0.000000,0.000000,0.000000,1646457394.095937,0.000000
93.000000,40942.919665,47351.298911,11157.633204,36307.145513,11899.152326,19608.336044,35471.860823,35173.621496,-0.060000,0.780000,0.578000,192.000000,0.000000,0.000000,0.000000,0.000000,0.000000,0.000000,0.000000,0.000000,0.000000,1646457394.102377,0.000000
94.000000,40950.094575,47328.611890,11168.742021,36319.684842,11761.040897,19619.556620,35466.876384,35157.707054,-0.060000,0.780000,0.578000,192.000000,0.000000,0.000000,0.000000,0.000000,0.000000,0.000000,0.000000,0.000000,0.000000,1646457394.110383,0.000000
95.000000,40966.254886,47299.398160,11189.797364,36338.102679,11719.556060,19643.472987,35481.114445,35201.449418,-0.060000,0.780000,0.578000,192.000000,0.000000,0.000000,0.000000,0.000000,0.000000,0.000000,0.000000,0.000000,0.000000,1646457394.110400,0.000000
96.000000,40961.963351,47254.135877,11190.132641,36328.871409,11866.787001,19631.425396,35482.924936,35238.530962,-0.060000,0.780000,0.578000,192.000000,0.000000,0.000000,0.000000,0.000000,0.000000,0.000000,0.000000,0.000000,0.000000,1646457394.118344,0.000000
97.000000,40950.563961,47188.421749,11183.740042,36313.068725,11980.624435,19611.398233,35480.779169,35229.500858,-0.066000,0.766000,0.584000,192.000000,253.000000,240.000000,23.000000,240.000000,18.000000,64.000000,0.000000,0.000000,0.000000,1646457394.118359,0.000000
98.000000,40938.873999,47100.311172,11178.353271,36311.660565,11892.491507,19609.006597,35466.965791,35199.460113,-0.066000,0.766000,0.584000,192.000000,0.000000,0.000000,0.000000,0.000000,0.000000,0.000000,0.000000,0.000000,0.000000,1646457394.125542,0.000000
99.000000,40936.862342,47014.860453,11180.186114,36317.628481,11744.567662,19610.168887,35449.620837,35168.190022,-0.066000,0.766000,0.584000,192.000000,0.000000,0.000000,0.000000,0.000000,0.000000,0.000000,0.000000,0.000000,0.000000,1646457394.125558,0.000000
100.000000,40947.300607,46960.098679,11195.050024,36327.820877,11692.845725,19621.344760,35463.702436,35174.068531,-0.066000,0.766000,0.584000,192.000000,0.000000,0.000000,0.000000,0.000000,0.000000,0.000000,0.000000,0.000000,0.000000,1646457394.132997,0.000000
101.000000,40951.860363,46929.499141,11205.845917,36324.244597,11840.791922,19612.426414,35465.781148,35178.583584,-0.066000,0.766000,0.584000,192.000000,0.000000,0.000000,0.000000,0.000000,0.000000,0.000000,0.000000,0.000000,0.000000,1646457394.133013,0.000000
102.000000,40944.841915,46898.989010,11211.545612,36322.255292,11961.603100,19602.837515,35464.820023,35179.701171,-0.066000,0.766000,0.584000,192.000000,0.000000,0.000000,0.000000,0.000000,0.000000,0.000000,0.000000,0.000000,0.000000,1646457394.140953,0.000000
103.000000,40933.286063,46848.272902,11207.924629,36321.227112,11885.853039,19600.110602,35452.101881,35157.304723,-0.066000,0.766000,0.584000,192.000000,0.000000,0.000000,0.000000,0.000000,0.000000,0.000000,0.000000,0.000000,0.000000,1646457394.140969,0.000000
104.000000,40932.593159,46798.517918,11216.731217,36330.078403,11750.312060,19610.325350,35447.363311,35138.015167,-0.066000,0.766000,0.584000,192.000000,0.000000,0.000000,0.000000,0.000000,0.000000,0.000000,0.000000,0.000000,0.000000,1646457394.149053,0.000000
105.000000,40940.483325,46763.939770,11230.745760,36339.108508,11693.426871,19619.646027,35453.577096,35138.708072,-0.066000,0.766000,0.584000,192.000000,0.000000,0.000000,0.000000,0.000000,0.000000,0.000000,0.000000,0.000000,0.000000,1646457394.149069,0.000000
106.000000,40938.918702,46729.339269,11233.383266,36333.297054,11841.350715,19602.882219,35444.368177,35129.856781,-0.066000,0.766000,0.584000,192.000000,0.000000,0.000000,0.000000,0.000000,0.000000,0.000000,0.000000,0.000000,0.000000,1646457394.155640,0.000000
107.000000,40933.889560,46674.309274,11233.562080,36326.479772,11965.916987,19587.750088,35434.488706,35120.111420,-0.062000,0.758000,0.584000,192.000000,254.000000,16.000000,23.000000,176.000000,18.000000,64.000000,0.000000,0.000000,0.000000,1646457394.155675,0.000000
108.000000,40931.296758,46601.956678,11230.097560,36323.886970,11889.719890,19589.202951,35426.285616,35090.137731,-0.062000,0.758000,0.584000,192.000000,0.000000,0.000000,0.000000,0.000000,0.000000,0.000000,0.000000,0.000000,0.000000,1646457394.162735,0.000000
109.000000,40939.611607,46405.507196,11240.424066,36332.470039,11756.727011,19607.263161,35435.606293,35080.191205,-0.062000,0.758000,0.584000,192.000000,0.000000,0.000000,0.000000,0.000000,0.000000,0.000000,0.000000,0.000000,0.000000,1646457394.170645,0.000000
110.000000,40951.726252,46111.715867,11259.154827,36350.440842,11702.479327,19629.100815,35455.812270,35113.450600,-0.062000,0.758000,0.584000,192.000000,0.000000,0.000000,0.000000,0.000000,0.000000,0.000000,0.000000,0.000000,0.000000,1646457394.170661,0.000000
111.000000,40958.342368,45953.487868,11262.127610,36350.016159,11851.721925,19612.001730,35443.116479,35104.621661,-0.062000,0.758000,0.584000,192.000000,0.000000,0.000000,0.000000,0.000000,0.000000,0.000000,0.000000,0.000000,0.000000,1646457394.178526,0.000000
112.000000,40950.496906,45807.419218,11250.817627,36333.319406,11972.577807,19587.168942,35422.217598,35075.519690,-0.062000,0.758000,0.584000,192.000000,0.000000,0.000000,0.000000,0.000000,0.000000,0.000000,0.000000,0.000000,0.000000,1646457394.178542,0.000000
113.000000,40932.302586,45716.984059,11237.428932,36317.114391,11888.065861,19587.124239,35417.054345,35085.734437,-0.062000,0.758000,0.584000,192.000000,0.000000,0.000000,0.000000,0.000000,0.000000,0.000000,0.000000,0.000000,0.000000,1646457394.185270,0.000000
114.000000,40935.118906,45688.642047,11246.190816,36323.864618,11739.538519,19604.402137,35429.146639,35089.333068,-0.062000,0.758000,0.584000,192.000000,0.000000,0.000000,0.000000,0.000000,0.000000,0.000000,0.000000,0.000000,0.000000,1646457394.185287,0.000000
115.000000,40954.564924,45698.588574,11262.842865,36340.427260,11681.044004,19616.695597,35435.203962,35075.698504,-0.062000,0.758000,0.584000,192.000000,0.000000,0.000000,0.000000,0.000000,0.000000,0.000000,0.000000,0.000000,0.000000,1646457394.193105,0.000000
116.000000,40971.619305,45731.713859,11267.112049,36335.956912,11832.030038,19597.428393,35424.832752,35067.003675,-0.062000,0.758000,0.584000,192.000000,0.000000,0.000000,0.000000,0.000000,0.000000,0.000000,0.000000,0.000000,0.000000,1646457394.193122,0.000000
117.000000,40957.515354,45733.636109,11252.985746,36313.873388,11944.705182,19579.301128,35421.167066,35081.532309,-0.062000,0.758000,0.584000,192.000000,0.000000,0.000000,0.000000,0.000000,0.000000,0.000000,0.000000,0.000000,0.000000,1646457394.201098,0.000000
118.000000,40943.433755,45722.124961,11243.463903,36306.586719,11868.239864,19581.491599,35420.340052,35083.946298,-0.060000,0.760000,0.586000,192.000000,254.000000,32.000000,23.000000,192.000000,18.000000,80.000000,0.000000,0.000000,0.000000,1646457394.201115,0.000000
119.000000,40960.532839,45728.003469,11257.523150,36325.339833,11734.308211,19602.524591,35431.225351,35085.957955,-0.060000,0.760000,0.586000,192.000000,0.000000,0.000000,0.000000,0.000000,0.000000,0.000000,0.000000,0.000000,0.000000,1646457394.208393,0.000000
120.000000,40973.385092,45742.755621,11270.397755,36341.723662,11676.975987,19618.461385,35446.201020,35092.507016,-0.060000,0.760000,0.586000,192.000000,0.000000,0.000000,0.000000,0.000000,0.000000,0.000000,0.000000,0.000000,0.000000,1646457394.208409,0.000000
121.000000,40985.767959,45773.422214,11277.527961,36343.623560,11827.783206,19605.765594,35441.194229,35086.852024,-0.060000,0.760000,0.586000,192.000000,0.000000,0.000000,0.000000,0.000000,0.000000,0.000000,0.000000,0.000000,0.000000,1646457394.215820,0.000000
122.000000,40980.917630,45782.005284,11266.262682,36325.630406,11948.572033,19580.865750,35426.084450,35076.905498,-0.060000,0.760000,0.586000,192.000000,0.000000,0.000000,0.000000,0.000000,0.000000,0.000000,0.000000,0.000000,0.000000,1646457394.215838,0.000000
123.000000,40969.205316,45768.616589,11249.476522,36314.454533,11870.028003,19569.958099,35408.001889,35053.860850,-0.060000,0.760000,0.586000,192.000000,0.000000,0.000000,0.000000,0.000000,0.000000,0.000000,0.000000,0.000000,0.000000,1646457394.222955,0.000000
124.000000,40976.022598,45766.269656,11255.846769,36323.618749,11725.635734,19588.800620,35420.384755,35067.920097,-0.060000,0.760000,0.586000,192.000000,0.000000,0.000000,0.000000,0.000000,0.000000,0.000000,0.000000,0.000000,0.000000,1646457394.231487,0.000000
125.000000,40992.764055,45773.533973,11270.867142,36337.298016,11660.882731,19607.598437,35436.366252,35089.333068,-0.060000,0.760000,0.586000,192.000000,0.000000,0.000000,0.000000,0.000000,0.000000,0.000000,0.000000,0.000000,0.000000,1646457394.231503,0.000000
126.000000,41004.722238,45804.222918,11277.885589,36341.366034,11811.757006,19600.043547,35437.215619,35090.964745,-0.060000,0.760000,0.586000,192.000000,0.000000,0.000000,0.000000,0.000000,0.000000,0.000000,0.000000,0.000000,0.000000,1646457394.237630,0.000000
127.000000,41001.637697,45823.333660,11270.040127,36329.094926,11932.568184,19576.708326,35419.893017,35069.842347,-0.060000,0.760000,0.586000,192.000000,0.000000,0.000000,0.000000,0.000000,0.000000,0.000000,0.000000,0.000000,0.000000,1646457394.237646,0.000000
128.000000,40996.452093,45832.654337,11265.390964,36326.368013,11877.269969,19572.595605,35412.896921,35041.589742,-0.062000,0.770000,0.590000,192.000000,254.000000,16.000000,24.000000,16.000000,18.000000,112.000000,0.000000,0.000000,0.000000,1646457394.245267,0.000000
129.000000,40995.513319,45837.437610,11270.531865,36338.102679,11742.108970,19590.432297,35423.201075,35054.441995,-0.062000,0.770000,0.590000,192.000000,0.000000,0.000000,0.000000,0.000000,0.000000,0.000000,0.000000,0.000000,0.000000,1646457394.245290,0.000000
130.000000,41012.522997,45856.414241,11288.770889,36360.253258,11675.746641,19618.327274,35443.183535,35110.477818,-0.062000,0.770000,0.590000,192.000000,0.000000,0.000000,0.000000,0.000000,0.000000,0.000000,0.000000,0.000000,0.000000,1646457394.253469,0.000000
131.000000,41014.400543,45879.593000,11288.636778,36349.703234,11819.378951,19604.804469,35440.903657,35111.371888,-0.062000,0.770000,0.590000,192.000000,0.000000,0.000000,0.000000,0.000000,0.000000,0.000000,0.000000,0.000000,0.000000,1646457394.253481,0.000000
132.000000,41005.392790,45898.480224,11273.571703,36328.782002,11933.909289,19576.596567,35423.603406,35080.593536,-0.062000,0.770000,0.590000,192.000000,0.000000,0.000000,0.000000,0.000000,0.000000,0.000000,0.000000,0.000000,0.000000,1646457394.260479,0.000000
133.000000,40995.289802,45889.763044,11258.461923,36316.197969,11870.028003,19563.073762,35405.744363,35045.724815,-0.062000,0.770000,0.590000,192.000000,0.000000,0.000000,0.000000,0.000000,0.000000,0.000000,0.000000,0.000000,0.000000,1646457394.260496,0.000000
134.000000,41002.442360,45889.763044,11266.821476,36329.497257,11729.100255,19586.297224,35424.475124,35075.139710,-0.062000,0.770000,0.590000,192.000000,0.000000,0.000000,0.000000,0.000000,0.000000,0.000000,0.000000,0.000000,0.000000,1646457394.267985,0.000000
135.000000,41023.140076,45908.873786,11284.278188,36350.083214,11662.045021,19606.838477,35441.909485,35093.646955,-0.062000,0.770000,0.590000,192.000000,0.000000,0.000000,0.000000,0.000000,0.000000,0.000000,0.000000,0.000000,0.000000,1646457394.268001,0.000000
136.000000,41033.399526,45942.848437,11286.043976,36350.105566,11805.342055,19587.191294,35427.805534,35058.711178,-0.062000,0.770000,0.590000,192.000000,0.000000,0.000000,0.000000,0.000000,0.000000,0.000000,0.000000,0.000000,0.000000,1646457394.276208,0.000000
137.000000,41030.963186,45962.272103,11279.003177,36342.908304,11933.574013,19576.149532,35429.325453,35078.671286,-0.062000,0.770000,0.590000,192.000000,0.000000,0.000000,0.000000,0.000000,0.000000,0.000000,0.000000,0.000000,0.000000,1646457394.276224,0.000000
138.000000,41015.696945,45954.091365,11266.709717,36335.532228,11885.584818,19576.730678,35427.023223,35105.605138,-0.064000,0.778000,0.588000,192.000000,254.000000,0.000000,24.000000,80.000000,18.000000,96.000000,0.000000,0.000000,0.000000,1646457394.283199,0.000000
139.000000,41021.798971,45960.327501,11273.415240,36347.266894,11744.969993,19588.554751,35426.710299,35092.059981,-0.064000,0.778000,0.588000,192.000000,0.000000,0.000000,0.000000,0.000000,0.000000,0.000000,0.000000,0.000000,0.000000,1646457394.283215,0.000000
140.000000,41042.854314,45979.080615,11294.828212,36365.505918,11674.651405,19609.878315,35442.468279,35098.139655,-0.064000,0.778000,0.588000,192.000000,0.000000,0.000000,0.000000,0.000000,0.000000,0.000000,0.000000,0.000000,0.000000,1646457394.290336,0.000000
141.000000,41047.123497,46001.544118,11296.817517,36357.772214,11816.517927,19595.975530,35442.803555,35092.529368,-0.064000,0.778000,0.588000,192.000000,0.000000,0.000000,0.000000,0.000000,0.000000,0.000000,0.000000,0.000000,0.000000,1646457394.297775,0.000000
142.000000,41041.401451,46013.614060,11283.786450,36341.656606,11937.306754,19567.454704,35418.641319,35060.253449,-0.064000,0.778000,0.588000,192.000000,0.000000,0.000000,0.000000,0.000000,0.000000,0.000000,0.000000,0.000000,0.000000,1646457394.297792,0.000000
143.000000,41037.422840,46013.547005,11276.857409,36339.622598,11892.402100,19569.332250,35416.093220,35055.179603,-0.064000,0.778000,0.588000,192.000000,0.000000,0.000000,0.000000,0.000000,0.000000,0.000000,0.000000,0.000000,0.000000,1646457394.305771,0.000000
144.000000,41043.748384,46012.876453,11284.725223,36353.100700,11752.144903,19597.584855,35440.993064,35097.871434,-0.064000,0.778000,0.588000,192.000000,0.000000,0.000000,0.000000,0.000000,0.000000,0.000000,0.000000,0.000000,0.000000,1646457394.305788,0.000000
145.000000,41052.689082,46016.519787,11293.285941,36362.443729,11671.320995,19614.818050,35459.992046,35114.903464,-0.064000,0.778000,0.588000,192.000000,0.000000,0.000000,0.000000,0.000000,0.000000,0.000000,0.000000,0.000000,0.000000,1646457394.313815,0.000000
146.000000,41054.678387,46031.160180,11293.263590,36358.263953,11804.805613,19602.189315,35463.456567,35117.563321,-0.064000,0.778000,0.588000,192.000000,0.000000,0.000000,0.000000,0.000000,0.000000,0.000000,0.000000,0.000000,0.000000,1646457394.313831,0.000000
147.000000,41050.275093,46046.247607,11285.149906,36344.160002,11926.041475,19578.541169,35446.916276,35098.139655,-0.064000,0.778000,0.588000,192.000000,0.000000,0.000000,0.000000,0.000000,0.000000,0.000000,0.000000,0.000000,0.000000,1646457394.320396,0.000000
148.000000,41042.608445,46048.862761,11272.297653,36335.353414,11882.544980,19572.148570,35435.382776,35076.547870,-0.064000,0.782000,0.588000,192.000000,254.000000,0.000000,24.000000,112.000000,18.000000,96.000000,0.000000,0.000000,0.000000,1646457394.320412,0.000000
149.000000,41049.492782,46049.287444,11277.013871,36347.579819,11740.320830,19590.365242,35443.965846,35088.528405,-0.064000,0.782000,0.588000,192.000000,0.000000,0.000000,0.000000,0.000000,0.000000,0.000000,0.000000,0.000000,0.000000,1646457394.328416,0.000000
150.000000,41069.855221,46064.888962,11297.644531,36372.054979,11667.185923,19615.980341,35463.255401,35109.024955,-0.064000,0.782000,0.588000,192.000000,0.000000,0.000000,0.000000,0.000000,0.000000,0.000000,0.000000,0.000000,0.000000,1646457394.328450,0.000000
151.000000,41076.404283,46086.212526,11305.087662,36369.797453,11807.398415,19606.771422,35464.261230,35107.460333,-0.064000,0.782000,0.588000,192.000000,0.000000,0.000000,0.000000,0.000000,0.000000,0.000000,0.000000,0.000000,0.000000,1646457394.336447,0.000000
152.000000,41071.911582,46101.791692,11298.404491,36359.649761,11934.065751,19592.041623,35460.215564,35114.009394,-0.064000,0.782000,0.588000,192.000000,0.000000,0.000000,0.000000,0.000000,0.000000,0.000000,0.000000,0.000000,0.000000,1646457394.336463,0.000000
153.000000,41065.764852,46100.249422,11287.027453,36348.540944,11895.464289,19584.106753,35448.816174,35107.817961,-0.064000,0.782000,0.588000,192.000000,0.000000,0.000000,0.000000,0.000000,0.000000,0.000000,0.000000,0.000000,0.000000,1646457394.343683,0.000000
154.000000,41068.983503,46095.130872,11289.933180,36358.196897,11744.679421,19597.294283,35455.074663,35100.844216,-0.064000,0.782000,0.588000,192.000000,0.000000,0.000000,0.000000,0.000000,0.000000,0.000000,0.000000,0.000000,0.000000,1646457394.343700,0.000000
155.000000,41078.795919,46094.013285,11295.319950,36365.304752,11652.031440,19602.345777,35452.481860,35084.214519,-0.064000,0.782000,0.588000,192.000000,0.000000,0.000000,0.000000,0.000000,0.000000,0.000000,0.000000,0.000000,0.000000,1646457394.350018,0.000000
156.000000,41086.037884,46117.437913,11306.272305,36365.215345,11790.031110,19594.656777,35454.672331,35092.372905,-0.064000,0.782000,0.588000,192.000000,0.000000,0.000000,0.000000,0.000000,0.000000,0.000000,0.000000,0.000000,0.000000,1646457394.358142,0.000000
157.000000,41076.493690,46133.687631,11298.315084,36350.440842,11914.463271,19578.094134,35450.067872,35108.421458,-0.064000,0.782000,0.588000,192.000000,0.000000,0.000000,0.000000,0.000000,0.000000,0.000000,0.000000,0.000000,0.000000,1646457394.358158,0.000000
158.000000,41070.346960,46132.100657,11284.457002,36341.522496,11883.774326,19570.516893,35441.462450,35102.140618,-0.068000,0.782000,0.580000,192.000000,253.000000,224.000000,24.000000,112.000000,18.000000,32.000000,0.000000,0.000000,0.000000,1646457394.366163,0.000000
159.000000,41075.823137,46122.243538,11285.529886,36349.278551,11739.560871,19582.452724,35442.557686,35099.078429,-0.068000,0.782000,0.580000,192.000000,0.000000,0.000000,0.000000,0.000000,0.000000,0.000000,0.000000,0.000000,0.000000,1646457394.366179,0.000000
160.000000,41091.223489,46130.513684,11302.181936,36370.557412,11655.183036,19611.062957,35470.720884,35131.153182,-0.068000,0.782000,0.580000,192.000000,0.000000,0.000000,0.000000,0.000000,0.000000,0.000000,0.000000,0.000000,0.000000,1646457394.373345,0.000000
161.000000,41106.020344,46159.950931,11318.677523,36378.827557,11798.681235,19611.375882,35482.254384,35140.719729,-0.068000,0.782000,0.580000,192.000000,0.000000,0.000000,0.000000,0.000000,0.000000,0.000000,0.000000,0.000000,0.000000,1646457394.373361,0.000000
162.000000,41099.717152,46173.138460,11310.563840,36363.360150,11919.268896,19583.682070,35459.388549,35104.264033,-0.068000,0.782000,0.580000,192.000000,0.000000,0.000000,0.000000,0.000000,0.000000,0.000000,0.000000,0.000000,0.000000,1646457394.380721,0.000000
163.000000,41076.896021,46150.183219,11283.339415,36339.399080,11875.906512,19549.528605,35409.767677,35024.267140,-0.068000,0.782000,0.580000,192.000000,0.000000,0.000000,0.000000,0.000000,0.000000,0.000000,0.000000,0.000000,0.000000,1646457394.380737,0.000000
164.000000,41076.024303,46127.809123,11283.115898,36342.148345,11726.820377,19577.468285,35441.060119,35095.256280,-0.068000,0.782000,0.580000,192.000000,0.000000,0.000000,0.000000,0.000000,0.000000,0.000000,0.000000,0.000000,0.000000,1646457394.388767,0.000000
165.000000,41094.106864,46136.012213,11302.785433,36363.248392,11644.431847,19615.108623,35483.819006,35182.070456,-0.068000,0.782000,0.580000,192.000000,0.000000,0.000000,0.000000,0.000000,0.000000,0.000000,0.000000,0.000000,0.000000,1646457394.388783,0.000000
166.000000,41104.545129,46154.653568,11311.681427,36367.137595,11776.441249,19600.937617,35473.067817,35153.169650,-0.068000,0.782000,0.580000,192.000000,0.000000,0.000000,0.000000,0.000000,0.000000,0.000000,0.000000,0.000000,0.000000,1646457394.396763,0.000000
167.000000,41098.800731,46166.120013,11303.411282,36356.073482,11904.270876,19578.965852,35455.812270,35126.951054,-0.068000,0.782000,0.580000,192.000000,0.000000,0.000000,0.000000,0.000000,0.000000,0.000000,0.000000,0.000000,0.000000,1646457394.396780,0.000000
168.000000,41092.385780,46161.895533,11294.448232,36347.378653,11884.131954,19574.450800,35445.709282,35109.427286,-0.066000,0.774000,0.578000,192.000000,253.000000,240.000000,24.000000,48.000000,18.000000,16.000000,0.000000,0.000000,0.000000,1646457394.403430,0.000000
169.000000,41101.371181,46150.719661,11302.964247,36358.621580,11737.616269,19592.958044,35452.258343,35103.995812,-0.066000,0.774000,0.578000,192.000000,0.000000,0.000000,0.000000,0.000000,0.000000,0.000000,0.000000,0.000000,0.000000,1646457394.403446,0.000000
170.000000,41113.262309,46153.133649,11313.938953,36375.251278,11646.130579,19610.280646,35462.450738,35111.930682,-0.066000,0.774000,0.578000,192.000000,0.000000,0.000000,0.000000,0.000000,0.000000,0.000000,0.000000,0.000000,0.000000,1646457394.410439,0.000000
171.000000,41115.899815,46165.605922,11317.761101,36374.513671,11774.854276,19604.379786,35467.792805,35134.170667,-0.066000,0.774000,0.578000,192.000000,0.000000,0.000000,0.000000,0.000000,0.000000,0.000000,0.000000,0.000000,0.000000,1646457394.418366,0.000000
172.000000,41105.640364,46168.712815,11307.546354,36359.381540,11895.486640,19582.318614,35453.577096,35120.044365,-0.066000,0.774000,0.578000,192.000000,0.000000,0.000000,0.000000,0.000000,0.000000,0.000000,0.000000,0.000000,0.000000,1646457394.418382,0.000000
173.000000,41097.414922,46168.221077,11296.303427,36350.396138,11877.381727,19569.041678,35437.707357,35087.232004,-0.066000,0.774000,0.578000,192.000000,0.000000,0.000000,0.000000,0.000000,0.000000,0.000000,0.000000,0.000000,0.000000,1646457394.425494,0.000000
174.000000,41105.170978,46159.392137,11300.706720,36359.828575,11730.530766,19586.006652,35446.648055,35088.908385,-0.066000,0.774000,0.578000,192.000000,0.000000,0.000000,0.000000,0.000000,0.000000,0.000000,0.000000,0.000000,0.000000,1646457394.425510,0.000000
175.000000,41120.481923,46162.633140,11314.542450,36378.268764,11640.632050,19615.309789,35478.096959,35134.438888,-0.066000,0.774000,0.578000,192.000000,0.000000,0.000000,0.000000,0.000000,0.000000,0.000000,0.000000,0.000000,0.000000,1646457394.432998,0.000000
176.000000,41123.097077,46173.697254,11316.352942,36374.536022,11766.047688,19599.909437,35472.129044,35133.075432,-0.066000,0.774000,0.578000,192.000000,0.000000,0.000000,0.000000,0.000000,0.000000,0.000000,0.000000,0.000000,0.000000,1646457394.433016,0.000000
177.000000,41113.262309,46178.324065,11303.813613,36350.552601,11889.854001,19570.092210,35450.336093,35101.760638,-0.066000,0.774000,0.578000,192.000000,0.000000,0.000000,0.000000,0.000000,0.000000,0.000000,0.000000,0.000000,0.000000,1646457394.440850,0.000000
178.000000,41106.310917,46179.441652,11296.258723,36343.869429,11877.828762,19570.159265,35452.906543,35110.902501,-0.070000,0.778000,0.584000,192.000000,253.000000,208.000000,24.000000,80.000000,18.000000,64.000000,0.000000,0.000000,0.000000,1646457394.440868,0.000000
179.000000,41112.368239,46172.311446,11304.461814,36357.101662,11730.642525,19588.867675,35456.773395,35111.528350,-0.070000,0.778000,0.584000,192.000000,0.000000,0.000000,0.000000,0.000000,0.000000,0.000000,0.000000,0.000000,0.000000,1646457394.449042,0.000000
180.000000,41128.416792,46179.620466,11319.884517,36380.302773,11639.782684,19610.884143,35472.151395,35119.127943,-0.070000,0.778000,0.584000,192.000000,0.000000,0.000000,0.000000,0.000000,0.000000,0.000000,0.000000,0.000000,0.000000,1646457394.449058,0.000000
181.000000,41140.799658,46200.899327,11330.613355,36386.918889,11766.986462,19612.426414,35483.170805,35149.548668,-0.070000,0.778000,0.584000,192.000000,0.000000,0.000000,0.000000,0.000000,0.000000,0.000000,0.000000,0.000000,0.000000,1646457394.455584,0.000000
182.000000,41133.848266,46209.728266,11322.186747,36373.798415,11894.614922,19588.979434,35467.636343,35124.268845,-0.070000,0.778000,0.584000,192.000000,0.000000,0.000000,0.000000,0.000000,0.000000,0.000000,0.000000,0.000000,0.000000,1646457394.455601,0.000000
183.000000,41121.241882,46197.010123,11307.166375,36358.219249,11888.915228,19581.424544,35466.429349,35123.397127,-0.070000,0.778000,0.584000,192.000000,0.000000,0.000000,0.000000,0.000000,0.000000,0.000000,0.000000,0.000000,0.000000,1646457394.463700,0.000000
184.000000,41124.885216,46182.079158,11310.161508,36363.918944,11739.359705,19600.535286,35480.354486,35149.302798,-0.070000,0.778000,0.584000,192.000000,0.000000,0.000000,0.000000,0.000000,0.000000,0.000000,0.000000,0.000000,0.000000,1646457394.463716,0.000000
185.000000,41127.880350,46173.920771,11313.871898,36368.322238,11629.702047,19603.061033,35469.178613,35125.229970,-0.070000,0.778000,0.584000,192.000000,0.000000,0.000000,0.000000,0.000000,0.000000,0.000000,0.000000,0.000000,0.000000,1646457394.470790,0.000000
186.000000,41134.608225,46191.131615,11322.678485,36369.797453,11754.849464,19601.943445,35482.299087,35147.492307,-0.070000,0.778000,0.584000,192.000000,0.000000,0.000000,0.000000,0.000000,0.000000,0.000000,0.000000,0.000000,0.000000,1646457394.478490,0.000000
187.000000,41133.825914,46199.133539,11320.957401,36366.020008,11887.261198,19593.852114,35485.830663,35165.530165,-0.070000,0.778000,0.584000,192.000000,0.000000,0.000000,0.000000,0.000000,0.000000,0.000000,0.000000,0.000000,0.000000,1646457394.478497,0.000000
188.000000,41132.618920,46191.601001,11313.424863,36361.504955,11887.082384,19586.677204,35471.793767,35148.073452,-0.062000,0.782000,0.582000,192.000000,254.000000,16.000000,24.000000,112.000000,18.000000,48.000000,0.000000,0.000000,0.000000,1646457394.485187,0.000000
189.000000,41139.369147,46186.482452,11320.510366,36374.513671,11741.885452,19602.658701,35476.085302,35139.445679,-0.062000,0.782000,0.582000,192.000000,0.000000,0.000000,0.000000,0.000000,0.000000,0.000000,0.000000,0.000000,0.000000,1646457394.485204,0.000000
190.000000,41150.500315,46189.209365,11340.738695,36394.406723,11642.889576,19622.507050,35491.575061,35146.464127,-0.062000,0.782000,0.582000,192.000000,0.000000,0.000000,0.000000,0.000000,0.000000,0.000000,0.000000,0.000000,0.000000,1646457394.493171,0.000000
191.000000,41154.501278,46199.222946,11341.252785,36390.919851,11757.308156,19610.772384,35490.345715,35149.660426,-0.062000,0.782000,0.582000,192.000000,0.000000,0.000000,0.000000,0.000000,0.000000,0.000000,0.000000,0.000000,0.000000,1646457394.493187,0.000000
192.000000,41142.967778,46201.458121,11323.349038,36368.054017,11878.253445,19579.189370,35471.302029,35131.488458,-0.062000,0.782000,0.582000,192.000000,0.000000,0.000000,0.000000,0.000000,0.000000,0.000000,0.000000,0.000000,0.000000,1646457394.501374,0.000000
193.000000,41131.724850,46195.154929,11307.389892,36352.854830,11878.342852,19559.609241,35443.094128,35103.504074,-0.062000,0.782000,0.582000,192.000000,0.000000,0.000000,0.000000,0.000000,0.000000,0.000000,0.000000,0.000000,0.000000,1646457394.501407,0.000000
194.000000,41135.725812,46182.727359,11309.602715,36359.560354,11720.718350,19572.819122,35447.497421,35104.755772,-0.062000,0.782000,0.582000,192.000000,0.000000,0.000000,0.000000,0.000000,0.000000,0.000000,0.000000,0.000000,0.000000,1646457394.508471,0.000000
195.000000,41153.160173,46182.861469,11325.807729,36378.000543,11623.108282,19594.366204,35468.128081,35113.651766,-0.062000,0.782000,0.582000,192.000000,0.000000,0.000000,0.000000,0.000000,0.000000,0.000000,0.000000,0.000000,0.000000,1646457394.508482,0.000000
196.000000,41161.720891,46198.038304,11335.642497,36377.777025,11745.260566,19580.999861,35462.674256,35089.087199,-0.062000,0.782000,0.582000,192.000000,0.000000,0.000000,0.000000,0.000000,0.000000,0.000000,0.000000,0.000000,0.000000,1646457394.515962,0.000000
197.000000,41160.223324,46209.951783,11336.178939,36373.418435,11880.578027,19585.179637,35490.166901,35164.032598,-0.062000,0.782000,0.582000,192.000000,0.000000,0.000000,0.000000,0.000000,0.000000,0.000000,0.000000,0.000000,0.000000,1646457394.515977,0.000000
198.000000,41148.086327,46208.476568,11320.465663,36364.768310,11887.685882,19573.824951,35477.202890,35175.230822,-0.054000,0.778000,0.580000,192.000000,254.000000,80.000000,24.000000,80.000000,18.000000,32.000000,0.000000,0.000000,0.000000,1646457394.523823,0.000000
199.000000,41145.828801,46192.159795,11311.592020,36360.275610,11721.567717,19573.623785,35466.384645,35148.609894,-0.054000,0.778000,0.580000,192.000000,0.000000,0.000000,0.000000,0.000000,0.000000,0.000000,0.000000,0.000000,0.000000,1646457394.523840,0.000000
200.000000,41148.488658,46171.618542,11324.377218,36368.948086,11615.575745,19597.584855,35482.410846,35152.655560,-0.054000,0.778000,0.580000,192.000000,0.000000,0.000000,0.000000,0.000000,0.000000,0.000000,0.000000,0.000000,0.000000,1646457394.531004,0.000000
201.000000,41152.601379,46180.738053,11333.541433,36368.836328,11732.520072,19590.767573,35483.394323,35142.060833,-0.054000,0.778000,0.580000,192.000000,0.000000,0.000000,0.000000,0.000000,0.000000,0.000000,0.000000,0.000000,0.000000,1646457394.531020,0.000000
202.000000,41146.566408,46189.611696,11323.416093,36354.933543,11858.226282,19567.678221,35469.357427,35124.894693,-0.054000,0.778000,0.580000,192.000000,0.000000,0.000000,0.000000,0.000000,0.000000,0.000000,0.000000,0.000000,0.000000,1646457394.538127,0.000000
203.000000,41136.552827,46178.212306,11308.999218,36338.460307,11862.741335,19558.625765,35461.914296,35136.070566,-0.054000,0.778000,0.580000,192.000000,0.000000,0.000000,0.000000,0.000000,0.000000,0.000000,0.000000,0.000000,0.000000,1646457394.545536,0.000000
204.000000,41144.778269,46164.980074,11313.201346,36348.093909,11709.117795,19575.054297,35466.205831,35130.952016,-0.054000,0.778000,0.580000,192.000000,0.000000,0.000000,0.000000,0.000000,0.000000,0.000000,0.000000,0.000000,0.000000,1646457394.545552,0.000000
205.000000,41158.234019,46156.419355,11330.054561,36362.980171,11606.813861,19599.350643,35482.589660,35141.993778,-0.054000,0.778000,0.580000,192.000000,0.000000,0.000000,0.000000,0.000000,0.000000,0.000000,0.000000,0.000000,0.000000,1646457394.553591,0.000000
206.000000,41179.825804,46179.575763,11349.299413,36375.206575,11724.294630,19604.156268,35491.195082,35155.181307,-0.054000,0.778000,0.580000,192.000000,0.000000,0.000000,0.000000,0.000000,0.000000,0.000000,0.000000,0.000000,0.000000,1646457394.553607,0.000000
207.000000,41180.272839,46194.372618,11347.399515,36369.417473,11856.952233,19591.706346,35485.405980,35152.677912,-0.054000,0.778000,0.580000,192.000000,0.000000,0.000000,0.000000,0.000000,0.000000,0.000000,0.000000,0.000000,0.000000,1646457394.560661,0.000000
208.000000,41168.091138,46188.449405,11334.077875,36358.710987,11876.018271,19585.269044,35483.774302,35154.287237,-0.050000,0.784000,0.584000,192.000000,254.000000,112.000000,24.000000,128.000000,18.000000,64.000000,0.000000,0.000000,0.000000,1646457394.560677,0.000000
209.000000,41165.498336,46167.215248,11335.106055,36364.857717,11724.182871,19604.558600,35498.481750,35175.253174,-0.050000,0.784000,0.584000,192.000000,0.000000,0.000000,0.000000,0.000000,0.000000,0.000000,0.000000,0.000000,0.000000,1646457394.568033,0.000000
210.000000,41172.449729,46156.061728,11341.297488,36374.200746,11608.132614,19620.785966,35507.757724,35200.890625,-0.050000,0.784000,0.584000,192.000000,0.000000,0.000000,0.000000,0.000000,0.000000,0.000000,0.000000,0.000000,0.000000,1646457394.568049,0.000000
211.000000,41177.948258,46165.874143,11345.410209,36371.876165,11708.782519,19608.358396,35505.410791,35186.652563,-0.050000,0.784000,0.584000,192.000000,0.000000,0.000000,0.000000,0.000000,0.000000,0.000000,0.000000,0.000000,0.000000,1646457394.576201,0.000000
212.000000,41180.295191,46175.865373,11344.247919,36363.628371,11843.205910,19595.595550,35503.153265,35177.242479,-0.050000,0.784000,0.584000,192.000000,0.000000,0.000000,0.000000,0.000000,0.000000,0.000000,0.000000,0.000000,0.000000,1646457394.576218,0.000000
213.000000,41169.320484,46164.041300,11328.065256,36346.797508,11863.389535,19577.691803,35485.808311,35155.404825,-0.050000,0.784000,0.584000,192.000000,0.000000,0.000000,0.000000,0.000000,0.000000,0.000000,0.000000,0.000000,0.000000,1646457394.584201,0.000000
214.000000,41169.633409,46144.818800,11328.221718,36353.480679,11713.230516,19591.013442,35488.714038,35149.638075,-0.050000,0.784000,0.584000,192.000000,0.000000,0.000000,0.000000,0.000000,0.000000,0.000000,0.000000,0.000000,0.000000,1646457394.584234,0.000000
215.000000,41182.172737,46141.466038,11343.666773,36371.764406,11604.578686,19616.695597,35506.327213,35171.654543,-0.050000,0.784000,0.584000,192.000000,0.000000,0.000000,0.000000,0.000000,0.000000,0.000000,0.000000,0.000000,0.000000,1646457394.590805,0.000000
216.000000,41192.186319,46160.129745,11355.870826,36378.045246,11714.683379,19614.438071,35507.780076,35186.920784,-0.050000,0.784000,0.584000,192.000000,0.000000,0.000000,0.000000,0.000000,0.000000,0.000000,0.000000,0.000000,0.000000,1646457394.590822,0.000000
217.000000,41189.705275,46160.241504,11350.260538,36367.696389,11845.664602,19594.612073,35495.486617,35178.315363,-0.050000,0.784000,0.584000,192.000000,0.000000,0.000000,0.000000,0.000000,0.000000,0.000000,0.000000,0.000000,0.000000,1646457394.597686,0.000000
218.000000,41177.031836,46138.917940,11333.921413,36350.999636,11869.469210,19578.518817,35483.036695,35159.025807,-0.050000,0.780000,0.576000,192.000000,254.000000,112.000000,24.000000,96.000000,18.000000,0.000000,0.000000,0.000000,0.000000,1646457394.605724,0.000000
219.000000,41177.255354,46122.064724,11336.201291,36356.989903,11716.672685,19589.582931,35484.824834,35146.687644,-0.050000,0.780000,0.576000,192.000000,0.000000,0.000000,0.000000,0.000000,0.000000,0.000000,0.000000,0.000000,0.000000,1646457394.605735,0.000000
220.000000,41190.822862,46122.891739,11354.552073,36375.854775,11600.644779,19615.063919,35503.577948,35162.132700,-0.050000,0.780000,0.576000,192.000000,0.000000,0.000000,0.000000,0.000000,0.000000,0.000000,0.000000,0.000000,0.000000,1646457394.613734,0.000000
221.000000,41193.840348,46130.625442,11359.357698,36375.765368,11692.599856,19609.677149,35508.674146,35169.732293,-0.050000,0.780000,0.576000,192.000000,0.000000,0.000000,0.000000,0.000000,0.000000,0.000000,0.000000,0.000000,0.000000,1646457394.613751,0.000000
222.000000,41193.817996,46141.175466,11353.926224,36365.774139,11828.140834,19586.610149,35488.155244,35151.314455,-0.050000,0.780000,0.576000,192.000000,0.000000,0.000000,0.000000,0.000000,0.000000,0.000000,0.000000,0.000000,0.000000,1646457394.620430,0.000000
223.000000,41168.046435,46121.885910,11326.299468,36338.527362,11851.565463,19568.035849,35483.148454,35175.431988,-0.050000,0.780000,0.576000,192.000000,0.000000,0.000000,0.000000,0.000000,0.000000,0.000000,0.000000,0.000000,0.000000,1646457394.620447,0.000000
224.000000,41170.750996,46109.100712,11327.886442,36348.183316,11702.926362,19586.408983,35498.906433,35186.831377,-0.050000,0.780000,0.576000,192.000000,0.000000,0.000000,0.000000,0.000000,0.000000,0.000000,0.000000,0.000000,0.000000,1646457394.628445,0.000000
225.000000,41192.566299,46111.112369,11348.405343,36373.060807,11596.062672,19610.146536,35514.329137,35181.489310,-0.050000,0.780000,0.576000,192.000000,0.000000,0.000000,0.000000,0.000000,0.000000,0.000000,0.000000,0.000000,0.000000,1646457394.628462,0.000000
226.000000,41200.568223,46116.968526,11359.849436,36376.480624,11693.158650,19604.513896,35518.441858,35185.132645,-0.050000,0.780000,0.576000,192.000000,0.000000,0.000000,0.000000,0.000000,0.000000,0.000000,0.000000,0.000000,0.000000,1646457394.636495,0.000000
227.000000,41195.092046,46120.030715,11356.831951,36366.735264,11827.135006,19585.403155,35506.416620,35187.524281,-0.050000,0.780000,0.576000,192.000000,0.000000,0.000000,0.000000,0.000000,0.000000,0.000000,0.000000,0.000000,0.000000,1646457394.636511,0.000000
228.000000,41193.996810,46118.667259,11350.618166,36358.398063,11870.564445,19573.467323,35493.989050,35167.564174,-0.050000,0.780000,0.576000,192.000000,0.000000,0.000000,0.000000,0.000000,0.000000,0.000000,0.000000,0.000000,0.000000,1646457394.643562,0.000000
229.000000,41190.420531,46098.371875,11348.628861,36354.240639,11720.025446,19574.629614,35483.595489,35137.232856,-0.054000,0.784000,0.580000,192.000000,254.000000,80.000000,24.000000,128.000000,18.000000,32.000000,0.000000,0.000000,0.000000,1646457394.643580,0.000000
230.000000,41201.708162,46095.913183,11361.570521,36365.237697,11601.203573,19590.745221,35491.239785,35148.565191,-0.054000,0.784000,0.580000,192.000000,0.000000,0.000000,0.000000,0.000000,0.000000,0.000000,0.000000,0.000000,0.000000,1646457394.651145,0.000000
231.000000,41214.359249,46115.023925,11377.619073,36374.647781,11695.349121,19595.506143,35504.740239,35178.315363,-0.054000,0.784000,0.580000,192.000000,0.000000,0.000000,0.000000,0.000000,0.000000,0.000000,0.000000,0.000000,0.000000,1646457394.651161,0.000000
232.000000,41214.560415,46113.414599,11376.277968,36368.098720,11826.956192,19585.336099,35501.074553,35189.625345,-0.054000,0.784000,0.580000,192.000000,0.000000,0.000000,0.000000,0.000000,0.000000,0.000000,0.000000,0.000000,0.000000,1646457394.658092,0.000000
233.000000,41205.575014,46106.083227,11363.850399,36355.022950,11863.478942,19565.957137,35478.946326,35150.979179,-0.054000,0.784000,0.580000,192.000000,0.000000,0.000000,0.000000,0.000000,0.000000,0.000000,0.000000,0.000000,0.000000,1646457394.666096,0.000000
234.000000,41202.110493,46084.357331,11361.034079,36356.587572,11714.258696,19578.608224,35487.149416,35149.906296,-0.054000,0.784000,0.580000,192.000000,0.000000,0.000000,0.000000,0.000000,0.000000,0.000000,0.000000,0.000000,0.000000,1646457394.666111,0.000000
235.000000,41204.837406,46069.314607,11365.504428,36364.902421,11594.095718,19599.261236,35503.980279,35179.567060,-0.054000,0.784000,0.580000,192.000000,0.000000,0.000000,0.000000,0.000000,0.000000,0.000000,0.000000,0.000000,0.000000,1646457394.673085,0.000000
236.000000,41215.365078,46078.300009,11373.081669,36367.763444,11679.524085,19591.035794,35501.074553,35170.916935,-0.054000,0.784000,0.580000,192.000000,0.000000,0.000000,0.000000,0.000000,0.000000,0.000000,0.000000,0.000000,0.000000,1646457394.673101,0.000000
237.000000,41214.225139,46090.437006,11369.706556,36358.532173,11817.389645,19571.701535,35491.016268,35146.575886,-0.054000,0.784000,0.580000,192.000000,0.000000,0.000000,0.000000,0.000000,0.000000,0.000000,0.000000,0.000000,0.000000,1646457394.680514,0.000000
238.000000,41207.810188,46087.084244,11359.894140,36348.630351,11865.065916,19569.309899,35500.180483,35176.773092,-0.054000,0.784000,0.580000,192.000000,0.000000,0.000000,0.000000,0.000000,0.000000,0.000000,0.000000,0.000000,0.000000,1646457394.680524,0.000000
239.000000,41206.625546,46073.494384,11356.116695,36351.066691,11706.457938,19584.285567,35506.930710,35184.462092,-0.062000,0.790000,0.578000,192.000000,254.000000,16.000000,24.000000,176.000000,18.000000,16.000000,0.000000,0.000000,0.000000,1646457394.688793,0.000000
240.000000,41218.047287,46067.906447,11371.293529,36366.265877,11582.539866,19607.531382,35517.950120,35187.256061,-0.062000,0.790000,0.578000,192.000000,0.000000,0.000000,0.000000,0.000000,0.000000,0.000000,0.000000,0.000000,0.000000,1646457394.688810,0.000000
241.000000,41228.709069,46079.082320,11382.715271,36374.245450,11671.768030,19609.543039,35527.784887,35195.950889,-0.062000,0.790000,0.578000,192.000000,0.000000,0.000000,0.000000,0.000000,0.000000,0.000000,0.000000,0.000000,0.000000,1646457394.695911,0.000000
242.000000,41225.289252,46081.943343,11375.205085,36362.667246,11801.788128,19589.247655,35516.854884,35172.727427,-0.062000,0.790000,0.578000,192.000000,0.000000,0.000000,0.000000,0.000000,0.000000,0.000000,0.000000,0.000000,0.000000,1646457394.695927,0.000000
243.000000,41216.326203,46076.087186,11365.258558,36349.882048,11848.413867,19574.339041,35504.360259,35153.326112,-0.062000,0.790000,0.578000,192.000000,0.000000,0.000000,0.000000,0.000000,0.000000,0.000000,0.000000,0.000000,0.000000,1646457394.703400,0.000000
244.000000,41215.230967,46059.010453,11367.247864,36355.693502,11700.378263,19589.761745,35510.417582,35163.317342,-0.062000,0.790000,0.578000,192.000000,0.000000,0.000000,0.000000,0.000000,0.000000,0.000000,0.000000,0.000000,0.000000,1646457394.703416,0.000000
245.000000,41226.116267,46052.260226,11380.860076,36372.211441,11589.670073,19614.147498,35527.226094,35188.798331,-0.062000,0.790000,0.578000,192.000000,0.000000,0.000000,0.000000,0.000000,0.000000,0.000000,0.000000,0.000000,0.000000,1646457394.711264,0.000000
246.000000,41237.359194,46060.195096,11385.397480,36373.552546,11669.599911,19614.549829,35540.123050,35207.238520,-0.062000,0.790000,0.578000,192.000000,0.000000,0.000000,0.000000,0.000000,0.000000,0.000000,0.000000,0.000000,0.000000,1646457394.711280,0.000000
247.000000,41230.921892,46065.380700,11370.488867,36351.267857,11794.188535,19586.632500,35521.638158,35179.254136,-0.062000,0.790000,0.578000,192.000000,0.000000,0.000000,0.000000,0.000000,0.000000,0.000000,0.000000,0.000000,0.000000,1646457394.718226,0.000000
248.000000,41216.527369,46068.867572,11362.419887,36341.097813,11846.737486,19568.438180,35501.610995,35148.520487,-0.062000,0.790000,0.578000,192.000000,0.000000,0.000000,0.000000,0.000000,0.000000,0.000000,0.000000,0.000000,0.000000,1646457394.725733,0.000000
249.000000,41215.230967,46041.754906,11363.090439,36348.585647,11699.595952,19577.758858,35494.749009,35148.967522,-0.064000,0.794000,0.576000,192.000000,254.000000,0.000000,24.000000,208.000000,18.000000,0.000000,0.000000,0.000000,0.000000,1646457394.725750,0.000000
250.000000,41229.223159,46032.702450,11376.903817,36365.908249,11582.271645,19601.116431,35505.053163,35166.066607,-0.064000,0.794000,0.576000,192.000000,0.000000,0.000000,0.000000,0.000000,0.000000,0.000000,0.000000,0.000000,0.000000,1646457394.733085,0.000000
251.000000,41246.724575,46051.299101,11396.506297,36379.721627,11669.108173,19615.376844,35534.266893,35190.988802,-0.064000,0.794000,0.576000,192.000000,0.000000,0.000000,0.000000,0.000000,0.000000,0.000000,0.000000,0.000000,0.000000,1646457394.733100,0.000000
252.000000,41246.925741,46060.440965,11392.170059,36369.082197,11799.754119,19595.707309,35527.047280,35171.967467,-0.064000,0.794000,0.576000,192.000000,0.000000,0.000000,0.000000,0.000000,0.000000,0.000000,0.000000,0.000000,0.000000,1646457394.741012,0.000000
253.000000,41231.726555,46049.019223,11376.099154,36348.317426,11840.590756,19573.221454,35509.232939,35142.194944,-0.064000,0.794000,0.576000,192.000000,0.000000,0.000000,0.000000,0.000000,0.000000,0.000000,0.000000,0.000000,0.000000,1646457394.741028,0.000000
254.000000,41224.059906,46026.622775,11371.606454,36348.697406,11690.834068,19579.479942,35502.527416,35135.020034,-0.064000,0.794000,0.576000,192.000000,0.000000,0.000000,0.000000,0.000000,0.000000,0.000000,0.000000,0.000000,0.000000,1646457394.749030,0.000000
255.000000,41231.704203,46018.173816,11380.167172,36358.040435,11566.223093,19598.970663,35508.227111,35157.081205,-0.064000,0.794000,0.576000,192.000000,0.000000,0.000000,0.000000,0.000000,0.000000,0.000000,0.000000,0.000000,0.000000,1646457394.749046,0.000000
0.000000,41246.210485,46030.355517,11396.707463,36367.383464,11643.426018,19607.732547,35521.504047,35196.017944,-0.064000,0.794000,0.576000,192.000000,0.000000,0.000000,0.000000,0.000000,0.000000,0.000000,0.000000,0.000000,0.000000,1646457394.755696,0.000000
1.000000,41250.233799,46046.068793,11398.741472,36363.717778,11784.532581,19590.052317,35511.244596,35165.932496,-0.064000,0.794000,0.576000,192.000000,0.000000,0.000000,0.000000,0.000000,0.000000,0.000000,0.000000,0.000000,0.000000,1646457394.755732,0.000000
2.000000,41236.979215,46038.603310,11384.637521,36348.429185,11844.055276,19574.026117,35503.533245,35146.061795,-0.064000,0.794000,0.576000,192.000000,0.000000,0.000000,0.000000,0.000000,0.000000,0.000000,0.000000,0.000000,0.000000,1646457394.763713,0.000000
3.000000,41232.844142,46016.788008,11380.256579,36349.546772,11692.733966,19591.102849,35507.042468,35184.931479,-0.060000,0.782000,0.572000,192.000000,254.000000,32.000000,24.000000,112.000000,17.000000,224.000000,0.000000,0.000000,0.000000,1646457394.763729,0.000000
4.000000,41240.220218,46006.461502,11388.303207,36363.024874,11566.491314,19613.923980,35528.678957,35202.276433,-0.060000,0.782000,0.572000,192.000000,0.000000,0.000000,0.000000,0.000000,0.000000,0.000000,0.000000,0.000000,0.000000,1646457394.771687,0.000000
5.000000,41249.227971,46012.004735,11396.685111,36368.478700,11630.909041,19608.403100,35528.947178,35190.988802,-0.060000,0.782000,0.572000,192.000000,0.000000,0.000000,0.000000,0.000000,0.000000,0.000000,0.000000,0.000000,0.000000,1646457394.771703,0.000000
6.000000,41246.478706,46013.591708,11390.136050,36356.721682,11765.690060,19590.745221,35520.520570,35180.706999,-0.060000,0.782000,0.572000,192.000000,0.000000,0.000000,0.000000,0.000000,0.000000,0.000000,0.000000,0.000000,0.000000,1646457394.778891,0.000000
7.000000,41233.626453,46007.154406,11375.406250,36340.784888,11826.240936,19570.136913,35499.219358,35158.332903,-0.060000,0.782000,0.572000,192.000000,0.000000,0.000000,0.000000,0.000000,0.000000,0.000000,0.000000,0.000000,0.000000,1646457394.778907,0.000000
8.000000,41230.363098,45985.719083,11373.528704,36341.231923,11685.223780,19581.446896,35502.102733,35156.522412,-0.060000,0.782000,0.572000,192.000000,0.000000,0.000000,0.000000,0.000000,0.000000,0.000000,0.000000,0.000000,0.000000,1646457394.785249,0.000000
9.000000,41241.986006,45979.706464,11389.711367,36358.442766,11565.641947,19603.619826,35514.798524,35169.374665,-0.060000,0.782000,0.572000,192.000000,0.000000,0.000000,0.000000,0.000000,0.000000,0.000000,0.000000,0.000000,0.000000,1646457394.793328,0.000000
10.000000,41249.384433,45996.045589,11400.864887,36363.315447,11628.025666,19598.367166,35515.513780,35160.344560,-0.060000,0.782000,0.572000,192.000000,0.000000,0.000000,0.000000,0.000000,0.000000,0.000000,0.000000,0.000000,0.000000,1646457394.793344,0.000000
11.000000,41244.958788,45998.616040,11397.467422,36351.334912,11765.153618,19580.776343,35507.377745,35155.516583,-0.060000,0.782000,0.572000,192.000000,0.000000,0.000000,0.000000,0.000000,0.000000,0.000000,0.000000,0.000000,0.000000,1646457394.801378,0.000000
12.000000,41235.258130,45989.921211,11383.586989,36336.694519,11832.365314,19564.772494,35497.788846,35148.073452,-0.060000,0.782000,0.572000,192.000000,0.000000,0.000000,0.000000,0.000000,0.000000,0.000000,0.000000,0.000000,0.000000,1646457394.801394,0.000000
13.000000,41234.319357,45974.923190,11382.715271,36339.734356,11689.403557,19575.903663,35502.035678,35148.252266,-0.058000,0.780000,0.578000,192.000000,254.000000,48.000000,24.000000,96.000000,18.000000,16.000000,0.000000,0.000000,0.000000,1646457394.808594,0.000000
14.000000,41242.120116,45963.032062,11391.723024,36352.184278,11564.122029,19595.774364,35517.056050,35170.179328,-0.058000,0.780000,0.578000,192.000000,0.000000,0.000000,0.000000,0.000000,0.000000,0.000000,0.000000,0.000000,0.000000,1646457394.808610,0.000000
15.000000,41245.517581,45966.049548,11396.774518,36356.296999,11622.147157,19592.846285,35517.346623,35171.967467,-0.058000,0.780000,0.578000,192.000000,0.000000,0.000000,0.000000,0.000000,0.000000,0.000000,0.000000,0.000000,0.000000,1646457394.816006,0.000000
16.000000,41247.506886,45983.148632,11394.584047,36352.899534,11759.632738,19575.858960,35506.595434,35160.433967,-0.058000,0.780000,0.578000,192.000000,0.000000,0.000000,0.000000,0.000000,0.000000,0.000000,0.000000,0.000000,0.000000,1646457394.816022,0.000000
17.000000,41244.020014,45986.143766,11386.336253,36341.678958,11828.096131,19559.899814,35495.866596,35149.369854,-0.058000,0.780000,0.578000,192.000000,0.000000,0.000000,0.000000,0.000000,0.000000,0.000000,0.000000,0.000000,0.000000,1646457394.824013,0.000000
18.000000,41237.023918,45957.421775,11384.190486,36341.164868,11689.425908,19574.294338,35496.313631,35144.899505,-0.058000,0.780000,0.578000,192.000000,0.000000,0.000000,0.000000,0.000000,0.000000,0.000000,0.000000,0.000000,0.000000,1646457394.824028,0.000000
19.000000,41240.242569,45945.575350,11392.505335,36354.017121,11567.318328,19599.261236,35517.883064,35178.024790,-0.058000,0.780000,0.578000,192.000000,0.000000,0.000000,0.000000,0.000000,0.000000,0.000000,0.000000,0.000000,0.000000,1646457394.832020,0.000000
20.000000,41262.460203,45968.351778,11409.872640,36370.333895,11624.561146,19608.067823,35532.814030,35199.616575,-0.058000,0.780000,0.578000,192.000000,0.000000,0.000000,0.000000,0.000000,0.000000,0.000000,0.000000,0.000000,0.000000,1646457394.832036,0.000000
21.000000,41260.783823,45971.235153,11401.647198,36356.408758,11760.146828,19585.358451,35518.195989,35176.817796,-0.058000,0.780000,0.578000,192.000000,0.000000,0.000000,0.000000,0.000000,0.000000,0.000000,0.000000,0.000000,0.000000,1646457394.838383,0.000000
22.000000,41244.824677,45961.735661,11382.871733,36337.610941,11823.312858,19560.704477,35499.800503,35165.552517,-0.058000,0.780000,0.578000,192.000000,0.000000,0.000000,0.000000,0.000000,0.000000,0.000000,0.000000,0.000000,0.000000,1646457394.838417,0.000000
23.000000,41239.169686,45942.334347,11380.591855,36334.749917,11679.971120,19573.333213,35503.220320,35170.671066,-0.058000,0.776000,0.576000,192.000000,254.000000,48.000000,24.000000,64.000000,18.000000,0.000000,0.000000,0.000000,0.000000,1646457394.845654,0.000000
24.000000,41244.914084,45925.883463,11387.275027,36342.282455,11551.537997,19596.087288,35519.380631,35191.055857,-0.058000,0.776000,0.576000,192.000000,0.000000,0.000000,0.000000,0.000000,0.000000,0.000000,0.000000,0.000000,0.000000,1646457394.853713,0.000000
25.000000,41268.115195,45942.759030,11405.178774,36358.085139,11605.785681,19603.955102,35532.679919,35204.690421,-0.058000,0.776000,0.576000,192.000000,0.000000,0.000000,0.000000,0.000000,0.000000,0.000000,0.000000,0.000000,0.000000,1646457394.853731,0.000000
26.000000,41263.913067,45951.565618,11397.243905,36346.618694,11749.507397,19578.921149,35516.273739,35177.421293,-0.058000,0.776000,0.576000,192.000000,0.000000,0.000000,0.000000,0.000000,0.000000,0.000000,0.000000,0.000000,0.000000,1646457394.860715,0.000000
27.000000,41257.207544,45950.850362,11388.057338,36333.967606,11822.642305,19557.128198,35494.145512,35139.557438,-0.058000,0.776000,0.576000,192.000000,0.000000,0.000000,0.000000,0.000000,0.000000,0.000000,0.000000,0.000000,0.000000,1646457394.860732,0.000000
28.000000,41257.989855,45934.131257,11389.107870,36339.041452,11688.263618,19573.534378,35505.164922,35149.861592,-0.058000,0.776000,0.576000,192.000000,0.000000,0.000000,0.000000,0.000000,0.000000,0.000000,0.000000,0.000000,0.000000,1646457394.868094,0.000000
29.000000,41264.807137,45921.346059,11396.796870,36349.546772,11567.005404,19595.237922,35525.795582,35187.077247,-0.058000,0.776000,0.576000,192.000000,0.000000,0.000000,0.000000,0.000000,0.000000,0.000000,0.000000,0.000000,0.000000,1646457394.868109,0.000000
30.000000,41277.346465,45934.131257,11409.671475,36359.806223,11614.659323,19599.887085,35534.266893,35205.293918,-0.058000,0.776000,0.576000,192.000000,0.000000,0.000000,0.000000,0.000000,0.000000,0.000000,0.000000,0.000000,0.000000,1646457394.876277,0.000000
31.000000,41267.712863,45938.042812,11401.937771,36344.897609,11751.451999,19581.804524,35525.594416,35202.812875,-0.058000,0.776000,0.576000,192.000000,0.000000,0.000000,0.000000,0.000000,0.000000,0.000000,0.000000,0.000000,0.000000,1646457394.876293,0.000000
32.000000,41254.972369,45931.806675,11386.827992,36326.479772,11822.463491,19560.682125,35503.913224,35179.701171,-0.058000,0.776000,0.576000,192.000000,0.000000,0.000000,0.000000,0.000000,0.000000,0.000000,0.000000,0.000000,0.000000,1646457394.884326,0.000000
33.000000,41257.028730,45918.350925,11387.230323,36332.380632,11684.642635,19574.182579,35504.807294,35173.062703,-0.060000,0.782000,0.578000,192.000000,254.000000,32.000000,24.000000,112.000000,18.000000,16.000000,0.000000,0.000000,0.000000,1646457394.884343,0.000000
34.000000,41271.020922,45920.787265,11400.998998,36349.949104,11558.936424,19594.522666,35515.849056,35173.129758,-0.060000,0.782000,0.578000,192.000000,0.000000,0.000000,0.000000,0.000000,0.000000,0.000000,0.000000,0.000000,0.000000,1646457394.890850,0.000000
35.000000,41279.983971,45926.241091,11413.292457,36356.833441,11599.415433,19595.126163,35518.084230,35160.098691,-0.060000,0.782000,0.578000,192.000000,0.000000,0.000000,0.000000,0.000000,0.000000,0.000000,0.000000,0.000000,0.000000,1646457394.890867,0.000000
36.000000,41282.375608,45928.699783,11415.393521,36352.027816,11745.282918,19586.565445,35521.325233,35186.049066,-0.060000,0.782000,0.578000,192.000000,0.000000,0.000000,0.000000,0.000000,0.000000,0.000000,0.000000,0.000000,0.000000,1646457394.898666,0.000000
37.000000,41277.257058,45932.119600,11407.950390,36342.304807,11831.739465,19574.383745,35513.904454,35200.443590,-0.060000,0.782000,0.578000,192.000000,0.000000,0.000000,0.000000,0.000000,0.000000,0.000000,0.000000,0.000000,0.000000,1646457394.898682,0.000000
38.000000,41278.732273,45915.176978,11406.430472,36345.411699,11700.355911,19583.480905,35509.679974,35188.038372,-0.060000,0.782000,0.578000,192.000000,0.000000,0.000000,0.000000,0.000000,0.000000,0.000000,0.000000,0.000000,0.000000,1646457394.906024,0.000000
39.000000,41285.750721,45907.286812,11415.125300,36355.514688,11569.888779,19593.628596,35505.768419,35162.959714,-0.060000,0.782000,0.578000,192.000000,0.000000,0.000000,0.000000,0.000000,0.000000,0.000000,0.000000,0.000000,0.000000,1646457394.913936,0.000000
40.000000,41297.843015,45914.305260,11428.670457,36367.562278,11604.131651,19605.005634,35527.159038,35187.434874,-0.060000,0.782000,0.578000,192.000000,0.000000,0.000000,0.000000,0.000000,0.000000,0.000000,0.000000,0.000000,0.000000,1646457394.913952,0.000000
41.000000,41290.310477,45920.563748,11419.014504,36355.067653,11745.148807,19592.332195,35530.109469,35229.053823,-0.060000,0.782000,0.578000,192.000000,0.000000,0.000000,0.000000,0.000000,0.000000,0.000000,0.000000,0.000000,0.000000,1646457394.920555,0.000000
42.000000,41277.279410,45916.473379,11405.067015,36335.956912,11825.860956,19569.488712,35513.971509,35212.290014,-0.060000,0.782000,0.578000,192.000000,0.000000,0.000000,0.000000,0.000000,0.000000,0.000000,0.000000,0.000000,0.000000,1646457394.920570,0.000000
43.000000,41273.412558,45898.033190,11401.982475,36336.828630,11689.336501,19578.161189,35514.127971,35197.761380,-0.060000,0.780000,0.576000,192.000000,254.000000,32.000000,24.000000,96.000000,18.000000,0.000000,0.000000,0.000000,0.000000,1646457394.928551,0.000000
44.000000,41281.302724,45887.840794,11410.364379,36347.445708,11557.170636,19593.181562,35521.884027,35185.758494,-0.060000,0.780000,0.576000,192.000000,0.000000,0.000000,0.000000,0.000000,0.000000,0.000000,0.000000,0.000000,0.000000,1646457394.928567,0.000000
45.000000,41292.120968,45896.133291,11419.707408,36352.340740,11584.372709,19592.734527,35521.682861,35186.876081,-0.060000,0.780000,0.576000,192.000000,0.000000,0.000000,0.000000,0.000000,0.000000,0.000000,0.000000,0.000000,0.000000,1646457394.936475,0.000000
46.000000,41288.276468,45902.101207,11412.487794,36344.025891,11724.428740,19574.003765,35508.383573,35180.818758,-0.060000,0.780000,0.576000,192.000000,0.000000,0.000000,0.000000,0.000000,0.000000,0.000000,0.000000,0.000000,0.000000,1646457394.936491,0.000000
47.000000,41284.901355,45908.382047,11405.782271,36339.264970,11816.875555,19560.682125,35500.851035,35168.301781,-0.060000,0.780000,0.576000,192.000000,0.000000,0.000000,0.000000,0.000000,0.000000,0.000000,0.000000,0.000000,0.000000,1646457394.943685,0.000000
48.000000,41289.103483,45898.726094,11407.972742,36345.389348,11688.263618,19570.516893,35502.147436,35151.917953,-0.060000,0.780000,0.576000,192.000000,0.000000,0.000000,0.000000,0.000000,0.000000,0.000000,0.000000,0.000000,0.000000,1646457394.943701,0.000000
49.000000,41300.346410,45892.758178,11420.981457,36361.102624,11566.111334,19594.522666,35519.626501,35166.200717,-0.060000,0.780000,0.576000,192.000000,0.000000,0.000000,0.000000,0.000000,0.000000,0.000000,0.000000,0.000000,0.000000,1646457394.951282,0.000000
50.000000,41313.153960,45904.291678,11439.332240,36378.246412,11598.431957,19615.399196,35547.387367,35220.515456,-0.060000,0.780000,0.576000,192.000000,0.000000,0.000000,0.000000,0.000000,0.000000,0.000000,0.000000,0.000000,0.000000,1646457394.951298,0.000000
51.000000,41308.393038,45909.767855,11431.956164,36365.416511,11746.489912,19594.589722,35535.987978,35212.446477,-0.060000,0.780000,0.576000,192.000000,0.000000,0.000000,0.000000,0.000000,0.000000,0.000000,0.000000,0.000000,0.000000,1646457394.959160,0.000000
52.000000,41286.890660,45898.480224,11405.625809,36335.353414,11823.491672,19559.005744,35505.321384,35167.251249,-0.060000,0.780000,0.576000,192.000000,0.000000,0.000000,0.000000,0.000000,0.000000,0.000000,0.000000,0.000000,0.000000,1646457394.959176,0.000000
53.000000,41281.459186,45882.275210,11398.830879,36333.855848,11688.129507,19568.795808,35508.182407,35172.794482,-0.058000,0.784000,0.582000,192.000000,254.000000,48.000000,24.000000,128.000000,18.000000,48.000000,0.000000,0.000000,0.000000,1646457394.966244,0.000000
54.000000,41292.903279,45872.954532,11408.285666,36348.652702,11563.585587,19595.796716,35530.712966,35213.452305,-0.058000,0.784000,0.582000,192.000000,0.000000,0.000000,0.000000,0.000000,0.000000,0.000000,0.000000,0.000000,0.000000,1646457394.973374,0.000000
55.000000,41306.269623,45884.152756,11424.378923,36362.175508,11588.284265,19602.211666,35538.446669,35212.334718,-0.058000,0.784000,0.582000,192.000000,0.000000,0.000000,0.000000,0.000000,0.000000,0.000000,0.000000,0.000000,0.000000,1646457394.973390,0.000000
56.000000,41306.783713,45897.653210,11422.099045,36356.073482,11732.251851,19586.140762,35534.624521,35204.198683,-0.058000,0.784000,0.582000,192.000000,0.000000,0.000000,0.000000,0.000000,0.000000,0.000000,0.000000,0.000000,0.000000,1646457394.980901,0.000000
57.000000,41293.350314,45894.009876,11405.536402,36336.962740,11818.171956,19565.957137,35522.353413,35202.142322,-0.058000,0.784000,0.582000,192.000000,0.000000,0.000000,0.000000,0.000000,0.000000,0.000000,0.000000,0.000000,0.000000,1646457394.980917,0.000000
58.000000,41292.165672,45877.693102,11399.814355,36336.783926,11692.219876,19571.969756,35515.267910,35189.312421,-0.058000,0.784000,0.582000,192.000000,0.000000,0.000000,0.000000,0.000000,0.000000,0.000000,0.000000,0.000000,0.000000,1646457394.988827,0.000000
59.000000,41302.693343,45870.227619,11409.760882,36350.038511,11561.730392,19590.722870,35523.716870,35194.475674,-0.058000,0.784000,0.582000,192.000000,0.000000,0.000000,0.000000,0.000000,0.000000,0.000000,0.000000,0.000000,0.000000,1646457394.988842,0.000000
60.000000,41314.763285,45880.777643,11426.345876,36364.567144,11577.600131,19600.557637,35531.875257,35210.323061,-0.058000,0.784000,0.582000,192.000000,0.000000,0.000000,0.000000,0.000000,0.000000,0.000000,0.000000,0.000000,0.000000,1646457394.995751,0.000000
61.000000,41310.695268,45887.192593,11423.998943,36354.710025,11722.819414,19580.195198,35519.604149,35198.029601,-0.058000,0.784000,0.582000,192.000000,0.000000,0.000000,0.000000,0.000000,0.000000,0.000000,0.000000,0.000000,0.000000,1646457394.995767,0.000000
62.000000,41301.843977,45884.532736,11416.354646,36342.550676,11821.569421,19558.826930,35501.700402,35163.227935,-0.058000,0.784000,0.582000,192.000000,0.000000,0.000000,0.000000,0.000000,0.000000,0.000000,0.000000,0.000000,0.000000,1646457395.003084,0.000000
63.000000,41297.485387,45867.545410,11415.438225,36345.746976,11694.745623,19578.496466,35516.765477,35201.203549,-0.062000,0.784000,0.578000,192.000000,254.000000,16.000000,24.000000,128.000000,18.000000,16.000000,0.000000,0.000000,0.000000,1646457395.003096,0.000000
64.000000,41310.561158,45861.532791,11426.278821,36361.102624,11567.407735,19606.637312,35541.151230,35244.096547,-0.062000,0.784000,0.578000,192.000000,0.000000,0.000000,0.000000,0.000000,0.000000,0.000000,0.000000,0.000000,0.000000,1646457395.011275,0.000000
65.000000,41323.905149,45868.484183,11439.332240,36371.339723,11576.504895,19611.822916,35548.013216,35231.356052,-0.062000,0.784000,0.578000,192.000000,0.000000,0.000000,0.000000,0.000000,0.000000,0.000000,0.000000,0.000000,0.000000,1646457395.011309,0.000000
66.000000,41314.852692,45874.385044,11433.386676,36358.308656,11718.818452,19589.582931,35532.657568,35221.521285,-0.062000,0.784000,0.578000,192.000000,0.000000,0.000000,0.000000,0.000000,0.000000,0.000000,0.000000,0.000000,0.000000,1646457395.019291,0.000000
67.000000,41304.146207,45866.673692,11418.746283,36334.124069,11804.313875,19558.514006,35509.121181,35197.649622,-0.062000,0.784000,0.578000,192.000000,0.000000,0.000000,0.000000,0.000000,0.000000,0.000000,0.000000,0.000000,0.000000,1646457395.019303,0.000000
68.000000,41312.416352,45858.180029,11416.466405,36333.207647,11685.670815,19557.217605,35499.956965,35165.910145,-0.062000,0.784000,0.578000,192.000000,0.000000,0.000000,0.000000,0.000000,0.000000,0.000000,0.000000,0.000000,0.000000,1646457395.025551,0.000000
69.000000,41307.521320,45841.706794,11420.981457,36343.444746,11560.948081,19575.836608,35508.495332,35160.031636,-0.062000,0.784000,0.578000,192.000000,0.000000,0.000000,0.000000,0.000000,0.000000,0.000000,0.000000,0.000000,0.000000,1646457395.025567,0.000000
70.000000,41314.383306,45842.623215,11438.147597,36360.007389,11572.146305,19601.049376,35539.228980,35216.335680,-0.062000,0.784000,0.578000,192.000000,0.000000,0.000000,0.000000,0.000000,0.000000,0.000000,0.000000,0.000000,0.000000,1646457395.032906,0.000000
71.000000,41324.307480,45865.019663,11444.473141,36366.645857,11726.015714,19600.356472,35543.453460,35260.525079,-0.062000,0.784000,0.578000,192.000000,0.000000,0.000000,0.000000,0.000000,0.000000,0.000000,0.000000,0.000000,0.000000,1646457395.041137,0.000000
72.000000,41320.842960,45873.312160,11434.057228,36359.225078,11824.251631,19579.546997,35525.147381,35234.708814,-0.062000,0.784000,0.578000,192.000000,0.000000,0.000000,0.000000,0.000000,0.000000,0.000000,0.000000,0.000000,0.000000,1646457395.041153,0.000000
73.000000,41306.806064,45857.062442,11416.332295,36352.899534,11695.594990,19574.987242,35511.021079,35203.014040,-0.056000,0.786000,0.584000,192.000000,254.000000,64.000000,24.000000,144.000000,18.000000,64.000000,0.000000,0.000000,0.000000,1646457395.049135,0.000000
74.000000,41310.203530,45850.491029,11422.210803,36370.512708,11566.424259,19594.790887,35525.080326,35201.896453,-0.056000,0.786000,0.584000,192.000000,0.000000,0.000000,0.000000,0.000000,0.000000,0.000000,0.000000,0.000000,0.000000,1646457395.049153,0.000000
75.000000,41321.357050,45857.174201,11439.399295,36391.009258,11571.632215,19613.678111,35549.913114,35229.187933,-0.056000,0.786000,0.584000,192.000000,0.000000,0.000000,0.000000,0.000000,0.000000,0.000000,0.000000,0.000000,0.000000,1646457395.055669,0.000000
76.000000,41323.726335,45873.289808,11437.030010,36386.963592,11721.053627,19593.270969,35536.770289,35215.598072,-0.056000,0.786000,0.584000,192.000000,0.000000,0.000000,0.000000,0.000000,0.000000,0.000000,0.000000,0.000000,0.000000,1646457395.055685,0.000000
77.000000,41316.886701,45874.407396,11426.010600,36371.339723,11811.421729,19571.321556,35525.057974,35196.800255,-0.056000,0.786000,0.584000,192.000000,0.000000,0.000000,0.000000,0.000000,0.000000,0.000000,0.000000,0.000000,0.000000,1646457395.063744,0.000000
78.000000,41312.505759,45854.246122,11418.925097,36369.842156,11689.112984,19583.123277,35531.964664,35212.737049,-0.056000,0.786000,0.584000,192.000000,0.000000,0.000000,0.000000,0.000000,0.000000,0.000000,0.000000,0.000000,0.000000,1646457395.063761,0.000000
79.000000,41312.326945,45834.464828,11423.238984,36373.038456,11558.087058,19602.949274,35542.246466,35238.106279,-0.056000,0.786000,0.584000,192.000000,0.000000,0.000000,0.000000,0.000000,0.000000,0.000000,0.000000,0.000000,0.000000,1646457395.071510,0.000000
80.000000,41320.910015,45834.665994,11438.304059,36384.974287,11556.924767,19609.945370,35547.566181,35246.309369,-0.056000,0.786000,0.584000,192.000000,0.000000,0.000000,0.000000,0.000000,0.000000,0.000000,0.000000,0.000000,0.000000,1646457395.071526,0.000000
81.000000,41324.262777,45846.311253,11440.002792,36382.917927,11706.033254,19592.555713,35538.200800,35226.528076,-0.056000,0.786000,0.584000,192.000000,0.000000,0.000000,0.000000,0.000000,0.000000,0.000000,0.000000,0.000000,0.000000,1646457395.078829,0.000000
82.000000,41327.660242,45864.282055,11435.957126,36380.325124,11816.428520,19580.128143,35532.389347,35217.945006,-0.056000,0.786000,0.584000,192.000000,0.000000,0.000000,0.000000,0.000000,0.000000,0.000000,0.000000,0.000000,0.000000,1646457395.078844,0.000000
83.000000,41318.943062,45846.758288,11425.608268,36376.167700,11704.200411,19583.011518,35526.019099,35218.459096,-0.056000,0.786000,0.584000,192.000000,0.000000,0.000000,0.000000,0.000000,0.000000,0.000000,0.000000,0.000000,0.000000,1646457395.086337,0.000000
84.000000,41325.469771,45837.348203,11434.616021,36389.645802,11578.225980,19601.898742,35535.965626,35225.634006,-0.060000,0.788000,0.580000,192.000000,254.000000,32.000000,24.000000,160.000000,18.000000,32.000000,0.000000,0.000000,0.000000,1646457395.086353,0.000000
85.000000,41343.351167,45844.053727,11454.620833,36405.850816,11567.899474,19617.030873,35554.048187,35245.772927,-0.060000,0.788000,0.580000,192.000000,0.000000,0.000000,0.000000,0.000000,0.000000,0.000000,0.000000,0.000000,0.000000,1646457395.093188,0.000000
86.000000,41339.998405,45851.407451,11453.056211,36395.792531,11709.162499,19598.277759,35546.985036,35236.876933,-0.060000,0.788000,0.580000,192.000000,0.000000,0.000000,0.000000,0.000000,0.000000,0.000000,0.000000,0.000000,0.000000,1646457395.101388,0.000000
87.000000,41325.179198,45847.317081,11438.527577,36374.714836,11809.343017,19573.556730,35531.160001,35224.315253,-0.060000,0.788000,0.580000,192.000000,0.000000,0.000000,0.000000,0.000000,0.000000,0.000000,0.000000,0.000000,0.000000,1646457395.101404,0.000000
88.000000,41321.848788,45825.792351,11433.230213,36372.122034,11692.599856,19574.741372,35520.006480,35205.025697,-0.060000,0.788000,0.580000,192.000000,0.000000,0.000000,0.000000,0.000000,0.000000,0.000000,0.000000,0.000000,0.000000,1646457395.108533,0.000000
89.000000,41332.711736,45825.367668,11442.617946,36388.572918,11570.827552,19593.896817,35532.389347,35212.804104,-0.060000,0.788000,0.580000,192.000000,0.000000,0.000000,0.000000,0.000000,0.000000,0.000000,0.000000,0.000000,0.000000,1646457395.108549,0.000000
90.000000,41350.950760,45839.024584,11460.834618,36408.018936,11559.674032,19612.627579,35555.344588,35245.258837,-0.060000,0.788000,0.580000,192.000000,0.000000,0.000000,0.000000,0.000000,0.000000,0.000000,0.000000,0.000000,0.000000,1646457395.116088,0.000000
91.000000,41353.051824,45851.340395,11462.712164,36404.979098,11708.670760,19605.899704,35559.233792,35264.526041,-0.060000,0.788000,0.580000,192.000000,0.000000,0.000000,0.000000,0.000000,0.000000,0.000000,0.000000,0.000000,0.000000,1646457395.116105,0.000000
92.000000,41339.618425,45850.155753,11445.322507,36387.164758,11812.539317,19582.989166,35541.799431,35247.896343,-0.060000,0.788000,0.580000,192.000000,0.000000,0.000000,0.000000,0.000000,0.000000,0.000000,0.000000,0.000000,0.000000,1646457395.124019,0.000000
93.000000,41335.662167,45830.240349,11435.398333,36381.442712,11700.601780,19581.893931,35528.880123,35225.589302,-0.060000,0.788000,0.580000,192.000000,0.000000,0.000000,0.000000,0.000000,0.000000,0.000000,0.000000,0.000000,0.000000,1646457395.124034,0.000000
94.000000,41336.288015,45815.041162,11433.744303,36385.086046,11563.764401,19585.581968,35522.666338,35200.912976,-0.064000,0.790000,0.578000,192.000000,254.000000,0.000000,24.000000,176.000000,18.000000,16.000000,0.000000,0.000000,0.000000,1646457395.132004,0.000000
95.000000,41352.716548,45822.506645,11450.642222,36399.838197,11543.133741,19602.256370,35543.162887,35238.776831,-0.064000,0.790000,0.578000,192.000000,0.000000,0.000000,0.000000,0.000000,0.000000,0.000000,0.000000,0.000000,0.000000,1646457395.132020,0.000000
96.000000,41360.226734,45839.136343,11455.783123,36395.881938,11701.540554,19590.141724,35540.458326,35254.914791,-0.064000,0.790000,0.578000,192.000000,0.000000,0.000000,0.000000,0.000000,0.000000,0.000000,0.000000,0.000000,0.000000,1646457395.138663,0.000000
97.000000,41345.318120,45832.162599,11438.616984,36371.697351,11803.576267,19553.373105,35510.909320,35198.655450,-0.064000,0.790000,0.578000,192.000000,0.000000,0.000000,0.000000,0.000000,0.000000,0.000000,0.000000,0.000000,0.000000,1646457395.138679,0.000000
98.000000,41335.282187,45813.923575,11429.586879,36363.784833,11695.684397,19553.887195,35504.024983,35186.965488,-0.064000,0.790000,0.578000,192.000000,0.000000,0.000000,0.000000,0.000000,0.000000,0.000000,0.000000,0.000000,0.000000,1646457395.146645,0.000000
99.000000,41345.832210,45804.111159,11442.863815,36377.039418,11571.073421,19583.100925,35518.643024,35236.139326,-0.064000,0.790000,0.578000,192.000000,0.000000,0.000000,0.000000,0.000000,0.000000,0.000000,0.000000,0.000000,0.000000,1646457395.146661,0.000000
100.000000,41355.666978,45809.967316,11456.207807,36391.456293,11544.407790,19595.863771,35525.370899,35236.809878,-0.064000,0.790000,0.578000,192.000000,0.000000,0.000000,0.000000,0.000000,0.000000,0.000000,0.000000,0.000000,0.000000,1646457395.153620,0.000000
101.000000,41360.316141,45823.713639,11458.420629,36388.796435,11696.422004,19589.359413,35539.094870,35249.103337,-0.064000,0.790000,0.578000,192.000000,0.000000,0.000000,0.000000,0.000000,0.000000,0.000000,0.000000,0.000000,0.000000,1646457395.160680,0.000000
102.000000,41345.251065,45817.701020,11439.712219,36370.289191,11804.537392,19565.510102,35527.606073,35238.195686,-0.064000,0.790000,0.578000,192.000000,0.000000,0.000000,0.000000,0.000000,0.000000,0.000000,0.000000,0.000000,0.000000,1646457395.160696,0.000000
103.000000,41337.204437,45797.182119,11428.066960,36363.181336,11696.176135,19563.498445,35517.614844,35217.430916,-0.064000,0.790000,0.578000,192.000000,0.000000,0.000000,0.000000,0.000000,0.000000,0.000000,0.000000,0.000000,0.000000,1646457395.168098,0.000000
104.000000,41340.579550,45789.426063,11435.577146,36371.071502,11562.512703,19581.648061,35531.249408,35225.879875,-0.058000,0.788000,0.576000,192.000000,254.000000,48.000000,24.000000,160.000000,18.000000,0.000000,0.000000,0.000000,0.000000,1646457395.168114,0.000000
105.000000,41345.653396,45788.062607,11446.976536,36381.465063,11529.610935,19593.449783,35542.827611,35244.409471,-0.058000,0.788000,0.576000,192.000000,0.000000,0.000000,0.000000,0.000000,0.000000,0.000000,0.000000,0.000000,0.000000,1646457395.176345,0.000000
106.000000,41355.331702,45812.761284,11455.894882,36385.846005,11683.457992,19590.566408,35555.344588,35265.442463,-0.058000,0.788000,0.576000,192.000000,0.000000,0.000000,0.000000,0.000000,0.000000,0.000000,0.000000,0.000000,0.000000,1646457395.176362,0.000000
107.000000,41351.688367,45809.520281,11447.915309,36370.177432,11796.423709,19574.249634,35548.795527,35270.136329,-0.058000,0.788000,0.576000,192.000000,0.000000,0.000000,0.000000,0.000000,0.000000,0.000000,0.000000,0.000000,0.000000,1646457395.184263,0.000000
108.000000,41342.144172,45794.209337,11436.560623,36363.717778,11700.087690,19571.701535,35536.479716,35237.815706,-0.058000,0.788000,0.576000,192.000000,0.000000,0.000000,0.000000,0.000000,0.000000,0.000000,0.000000,0.000000,0.000000,1646457395.184279,0.000000
109.000000,41342.881780,45783.547554,11439.131074,36370.579764,11569.329985,19582.475076,35539.564257,35236.385195,-0.058000,0.788000,0.576000,192.000000,0.000000,0.000000,0.000000,0.000000,0.000000,0.000000,0.000000,0.000000,0.000000,1646457395.190952,0.000000
110.000000,41365.010007,45785.782729,11461.885150,36390.115188,11541.502063,19605.966759,35561.960705,35257.552297,-0.058000,0.788000,0.576000,192.000000,0.000000,0.000000,0.000000,0.000000,0.000000,0.000000,0.000000,0.000000,0.000000,1646457395.190968,0.000000
111.000000,41374.263629,45807.754494,11470.557627,36391.009258,11696.019673,19599.641216,35566.028722,35260.614486,-0.058000,0.788000,0.576000,192.000000,0.000000,0.000000,0.000000,0.000000,0.000000,0.000000,0.000000,0.000000,0.000000,1646457395.198966,0.000000
112.000000,41359.578533,45807.218052,11457.146580,36373.351380,11805.431462,19577.468285,35552.036530,35253.976018,-0.058000,0.788000,0.576000,192.000000,0.000000,0.000000,0.000000,0.000000,0.000000,0.000000,0.000000,0.000000,0.000000,1646457395.198983,0.000000
113.000000,41353.208286,45790.096616,11446.730667,36369.149252,11707.799042,19576.574215,35546.895629,35240.877895,-0.058000,0.788000,0.576000,192.000000,0.000000,0.000000,0.000000,0.000000,0.000000,0.000000,0.000000,0.000000,0.000000,1646457395.206926,0.000000
114.000000,41364.607676,45784.262810,11455.850179,36384.840177,11574.202666,19594.276797,35555.635161,35253.104300,-0.050000,0.790000,0.570000,192.000000,254.000000,112.000000,24.000000,176.000000,17.000000,208.000000,0.000000,0.000000,0.000000,1646457395.206942,0.000000
115.000000,41368.407472,45780.127738,11469.037708,36397.983002,11539.579813,19607.754899,35566.498109,35261.732073,-0.050000,0.790000,0.570000,192.000000,0.000000,0.000000,0.000000,0.000000,0.000000,0.000000,0.000000,0.000000,0.000000,1646457395.214181,0.000000
116.000000,41369.882687,45790.297781,11469.551798,36388.707028,11690.834068,19587.280701,35554.405815,35240.810840,-0.050000,0.790000,0.570000,192.000000,0.000000,0.000000,0.000000,0.000000,0.000000,0.000000,0.000000,0.000000,0.000000,1646457395.220592,0.000000
117.000000,41355.823440,45787.928496,11456.923062,36369.931563,11800.983465,19565.487750,35540.726547,35235.044090,-0.050000,0.790000,0.570000,192.000000,0.000000,0.000000,0.000000,0.000000,0.000000,0.000000,0.000000,0.000000,0.000000,1646457395.220608,0.000000
118.000000,41346.011024,45771.723482,11444.830769,36365.394159,11710.458900,19572.327384,35543.319350,35254.803032,-0.050000,0.790000,0.570000,192.000000,0.000000,0.000000,0.000000,0.000000,0.000000,0.000000,0.000000,0.000000,0.000000,1646457395.228543,0.000000
119.000000,41351.464850,45756.345481,11451.625699,36373.686656,11576.728413,19584.956120,35545.040434,35248.321026,-0.050000,0.790000,0.570000,192.000000,0.000000,0.000000,0.000000,0.000000,0.000000,0.000000,0.000000,0.000000,0.000000,1646457395.228559,0.000000
120.000000,41368.429824,45753.909141,11470.043536,36387.768255,11537.523453,19599.484754,35562.385388,35255.652399,-0.050000,0.790000,0.570000,192.000000,0.000000,0.000000,0.000000,0.000000,0.000000,0.000000,0.000000,0.000000,0.000000,1646457395.236581,0.000000
121.000000,41375.403568,45773.086938,11476.950225,36388.125883,11691.906952,19588.465344,35562.385388,35259.899230,-0.050000,0.790000,0.570000,192.000000,0.000000,0.000000,0.000000,0.000000,0.000000,0.000000,0.000000,0.000000,0.000000,1646457395.236598,0.000000
122.000000,41365.345283,45770.136508,11465.975519,36371.384427,11802.592790,19559.452779,35534.848039,35220.224884,-0.050000,0.790000,0.570000,192.000000,0.000000,0.000000,0.000000,0.000000,0.000000,0.000000,0.000000,0.000000,0.000000,1646457395.243570,0.000000
123.000000,41354.437632,45750.489324,11452.184493,36361.460252,11711.196507,19555.474169,35524.722698,35212.513532,-0.050000,0.790000,0.570000,192.000000,0.000000,0.000000,0.000000,0.000000,0.000000,0.000000,0.000000,0.000000,0.000000,1646457395.243587,0.000000
124.000000,41361.344321,45736.251263,11459.851141,36372.837290,11581.019948,19581.715117,35548.661417,35253.618390,-0.050000,0.792000,0.570000,192.000000,254.000000,112.000000,24.000000,192.000000,17.000000,208.000000,0.000000,0.000000,0.000000,1646457395.250861,0.000000
125.000000,41379.560993,45750.556380,11480.861781,36394.920813,11538.395171,19602.099908,35563.167699,35257.574649,-0.050000,0.792000,0.570000,192.000000,0.000000,0.000000,0.000000,0.000000,0.000000,0.000000,0.000000,0.000000,0.000000,1646457395.250869,0.000000
126.000000,41379.851565,45755.764336,11480.638263,36387.544738,11687.905990,19592.890989,35568.174490,35269.801053,-0.050000,0.792000,0.570000,192.000000,0.000000,0.000000,0.000000,0.000000,0.000000,0.000000,0.000000,0.000000,0.000000,1646457395.259246,0.000000
127.000000,41362.640722,45741.749792,11461.415763,36362.622543,11802.972770,19567.633518,35550.293094,35266.135367,-0.050000,0.792000,0.570000,192.000000,0.000000,0.000000,0.000000,0.000000,0.000000,0.000000,0.000000,0.000000,0.000000,1646457395.259306,0.000000
128.000000,41352.425975,45721.208539,11449.748152,36353.815955,11715.353932,19564.213701,35537.105565,35242.442518,-0.050000,0.792000,0.570000,192.000000,0.000000,0.000000,0.000000,0.000000,0.000000,0.000000,0.000000,0.000000,0.000000,1646457395.267291,0.000000
129.000000,41369.010969,45726.103571,11468.367156,36376.860604,11581.154058,19589.649986,35547.990864,35241.637855,-0.050000,0.792000,0.570000,192.000000,0.000000,0.000000,0.000000,0.000000,0.000000,0.000000,0.000000,0.000000,0.000000,1646457395.267326,0.000000
130.000000,41384.813653,45731.736211,11485.801516,36391.657459,11535.467092,19611.398233,35569.560298,35272.863242,-0.050000,0.792000,0.570000,192.000000,0.000000,0.000000,0.000000,0.000000,0.000000,0.000000,0.000000,0.000000,0.000000,1646457395.273433,0.000000
131.000000,41380.522118,45738.553493,11481.509981,36379.878089,11673.220894,19591.952216,35564.151176,35270.695123,-0.050000,0.792000,0.570000,192.000000,0.000000,0.000000,0.000000,0.000000,0.000000,0.000000,0.000000,0.000000,0.000000,1646457395.273449,0.000000
132.000000,41370.352074,45737.748830,11471.652862,36362.130804,11783.571456,19564.347811,35546.403890,35238.441555,-0.050000,0.792000,0.570000,192.000000,0.000000,0.000000,0.000000,0.000000,0.000000,0.000000,0.000000,0.000000,0.000000,1646457395.280859,0.000000
133.000000,41358.975036,45715.642955,11457.683022,36350.284380,11704.960371,19561.062105,35535.384480,35226.550427,-0.050000,0.792000,0.570000,192.000000,0.000000,0.000000,0.000000,0.000000,0.000000,0.000000,0.000000,0.000000,0.000000,1646457395.288916,0.000000
134.000000,41364.115937,45707.484568,11462.846275,36363.695426,11571.073421,19581.826875,35547.230905,35244.610637,-0.058000,0.796000,0.578000,192.000000,254.000000,48.000000,24.000000,224.000000,18.000000,16.000000,0.000000,0.000000,0.000000,1646457395.288932,0.000000
135.000000,41376.007065,45708.378638,11479.118345,36380.883918,11519.642057,19605.072690,35572.980115,35268.281134,-0.058000,0.796000,0.578000,192.000000,0.000000,0.000000,0.000000,0.000000,0.000000,0.000000,0.000000,0.000000,0.000000,1646457395.296943,0.000000
136.000000,41388.255821,45726.103571,11492.998778,36385.421322,11671.455106,19601.474059,35577.182243,35263.363750,-0.058000,0.796000,0.578000,192.000000,0.000000,0.000000,0.000000,0.000000,0.000000,0.000000,0.000000,0.000000,0.000000,1646457395.296959,0.000000
137.000000,41379.181013,45731.959728,11483.320473,36369.909211,11792.288636,19570.874521,35546.739167,35207.193817,-0.058000,0.796000,0.578000,192.000000,0.000000,0.000000,0.000000,0.000000,0.000000,0.000000,0.000000,0.000000,0.000000,1646457395.303250,0.000000
138.000000,41367.446347,45713.988926,11469.618853,36363.248392,11715.532746,19568.415829,35540.972417,35202.969337,-0.058000,0.796000,0.578000,192.000000,0.000000,0.000000,0.000000,0.000000,0.000000,0.000000,0.000000,0.000000,0.000000,1646457395.303266,0.000000
139.000000,41377.728150,45703.796530,11479.051289,36379.922793,11579.343567,19602.770460,35568.867394,35281.379256,-0.058000,0.796000,0.578000,192.000000,0.000000,0.000000,0.000000,0.000000,0.000000,0.000000,0.000000,0.000000,0.000000,1646457395.311377,0.000000
140.000000,41394.514310,45714.190091,11496.463298,36397.133636,11525.364104,19619.377806,35577.852795,35283.525024,-0.058000,0.796000,0.578000,192.000000,0.000000,0.000000,0.000000,0.000000,0.000000,0.000000,0.000000,0.000000,0.000000,1646457395.311394,0.000000
141.000000,41401.219833,45730.104533,11500.911296,36393.535005,11669.957539,19600.781155,35565.581687,35253.819555,-0.058000,0.796000,0.578000,192.000000,0.000000,0.000000,0.000000,0.000000,0.000000,0.000000,0.000000,0.000000,0.000000,1646457395.319532,0.000000
142.000000,41384.277211,45714.011277,11484.415708,36368.478700,11780.308101,19575.769553,35546.783870,35241.079061,-0.058000,0.796000,0.578000,192.000000,0.000000,0.000000,0.000000,0.000000,0.000000,0.000000,0.000000,0.000000,0.000000,1646457395.319548,0.000000
143.000000,41370.240315,45690.296077,11471.630510,36354.017121,11707.463766,19575.300166,35539.363091,35233.255951,-0.058000,0.796000,0.578000,192.000000,0.000000,0.000000,0.000000,0.000000,0.000000,0.000000,0.000000,0.000000,0.000000,1646457395.326633,0.000000
144.000000,41370.977923,45665.709158,11475.720880,36357.749862,11566.312500,19594.433259,35553.578800,35239.983826,-0.062000,0.784000,0.580000,192.000000,254.000000,16.000000,24.000000,128.000000,18.000000,32.000000,0.000000,0.000000,0.000000,1646457395.326650,0.000000
145.000000,41382.109092,45660.568256,11487.142621,36368.813976,11502.028883,19613.007559,35569.359132,35275.590155,-0.062000,0.784000,0.580000,192.000000,0.000000,0.000000,0.000000,0.000000,0.000000,0.000000,0.000000,0.000000,0.000000,1646457395.334150,0.000000
146.000000,41393.933164,45673.912248,11493.490516,36367.517575,11647.292870,19594.902646,35557.892687,35263.810785,-0.062000,0.784000,0.580000,192.000000,0.000000,0.000000,0.000000,0.000000,0.000000,0.000000,0.000000,0.000000,0.000000,1646457395.334166,0.000000
147.000000,41378.309295,45664.144536,11479.498324,36350.507897,11760.593863,19567.521759,35538.446669,35239.067404,-0.062000,0.784000,0.580000,192.000000,0.000000,0.000000,0.000000,0.000000,0.000000,0.000000,0.000000,0.000000,0.000000,1646457395.340942,0.000000
148.000000,41373.034283,45650.152344,11472.882208,36346.708101,11698.210144,19566.627689,35536.166791,35219.509628,-0.062000,0.784000,0.580000,192.000000,0.000000,0.000000,0.000000,0.000000,0.000000,0.000000,0.000000,0.000000,0.000000,1646457395.349159,0.000000
149.000000,41376.610562,45637.970643,11478.246627,36353.525383,11557.148285,19578.116486,35539.318387,35210.658337,-0.062000,0.784000,0.580000,192.000000,0.000000,0.000000,0.000000,0.000000,0.000000,0.000000,0.000000,0.000000,0.000000,1646457395.349175,0.000000
150.000000,41381.997333,45631.846265,11491.523563,36364.522441,11488.506077,19594.656777,35551.254219,35234.664111,-0.062000,0.784000,0.580000,192.000000,0.000000,0.000000,0.000000,0.000000,0.000000,0.000000,0.000000,0.000000,0.000000,1646457395.356266,0.000000
151.000000,41390.222775,45645.570236,11499.592543,36364.589496,11633.457140,19588.308881,35551.388329,35242.688387,-0.062000,0.784000,0.580000,192.000000,0.000000,0.000000,0.000000,0.000000,0.000000,0.000000,0.000000,0.000000,0.000000,1646457395.356283,0.000000
152.000000,41379.315123,45644.720870,11489.713072,36346.484583,11755.475313,19562.760837,35534.579818,35217.699136,-0.062000,0.784000,0.580000,192.000000,0.000000,0.000000,0.000000,0.000000,0.000000,0.000000,0.000000,0.000000,0.000000,1646457395.363566,0.000000
153.000000,41367.088719,45624.179616,11477.419612,36334.459345,11690.789365,19556.323535,35522.420469,35210.904206,-0.062000,0.784000,0.580000,192.000000,0.000000,0.000000,0.000000,0.000000,0.000000,0.000000,0.000000,0.000000,0.000000,1646457395.363582,0.000000
154.000000,41376.901135,45618.390515,11487.857877,36349.770290,11557.125933,19578.295300,35535.160963,35227.243331,-0.060000,0.780000,0.582000,192.000000,254.000000,32.000000,24.000000,96.000000,18.000000,48.000000,0.000000,0.000000,0.000000,1646457395.371570,0.000000
155.000000,41389.865147,45618.189349,11502.744139,36366.556450,11496.150374,19592.175733,35542.693501,35218.883779,-0.060000,0.780000,0.582000,192.000000,0.000000,0.000000,0.000000,0.000000,0.000000,0.000000,0.000000,0.000000,0.000000,1646457395.371586,0.000000
156.000000,41391.452121,45637.076573,11506.141604,36365.707083,11636.608736,19571.366259,35532.165829,35177.980087,-0.060000,0.780000,0.582000,192.000000,0.000000,0.000000,0.000000,0.000000,0.000000,0.000000,0.000000,0.000000,0.000000,1646457395.378805,0.000000
157.000000,41379.426882,45634.193198,11494.272827,36349.926752,11762.292595,19555.362410,35528.723661,35209.160770,-0.060000,0.780000,0.582000,192.000000,0.000000,0.000000,0.000000,0.000000,0.000000,0.000000,0.000000,0.000000,0.000000,1646457395.378821,0.000000
158.000000,41375.671789,45618.301108,11485.712109,36342.058938,11709.721292,19559.944518,35528.746012,35256.278247,-0.060000,0.780000,0.582000,192.000000,0.000000,0.000000,0.000000,0.000000,0.000000,0.000000,0.000000,0.000000,0.000000,1646457395.386371,0.000000
159.000000,41380.767987,45606.991125,11493.401109,36354.084176,11573.241541,19573.310861,35529.081288,35240.184991,-0.060000,0.780000,0.582000,192.000000,0.000000,0.000000,0.000000,0.000000,0.000000,0.000000,0.000000,0.000000,0.000000,1646457395.386387,0.000000
