%OpenBCI Raw EEG Data
%Number of channels = 8
%Sample Rate = 256 Hz
%Board = OpenBCI_GUI$BoardCytonSerial
%Channels = Fp1, Fp2, F3, F4, Fz, Pz, O1, O2
%Data recorded at AIMS Lab (http://aimsl.uiu.ac.bd) by Rana Depto (mail@ranadepto.com)
%Brainwaves were obtained via the Ultracortex Mark IV Headset using the OpenBCI Cyton Board
%Recording Application = ConcentrateToday (https://concentrate.today)
%Data type = RAW data with noise
%Day No = 2
%Subject ID = 5
%Session ID = 7
%Record starting timestamp (UTC+6) = 2022-03-13T11:55:09.049582
%Record ending timestamp (UTC+6)   = 2022-03-13T11:55:24.901062
%Recorded durations = ~15 seconds
Sample Index, EXG Channel 0, EXG Channel 1, EXG Channel 2, EXG Channel 3, EXG Channel 4, EXG Channel 5, EXG Channel 6, EXG Channel 7, Accel Channel 0, Accel Channel 1, Accel Channel 2, Other, Other, Other, Other, Other, Other, Other, Analog Channel 0, Analog Channel 1, Analog Channel 2, Timestamp, Timestamp (Formatted)
219.000000,-13909.848202,7128.328935,292.941963,30591.491531,26719.454136,36587.235223,12336.799483,14639.409141,-0.138000,0.956000,0.198000,192.000000,0.000000,0.000000,0.000000,0.000000,0.000000,0.000000,0.000000,0.000000,0.000000,1647150909.049670,0.000000
220.000000,-13910.786976,7121.936336,290.617381,30589.681040,26721.689310,36590.163301,12334.385495,14638.827996,-0.138000,0.956000,0.198000,192.000000,0.000000,0.000000,0.000000,0.000000,0.000000,0.000000,0.000000,0.000000,0.000000,1647150909.049686,0.000000
221.000000,-13912.150432,7122.159853,292.003190,30589.055191,26732.820479,36589.716266,12332.642058,14636.771636,-0.138000,0.956000,0.198000,192.000000,0.000000,0.000000,0.000000,0.000000,0.000000,0.000000,0.000000,0.000000,0.000000,1647150909.055850,0.000000
222.000000,-13912.508060,7124.372676,292.114948,30592.407953,26730.920581,36589.604508,12331.032733,14631.653086,-0.138000,0.956000,0.198000,192.000000,0.000000,0.000000,0.000000,0.000000,0.000000,0.000000,0.000000,0.000000,0.000000,1647150909.055858,0.000000
223.000000,-13913.290371,7127.144292,290.773844,30596.051287,26738.877802,36589.492749,12327.143529,14634.424702,-0.134000,0.956000,0.190000,192.000000,251.000000,208.000000,29.000000,224.000000,5.000000,240.000000,0.000000,0.000000,0.000000,1647150909.063251,0.000000
224.000000,-13909.177650,7129.535929,295.221841,30594.017278,26733.312217,36590.587984,12333.491425,14641.130226,-0.134000,0.956000,0.190000,192.000000,0.000000,0.000000,0.000000,0.000000,0.000000,0.000000,0.000000,0.000000,0.000000,1647150909.069381,0.000000
225.000000,-13906.048406,7133.089856,300.250983,30593.391430,26720.996406,36595.259499,12341.828625,14647.299307,-0.134000,0.956000,0.190000,192.000000,0.000000,0.000000,0.000000,0.000000,0.000000,0.000000,0.000000,0.000000,0.000000,1647150909.069385,0.000000
226.000000,-13910.295237,7128.865377,297.255850,30589.636337,26724.930313,36597.427618,12341.135721,14640.370266,-0.134000,0.956000,0.190000,192.000000,0.000000,0.000000,0.000000,0.000000,0.000000,0.000000,0.000000,0.000000,0.000000,1647150909.076372,0.000000
227.000000,-13915.614953,7120.729342,287.286971,30585.925947,26735.726206,36595.706534,12335.324268,14630.870775,-0.134000,0.956000,0.190000,192.000000,0.000000,0.000000,0.000000,0.000000,0.000000,0.000000,0.000000,0.000000,0.000000,1647150909.076376,0.000000
228.000000,-13905.042577,7132.396952,295.445358,30590.731572,26730.562953,36595.348906,12340.800445,14638.135092,-0.134000,0.956000,0.190000,192.000000,0.000000,0.000000,0.000000,0.000000,0.000000,0.000000,0.000000,0.000000,0.000000,1647150909.086284,0.000000
229.000000,-13903.276790,7137.381391,299.401617,30597.817075,26715.721395,36601.272118,12343.482655,14638.827996,-0.134000,0.956000,0.190000,192.000000,0.000000,0.000000,0.000000,0.000000,0.000000,0.000000,0.000000,0.000000,0.000000,1647150909.086288,0.000000
230.000000,-13909.132947,7128.105417,290.349160,30591.469180,26723.410395,36597.271156,12335.659544,14640.571432,-0.134000,0.956000,0.190000,192.000000,0.000000,0.000000,0.000000,0.000000,0.000000,0.000000,0.000000,0.000000,0.000000,1647150909.092632,0.000000
231.000000,-13910.988141,7126.831368,290.080940,30585.903595,26731.546430,36593.426656,12335.100750,14644.751208,-0.134000,0.956000,0.190000,192.000000,0.000000,0.000000,0.000000,0.000000,0.000000,0.000000,0.000000,0.000000,0.000000,1647150909.092636,0.000000
232.000000,-13909.535278,7130.117074,289.186870,30586.015354,26725.667921,36589.895080,12339.995782,14638.179796,-0.134000,0.956000,0.190000,192.000000,0.000000,0.000000,0.000000,0.000000,0.000000,0.000000,0.000000,0.000000,0.000000,1647150909.100392,0.000000
233.000000,-13912.820984,7127.323106,283.308361,30586.216520,26735.659151,36589.671563,12336.598317,14625.148729,-0.136000,0.954000,0.194000,192.000000,251.000000,192.000000,29.000000,208.000000,6.000000,16.000000,0.000000,0.000000,0.000000,1647150909.100398,0.000000
234.000000,-13908.976484,7130.407647,289.276277,30589.345764,26740.978866,36595.170092,12339.481692,14626.355723,-0.136000,0.954000,0.194000,192.000000,0.000000,0.000000,0.000000,0.000000,0.000000,0.000000,0.000000,0.000000,0.000000,1647150909.106949,0.000000
235.000000,-13909.915258,7129.357115,289.812719,30586.037706,26734.452156,36593.538415,12339.749913,14631.273106,-0.136000,0.954000,0.194000,192.000000,0.000000,0.000000,0.000000,0.000000,0.000000,0.000000,0.000000,0.000000,0.000000,1647150909.106954,0.000000
236.000000,-13912.239839,7125.087932,286.906992,30586.641203,26736.664979,36594.276022,12342.320364,14627.205089,-0.136000,0.954000,0.194000,192.000000,0.000000,0.000000,0.000000,0.000000,0.000000,0.000000,0.000000,0.000000,0.000000,1647150909.114954,0.000000
237.000000,-13905.333150,7130.072371,296.607649,30593.257319,26733.736901,36598.701668,12351.596338,14634.290592,-0.136000,0.954000,0.194000,192.000000,0.000000,0.000000,0.000000,0.000000,0.000000,0.000000,0.000000,0.000000,0.000000,1647150909.114964,0.000000
238.000000,-13902.740348,7132.888691,299.334562,30597.124171,26735.569744,36600.735676,12352.088076,14636.436359,-0.136000,0.954000,0.194000,192.000000,0.000000,0.000000,0.000000,0.000000,0.000000,0.000000,0.000000,0.000000,0.000000,1647150909.121951,0.000000
239.000000,-13903.388548,7132.240490,296.250021,30591.804456,26724.393871,36597.159397,12348.824721,14631.720141,-0.136000,0.954000,0.194000,192.000000,0.000000,0.000000,0.000000,0.000000,0.000000,0.000000,0.000000,0.000000,0.000000,1647150909.129963,0.000000
240.000000,-13906.920124,7134.140388,292.874908,30593.682002,26732.552258,36598.232281,12348.757666,14633.217708,-0.136000,0.954000,0.194000,192.000000,0.000000,0.000000,0.000000,0.000000,0.000000,0.000000,0.000000,0.000000,0.000000,1647150909.129967,0.000000
241.000000,-13907.076586,7136.353211,290.125643,30592.519712,26745.315104,36595.371258,12343.907338,14627.741531,-0.136000,0.954000,0.194000,192.000000,0.000000,0.000000,0.000000,0.000000,0.000000,0.000000,0.000000,0.000000,0.000000,1647150909.138041,0.000000
242.000000,-13904.886115,7131.614641,293.277239,30587.624680,26746.879726,36595.795941,12347.170692,14632.234231,-0.136000,0.954000,0.194000,192.000000,0.000000,0.000000,0.000000,0.000000,0.000000,0.000000,0.000000,0.000000,0.000000,1647150909.138044,0.000000
243.000000,-13898.404109,7135.950880,297.457015,30587.445866,26737.179069,36592.554938,12352.043373,14639.230328,-0.130000,0.956000,0.192000,192.000000,251.000000,240.000000,29.000000,224.000000,6.000000,0.000000,0.000000,0.000000,0.000000,1647150909.145038,0.000000
244.000000,-13902.159202,7133.805112,292.159652,30588.585805,26735.457985,36591.280888,12349.942309,14644.393580,-0.130000,0.956000,0.192000,192.000000,0.000000,0.000000,0.000000,0.000000,0.000000,0.000000,0.000000,0.000000,0.000000,1647150909.145042,0.000000
245.000000,-13895.744252,7141.829388,302.799082,30594.888996,26735.502688,36596.645307,12348.914128,14643.030124,-0.130000,0.956000,0.192000,192.000000,0.000000,0.000000,0.000000,0.000000,0.000000,0.000000,0.000000,0.000000,0.000000,1647150909.153012,0.000000
246.000000,-13900.862801,7138.722496,296.585297,30595.090162,26737.559049,36595.080685,12344.197910,14633.530633,-0.130000,0.956000,0.192000,192.000000,0.000000,0.000000,0.000000,0.000000,0.000000,0.000000,0.000000,0.000000,0.000000,1647150909.153016,0.000000
247.000000,-13910.362293,7129.848853,285.521184,30590.619813,26753.048808,36590.543281,12343.952041,14632.614211,-0.130000,0.956000,0.192000,192.000000,0.000000,0.000000,0.000000,0.000000,0.000000,0.000000,0.000000,0.000000,0.000000,1647150909.159239,0.000000
248.000000,-13910.876383,7127.591327,280.268524,30583.467255,26740.464776,36584.485958,12347.103637,14635.519938,-0.130000,0.956000,0.192000,192.000000,0.000000,0.000000,0.000000,0.000000,0.000000,0.000000,0.000000,0.000000,0.000000,1647150909.159243,0.000000
249.000000,-13899.834621,7137.850778,294.819509,30591.692697,26725.064424,36591.169130,12354.546768,14635.274069,-0.130000,0.956000,0.192000,192.000000,0.000000,0.000000,0.000000,0.000000,0.000000,0.000000,0.000000,0.000000,0.000000,1647150909.167164,0.000000
250.000000,-13901.913333,7136.464970,299.312210,30597.213578,26737.737863,36595.974755,12352.892739,14635.050551,-0.130000,0.956000,0.192000,192.000000,0.000000,0.000000,0.000000,0.000000,0.000000,0.000000,0.000000,0.000000,0.000000,1647150909.167167,0.000000
251.000000,-13904.372025,7136.084990,295.467710,30596.319508,26748.086720,36591.660868,12346.857768,14634.670572,-0.130000,0.956000,0.192000,192.000000,0.000000,0.000000,0.000000,0.000000,0.000000,0.000000,0.000000,0.000000,0.000000,1647150909.174266,0.000000
252.000000,-13913.379778,7132.553414,285.297666,30596.699488,26767.264517,36589.023362,12340.196948,14624.947563,-0.130000,0.956000,0.192000,192.000000,0.000000,0.000000,0.000000,0.000000,0.000000,0.000000,0.000000,0.000000,0.000000,1647150909.174270,0.000000
253.000000,-13913.536240,7130.608813,283.665989,30592.095028,26765.521081,36586.318801,12340.532224,14627.406255,-0.130000,0.956000,0.192000,192.000000,0.000000,0.000000,0.000000,0.000000,0.000000,0.000000,0.000000,0.000000,0.000000,1647150909.182346,0.000000
254.000000,-13910.697569,7128.775970,290.416216,30588.161121,26756.043942,36589.805673,12347.215396,14643.208938,-0.128000,0.956000,0.198000,192.000000,252.000000,0.000000,29.000000,224.000000,6.000000,48.000000,0.000000,0.000000,0.000000,1647150909.188989,0.000000
255.000000,-13912.485708,7126.943127,290.930306,30588.049363,26747.259706,36589.135121,12351.261062,14642.046647,-0.128000,0.956000,0.198000,192.000000,0.000000,0.000000,0.000000,0.000000,0.000000,0.000000,0.000000,0.000000,0.000000,1647150909.188994,0.000000
0.000000,-13906.070758,7135.325031,296.920573,30594.196092,26744.823366,36591.012668,12348.198873,14643.655973,-0.128000,0.956000,0.198000,192.000000,0.000000,0.000000,0.000000,0.000000,0.000000,0.000000,0.000000,0.000000,0.000000,1647150909.196841,0.000000
1.000000,-13906.763662,7134.967403,299.133396,30597.928834,26752.199441,36593.985450,12347.394210,14642.896014,-0.128000,0.956000,0.198000,192.000000,0.000000,0.000000,0.000000,0.000000,0.000000,0.000000,0.000000,0.000000,0.000000,1647150909.196844,0.000000
2.000000,-13897.130060,7140.510635,308.588184,30605.193151,26740.554183,36596.868825,12355.485541,14645.891147,-0.128000,0.956000,0.198000,192.000000,0.000000,0.000000,0.000000,0.000000,0.000000,0.000000,0.000000,0.000000,0.000000,1647150909.204789,0.000000
3.000000,-13894.336092,7140.465932,308.163501,30606.556607,26739.883630,36600.735676,12352.378649,14647.567528,-0.128000,0.956000,0.198000,192.000000,0.000000,0.000000,0.000000,0.000000,0.000000,0.000000,0.000000,0.000000,0.000000,1647150909.204798,0.000000
4.000000,-13891.430365,7144.869226,305.905975,30606.042517,26737.469642,36599.819255,12352.512759,14654.250700,-0.128000,0.956000,0.198000,192.000000,0.000000,0.000000,0.000000,0.000000,0.000000,0.000000,0.000000,0.000000,0.000000,1647150909.212051,0.000000
5.000000,-13899.499345,7136.934356,298.373437,30601.482761,26735.614447,36597.315859,12349.808198,14651.590842,-0.128000,0.956000,0.198000,192.000000,0.000000,0.000000,0.000000,0.000000,0.000000,0.000000,0.000000,0.000000,0.000000,1647150909.212054,0.000000
6.000000,-13891.698586,7145.070391,302.597916,30602.779162,26749.584287,36596.265327,12345.248442,14647.388714,-0.128000,0.956000,0.198000,192.000000,0.000000,0.000000,0.000000,0.000000,0.000000,0.000000,0.000000,0.000000,0.000000,1647150909.220917,0.000000
7.000000,-13894.738423,7151.015955,297.680533,30602.577997,26745.605677,36583.278964,12341.985088,14651.210863,-0.128000,0.956000,0.198000,192.000000,0.000000,0.000000,0.000000,0.000000,0.000000,0.000000,0.000000,0.000000,0.000000,1647150909.220921,0.000000
8.000000,-13895.364272,7150.166589,300.876832,30606.914235,26741.425901,36583.234260,12344.510835,14663.280805,-0.132000,0.960000,0.202000,192.000000,251.000000,224.000000,30.000000,0.000000,6.000000,80.000000,0.000000,0.000000,0.000000,1647150909.227474,0.000000
9.000000,-13895.900714,7143.863397,303.827262,30608.814133,26754.367561,36590.029191,12341.985088,14666.722973,-0.132000,0.960000,0.202000,192.000000,0.000000,0.000000,0.000000,0.000000,0.000000,0.000000,0.000000,0.000000,0.000000,1647150909.227478,0.000000
10.000000,-13894.291388,7142.924624,305.503643,30609.909369,26756.669790,36592.309069,12344.041448,14672.377965,-0.132000,0.960000,0.202000,192.000000,0.000000,0.000000,0.000000,0.000000,0.000000,0.000000,0.000000,0.000000,0.000000,1647150909.234070,0.000000
11.000000,-13898.024130,7138.230758,300.161576,30605.014337,26760.357828,36589.604508,12339.079361,14673.339090,-0.132000,0.960000,0.202000,192.000000,0.000000,0.000000,0.000000,0.000000,0.000000,0.000000,0.000000,0.000000,0.000000,1647150909.234073,0.000000
12.000000,-13906.271923,7134.632127,293.612515,30593.726706,26758.904965,36583.390723,12333.647887,14668.309947,-0.132000,0.960000,0.202000,192.000000,0.000000,0.000000,0.000000,0.000000,0.000000,0.000000,0.000000,0.000000,0.000000,1647150909.241121,0.000000
13.000000,-13893.531429,7148.914891,298.999286,30597.124171,26724.818554,36585.000048,12343.370896,14679.441116,-0.132000,0.960000,0.202000,192.000000,0.000000,0.000000,0.000000,0.000000,0.000000,0.000000,0.000000,0.000000,0.000000,1647150909.249171,0.000000
14.000000,-13895.118403,7145.316260,300.206280,30602.555645,26732.865183,36590.565633,12335.234861,14678.569398,-0.132000,0.960000,0.202000,192.000000,0.000000,0.000000,0.000000,0.000000,0.000000,0.000000,0.000000,0.000000,0.000000,1647150909.249176,0.000000
15.000000,-13900.326359,7137.537853,297.971105,30599.649918,26745.739787,36586.967002,12338.162939,14673.830828,-0.132000,0.960000,0.202000,192.000000,0.000000,0.000000,0.000000,0.000000,0.000000,0.000000,0.000000,0.000000,0.000000,1647150909.255789,0.000000
16.000000,-13896.571266,7139.750676,300.698018,30598.889959,26740.241258,36586.765836,12344.086152,14681.788049,-0.132000,0.960000,0.202000,192.000000,0.000000,0.000000,0.000000,0.000000,0.000000,0.000000,0.000000,0.000000,0.000000,1647150909.255793,0.000000
17.000000,-13899.365234,7135.034458,297.747588,30600.499284,26757.899136,36590.386819,12336.374800,14679.575226,-0.132000,0.960000,0.202000,192.000000,0.000000,0.000000,0.000000,0.000000,0.000000,0.000000,0.000000,0.000000,0.000000,1647150909.263768,0.000000
18.000000,-13898.739385,7132.374600,297.300553,30597.146523,26746.231526,36589.448045,12332.686762,14671.148619,-0.136000,0.950000,0.202000,192.000000,251.000000,192.000000,29.000000,176.000000,6.000000,80.000000,0.000000,0.000000,0.000000,1647150909.263772,0.000000
19.000000,-13899.521697,7131.726400,293.947791,30599.851084,26743.146985,36591.370295,12325.265983,14656.955261,-0.136000,0.950000,0.202000,192.000000,0.000000,0.000000,0.000000,0.000000,0.000000,0.000000,0.000000,0.000000,0.000000,1647150909.272270,0.000000
20.000000,-13902.807403,7128.999487,290.751492,30599.381697,26749.606639,36590.610336,12321.533241,14651.859063,-0.136000,0.950000,0.202000,192.000000,0.000000,0.000000,0.000000,0.000000,0.000000,0.000000,0.000000,0.000000,0.000000,1647150909.272274,0.000000
21.000000,-13901.756871,7135.168569,292.629038,30602.063906,26750.299543,36593.449008,12325.176576,14660.196264,-0.136000,0.950000,0.202000,192.000000,0.000000,0.000000,0.000000,0.000000,0.000000,0.000000,0.000000,0.000000,0.000000,1647150909.278869,0.000000
22.000000,-13896.325397,7144.042211,299.200451,30611.608101,26751.707703,36600.623918,12335.234861,14677.161238,-0.136000,0.950000,0.202000,192.000000,0.000000,0.000000,0.000000,0.000000,0.000000,0.000000,0.000000,0.000000,0.000000,1647150909.278873,0.000000
23.000000,-13893.218505,7143.572824,294.394826,30610.512866,26732.641665,36600.087476,12338.252346,14678.703508,-0.136000,0.950000,0.202000,192.000000,0.000000,0.000000,0.000000,0.000000,0.000000,0.000000,0.000000,0.000000,0.000000,1647150909.286965,0.000000
24.000000,-13902.360368,7135.034458,280.872021,30604.701412,26737.804918,36597.651136,12324.796596,14670.187494,-0.136000,0.950000,0.202000,192.000000,0.000000,0.000000,0.000000,0.000000,0.000000,0.000000,0.000000,0.000000,0.000000,1647150909.286976,0.000000
25.000000,-13894.269037,7139.437752,291.980838,30609.775258,26744.063406,36601.540339,12323.544898,14676.021299,-0.136000,0.950000,0.202000,192.000000,0.000000,0.000000,0.000000,0.000000,0.000000,0.000000,0.000000,0.000000,0.000000,1647150909.295772,0.000000
26.000000,-13890.022205,7141.717630,300.496852,30611.138715,26735.033302,36605.071915,12329.043428,14683.956168,-0.136000,0.950000,0.202000,192.000000,0.000000,0.000000,0.000000,0.000000,0.000000,0.000000,0.000000,0.000000,0.000000,1647150909.295776,0.000000
27.000000,-13888.390528,7142.924624,302.262640,30608.344747,26730.093566,36605.206025,12334.609012,14682.548008,-0.136000,0.950000,0.202000,192.000000,0.000000,0.000000,0.000000,0.000000,0.000000,0.000000,0.000000,0.000000,0.000000,1647150909.302853,0.000000
28.000000,-13887.876438,7141.605871,301.815605,30603.606177,26728.707758,36606.323612,12333.647887,14684.067927,-0.136000,0.942000,0.204000,192.000000,251.000000,192.000000,29.000000,112.000000,6.000000,96.000000,0.000000,0.000000,0.000000,1647150909.302857,0.000000
29.000000,-13892.816173,7136.040287,300.139225,30597.101819,26734.675674,36600.400400,12323.321381,14673.428497,-0.136000,0.942000,0.204000,192.000000,0.000000,0.000000,0.000000,0.000000,0.000000,0.000000,0.000000,0.000000,0.000000,1647150909.310180,0.000000
30.000000,-13891.855048,7138.275461,300.206280,30603.293252,26733.155755,36595.751237,12318.314590,14670.701584,-0.136000,0.942000,0.204000,192.000000,0.000000,0.000000,0.000000,0.000000,0.000000,0.000000,0.000000,0.000000,0.000000,1647150909.316419,0.000000
31.000000,-13897.375929,7134.073333,293.567812,30603.762639,26746.164470,36596.466493,12322.717884,14666.052421,-0.136000,0.942000,0.204000,192.000000,0.000000,0.000000,0.000000,0.000000,0.000000,0.000000,0.000000,0.000000,0.000000,1647150909.316423,0.000000
32.000000,-13901.354540,7132.084028,287.443434,30599.918139,26749.807805,36595.483016,12328.238765,14665.314813,-0.136000,0.942000,0.204000,192.000000,0.000000,0.000000,0.000000,0.000000,0.000000,0.000000,0.000000,0.000000,0.000000,1647150909.324066,0.000000
33.000000,-13900.371063,7132.128731,284.560059,30598.822903,26740.576534,36589.582156,12327.679971,14669.136962,-0.136000,0.942000,0.204000,192.000000,0.000000,0.000000,0.000000,0.000000,0.000000,0.000000,0.000000,0.000000,0.000000,1647150909.324069,0.000000
34.000000,-13893.777298,7136.084990,294.461881,30604.008508,26729.020682,36594.499540,12334.988992,14685.565494,-0.136000,0.942000,0.204000,192.000000,0.000000,0.000000,0.000000,0.000000,0.000000,0.000000,0.000000,0.000000,0.000000,1647150909.332077,0.000000
35.000000,-13887.317644,7142.388182,299.692190,30610.490514,26724.416223,36599.953365,12335.190157,14691.667520,-0.136000,0.942000,0.204000,192.000000,0.000000,0.000000,0.000000,0.000000,0.000000,0.000000,0.000000,0.000000,0.000000,1647150909.332081,0.000000
36.000000,-13888.144659,7145.338612,299.759245,30617.553665,26743.392854,36604.133142,12327.322343,14679.195247,-0.136000,0.942000,0.204000,192.000000,0.000000,0.000000,0.000000,0.000000,0.000000,0.000000,0.000000,0.000000,0.000000,1647150909.340020,0.000000
37.000000,-13898.135888,7133.469836,289.678608,30612.077488,26761.073084,36598.656964,12318.582811,14664.532502,-0.136000,0.942000,0.204000,192.000000,0.000000,0.000000,0.000000,0.000000,0.000000,0.000000,0.000000,0.000000,0.000000,1647150909.340024,0.000000
38.000000,-13886.222409,7143.729287,294.551288,30612.904502,26734.161584,36597.405266,12327.009419,14672.802648,-0.138000,0.950000,0.194000,192.000000,251.000000,176.000000,29.000000,176.000000,6.000000,16.000000,0.000000,0.000000,0.000000,1647150909.346649,0.000000
39.000000,-13884.009586,7149.674851,292.003190,30611.049308,26726.338473,36596.511197,12324.729541,14668.578168,-0.138000,0.950000,0.194000,192.000000,0.000000,0.000000,0.000000,0.000000,0.000000,0.000000,0.000000,0.000000,0.000000,1647150909.346652,0.000000
40.000000,-13883.339034,7144.846874,291.913783,30605.863703,26728.685406,36598.791075,12323.991933,14672.266206,-0.138000,0.950000,0.194000,192.000000,0.000000,0.000000,0.000000,0.000000,0.000000,0.000000,0.000000,0.000000,0.000000,1647150909.356076,0.000000
41.000000,-13887.719975,7132.553414,290.773844,30602.510941,26739.838927,36604.960156,12331.256250,14684.067927,-0.138000,0.950000,0.194000,192.000000,0.000000,0.000000,0.000000,0.000000,0.000000,0.000000,0.000000,0.000000,0.000000,1647150909.356081,0.000000
42.000000,-13895.163106,7120.885804,288.069283,30597.750020,26737.290828,36604.110790,12326.249460,14668.533464,-0.138000,0.950000,0.194000,192.000000,0.000000,0.000000,0.000000,0.000000,0.000000,0.000000,0.000000,0.000000,0.000000,1647150909.362319,0.000000
43.000000,-13895.431327,7121.556356,285.789405,30594.352555,26735.100357,36600.109828,12317.107596,14658.810456,-0.138000,0.950000,0.194000,192.000000,0.000000,0.000000,0.000000,0.000000,0.000000,0.000000,0.000000,0.000000,0.000000,1647150909.362323,0.000000
44.000000,-13887.921141,7129.535929,288.583373,30595.380735,26723.432746,36596.466493,12322.203794,14666.722973,-0.138000,0.950000,0.194000,192.000000,0.000000,0.000000,0.000000,0.000000,0.000000,0.000000,0.000000,0.000000,0.000000,1647150909.368594,0.000000
45.000000,-13889.977502,7127.926603,285.968219,30594.531369,26726.025549,36597.181749,12318.783977,14668.645223,-0.138000,0.950000,0.194000,192.000000,0.000000,0.000000,0.000000,0.000000,0.000000,0.000000,0.000000,0.000000,0.000000,1647150909.376909,0.000000
46.000000,-13892.950284,7126.898423,286.728178,30594.576072,26736.553220,36594.991278,12312.592544,14665.471276,-0.138000,0.950000,0.194000,192.000000,0.000000,0.000000,0.000000,0.000000,0.000000,0.000000,0.000000,0.000000,0.000000,1647150909.376913,0.000000
47.000000,-13896.057176,7121.377542,282.928381,30595.023107,26748.243183,36594.007801,12312.145509,14661.760886,-0.138000,0.950000,0.194000,192.000000,0.000000,0.000000,0.000000,0.000000,0.000000,0.000000,0.000000,0.000000,0.000000,1647150909.387185,0.000000
48.000000,-13901.488650,7116.415455,273.317131,30587.110589,26746.119767,36587.570499,12307.071663,14658.564586,-0.140000,0.958000,0.198000,192.000000,251.000000,160.000000,29.000000,240.000000,6.000000,48.000000,0.000000,0.000000,0.000000,1647150909.387189,0.000000
49.000000,-13895.096051,7124.752656,278.860364,30587.982307,26722.918656,36586.654077,12313.218393,14662.990232,-0.140000,0.958000,0.198000,192.000000,0.000000,0.000000,0.000000,0.000000,0.000000,0.000000,0.000000,0.000000,0.000000,1647150909.393553,0.000000
50.000000,-13883.361385,7130.452350,285.789405,30594.687831,26716.615464,36591.414999,12322.270849,14671.975633,-0.140000,0.958000,0.198000,192.000000,0.000000,0.000000,0.000000,0.000000,0.000000,0.000000,0.000000,0.000000,0.000000,1647150909.393556,0.000000
51.000000,-13878.064022,7135.302679,294.730102,30601.661575,26721.331682,36599.729848,12331.725637,14679.798744,-0.140000,0.958000,0.198000,192.000000,0.000000,0.000000,0.000000,0.000000,0.000000,0.000000,0.000000,0.000000,0.000000,1647150909.399892,0.000000
52.000000,-13882.869647,7132.173435,291.846727,30598.264110,26721.868124,36602.702630,12339.481692,14684.134982,-0.140000,0.958000,0.198000,192.000000,0.000000,0.000000,0.000000,0.000000,0.000000,0.000000,0.000000,0.000000,0.000000,1647150909.399897,0.000000
53.000000,-13892.860877,7124.976173,282.414291,30589.904557,26715.967264,36599.707496,12326.651791,14678.792915,-0.140000,0.958000,0.198000,192.000000,0.000000,0.000000,0.000000,0.000000,0.000000,0.000000,0.000000,0.000000,0.000000,1647150909.406941,0.000000
54.000000,-13893.374967,7122.450426,288.024579,30588.272880,26715.408470,36599.148703,12319.745102,14668.667575,-0.140000,0.958000,0.198000,192.000000,0.000000,0.000000,0.000000,0.000000,0.000000,0.000000,0.000000,0.000000,0.000000,1647150909.406975,0.000000
55.000000,-13900.236952,7116.817786,279.732082,30587.490569,26742.834061,36597.315859,12306.289352,14658.519883,-0.140000,0.958000,0.198000,192.000000,0.000000,0.000000,0.000000,0.000000,0.000000,0.000000,0.000000,0.000000,0.000000,1647150909.414145,0.000000
56.000000,-13881.237970,7136.219101,289.835070,30598.264110,26734.474508,36597.181749,12321.175614,14672.623834,-0.140000,0.958000,0.198000,192.000000,0.000000,0.000000,0.000000,0.000000,0.000000,0.000000,0.000000,0.000000,0.000000,1647150909.414148,0.000000
57.000000,-13879.718051,7140.130656,289.589201,30604.522598,26732.194630,36601.406229,12332.709114,14683.755002,-0.140000,0.958000,0.198000,192.000000,0.000000,0.000000,0.000000,0.000000,0.000000,0.000000,0.000000,0.000000,0.000000,1647150909.421590,0.000000
58.000000,-13886.289464,7133.089856,284.113024,30599.672270,26732.686369,36599.483979,12320.348599,14667.460581,-0.128000,0.952000,0.198000,192.000000,252.000000,0.000000,29.000000,192.000000,6.000000,48.000000,0.000000,0.000000,0.000000,1647150909.421594,0.000000
59.000000,-13891.408013,7126.361981,281.095538,30590.753924,26723.723319,36593.426656,12310.469128,14657.312889,-0.128000,0.952000,0.198000,192.000000,0.000000,0.000000,0.000000,0.000000,0.000000,0.000000,0.000000,0.000000,0.000000,1647150909.428591,0.000000
60.000000,-13881.841467,7131.100551,280.335579,30590.910386,26727.634874,36591.325592,12308.256305,14658.363421,-0.128000,0.952000,0.198000,192.000000,0.000000,0.000000,0.000000,0.000000,0.000000,0.000000,0.000000,0.000000,0.000000,1647150909.437950,0.000000
61.000000,-13886.624740,7136.040287,283.822451,30596.654784,26741.649418,36596.533548,12312.123157,14664.331337,-0.128000,0.952000,0.198000,192.000000,0.000000,0.000000,0.000000,0.000000,0.000000,0.000000,0.000000,0.000000,0.000000,1647150909.437954,0.000000
62.000000,-13890.983330,7132.911042,286.571716,30598.554683,26744.666904,36599.595737,12320.505061,14662.163217,-0.128000,0.952000,0.198000,192.000000,0.000000,0.000000,0.000000,0.000000,0.000000,0.000000,0.000000,0.000000,0.000000,1647150909.444737,0.000000
63.000000,-13891.832696,7133.089856,280.447338,30591.737401,26732.507555,36597.360563,12318.247535,14653.334278,-0.128000,0.952000,0.198000,192.000000,0.000000,0.000000,0.000000,0.000000,0.000000,0.000000,0.000000,0.000000,0.000000,1647150909.444741,0.000000
64.000000,-13890.469240,7131.636993,287.532841,30589.569281,26725.086775,36596.868825,12315.364160,14653.535444,-0.128000,0.952000,0.198000,192.000000,0.000000,0.000000,0.000000,0.000000,0.000000,0.000000,0.000000,0.000000,0.000000,1647150909.451888,0.000000
65.000000,-13888.323473,7129.468874,293.567812,30592.810284,26736.374406,36598.008764,12315.788843,14654.094238,-0.128000,0.952000,0.198000,192.000000,0.000000,0.000000,0.000000,0.000000,0.000000,0.000000,0.000000,0.000000,0.000000,1647150909.451892,0.000000
66.000000,-13889.396356,7128.395990,290.572678,30591.804456,26741.738825,36592.420827,12315.833547,14644.773560,-0.128000,0.952000,0.198000,192.000000,0.000000,0.000000,0.000000,0.000000,0.000000,0.000000,0.000000,0.000000,0.000000,1647150909.460578,0.000000
67.000000,-13889.731632,7129.491225,288.985704,30593.369078,26742.387026,36587.257574,12310.983218,14643.767732,-0.128000,0.952000,0.198000,192.000000,0.000000,0.000000,0.000000,0.000000,0.000000,0.000000,0.000000,0.000000,0.000000,1647150909.460588,0.000000
68.000000,-13882.780240,7134.028630,293.277239,30598.822903,26733.155755,36590.051543,12314.157166,14642.694848,-0.128000,0.954000,0.188000,192.000000,252.000000,0.000000,29.000000,208.000000,5.000000,224.000000,0.000000,0.000000,0.000000,1647150909.467793,0.000000
69.000000,-13876.991138,7138.677792,297.144091,30607.450677,26721.197572,36597.137046,12325.288335,14654.764790,-0.128000,0.954000,0.188000,192.000000,0.000000,0.000000,0.000000,0.000000,0.000000,0.000000,0.000000,0.000000,0.000000,1647150909.467796,0.000000
70.000000,-13875.359461,7141.382353,296.473538,30611.161066,26733.155755,36597.941708,12325.824776,14656.150598,-0.128000,0.954000,0.188000,192.000000,0.000000,0.000000,0.000000,0.000000,0.000000,0.000000,0.000000,0.000000,0.000000,1647150909.474037,0.000000
71.000000,-13881.349728,7139.594214,291.377341,30607.674194,26747.505575,36594.834816,12320.259192,14648.193377,-0.128000,0.954000,0.188000,192.000000,0.000000,0.000000,0.000000,0.000000,0.000000,0.000000,0.000000,0.000000,0.000000,1647150909.474041,0.000000
72.000000,-13885.037766,7132.508711,288.382207,30600.499284,26747.460872,36585.871766,12314.559497,14642.985421,-0.128000,0.954000,0.188000,192.000000,0.000000,0.000000,0.000000,0.000000,0.000000,0.000000,0.000000,0.000000,0.000000,1647150909.481875,0.000000
73.000000,-13883.204923,7131.301717,290.818547,30598.867607,26728.193668,36581.982563,12319.856861,14651.680249,-0.128000,0.954000,0.188000,192.000000,0.000000,0.000000,0.000000,0.000000,0.000000,0.000000,0.000000,0.000000,0.000000,1647150909.481879,0.000000
74.000000,-13877.706394,7138.118999,294.171309,30603.986156,26719.610598,36588.129293,12327.769378,14657.201130,-0.128000,0.954000,0.188000,192.000000,0.000000,0.000000,0.000000,0.000000,0.000000,0.000000,0.000000,0.000000,0.000000,1647150909.488893,0.000000
75.000000,-13882.668481,7134.296850,293.947791,30606.333090,26737.179069,36593.247842,12324.886003,14652.484912,-0.128000,0.954000,0.188000,192.000000,0.000000,0.000000,0.000000,0.000000,0.000000,0.000000,0.000000,0.000000,0.000000,1647150909.495995,0.000000
76.000000,-13888.167010,7128.507749,283.889506,30602.287424,26743.370502,36585.737656,12315.341808,14641.890185,-0.128000,0.954000,0.188000,192.000000,0.000000,0.000000,0.000000,0.000000,0.000000,0.000000,0.000000,0.000000,0.000000,1647150909.496000,0.000000
77.000000,-13885.149525,7129.960612,284.493003,30600.834560,26736.843793,36587.145816,12322.717884,14655.971784,-0.128000,0.954000,0.188000,192.000000,0.000000,0.000000,0.000000,0.000000,0.000000,0.000000,0.000000,0.000000,0.000000,1647150909.503520,0.000000
78.000000,-13885.462449,7132.799284,289.388035,30599.426401,26723.097470,36587.168167,12319.812157,14659.168084,-0.136000,0.962000,0.190000,192.000000,251.000000,192.000000,30.000000,16.000000,5.000000,240.000000,0.000000,0.000000,0.000000,1647150909.503524,0.000000
79.000000,-13893.643188,7122.338667,281.207297,30590.262185,26732.105223,36585.089455,12315.230050,14652.797836,-0.136000,0.962000,0.190000,192.000000,0.000000,0.000000,0.000000,0.000000,0.000000,0.000000,0.000000,0.000000,0.000000,1647150909.512140,0.000000
80.000000,-13890.759813,7122.115150,278.435681,30588.563453,26736.597924,36583.167205,12320.415654,14650.830883,-0.136000,0.962000,0.190000,192.000000,0.000000,0.000000,0.000000,0.000000,0.000000,0.000000,0.000000,0.000000,0.000000,1647150909.512144,0.000000
81.000000,-13885.171877,7128.530100,290.930306,30595.403087,26745.002180,36585.961173,12326.003590,14650.830883,-0.136000,0.962000,0.190000,192.000000,0.000000,0.000000,0.000000,0.000000,0.000000,0.000000,0.000000,0.000000,0.000000,1647150909.519520,0.000000
82.000000,-13889.061080,7123.456254,287.935172,30592.922043,26744.108110,36579.725037,12323.880175,14646.271127,-0.136000,0.962000,0.190000,192.000000,0.000000,0.000000,0.000000,0.000000,0.000000,0.000000,0.000000,0.000000,0.000000,1647150909.519523,0.000000
83.000000,-13878.622815,7131.078199,294.752454,30598.442924,26730.406491,36579.434464,12322.762587,14648.796874,-0.136000,0.962000,0.190000,192.000000,0.000000,0.000000,0.000000,0.000000,0.000000,0.000000,0.000000,0.000000,0.000000,1647150909.527539,0.000000
84.000000,-13876.320586,7138.498978,298.038161,30603.986156,26724.975017,36583.904813,12326.383570,14655.234177,-0.136000,0.962000,0.190000,192.000000,0.000000,0.000000,0.000000,0.000000,0.000000,0.000000,0.000000,0.000000,0.000000,1647150909.527542,0.000000
85.000000,-13887.787031,7127.725438,287.734006,30601.013374,26738.587229,36577.243993,12321.868518,14646.718162,-0.136000,0.962000,0.190000,192.000000,0.000000,0.000000,0.000000,0.000000,0.000000,0.000000,0.000000,0.000000,0.000000,1647150909.535889,0.000000
86.000000,-13881.573246,7132.508711,294.797158,30604.991985,26738.497822,36580.730865,12326.897660,14656.016488,-0.136000,0.962000,0.190000,192.000000,0.000000,0.000000,0.000000,0.000000,0.000000,0.000000,0.000000,0.000000,0.000000,1647150909.535899,0.000000
87.000000,-13879.181609,7132.955746,296.808815,30602.510941,26735.994427,36584.642420,12330.742160,14666.030069,-0.136000,0.962000,0.190000,192.000000,0.000000,0.000000,0.000000,0.000000,0.000000,0.000000,0.000000,0.000000,0.000000,1647150909.544011,0.000000
88.000000,-13874.755964,7139.080124,298.485195,30605.260206,26719.856467,36587.481092,12333.044390,14665.135999,-0.138000,0.954000,0.194000,192.000000,251.000000,176.000000,29.000000,208.000000,6.000000,16.000000,0.000000,0.000000,0.000000,1647150909.544045,0.000000
89.000000,-13876.812324,7141.181188,298.507547,30609.127058,26716.570761,36590.655040,12327.657619,14663.884302,-0.138000,0.954000,0.194000,192.000000,0.000000,0.000000,0.000000,0.000000,0.000000,0.000000,0.000000,0.000000,0.000000,1647150909.551121,0.000000
90.000000,-13884.300159,7133.514539,295.512413,30605.260206,26728.752462,36590.520929,12328.238765,14658.899863,-0.138000,0.954000,0.194000,192.000000,0.000000,0.000000,0.000000,0.000000,0.000000,0.000000,0.000000,0.000000,0.000000,1647150909.551138,0.000000
91.000000,-13883.048461,7132.843987,295.735931,30602.533293,26737.290828,36587.704609,12328.082303,14659.525711,-0.138000,0.954000,0.194000,192.000000,0.000000,0.000000,0.000000,0.000000,0.000000,0.000000,0.000000,0.000000,0.000000,1647150909.557306,0.000000
92.000000,-13878.064022,7138.543682,299.133396,30605.707241,26725.958493,36585.804711,12330.362181,14659.995098,-0.138000,0.954000,0.194000,192.000000,0.000000,0.000000,0.000000,0.000000,0.000000,0.000000,0.000000,0.000000,0.000000,1647150909.564179,0.000000
93.000000,-13889.061080,7130.184129,287.555192,30602.600348,26729.512421,36581.848452,12315.990009,14646.606403,-0.138000,0.954000,0.194000,192.000000,0.000000,0.000000,0.000000,0.000000,0.000000,0.000000,0.000000,0.000000,0.000000,1647150909.564196,0.000000
94.000000,-13881.752060,7133.134560,296.808815,30604.366136,26731.769947,36583.793054,12318.672218,14650.875586,-0.138000,0.954000,0.194000,192.000000,0.000000,0.000000,0.000000,0.000000,0.000000,0.000000,0.000000,0.000000,0.000000,1647150909.579832,0.000000
95.000000,-13877.326414,7137.336688,302.933193,30610.065831,26742.431729,36588.285755,12327.568212,14657.558758,-0.138000,0.954000,0.194000,192.000000,0.000000,0.000000,0.000000,0.000000,0.000000,0.000000,0.000000,0.000000,0.000000,1647150909.579849,0.000000
96.000000,-13869.168028,7145.338612,305.101312,30615.989043,26740.375369,36591.236185,12332.843224,14668.958148,-0.138000,0.954000,0.194000,192.000000,0.000000,0.000000,0.000000,0.000000,0.000000,0.000000,0.000000,0.000000,0.000000,1647150909.589367,0.000000
97.000000,-13874.107763,7138.767199,296.071207,30610.736383,26739.011912,36589.403342,12325.176576,14661.135037,-0.138000,0.954000,0.194000,192.000000,0.000000,0.000000,0.000000,0.000000,0.000000,0.000000,0.000000,0.000000,0.000000,1647150909.595853,0.000000
98.000000,-13868.989214,7143.952804,308.856405,30611.965729,26719.565895,36594.007801,12337.827663,14664.756020,-0.138000,0.954000,0.194000,192.000000,0.000000,0.000000,0.000000,0.000000,0.000000,0.000000,0.000000,0.000000,0.000000,1647150909.595869,0.000000
99.000000,-13866.038783,7151.910025,312.231518,30621.308758,26712.905075,36600.802732,12341.918032,14668.220540,-0.136000,0.958000,0.190000,192.000000,251.000000,192.000000,29.000000,240.000000,5.000000,240.000000,0.000000,0.000000,0.000000,1647150909.601981,0.000000
100.000000,-13876.007661,7140.063601,305.838919,30618.179514,26726.450232,36599.282813,12334.474901,14657.715220,-0.136000,0.958000,0.190000,192.000000,0.000000,0.000000,0.000000,0.000000,0.000000,0.000000,0.000000,0.000000,0.000000,1647150909.601997,0.000000
101.000000,-13879.807458,7135.302679,303.514338,30612.233950,26745.180994,36598.008764,12328.194061,14648.014563,-0.136000,0.958000,0.190000,192.000000,0.000000,0.000000,0.000000,0.000000,0.000000,0.000000,0.000000,0.000000,0.000000,1647150909.608011,0.000000
102.000000,-13874.599501,7138.990717,303.849614,30609.954072,26739.414244,36598.209929,12337.157111,14656.776447,-0.136000,0.958000,0.190000,192.000000,0.000000,0.000000,0.000000,0.000000,0.000000,0.000000,0.000000,0.000000,0.000000,1647150909.608028,0.000000
103.000000,-13872.766658,7136.755542,306.062437,30611.831619,26732.507555,36601.719153,12340.845149,14660.240967,-0.136000,0.958000,0.190000,192.000000,0.000000,0.000000,0.000000,0.000000,0.000000,0.000000,0.000000,0.000000,0.000000,1647150909.614371,0.000000
104.000000,-13883.428441,7131.391124,293.768977,30606.333090,26743.772834,36592.756104,12327.791730,14646.494644,-0.136000,0.958000,0.190000,192.000000,0.000000,0.000000,0.000000,0.000000,0.000000,0.000000,0.000000,0.000000,0.000000,1647150909.614388,0.000000
105.000000,-13878.064022,7133.536891,297.971105,30604.522598,26736.799090,36585.827063,12331.658582,14647.612232,-0.136000,0.958000,0.190000,192.000000,0.000000,0.000000,0.000000,0.000000,0.000000,0.000000,0.000000,0.000000,0.000000,1647150909.620655,0.000000
106.000000,-13889.306949,7123.188033,291.422044,30600.991023,26755.172223,36584.687124,12317.375817,14641.376095,-0.136000,0.958000,0.190000,192.000000,0.000000,0.000000,0.000000,0.000000,0.000000,0.000000,0.000000,0.000000,0.000000,1647150909.620671,0.000000
107.000000,-13889.172839,7125.713781,290.282105,30600.633395,26752.333552,36580.708513,12323.343733,14643.767732,-0.136000,0.958000,0.190000,192.000000,0.000000,0.000000,0.000000,0.000000,0.000000,0.000000,0.000000,0.000000,0.000000,1647150909.626900,0.000000
108.000000,-13880.522714,7132.709877,295.579469,30605.506075,26738.631933,36585.357676,12335.480730,14656.664688,-0.136000,0.958000,0.190000,192.000000,0.000000,0.000000,0.000000,0.000000,0.000000,0.000000,0.000000,0.000000,0.000000,1647150909.626916,0.000000
109.000000,-13878.555760,7131.681696,296.674704,30609.372927,26733.155755,36588.643383,12334.787826,14656.217653,-0.146000,0.952000,0.192000,192.000000,251.000000,112.000000,29.000000,192.000000,6.000000,0.000000,0.000000,0.000000,0.000000,1647150909.632878,0.000000
110.000000,-13883.584903,7127.434865,291.690265,30604.164970,26746.969133,36581.714342,12325.333038,14642.985421,-0.146000,0.952000,0.192000,192.000000,0.000000,0.000000,0.000000,0.000000,0.000000,0.000000,0.000000,0.000000,0.000000,1647150909.632894,0.000000
111.000000,-13883.227275,7132.486359,295.311248,30605.371965,26743.325799,36583.010743,12334.810178,14651.590842,-0.146000,0.952000,0.192000,192.000000,0.000000,0.000000,0.000000,0.000000,0.000000,0.000000,0.000000,0.000000,0.000000,1647150909.639331,0.000000
112.000000,-13888.099955,7128.664211,288.203393,30601.639223,26740.621238,36584.798883,12336.575965,14656.150598,-0.146000,0.952000,0.192000,192.000000,0.000000,0.000000,0.000000,0.000000,0.000000,0.000000,0.000000,0.000000,0.000000,1647150909.645549,0.000000
113.000000,-13892.011510,7125.937298,275.842878,30596.252453,26732.820479,36581.647287,12334.430198,14649.087447,-0.146000,0.952000,0.192000,192.000000,0.000000,0.000000,0.000000,0.000000,0.000000,0.000000,0.000000,0.000000,0.000000,1647150909.645564,0.000000
114.000000,-13889.485763,7124.529138,287.085806,30601.393354,26727.411357,36581.714342,12332.709114,14648.707467,-0.146000,0.952000,0.192000,192.000000,0.000000,0.000000,0.000000,0.000000,0.000000,0.000000,0.000000,0.000000,0.000000,1647150909.651637,0.000000
115.000000,-13883.741365,7126.965478,301.837957,30607.048345,26723.320988,36580.663810,12332.105617,14645.488816,-0.146000,0.952000,0.192000,192.000000,0.000000,0.000000,0.000000,0.000000,0.000000,0.000000,0.000000,0.000000,0.000000,1647150909.651654,0.000000
116.000000,-13875.426516,7132.642821,308.096446,30610.602273,26712.882723,36583.457778,12334.720771,14646.651107,-0.146000,0.952000,0.192000,192.000000,0.000000,0.000000,0.000000,0.000000,0.000000,0.000000,0.000000,0.000000,0.000000,1647150909.659437,0.000000
117.000000,-13885.283635,7128.217176,301.569736,30607.897712,26728.461889,36585.692952,12328.238765,14641.264336,-0.146000,0.952000,0.192000,192.000000,0.000000,0.000000,0.000000,0.000000,0.000000,0.000000,0.000000,0.000000,0.000000,1647150909.659453,0.000000
118.000000,-13884.367214,7133.246318,301.994419,30608.992947,26732.574610,36582.675467,12327.076474,14641.733723,-0.146000,0.952000,0.192000,192.000000,0.000000,0.000000,0.000000,0.000000,0.000000,0.000000,0.000000,0.000000,0.000000,1647150909.667379,0.000000
119.000000,-13891.408013,7130.742923,292.807852,30606.310738,26725.645569,36576.349923,12325.467148,14644.482987,-0.142000,0.952000,0.186000,192.000000,251.000000,144.000000,29.000000,192.000000,5.000000,208.000000,0.000000,0.000000,0.000000,1647150909.667395,0.000000
120.000000,-13891.653882,7128.820673,292.316114,30606.444848,26732.529906,36577.668676,12330.138663,14643.611269,-0.142000,0.952000,0.186000,192.000000,0.000000,0.000000,0.000000,0.000000,0.000000,0.000000,0.000000,0.000000,0.000000,1647150909.675413,0.000000
121.000000,-13884.233103,7133.961574,297.769940,30609.954072,26743.459909,36580.730865,12327.411750,14634.111778,-0.142000,0.952000,0.186000,192.000000,0.000000,0.000000,0.000000,0.000000,0.000000,0.000000,0.000000,0.000000,0.000000,1647150909.675429,0.000000
122.000000,-13886.803554,7132.843987,293.992495,30608.232988,26738.520174,36571.924278,12319.365122,14625.484005,-0.142000,0.952000,0.186000,192.000000,0.000000,0.000000,0.000000,0.000000,0.000000,0.000000,0.000000,0.000000,0.000000,1647150909.682529,0.000000
123.000000,-13890.044557,7126.585499,290.058588,30604.321433,26730.406491,36568.705627,12318.001666,14633.530633,-0.142000,0.952000,0.186000,192.000000,0.000000,0.000000,0.000000,0.000000,0.000000,0.000000,0.000000,0.000000,0.000000,1647150909.682546,0.000000
124.000000,-13884.993063,7131.502882,294.439530,30600.476933,26705.774868,36568.258592,12328.216413,14636.704580,-0.142000,0.952000,0.186000,192.000000,0.000000,0.000000,0.000000,0.000000,0.000000,0.000000,0.000000,0.000000,0.000000,1647150909.692849,0.000000
125.000000,-13891.206848,7127.926603,294.014847,30600.409877,26711.966301,36572.684237,12325.176576,14634.782330,-0.142000,0.952000,0.186000,192.000000,0.000000,0.000000,0.000000,0.000000,0.000000,0.000000,0.000000,0.000000,0.000000,1647150909.692864,0.000000
126.000000,-13894.000816,7121.042266,294.193661,30596.923005,26730.384139,36569.599696,12317.979314,14623.651162,-0.142000,0.952000,0.186000,192.000000,0.000000,0.000000,0.000000,0.000000,0.000000,0.000000,0.000000,0.000000,0.000000,1647150909.699069,0.000000
127.000000,-13892.838525,7121.265783,291.377341,30596.364212,26728.595999,36570.672580,12321.153262,14627.987400,-0.142000,0.952000,0.186000,192.000000,0.000000,0.000000,0.000000,0.000000,0.000000,0.000000,0.000000,0.000000,0.000000,1647150909.705720,0.000000
128.000000,-13890.804516,7124.707952,290.818547,30598.264110,26724.326816,36573.220679,12328.194061,14629.730836,-0.142000,0.952000,0.186000,192.000000,0.000000,0.000000,0.000000,0.000000,0.000000,0.000000,0.000000,0.000000,0.000000,1647150909.705736,0.000000
129.000000,-13887.228237,7127.725438,299.200451,30602.175665,26718.135383,36579.635630,12335.033695,14637.241022,-0.140000,0.954000,0.190000,192.000000,251.000000,160.000000,29.000000,208.000000,5.000000,240.000000,0.000000,0.000000,0.000000,1647150909.711851,0.000000
130.000000,-13896.504211,7118.449464,291.042065,30598.599386,26744.286924,36576.506385,12322.248497,14625.171080,-0.140000,0.954000,0.190000,192.000000,0.000000,0.000000,0.000000,0.000000,0.000000,0.000000,0.000000,0.000000,0.000000,1647150909.711867,0.000000
131.000000,-13895.677196,7117.756560,287.734006,30596.364212,26750.612468,36572.483071,12331.189195,14624.835804,-0.140000,0.954000,0.190000,192.000000,0.000000,0.000000,0.000000,0.000000,0.000000,0.000000,0.000000,0.000000,0.000000,1647150909.719715,0.000000
132.000000,-13894.447851,7119.991734,289.343332,30598.957014,26745.426863,36573.243031,12335.458378,14634.827034,-0.140000,0.954000,0.190000,192.000000,0.000000,0.000000,0.000000,0.000000,0.000000,0.000000,0.000000,0.000000,0.000000,1647150909.719731,0.000000
133.000000,-13894.045519,7117.935374,281.207297,30597.951185,26739.682465,36569.152661,12327.747026,14627.942697,-0.140000,0.954000,0.190000,192.000000,0.000000,0.000000,0.000000,0.000000,0.000000,0.000000,0.000000,0.000000,0.000000,1647150909.726708,0.000000
134.000000,-13890.446888,7121.936336,291.444396,30600.231063,26726.673749,36571.946630,12327.635268,14632.256583,-0.140000,0.954000,0.190000,192.000000,0.000000,0.000000,0.000000,0.000000,0.000000,0.000000,0.000000,0.000000,0.000000,1647150909.726724,0.000000
135.000000,-13875.046536,7126.563147,299.133396,30601.706279,26734.228639,36575.813481,12327.635268,14636.324601,-0.140000,0.954000,0.190000,192.000000,0.000000,0.000000,0.000000,0.000000,0.000000,0.000000,0.000000,0.000000,0.000000,1647150909.734309,0.000000
136.000000,-13883.383737,7133.425132,302.217937,30606.310738,26735.614447,36578.875670,12330.429236,14638.604479,-0.140000,0.954000,0.190000,192.000000,0.000000,0.000000,0.000000,0.000000,0.000000,0.000000,0.000000,0.000000,0.000000,1647150909.734325,0.000000
137.000000,-13880.343900,7140.309470,309.191681,30613.686814,26736.866145,36583.278964,12331.658582,14640.236156,-0.140000,0.954000,0.190000,192.000000,0.000000,0.000000,0.000000,0.000000,0.000000,0.000000,0.000000,0.000000,0.000000,1647150909.742356,0.000000
138.000000,-13880.701528,7143.639880,309.012867,30613.508000,26726.539639,36583.860109,12332.195024,14635.721104,-0.140000,0.954000,0.190000,192.000000,0.000000,0.000000,0.000000,0.000000,0.000000,0.000000,0.000000,0.000000,0.000000,1647150909.742372,0.000000
139.000000,-13887.295292,7136.263804,304.207242,30612.815096,26732.440499,36585.245917,12335.011343,14636.995153,-0.140000,0.958000,0.192000,192.000000,251.000000,160.000000,29.000000,240.000000,6.000000,0.000000,0.000000,0.000000,0.000000,1647150909.750327,0.000000
140.000000,-13889.977502,7129.737095,301.256812,30608.300043,26737.849622,36583.055447,12332.575003,14640.638487,-0.140000,0.958000,0.192000,192.000000,0.000000,0.000000,0.000000,0.000000,0.000000,0.000000,0.000000,0.000000,0.000000,1647150909.750343,0.000000
141.000000,-13893.218505,7123.366847,295.802986,30600.700450,26744.599848,36579.657981,12324.796596,14636.905746,-0.140000,0.958000,0.192000,192.000000,0.000000,0.000000,0.000000,0.000000,0.000000,0.000000,0.000000,0.000000,0.000000,1647150909.757310,0.000000
142.000000,-13888.479935,7127.211347,299.043989,30601.259244,26745.583325,36582.764874,12329.624573,14636.123435,-0.140000,0.958000,0.192000,192.000000,0.000000,0.000000,0.000000,0.000000,0.000000,0.000000,0.000000,0.000000,0.000000,1647150909.765418,0.000000
143.000000,-13887.630568,7130.429999,297.680533,30603.405011,26746.566802,36584.173034,12328.842262,14642.001944,-0.140000,0.958000,0.192000,192.000000,0.000000,0.000000,0.000000,0.000000,0.000000,0.000000,0.000000,0.000000,0.000000,1647150909.765435,0.000000
144.000000,-13890.469240,7124.015048,295.892393,30600.678098,26744.555145,36582.228432,12327.478805,14643.298345,-0.140000,0.958000,0.192000,192.000000,0.000000,0.000000,0.000000,0.000000,0.000000,0.000000,0.000000,0.000000,0.000000,1647150909.774850,0.000000
145.000000,-13895.833659,7116.996600,292.785501,30600.074601,26752.355904,36580.060313,12327.188233,14632.904784,-0.140000,0.958000,0.192000,192.000000,0.000000,0.000000,0.000000,0.000000,0.000000,0.000000,0.000000,0.000000,0.000000,1647150909.774866,0.000000
146.000000,-13890.782164,7122.070446,297.166443,30602.980328,26751.752407,36579.903851,12328.842262,14630.311981,-0.140000,0.958000,0.192000,192.000000,0.000000,0.000000,0.000000,0.000000,0.000000,0.000000,0.000000,0.000000,0.000000,1647150909.782317,0.000000
147.000000,-13892.100917,7123.970345,291.757320,30599.292290,26753.562898,36574.807653,12328.350524,14623.606458,-0.140000,0.958000,0.192000,192.000000,0.000000,0.000000,0.000000,0.000000,0.000000,0.000000,0.000000,0.000000,0.000000,1647150909.782332,0.000000
148.000000,-13882.869647,7134.140388,301.905012,30602.376831,26731.769947,36577.199289,12337.023000,14637.241022,-0.140000,0.958000,0.192000,192.000000,0.000000,0.000000,0.000000,0.000000,0.000000,0.000000,0.000000,0.000000,0.000000,1647150909.788472,0.000000
149.000000,-13886.714147,7132.575766,302.441454,30606.511904,26726.830211,36579.501519,12323.924878,14633.150653,-0.140000,0.954000,0.188000,192.000000,251.000000,160.000000,29.000000,208.000000,5.000000,224.000000,0.000000,0.000000,0.000000,1647150909.788488,0.000000
150.000000,-13889.351653,7130.988792,300.429797,30607.294215,26743.370502,36581.334362,12339.928727,14646.785217,-0.140000,0.954000,0.188000,192.000000,0.000000,0.000000,0.000000,0.000000,0.000000,0.000000,0.000000,0.000000,0.000000,1647150909.795025,0.000000
151.000000,-13895.900714,7120.125844,293.232536,30598.554683,26757.407398,36578.495691,12334.899585,14638.380961,-0.140000,0.954000,0.188000,192.000000,0.000000,0.000000,0.000000,0.000000,0.000000,0.000000,0.000000,0.000000,0.000000,1647150909.795042,0.000000
152.000000,-13888.524638,7126.049057,295.959448,30596.073639,26736.888497,36574.584135,12337.604146,14639.252679,-0.140000,0.954000,0.188000,192.000000,0.000000,0.000000,0.000000,0.000000,0.000000,0.000000,0.000000,0.000000,0.000000,1647150909.802653,0.000000
153.000000,-13881.595597,7136.643784,309.906937,30607.651843,26732.664017,36587.771665,12342.700343,14643.879490,-0.140000,0.954000,0.188000,192.000000,0.000000,0.000000,0.000000,0.000000,0.000000,0.000000,0.000000,0.000000,0.000000,1647150909.802670,0.000000
154.000000,-13891.720938,7126.451388,298.932230,30603.360308,26741.224735,36582.161377,12333.603183,14629.619077,-0.140000,0.954000,0.188000,192.000000,0.000000,0.000000,0.000000,0.000000,0.000000,0.000000,0.000000,0.000000,0.000000,1647150909.810631,0.000000
155.000000,-13895.028996,7125.199690,292.740797,30604.164970,26737.961380,36574.047693,12332.016210,14627.182737,-0.140000,0.954000,0.188000,192.000000,0.000000,0.000000,0.000000,0.000000,0.000000,0.000000,0.000000,0.000000,0.000000,1647150909.810647,0.000000
156.000000,-13894.604313,7122.673943,291.489099,30606.355441,26765.208157,36576.707551,12330.585698,14626.668647,-0.140000,0.954000,0.188000,192.000000,0.000000,0.000000,0.000000,0.000000,0.000000,0.000000,0.000000,0.000000,0.000000,1647150909.816822,0.000000
157.000000,-13892.547952,7125.579670,296.093559,30603.047383,26761.274250,36573.868880,12335.637192,14631.496624,-0.140000,0.954000,0.188000,192.000000,0.000000,0.000000,0.000000,0.000000,0.000000,0.000000,0.000000,0.000000,0.000000,1647150909.816837,0.000000
158.000000,-13894.939589,7124.104455,291.489099,30599.627566,26746.835023,36572.192499,12330.988029,14634.335295,-0.140000,0.954000,0.188000,192.000000,0.000000,0.000000,0.000000,0.000000,0.000000,0.000000,0.000000,0.000000,0.000000,1647150909.824247,0.000000
159.000000,-13889.664577,7127.814845,295.154786,30601.750982,26727.947799,36573.108920,12334.005515,14635.832862,-0.136000,0.958000,0.184000,192.000000,251.000000,192.000000,29.000000,240.000000,5.000000,192.000000,0.000000,0.000000,0.000000,1647150909.832253,0.000000
160.000000,-13889.306949,7125.892595,295.288896,30605.640186,26745.449215,36579.970906,12335.570137,14635.341124,-0.136000,0.958000,0.184000,192.000000,0.000000,0.000000,0.000000,0.000000,0.000000,0.000000,0.000000,0.000000,0.000000,1647150909.832269,0.000000
161.000000,-13891.765641,7122.115150,291.310285,30601.393354,26759.597869,36578.719208,12336.888890,14637.956278,-0.136000,0.958000,0.184000,192.000000,0.000000,0.000000,0.000000,0.000000,0.000000,0.000000,0.000000,0.000000,0.000000,1647150909.840066,0.000000
162.000000,-13904.550839,7113.889708,280.760262,30594.397258,26771.779570,36573.779473,12330.295125,14626.668647,-0.136000,0.958000,0.184000,192.000000,0.000000,0.000000,0.000000,0.000000,0.000000,0.000000,0.000000,0.000000,0.000000,1647150909.840082,0.000000
163.000000,-13902.829755,7118.158891,277.653370,30597.660613,26769.544395,36569.778510,12334.497253,14637.799816,-0.136000,0.958000,0.184000,192.000000,0.000000,0.000000,0.000000,0.000000,0.000000,0.000000,0.000000,0.000000,0.000000,1647150909.848199,0.000000
164.000000,-13894.336092,7120.706990,283.844803,30602.421534,26751.551241,36571.790167,12344.823759,14646.673458,-0.136000,0.958000,0.184000,192.000000,0.000000,0.000000,0.000000,0.000000,0.000000,0.000000,0.000000,0.000000,0.000000,1647150909.848211,0.000000
165.000000,-13892.369138,7128.507749,290.147995,30607.696546,26739.101319,36576.573441,12353.429181,14639.565604,-0.136000,0.958000,0.184000,192.000000,0.000000,0.000000,0.000000,0.000000,0.000000,0.000000,0.000000,0.000000,0.000000,1647150909.856368,0.000000
166.000000,-13891.475069,7128.172472,295.355951,30608.054174,26753.473491,36581.379066,12349.115294,14636.391656,-0.136000,0.958000,0.184000,192.000000,0.000000,0.000000,0.000000,0.000000,0.000000,0.000000,0.000000,0.000000,0.000000,1647150909.856384,0.000000
167.000000,-13897.174763,7120.729342,290.103291,30601.594520,26753.674657,36576.819310,12346.455437,14633.709447,-0.136000,0.958000,0.184000,192.000000,0.000000,0.000000,0.000000,0.000000,0.000000,0.000000,0.000000,0.000000,0.000000,1647150909.863298,0.000000
168.000000,-13899.253476,7117.957725,288.516317,30597.347688,26736.642627,36576.685199,12353.429181,14640.526729,-0.136000,0.958000,0.184000,192.000000,0.000000,0.000000,0.000000,0.000000,0.000000,0.000000,0.000000,0.000000,0.000000,1647150909.863312,0.000000
169.000000,-13897.666502,7115.566089,295.020675,30597.392392,26729.870049,36583.301316,12353.429181,14647.120493,-0.142000,0.960000,0.186000,192.000000,251.000000,144.000000,30.000000,0.000000,5.000000,208.000000,0.000000,0.000000,0.000000,1647150909.872350,0.000000
170.000000,-13898.113537,7115.096702,293.009018,30595.783066,26736.732034,36581.289659,12347.684782,14650.674421,-0.142000,0.960000,0.186000,192.000000,0.000000,0.000000,0.000000,0.000000,0.000000,0.000000,0.000000,0.000000,0.000000,1647150909.872366,0.000000
171.000000,-13895.498383,7115.364923,289.589201,30599.091124,26744.510441,36579.613278,12336.486558,14648.841578,-0.142000,0.960000,0.186000,192.000000,0.000000,0.000000,0.000000,0.000000,0.000000,0.000000,0.000000,0.000000,0.000000,1647150909.878695,0.000000
172.000000,-13892.100917,7118.628278,296.361780,30605.148447,26744.264572,36578.875670,12347.193044,14667.594691,-0.142000,0.960000,0.186000,192.000000,0.000000,0.000000,0.000000,0.000000,0.000000,0.000000,0.000000,0.000000,0.000000,1647150909.878711,0.000000
173.000000,-13890.871571,7120.863452,305.168367,30612.435116,26743.102281,36584.463606,12347.349506,14674.993119,-0.142000,0.960000,0.186000,192.000000,0.000000,0.000000,0.000000,0.000000,0.000000,0.000000,0.000000,0.000000,0.000000,1647150909.884974,0.000000
174.000000,-13891.318606,7118.650629,300.228632,30608.098877,26742.655247,36579.456816,12340.196948,14671.707412,-0.142000,0.960000,0.186000,192.000000,0.000000,0.000000,0.000000,0.000000,0.000000,0.000000,0.000000,0.000000,0.000000,1647150909.891664,0.000000
175.000000,-13884.702490,7124.707952,304.743684,30609.037651,26740.867107,36579.300353,12340.755742,14676.937720,-0.142000,0.960000,0.186000,192.000000,0.000000,0.000000,0.000000,0.000000,0.000000,0.000000,0.000000,0.000000,0.000000,1647150909.891681,0.000000
176.000000,-13893.620836,7120.684638,301.614440,30611.339880,26761.251898,36581.490824,12332.172672,14673.763773,-0.142000,0.960000,0.186000,192.000000,0.000000,0.000000,0.000000,0.000000,0.000000,0.000000,0.000000,0.000000,0.000000,1647150909.900527,0.000000
177.000000,-13891.028034,7121.064618,302.664972,30611.094011,26766.839834,36580.552051,12330.764512,14678.636453,-0.142000,0.960000,0.186000,192.000000,0.000000,0.000000,0.000000,0.000000,0.000000,0.000000,0.000000,0.000000,0.000000,1647150909.900543,0.000000
178.000000,-13884.993063,7125.020877,304.341353,30609.104706,26746.298581,36577.579269,12335.547785,14683.285616,-0.142000,0.960000,0.186000,192.000000,0.000000,0.000000,0.000000,0.000000,0.000000,0.000000,0.000000,0.000000,0.000000,1647150909.907052,0.000000
179.000000,-13891.586827,7119.209423,293.545460,30604.656709,26746.589154,36573.667714,12324.886003,14676.311872,-0.144000,0.954000,0.190000,192.000000,251.000000,128.000000,29.000000,208.000000,5.000000,240.000000,0.000000,0.000000,0.000000,1647150909.907069,0.000000
180.000000,-13893.933760,7114.493205,292.986666,30600.566340,26750.947744,36576.416978,12323.097864,14676.066002,-0.144000,0.954000,0.190000,192.000000,0.000000,0.000000,0.000000,0.000000,0.000000,0.000000,0.000000,0.000000,0.000000,1647150909.915458,0.000000
181.000000,-13886.557685,7121.109321,302.217937,30602.868569,26756.736846,36584.173034,12332.597355,14682.056270,-0.144000,0.954000,0.190000,192.000000,0.000000,0.000000,0.000000,0.000000,0.000000,0.000000,0.000000,0.000000,0.000000,1647150909.915468,0.000000
182.000000,-13885.171877,7124.171510,301.122701,30605.662537,26751.215965,36584.016572,12332.440893,14679.910502,-0.144000,0.954000,0.190000,192.000000,0.000000,0.000000,0.000000,0.000000,0.000000,0.000000,0.000000,0.000000,0.000000,1647150909.923382,0.000000
183.000000,-13879.740403,7127.345458,311.225690,30613.262130,26749.204308,36593.359601,12335.816006,14693.120383,-0.144000,0.954000,0.190000,192.000000,0.000000,0.000000,0.000000,0.000000,0.000000,0.000000,0.000000,0.000000,0.000000,1647150909.923388,0.000000
184.000000,-13884.858952,7124.417379,302.821434,30609.663500,26747.080892,36593.158435,12332.306782,14694.305026,-0.144000,0.954000,0.190000,192.000000,0.000000,0.000000,0.000000,0.000000,0.000000,0.000000,0.000000,0.000000,0.000000,1647150909.931192,0.000000
185.000000,-13885.775374,7122.070446,308.811701,30610.289348,26754.099340,36594.231319,12336.710076,14697.970712,-0.144000,0.954000,0.190000,192.000000,0.000000,0.000000,0.000000,0.000000,0.000000,0.000000,0.000000,0.000000,0.000000,1647150909.931208,0.000000
186.000000,-13874.890074,7131.681696,321.105161,30614.625587,26745.829194,36600.333345,12344.577890,14695.355558,-0.144000,0.954000,0.190000,192.000000,0.000000,0.000000,0.000000,0.000000,0.000000,0.000000,0.000000,0.000000,0.000000,1647150909.939220,0.000000
187.000000,-13879.963920,7133.335725,314.153768,30616.324319,26750.947744,36603.082610,12341.135721,14693.500363,-0.144000,0.954000,0.190000,192.000000,0.000000,0.000000,0.000000,0.000000,0.000000,0.000000,0.000000,0.000000,0.000000,1647150909.939236,0.000000
188.000000,-13891.229199,7120.103493,296.585297,30603.963805,26757.116825,36597.427618,12327.121178,14676.155409,-0.144000,0.954000,0.190000,192.000000,0.000000,0.000000,0.000000,0.000000,0.000000,0.000000,0.000000,0.000000,0.000000,1647150909.945401,0.000000
189.000000,-13888.815211,7124.998525,293.321942,30601.281595,26747.393816,36596.578252,12324.818948,14677.384755,-0.144000,0.954000,0.190000,192.000000,0.000000,0.000000,0.000000,0.000000,0.000000,0.000000,0.000000,0.000000,0.000000,1647150909.951693,0.000000
190.000000,-13879.852161,7135.705010,306.442416,30611.339880,26744.488090,36602.657926,12331.636230,14685.632549,-0.148000,0.948000,0.192000,192.000000,251.000000,96.000000,29.000000,160.000000,6.000000,0.000000,0.000000,0.000000,0.000000,1647150909.951709,0.000000
191.000000,-13888.904618,7124.417379,301.033294,30613.038613,26765.722247,36608.379973,12329.736332,14689.186476,-0.148000,0.948000,0.192000,192.000000,0.000000,0.000000,0.000000,0.000000,0.000000,0.000000,0.000000,0.000000,0.000000,1647150909.959462,0.000000
192.000000,-13894.336092,7118.762388,295.177137,30604.589654,26775.221738,36601.406229,12321.197965,14680.916331,-0.148000,0.948000,0.192000,192.000000,0.000000,0.000000,0.000000,0.000000,0.000000,0.000000,0.000000,0.000000,0.000000,1647150909.959479,0.000000
193.000000,-13884.546028,7127.233699,304.386056,30608.389450,26753.629953,36600.065124,12328.127006,14688.962959,-0.148000,0.948000,0.192000,192.000000,0.000000,0.000000,0.000000,0.000000,0.000000,0.000000,0.000000,0.000000,0.000000,1647150909.967432,0.000000
194.000000,-13882.042632,7127.837196,306.844748,30609.238816,26734.139232,36597.025287,12330.071608,14687.867723,-0.148000,0.948000,0.192000,192.000000,0.000000,0.000000,0.000000,0.000000,0.000000,0.000000,0.000000,0.000000,0.000000,1647150909.967448,0.000000
195.000000,-13880.455658,7127.814845,306.442416,30613.485648,26756.088645,36602.121485,12328.261117,14685.654901,-0.148000,0.948000,0.192000,192.000000,0.000000,0.000000,0.000000,0.000000,0.000000,0.000000,0.000000,0.000000,0.000000,1647150909.974565,0.000000
196.000000,-13883.227275,7126.317278,299.423969,30610.065831,26768.091532,36600.847435,12329.289297,14687.465392,-0.148000,0.948000,0.192000,192.000000,0.000000,0.000000,0.000000,0.000000,0.000000,0.000000,0.000000,0.000000,0.000000,1647150909.974582,0.000000
197.000000,-13876.052365,7129.602984,302.173233,30609.015299,26747.438520,36604.803694,12336.687724,14697.031939,-0.148000,0.948000,0.192000,192.000000,0.000000,0.000000,0.000000,0.000000,0.000000,0.000000,0.000000,0.000000,0.000000,1647150909.982036,0.000000
198.000000,-13874.957129,7132.396952,305.101312,30613.083316,26741.537659,36608.648194,12334.541957,14701.994026,-0.148000,0.948000,0.192000,192.000000,0.000000,0.000000,0.000000,0.000000,0.000000,0.000000,0.000000,0.000000,0.000000,1647150909.982052,0.000000
199.000000,-13875.538275,7136.688487,307.895280,30616.704299,26734.563915,36609.206988,12335.145454,14706.084395,-0.148000,0.948000,0.192000,192.000000,0.000000,0.000000,0.000000,0.000000,0.000000,0.000000,0.000000,0.000000,0.000000,1647150909.990085,0.000000
200.000000,-13877.125249,7140.845912,305.414236,30620.101764,26737.134366,36608.223511,12331.323306,14701.301122,-0.144000,0.948000,0.190000,192.000000,251.000000,128.000000,29.000000,160.000000,5.000000,240.000000,0.000000,0.000000,0.000000,1647150909.990101,0.000000
201.000000,-13871.961996,7145.562130,311.873890,30624.013319,26739.682465,36609.385801,12338.475864,14708.520735,-0.144000,0.948000,0.190000,192.000000,0.000000,0.000000,0.000000,0.000000,0.000000,0.000000,0.000000,0.000000,0.000000,1647150909.998015,0.000000
202.000000,-13879.159257,7137.873130,305.347181,30617.732479,26753.004104,36605.027211,12325.891832,14692.092203,-0.144000,0.948000,0.190000,192.000000,0.000000,0.000000,0.000000,0.000000,0.000000,0.000000,0.000000,0.000000,0.000000,1647150909.998031,0.000000
203.000000,-13885.842429,7128.820673,295.266544,30607.718898,26755.306334,36598.276984,12313.084282,14677.898845,-0.144000,0.948000,0.190000,192.000000,0.000000,0.000000,0.000000,0.000000,0.000000,0.000000,0.000000,0.000000,0.000000,1647150910.004805,0.000000
204.000000,-13879.472182,7131.636993,301.323867,30607.249511,26736.061482,36599.618089,12322.494366,14686.057232,-0.144000,0.948000,0.190000,192.000000,0.000000,0.000000,0.000000,0.000000,0.000000,0.000000,0.000000,0.000000,0.000000,1647150910.013046,0.000000
205.000000,-13877.438173,7132.352249,303.737855,30612.748040,26741.247087,36605.362487,12321.868518,14686.951302,-0.144000,0.948000,0.190000,192.000000,0.000000,0.000000,0.000000,0.000000,0.000000,0.000000,0.000000,0.000000,0.000000,1647150910.013062,0.000000
206.000000,-13872.051403,7136.442618,308.185853,30615.743174,26745.449215,36610.302223,12324.707189,14694.394433,-0.144000,0.948000,0.190000,192.000000,0.000000,0.000000,0.000000,0.000000,0.000000,0.000000,0.000000,0.000000,0.000000,1647150910.021260,0.000000
207.000000,-13873.548969,7136.040287,303.603745,30613.440944,26740.643590,36606.256557,12322.159090,14682.816229,-0.144000,0.948000,0.190000,192.000000,0.000000,0.000000,0.000000,0.000000,0.000000,0.000000,0.000000,0.000000,0.000000,1647150910.021276,0.000000
208.000000,-13878.533408,7132.464007,296.294724,30609.507037,26728.372482,36600.154531,12320.527413,14681.385718,-0.144000,0.948000,0.190000,192.000000,0.000000,0.000000,0.000000,0.000000,0.000000,0.000000,0.000000,0.000000,0.000000,1647150910.027261,0.000000
209.000000,-13871.649071,7137.783723,308.588184,30615.474953,26724.684444,36607.374144,12332.753817,14695.534372,-0.144000,0.948000,0.190000,192.000000,0.000000,0.000000,0.000000,0.000000,0.000000,0.000000,0.000000,0.000000,0.000000,1647150910.027276,0.000000
210.000000,-13871.604368,7140.845912,309.594012,30619.028880,26728.506592,36608.491732,12333.357314,14699.088299,-0.142000,0.958000,0.192000,192.000000,251.000000,144.000000,29.000000,240.000000,6.000000,0.000000,0.000000,0.000000,0.000000,1647150910.037230,0.000000
211.000000,-13869.860932,7141.136484,308.364667,30621.062889,26734.698026,36609.519912,12330.630401,14695.601427,-0.142000,0.958000,0.192000,192.000000,0.000000,0.000000,0.000000,0.000000,0.000000,0.000000,0.000000,0.000000,0.000000,1647150910.037247,0.000000
212.000000,-13872.140810,7135.280327,303.268469,30617.441907,26741.224735,36607.128275,12325.042465,14684.492610,-0.142000,0.958000,0.192000,192.000000,0.000000,0.000000,0.000000,0.000000,0.000000,0.000000,0.000000,0.000000,0.000000,1647150910.043388,0.000000
213.000000,-13874.711260,7133.380429,299.759245,30616.257264,26738.587229,36604.289604,12320.929744,14677.742383,-0.142000,0.958000,0.192000,192.000000,0.000000,0.000000,0.000000,0.000000,0.000000,0.000000,0.000000,0.000000,0.000000,1647150910.043405,0.000000
214.000000,-13878.891036,7128.172472,299.043989,30614.044441,26734.452156,36600.623918,12313.866593,14669.204017,-0.142000,0.958000,0.192000,192.000000,0.000000,0.000000,0.000000,0.000000,0.000000,0.000000,0.000000,0.000000,0.000000,1647150910.049472,0.000000
215.000000,-13881.461487,7124.573842,298.261678,30614.245607,26748.958439,36600.534511,12312.704302,14673.763773,-0.142000,0.958000,0.192000,192.000000,0.000000,0.000000,0.000000,0.000000,0.000000,0.000000,0.000000,0.000000,0.000000,1647150910.049489,0.000000
216.000000,-13872.230217,7131.949917,306.867100,30618.134811,26747.617334,36599.662793,12319.834509,14678.591750,-0.142000,0.958000,0.192000,192.000000,0.000000,0.000000,0.000000,0.000000,0.000000,0.000000,0.000000,0.000000,0.000000,1647150910.056798,0.000000
217.000000,-13867.715164,7135.526196,305.973030,30620.973482,26742.364674,36598.724019,12323.366085,14682.235084,-0.142000,0.958000,0.192000,192.000000,0.000000,0.000000,0.000000,0.000000,0.000000,0.000000,0.000000,0.000000,0.000000,1647150910.056814,0.000000
218.000000,-13871.514961,7131.480531,298.641658,30614.513828,26743.661075,36593.225490,12318.314590,14678.345880,-0.142000,0.958000,0.192000,192.000000,0.000000,0.000000,0.000000,0.000000,0.000000,0.000000,0.000000,0.000000,0.000000,1647150910.063984,0.000000
219.000000,-13875.001833,7128.619507,295.802986,30608.121229,26733.267514,36585.245917,12312.816061,14671.483895,-0.142000,0.958000,0.192000,192.000000,0.000000,0.000000,0.000000,0.000000,0.000000,0.000000,0.000000,0.000000,0.000000,1647150910.064000,0.000000
220.000000,-13875.046536,7128.731266,295.981800,30608.277691,26746.298581,36589.582156,12314.671256,14674.613139,-0.134000,0.956000,0.192000,192.000000,251.000000,208.000000,29.000000,224.000000,6.000000,0.000000,0.000000,0.000000,0.000000,1647150910.071801,0.000000
221.000000,-13879.069850,7125.244394,295.177137,30607.942415,26761.363657,36591.794979,12315.453567,14674.993119,-0.134000,0.956000,0.192000,192.000000,0.000000,0.000000,0.000000,0.000000,0.000000,0.000000,0.000000,0.000000,0.000000,1647150910.079764,0.000000
222.000000,-13888.725804,7117.108359,287.398730,30599.895787,26761.341305,36587.972830,12313.643076,14669.181665,-0.134000,0.956000,0.192000,192.000000,0.000000,0.000000,0.000000,0.000000,0.000000,0.000000,0.000000,0.000000,0.000000,1647150910.079780,0.000000
223.000000,-13885.529504,7120.908156,287.219916,30598.308813,26738.877802,36586.050580,12321.019151,14670.142790,-0.134000,0.956000,0.192000,192.000000,0.000000,0.000000,0.000000,0.000000,0.000000,0.000000,0.000000,0.000000,0.000000,1647150910.087971,0.000000
224.000000,-13879.136906,7127.211347,296.518242,30603.293252,26718.291845,36588.039886,12324.170747,14675.887188,-0.134000,0.956000,0.192000,192.000000,0.000000,0.000000,0.000000,0.000000,0.000000,0.000000,0.000000,0.000000,0.000000,1647150910.087987,0.000000
225.000000,-13883.808420,7124.931470,294.819509,30605.550779,26732.485203,36591.124426,12320.393302,14669.360479,-0.134000,0.956000,0.192000,192.000000,0.000000,0.000000,0.000000,0.000000,0.000000,0.000000,0.000000,0.000000,0.000000,1647150910.096016,0.000000
226.000000,-13884.501324,7124.506786,292.785501,30607.718898,26740.464776,36593.247842,12323.924878,14662.967880,-0.134000,0.956000,0.192000,192.000000,0.000000,0.000000,0.000000,0.000000,0.000000,0.000000,0.000000,0.000000,0.000000,1647150910.096032,0.000000
227.000000,-13892.547952,7120.438769,279.016826,30599.694622,26731.479374,36585.625897,12319.812157,14657.603461,-0.134000,0.956000,0.192000,192.000000,0.000000,0.000000,0.000000,0.000000,0.000000,0.000000,0.000000,0.000000,0.000000,1647150910.104010,0.000000
228.000000,-13884.367214,7124.819711,290.975009,30602.063906,26711.407508,36586.587022,12324.908355,14656.240005,-0.134000,0.956000,0.192000,192.000000,0.000000,0.000000,0.000000,0.000000,0.000000,0.000000,0.000000,0.000000,0.000000,1647150910.104021,0.000000
229.000000,-13894.112574,7108.525289,292.785501,30602.130962,26718.202438,36587.659906,12319.231012,14649.087447,-0.134000,0.956000,0.192000,192.000000,0.000000,0.000000,0.000000,0.000000,0.000000,0.000000,0.000000,0.000000,0.000000,1647150910.110295,0.000000
230.000000,-13887.384699,7111.296905,293.657219,30607.316566,26729.423014,36590.006839,12323.500195,14654.787142,-0.140000,0.952000,0.196000,192.000000,251.000000,160.000000,29.000000,192.000000,6.000000,32.000000,0.000000,0.000000,0.000000,1647150910.110311,0.000000
231.000000,-13875.337109,7123.657420,304.609573,30616.167857,26727.634874,36592.644345,12330.049256,14662.900825,-0.140000,0.952000,0.196000,192.000000,0.000000,0.000000,0.000000,0.000000,0.000000,0.000000,0.000000,0.000000,0.000000,1647150910.117237,0.000000
232.000000,-13873.526618,7130.295888,308.096446,30619.520619,26722.873953,36593.292545,12328.484634,14663.750191,-0.140000,0.952000,0.196000,192.000000,0.000000,0.000000,0.000000,0.000000,0.000000,0.000000,0.000000,0.000000,0.000000,1647150910.117253,0.000000
233.000000,-13878.064022,7129.982964,307.627059,30619.051232,26714.201476,36591.549109,12329.624573,14666.968842,-0.140000,0.952000,0.196000,192.000000,0.000000,0.000000,0.000000,0.000000,0.000000,0.000000,0.000000,0.000000,0.000000,1647150910.127230,0.000000
234.000000,-13881.126211,7123.903289,305.973030,30621.599331,26725.600866,36593.471359,12323.813119,14667.885264,-0.140000,0.952000,0.196000,192.000000,0.000000,0.000000,0.000000,0.000000,0.000000,0.000000,0.000000,0.000000,0.000000,1647150910.127246,0.000000
235.000000,-13888.234066,7118.471815,294.484233,30613.172723,26731.948761,36583.189557,12315.922954,14659.525711,-0.140000,0.952000,0.196000,192.000000,0.000000,0.000000,0.000000,0.000000,0.000000,0.000000,0.000000,0.000000,0.000000,1647150910.133586,0.000000
236.000000,-13882.422612,7130.854682,298.306382,30618.313625,26730.406491,36583.949516,12320.102730,14665.404220,-0.140000,0.952000,0.196000,192.000000,0.000000,0.000000,0.000000,0.000000,0.000000,0.000000,0.000000,0.000000,0.000000,1647150910.139896,0.000000
237.000000,-13875.202999,7138.364868,302.173233,30620.012357,26722.203400,36581.155548,12318.560459,14659.302194,-0.140000,0.952000,0.196000,192.000000,0.000000,0.000000,0.000000,0.000000,0.000000,0.000000,0.000000,0.000000,0.000000,1647150910.139930,0.000000
238.000000,-13875.851199,7131.167606,304.117835,30620.012357,26715.542581,36581.557880,12320.482709,14663.593729,-0.140000,0.952000,0.196000,192.000000,0.000000,0.000000,0.000000,0.000000,0.000000,0.000000,0.000000,0.000000,0.000000,1647150910.146685,0.000000
239.000000,-13880.992100,7119.947031,303.022600,30616.123154,26728.573648,36587.101112,12320.393302,14667.974671,-0.140000,0.952000,0.196000,192.000000,0.000000,0.000000,0.000000,0.000000,0.000000,0.000000,0.000000,0.000000,0.000000,1647150910.146697,0.000000
240.000000,-13880.679176,7113.867356,300.250983,30609.507037,26731.524078,36585.625897,12318.292239,14660.084505,-0.144000,0.954000,0.190000,192.000000,251.000000,128.000000,29.000000,208.000000,5.000000,240.000000,0.000000,0.000000,0.000000,1647150910.155308,0.000000
241.000000,-13877.102897,7116.817786,305.034257,30613.686814,26739.391892,36588.486920,12316.705265,14655.748267,-0.144000,0.954000,0.190000,192.000000,0.000000,0.000000,0.000000,0.000000,0.000000,0.000000,0.000000,0.000000,0.000000,1647150910.155317,0.000000
242.000000,-13877.885208,7120.215251,301.525033,30611.585750,26736.843793,36583.748351,12314.760663,14653.535444,-0.144000,0.954000,0.190000,192.000000,0.000000,0.000000,0.000000,0.000000,0.000000,0.000000,0.000000,0.000000,0.000000,1647150910.162988,0.000000
243.000000,-13876.745269,7124.037400,302.128530,30613.798572,26726.070252,36586.296449,12325.534204,14662.833770,-0.144000,0.954000,0.190000,192.000000,0.000000,0.000000,0.000000,0.000000,0.000000,0.000000,0.000000,0.000000,0.000000,1647150910.163005,0.000000
244.000000,-13877.616987,7121.399894,302.329696,30612.837447,26726.830211,36586.117636,12324.662486,14660.308023,-0.144000,0.954000,0.190000,192.000000,0.000000,0.000000,0.000000,0.000000,0.000000,0.000000,0.000000,0.000000,0.000000,1647150910.170959,0.000000
245.000000,-13879.472182,7121.399894,299.647486,30613.239779,26731.859354,36583.949516,12325.713018,14667.907616,-0.144000,0.954000,0.190000,192.000000,0.000000,0.000000,0.000000,0.000000,0.000000,0.000000,0.000000,0.000000,0.000000,1647150910.170975,0.000000
246.000000,-13875.337109,7121.958688,304.050780,30616.436078,26742.431729,36587.816368,12320.527413,14668.824037,-0.144000,0.954000,0.190000,192.000000,0.000000,0.000000,0.000000,0.000000,0.000000,0.000000,0.000000,0.000000,0.000000,1647150910.178932,0.000000
247.000000,-13878.823981,7116.393103,301.770902,30614.379718,26742.521136,36587.235223,12317.778148,14668.108781,-0.144000,0.954000,0.190000,192.000000,0.000000,0.000000,0.000000,0.000000,0.000000,0.000000,0.000000,0.000000,0.000000,1647150910.178948,0.000000
248.000000,-13870.889112,7126.429036,307.381190,30618.291273,26727.277246,36585.245917,12325.288335,14668.466409,-0.144000,0.954000,0.190000,192.000000,0.000000,0.000000,0.000000,0.000000,0.000000,0.000000,0.000000,0.000000,0.000000,1647150910.187000,0.000000
249.000000,-13863.937719,7135.705010,317.417123,30630.025939,26713.173296,36593.158435,12328.663448,14674.836656,-0.144000,0.954000,0.190000,192.000000,0.000000,0.000000,0.000000,0.000000,0.000000,0.000000,0.000000,0.000000,0.000000,1647150910.187016,0.000000
250.000000,-13874.890074,7129.223004,305.928326,30626.226142,26733.200459,36589.783322,12310.804404,14657.648165,-0.150000,0.960000,0.192000,192.000000,251.000000,80.000000,30.000000,0.000000,6.000000,0.000000,0.000000,0.000000,0.000000,1647150910.193079,0.000000
251.000000,-13874.264225,7132.978098,301.256812,30624.661520,26736.553220,36582.675467,12310.647942,14658.363421,-0.150000,0.960000,0.192000,192.000000,0.000000,0.000000,0.000000,0.000000,0.000000,0.000000,0.000000,0.000000,0.000000,1647150910.200879,0.000000
252.000000,-13862.373097,7137.448446,313.036181,30630.227104,26722.538677,36586.072932,12322.360256,14667.684098,-0.150000,0.960000,0.192000,192.000000,0.000000,0.000000,0.000000,0.000000,0.000000,0.000000,0.000000,0.000000,0.000000,1647150910.200887,0.000000
253.000000,-13865.055307,7137.224929,315.472521,30628.684834,26723.544505,36587.928127,12317.442872,14660.486836,-0.150000,0.960000,0.192000,192.000000,0.000000,0.000000,0.000000,0.000000,0.000000,0.000000,0.000000,0.000000,0.000000,1647150910.206911,0.000000
254.000000,-13869.905635,7137.135522,309.191681,30623.521581,26737.782566,36588.039886,12313.754834,14660.352726,-0.150000,0.960000,0.192000,192.000000,0.000000,0.000000,0.000000,0.000000,0.000000,0.000000,0.000000,0.000000,0.000000,1647150910.206915,0.000000
255.000000,-13863.580091,7141.494112,314.444341,30627.455488,26743.862241,36589.783322,12318.314590,14662.610252,-0.150000,0.960000,0.192000,192.000000,0.000000,0.000000,0.000000,0.000000,0.000000,0.000000,0.000000,0.000000,0.000000,1647150910.213851,0.000000
0.000000,-13858.707411,7144.489246,318.735876,30632.127003,26744.979828,36589.850377,12317.331113,14656.508226,-0.150000,0.960000,0.192000,192.000000,0.000000,0.000000,0.000000,0.000000,0.000000,0.000000,0.000000,0.000000,0.000000,1647150910.213868,0.000000
1.000000,-13864.898844,7143.058734,310.890414,30629.668311,26736.664979,36588.442217,12320.013323,14655.055363,-0.150000,0.960000,0.192000,192.000000,0.000000,0.000000,0.000000,0.000000,0.000000,0.000000,0.000000,0.000000,0.000000,1647150910.221795,0.000000
2.000000,-13871.872589,7135.749714,303.491986,30625.220314,26737.559049,36585.849415,12317.219355,14658.184607,-0.150000,0.960000,0.192000,192.000000,0.000000,0.000000,0.000000,0.000000,0.000000,0.000000,0.000000,0.000000,0.000000,1647150910.221810,0.000000
3.000000,-13874.688908,7131.659345,303.603745,30620.995834,26732.909886,36582.720170,12312.860765,14649.154502,-0.150000,0.960000,0.192000,192.000000,0.000000,0.000000,0.000000,0.000000,0.000000,0.000000,0.000000,0.000000,0.000000,1647150910.236858,0.000000
4.000000,-13869.235083,7133.536891,308.632887,30628.662482,26748.019665,36590.789150,12322.695532,14655.368287,-0.148000,0.950000,0.194000,192.000000,251.000000,96.000000,29.000000,176.000000,6.000000,16.000000,0.000000,0.000000,0.000000,1647150910.236875,0.000000
5.000000,-13873.057231,7128.664211,305.637754,30626.896695,26763.107093,36590.431522,12321.399131,14655.502397,-0.148000,0.950000,0.194000,192.000000,0.000000,0.000000,0.000000,0.000000,0.000000,0.000000,0.000000,0.000000,0.000000,1647150910.248512,0.000000
6.000000,-13873.034879,7131.547586,302.128530,30622.828677,26747.572630,36588.822197,12322.270849,14658.966918,-0.148000,0.950000,0.194000,192.000000,0.000000,0.000000,0.000000,0.000000,0.000000,0.000000,0.000000,0.000000,0.000000,1647150910.254715,0.000000
7.000000,-13876.812324,7132.866339,297.345256,30619.677081,26729.087738,36587.436388,12324.796596,14676.803610,-0.148000,0.950000,0.194000,192.000000,0.000000,0.000000,0.000000,0.000000,0.000000,0.000000,0.000000,0.000000,0.000000,1647150910.254732,0.000000
8.000000,-13882.444964,7129.021839,295.557117,30617.576017,26744.175165,36585.737656,12322.583773,14663.437267,-0.148000,0.950000,0.194000,192.000000,0.000000,0.000000,0.000000,0.000000,0.000000,0.000000,0.000000,0.000000,0.000000,1647150910.260937,0.000000
9.000000,-13878.891036,7133.402781,298.485195,30620.168819,26761.140139,36588.241051,12326.137701,14651.859063,-0.148000,0.950000,0.194000,192.000000,0.000000,0.000000,0.000000,0.000000,0.000000,0.000000,0.000000,0.000000,0.000000,1647150910.260950,0.000000
10.000000,-13878.779278,7130.050019,295.937097,30622.202828,26771.064314,36586.542319,12330.339829,14660.531540,-0.148000,0.950000,0.194000,192.000000,0.000000,0.000000,0.000000,0.000000,0.000000,0.000000,0.000000,0.000000,0.000000,1647150910.267567,0.000000
11.000000,-13877.795801,7129.737095,295.735931,30617.866590,26753.987581,36582.541356,12329.803387,14656.217653,-0.148000,0.950000,0.194000,192.000000,0.000000,0.000000,0.000000,0.000000,0.000000,0.000000,0.000000,0.000000,0.000000,1647150910.267583,0.000000
12.000000,-13879.673347,7127.457217,290.349160,30613.910331,26731.591133,36581.826101,12327.389399,14658.475179,-0.148000,0.950000,0.194000,192.000000,0.000000,0.000000,0.000000,0.000000,0.000000,0.000000,0.000000,0.000000,0.000000,1647150910.273932,0.000000
13.000000,-13883.361385,7125.669077,295.981800,30615.452601,26732.216982,36586.899947,12331.792692,14665.270110,-0.148000,0.950000,0.194000,192.000000,0.000000,0.000000,0.000000,0.000000,0.000000,0.000000,0.000000,0.000000,0.000000,1647150910.273948,0.000000
14.000000,-13889.396356,7121.891632,290.550326,30612.904502,26752.288848,36587.548147,12327.858785,14650.853235,-0.148000,0.950000,0.194000,192.000000,251.000000,96.000000,29.000000,176.000000,6.000000,16.000000,0.000000,0.000000,0.000000,1647150910.280261,0.000000
15.000000,-13884.724842,7125.378504,292.673742,30615.340843,26760.022552,36586.385856,12329.736332,14646.874624,-0.148000,0.950000,0.194000,192.000000,0.000000,0.000000,0.000000,0.000000,0.000000,0.000000,0.000000,0.000000,0.000000,1647150910.280277,0.000000
16.000000,-13877.996967,7129.737095,298.127568,30618.805363,26750.679523,36589.358638,12338.900547,14658.832807,-0.148000,0.950000,0.194000,192.000000,0.000000,0.000000,0.000000,0.000000,0.000000,0.000000,0.000000,0.000000,0.000000,1647150910.286584,0.000000
17.000000,-13875.113592,7132.843987,303.290821,30618.961825,26732.194630,36594.857168,12344.153207,14664.308985,-0.148000,0.950000,0.194000,192.000000,0.000000,0.000000,0.000000,0.000000,0.000000,0.000000,0.000000,0.000000,0.000000,1647150910.286600,0.000000
18.000000,-13884.009586,7127.703086,295.668876,30616.436078,26739.347188,36594.097208,12335.391323,14654.720086,-0.148000,0.950000,0.194000,192.000000,0.000000,0.000000,0.000000,0.000000,0.000000,0.000000,0.000000,0.000000,0.000000,1647150910.293069,0.000000
19.000000,-13893.173801,7118.203594,284.649466,30608.568264,26752.691180,36584.508310,12329.311649,14642.583089,-0.148000,0.950000,0.194000,192.000000,0.000000,0.000000,0.000000,0.000000,0.000000,0.000000,0.000000,0.000000,0.000000,1647150910.293085,0.000000
20.000000,-13892.033862,7119.120016,284.716521,30604.634357,26762.905927,36586.072932,12335.547785,14651.657897,-0.148000,0.950000,0.194000,192.000000,0.000000,0.000000,0.000000,0.000000,0.000000,0.000000,0.000000,0.000000,0.000000,1647150910.299303,0.000000
21.000000,-13888.390528,7119.343533,286.683474,30600.968671,26763.375314,36586.654077,12337.782960,14654.720086,-0.148000,0.950000,0.194000,192.000000,0.000000,0.000000,0.000000,0.000000,0.000000,0.000000,0.000000,0.000000,0.000000,1647150910.305437,0.000000
22.000000,-13881.886170,7126.205519,294.037198,30607.204808,26755.351037,36588.017534,12340.554576,14657.111723,-0.148000,0.950000,0.194000,192.000000,0.000000,0.000000,0.000000,0.000000,0.000000,0.000000,0.000000,0.000000,0.000000,1647150910.305454,0.000000
23.000000,-13885.529504,7123.791531,294.774806,30605.416668,26745.158642,36584.329496,12345.360201,14657.201130,-0.148000,0.950000,0.194000,192.000000,0.000000,0.000000,0.000000,0.000000,0.000000,0.000000,0.000000,0.000000,0.000000,1647150910.311806,0.000000
24.000000,-13891.653882,7118.941202,288.493966,30599.716973,26756.558032,36583.770702,12342.365067,14650.875586,-0.144000,0.958000,0.196000,192.000000,251.000000,128.000000,29.000000,240.000000,6.000000,32.000000,0.000000,0.000000,0.000000,1647150910.311841,0.000000
25.000000,-13892.413842,7122.338667,284.582410,30598.375869,26769.365581,36582.720170,12340.800445,14653.401333,-0.144000,0.958000,0.196000,192.000000,0.000000,0.000000,0.000000,0.000000,0.000000,0.000000,0.000000,0.000000,0.000000,1647150910.318683,0.000000
26.000000,-13896.235990,7118.293001,291.265582,30598.174703,26780.764971,36583.994220,12333.983163,14648.886281,-0.144000,0.958000,0.196000,192.000000,0.000000,0.000000,0.000000,0.000000,0.000000,0.000000,0.000000,0.000000,0.000000,1647150910.318699,0.000000
27.000000,-13890.022205,7123.076275,294.037198,30600.342822,26754.322857,36585.849415,12343.907338,14652.171988,-0.144000,0.958000,0.196000,192.000000,0.000000,0.000000,0.000000,0.000000,0.000000,0.000000,0.000000,0.000000,0.000000,1647150910.326635,0.000000
28.000000,-13883.093164,7127.546624,302.597916,30607.540084,26745.449215,36589.828025,12352.311594,14664.532502,-0.144000,0.958000,0.196000,192.000000,0.000000,0.000000,0.000000,0.000000,0.000000,0.000000,0.000000,0.000000,0.000000,1647150910.326651,0.000000
29.000000,-13886.401223,7123.322144,306.464768,30611.071659,26763.285907,36591.772627,12343.057971,14671.439191,-0.144000,0.958000,0.196000,192.000000,0.000000,0.000000,0.000000,0.000000,0.000000,0.000000,0.000000,0.000000,0.000000,1647150910.333899,0.000000
30.000000,-13888.859914,7122.361019,304.274297,30609.663500,26766.236337,36588.755141,12345.918995,14673.093220,-0.144000,0.958000,0.196000,192.000000,0.000000,0.000000,0.000000,0.000000,0.000000,0.000000,0.000000,0.000000,0.000000,1647150910.333915,0.000000
31.000000,-13891.340958,7117.801263,298.306382,30605.975462,26752.624125,36585.849415,12347.483617,14657.268185,-0.144000,0.958000,0.196000,192.000000,0.000000,0.000000,0.000000,0.000000,0.000000,0.000000,0.000000,0.000000,0.000000,1647150910.342700,0.000000
32.000000,-13894.604313,7113.956763,296.205318,30607.405973,26761.631878,36590.386819,12342.834454,14643.499511,-0.144000,0.958000,0.196000,192.000000,0.000000,0.000000,0.000000,0.000000,0.000000,0.000000,0.000000,0.000000,0.000000,1647150910.342717,0.000000
33.000000,-13886.937664,7123.702124,300.943887,30610.803439,26751.975924,36591.862034,12345.181387,14647.299307,-0.144000,0.958000,0.196000,192.000000,0.000000,0.000000,0.000000,0.000000,0.000000,0.000000,0.000000,0.000000,0.000000,1647150910.349641,0.000000
34.000000,-13881.103859,7130.832330,305.078960,30616.033747,26749.427825,36594.030153,12345.427256,14649.802703,-0.144000,0.958000,0.196000,192.000000,0.000000,0.000000,0.000000,0.000000,0.000000,0.000000,0.000000,0.000000,0.000000,1647150910.349657,0.000000
35.000000,-13876.834676,7135.347382,311.069228,30615.787878,26754.948706,36597.941708,12350.769323,14653.356630,-0.148000,0.956000,0.196000,192.000000,251.000000,96.000000,29.000000,224.000000,6.000000,32.000000,0.000000,0.000000,0.000000,1647150910.355978,0.000000
36.000000,-13880.522714,7135.883824,306.196547,30616.436078,26767.622145,36599.528682,12348.668259,14654.317755,-0.148000,0.956000,0.196000,192.000000,0.000000,0.000000,0.000000,0.000000,0.000000,0.000000,0.000000,0.000000,0.000000,1647150910.364958,0.000000
37.000000,-13882.042632,7134.587423,306.911803,30611.585750,26769.410285,36594.521891,12342.722695,14645.980554,-0.148000,0.956000,0.196000,192.000000,0.000000,0.000000,0.000000,0.000000,0.000000,0.000000,0.000000,0.000000,0.000000,1647150910.364976,0.000000
38.000000,-13881.170914,7136.286156,309.415198,30608.836485,26763.509424,36591.124426,12341.158073,14643.141883,-0.148000,0.956000,0.196000,192.000000,0.000000,0.000000,0.000000,0.000000,0.000000,0.000000,0.000000,0.000000,0.000000,1647150910.371373,0.000000
39.000000,-13879.472182,7135.950880,310.309268,30608.300043,26776.428732,36588.643383,12338.229995,14638.000982,-0.148000,0.956000,0.196000,192.000000,0.000000,0.000000,0.000000,0.000000,0.000000,0.000000,0.000000,0.000000,0.000000,1647150910.371390,0.000000
40.000000,-13881.439135,7132.508711,306.397713,30607.428325,26778.753314,36585.849415,12335.346620,14639.744418,-0.148000,0.956000,0.196000,192.000000,0.000000,0.000000,0.000000,0.000000,0.000000,0.000000,0.000000,0.000000,0.000000,1647150910.377785,0.000000
41.000000,-13879.829810,7137.493150,308.856405,30611.004604,26774.998221,36589.984487,12342.320364,14650.093275,-0.148000,0.956000,0.196000,192.000000,0.000000,0.000000,0.000000,0.000000,0.000000,0.000000,0.000000,0.000000,0.000000,1647150910.377801,0.000000
42.000000,-13871.917292,7145.807999,316.612460,30618.671253,26773.992392,36596.287679,12345.494312,14655.345935,-0.148000,0.956000,0.196000,192.000000,0.000000,0.000000,0.000000,0.000000,0.000000,0.000000,0.000000,0.000000,0.000000,1647150910.385615,0.000000
43.000000,-13875.180647,7134.877996,314.176120,30613.150372,26770.371410,36593.650173,12345.494312,14666.342994,-0.148000,0.956000,0.196000,192.000000,0.000000,0.000000,0.000000,0.000000,0.000000,0.000000,0.000000,0.000000,0.000000,1647150910.385631,0.000000
44.000000,-13875.806496,7133.469836,311.538614,30614.603235,26776.205215,36592.890214,12349.987012,14668.734630,-0.148000,0.956000,0.196000,192.000000,0.000000,0.000000,0.000000,0.000000,0.000000,0.000000,0.000000,0.000000,0.000000,1647150910.393575,0.000000
45.000000,-13879.516885,7128.373638,306.531823,30610.669328,26790.778552,36587.771665,12339.884024,14642.583089,-0.146000,0.958000,0.198000,192.000000,251.000000,112.000000,29.000000,240.000000,6.000000,48.000000,0.000000,0.000000,0.000000,1647150910.393610,0.000000
46.000000,-13879.449830,7125.870243,310.644544,30605.841351,26776.562843,36580.730865,12333.424370,14630.557851,-0.146000,0.958000,0.198000,192.000000,0.000000,0.000000,0.000000,0.000000,0.000000,0.000000,0.000000,0.000000,0.000000,1647150910.400727,0.000000
47.000000,-13885.641263,7123.679772,304.810739,30605.036688,26765.789302,36579.367409,12332.530300,14631.921307,-0.146000,0.958000,0.198000,192.000000,0.000000,0.000000,0.000000,0.000000,0.000000,0.000000,0.000000,0.000000,0.000000,1647150910.400744,0.000000
48.000000,-13883.495496,7127.546624,304.251946,30603.695584,26752.914697,36582.317839,12333.536128,14627.585069,-0.146000,0.958000,0.198000,192.000000,0.000000,0.000000,0.000000,0.000000,0.000000,0.000000,0.000000,0.000000,0.000000,1647150910.409543,0.000000
49.000000,-13884.389566,7124.104455,302.262640,30605.103744,26772.427770,36584.798883,12335.301916,14626.020447,-0.146000,0.958000,0.198000,192.000000,0.000000,0.000000,0.000000,0.000000,0.000000,0.000000,0.000000,0.000000,0.000000,1647150910.409559,0.000000
50.000000,-13878.131077,7127.188996,306.509472,30606.377793,26786.442314,36587.101112,12342.275660,14635.944621,-0.146000,0.958000,0.198000,192.000000,0.000000,0.000000,0.000000,0.000000,0.000000,0.000000,0.000000,0.000000,0.000000,1647150910.416723,0.000000
51.000000,-13870.978519,7133.492188,309.750475,30608.769430,26781.144951,36587.682258,12340.532224,14639.073865,-0.146000,0.958000,0.198000,192.000000,0.000000,0.000000,0.000000,0.000000,0.000000,0.000000,0.000000,0.000000,0.000000,1647150910.424529,0.000000
52.000000,-13864.876493,7139.884787,311.896242,30611.809267,26768.940898,36590.632688,12347.014230,14647.299307,-0.146000,0.958000,0.198000,192.000000,0.000000,0.000000,0.000000,0.000000,0.000000,0.000000,0.000000,0.000000,0.000000,1647150910.424540,0.000000
53.000000,-13870.307967,7132.866339,310.353972,30608.814133,26759.910793,36591.862034,12351.439876,14646.494644,-0.146000,0.958000,0.198000,192.000000,0.000000,0.000000,0.000000,0.000000,0.000000,0.000000,0.000000,0.000000,0.000000,1647150910.431911,0.000000
54.000000,-13875.068888,7129.737095,313.885547,30609.752907,26772.159549,36590.833854,12347.036582,14648.975688,-0.146000,0.958000,0.198000,192.000000,0.000000,0.000000,0.000000,0.000000,0.000000,0.000000,0.000000,0.000000,0.000000,1647150910.431929,0.000000
55.000000,-13877.706394,7130.407647,311.069228,30607.987119,26782.329593,36586.452912,12338.721733,14641.420798,-0.144000,0.952000,0.198000,192.000000,251.000000,128.000000,29.000000,192.000000,6.000000,48.000000,0.000000,0.000000,0.000000,1647150910.438236,0.000000
56.000000,-13882.199095,7125.154987,303.715504,30605.260206,26793.572520,36580.105016,12333.111445,14646.740514,-0.144000,0.952000,0.198000,192.000000,0.000000,0.000000,0.000000,0.000000,0.000000,0.000000,0.000000,0.000000,0.000000,1647150910.438253,0.000000
57.000000,-13877.438173,7129.893557,303.156710,30605.148447,26781.368468,36576.595792,12334.296088,14646.405237,-0.144000,0.952000,0.198000,192.000000,0.000000,0.000000,0.000000,0.000000,0.000000,0.000000,0.000000,0.000000,0.000000,1647150910.445897,0.000000
58.000000,-13882.199095,7129.178301,300.832129,30604.276729,26778.239224,36579.434464,12342.789750,14647.500473,-0.144000,0.952000,0.198000,192.000000,0.000000,0.000000,0.000000,0.000000,0.000000,0.000000,0.000000,0.000000,0.000000,1647150910.445913,0.000000
59.000000,-13884.546028,7125.467911,297.345256,30600.566340,26774.864110,36579.166243,12343.773227,14641.621964,-0.144000,0.952000,0.198000,192.000000,0.000000,0.000000,0.000000,0.000000,0.000000,0.000000,0.000000,0.000000,0.000000,1647150910.457954,0.000000
60.000000,-13880.366252,7127.993659,301.077998,30601.102781,26763.352962,36579.233298,12348.288280,14658.721049,-0.144000,0.952000,0.198000,192.000000,0.000000,0.000000,0.000000,0.000000,0.000000,0.000000,0.000000,0.000000,0.000000,1647150910.457970,0.000000
61.000000,-13883.406089,7126.227871,301.502681,30600.901616,26765.454026,36582.451949,12341.649811,14638.179796,-0.144000,0.952000,0.198000,192.000000,0.000000,0.000000,0.000000,0.000000,0.000000,0.000000,0.000000,0.000000,0.000000,1647150910.464300,0.000000
62.000000,-13886.356519,7121.936336,296.406483,30597.817075,26769.253822,36581.781397,12335.838358,14623.025313,-0.144000,0.952000,0.198000,192.000000,0.000000,0.000000,0.000000,0.000000,0.000000,0.000000,0.000000,0.000000,0.000000,1647150910.464310,0.000000
63.000000,-13887.295292,7119.544699,293.903088,30597.347688,26782.843683,36580.440292,12330.652753,14620.141938,-0.144000,0.952000,0.198000,192.000000,0.000000,0.000000,0.000000,0.000000,0.000000,0.000000,0.000000,0.000000,0.000000,1647150910.470852,0.000000
64.000000,-13876.097068,7134.319202,305.838919,30608.322395,26782.195483,36582.898984,12345.539015,14634.692923,-0.144000,0.952000,0.198000,192.000000,0.000000,0.000000,0.000000,0.000000,0.000000,0.000000,0.000000,0.000000,0.000000,1647150910.470868,0.000000
65.000000,-13879.472182,7132.754580,302.597916,30608.076526,26787.515198,36583.725999,12352.266890,14643.790083,-0.142000,0.952000,0.190000,192.000000,251.000000,144.000000,29.000000,192.000000,5.000000,240.000000,0.000000,0.000000,0.000000,1647150910.477063,0.000000
66.000000,-13886.915313,7124.283269,290.840899,30596.654784,26783.715401,36577.243993,12341.582756,14635.832862,-0.142000,0.952000,0.190000,192.000000,0.000000,0.000000,0.000000,0.000000,0.000000,0.000000,0.000000,0.000000,0.000000,1647150910.477079,0.000000
67.000000,-13877.616987,7137.046115,300.563908,30602.779162,26773.813578,36579.255650,12335.056047,14644.639450,-0.142000,0.952000,0.190000,192.000000,0.000000,0.000000,0.000000,0.000000,0.000000,0.000000,0.000000,0.000000,0.000000,1647150910.483403,0.000000
68.000000,-13877.974615,7137.157874,306.531823,30609.439982,26779.692087,36582.161377,12336.285393,14645.757037,-0.142000,0.952000,0.190000,192.000000,0.000000,0.000000,0.000000,0.000000,0.000000,0.000000,0.000000,0.000000,0.000000,1647150910.490584,0.000000
69.000000,-13888.144659,7125.333801,298.082864,30603.561473,26794.131314,36581.446121,12337.626497,14635.095255,-0.142000,0.952000,0.190000,192.000000,0.000000,0.000000,0.000000,0.000000,0.000000,0.000000,0.000000,0.000000,0.000000,1647150910.490601,0.000000
70.000000,-13881.126211,7132.173435,305.861271,30604.209674,26780.519102,36583.658944,12343.482655,14638.000982,-0.142000,0.952000,0.190000,192.000000,0.000000,0.000000,0.000000,0.000000,0.000000,0.000000,0.000000,0.000000,0.000000,1647150910.506228,0.000000
71.000000,-13880.813286,7134.632127,307.180024,30610.088183,26780.362639,36588.643383,12346.768361,14646.047610,-0.142000,0.952000,0.190000,192.000000,0.000000,0.000000,0.000000,0.000000,0.000000,0.000000,0.000000,0.000000,0.000000,1647150910.513125,0.000000
72.000000,-13882.400260,7132.419304,303.939021,30611.026956,26778.015706,36584.083627,12344.935518,14636.481063,-0.142000,0.952000,0.190000,192.000000,0.000000,0.000000,0.000000,0.000000,0.000000,0.000000,0.000000,0.000000,0.000000,1647150910.519574,0.000000
73.000000,-13877.169952,7133.201615,304.386056,30611.138715,26751.752407,36578.540394,12348.064762,14637.799816,-0.142000,0.952000,0.190000,192.000000,0.000000,0.000000,0.000000,0.000000,0.000000,0.000000,0.000000,0.000000,0.000000,1647150910.519586,0.000000
74.000000,-13877.348766,7135.079162,306.688286,30612.591578,26752.780587,36578.316877,12344.846111,14636.011676,-0.142000,0.952000,0.190000,192.000000,0.000000,0.000000,0.000000,0.000000,0.000000,0.000000,0.000000,0.000000,0.000000,1647150910.525973,0.000000
75.000000,-13875.202999,7139.840083,314.801969,30618.671253,26776.451084,36582.854281,12343.370896,14641.197281,-0.142000,0.950000,0.194000,192.000000,251.000000,144.000000,29.000000,176.000000,6.000000,16.000000,0.000000,0.000000,0.000000,1647150910.525989,0.000000
76.000000,-13869.391545,7142.008202,320.769885,30618.850067,26776.473436,36583.793054,12354.636175,14653.446037,-0.142000,0.950000,0.194000,192.000000,0.000000,0.000000,0.000000,0.000000,0.000000,0.000000,0.000000,0.000000,0.000000,1647150910.532218,0.000000
77.000000,-13874.040708,7135.570900,316.254832,30611.339880,26759.910793,36577.400455,12345.784884,14638.872700,-0.142000,0.950000,0.194000,192.000000,0.000000,0.000000,0.000000,0.000000,0.000000,0.000000,0.000000,0.000000,0.000000,1647150910.532234,0.000000
78.000000,-13879.338071,7132.262842,311.471559,30608.098877,26757.697971,36575.142929,12340.889852,14634.759979,-0.142000,0.950000,0.194000,192.000000,0.000000,0.000000,0.000000,0.000000,0.000000,0.000000,0.000000,0.000000,0.000000,1647150910.538490,0.000000
79.000000,-13879.852161,7131.100551,313.237347,30607.093049,26759.664924,36575.299391,12343.996745,14631.630734,-0.142000,0.950000,0.194000,192.000000,0.000000,0.000000,0.000000,0.000000,0.000000,0.000000,0.000000,0.000000,0.000000,1647150910.538506,0.000000
80.000000,-13881.014452,7131.078199,310.577489,30610.378755,26772.494825,36576.796958,12343.169730,14626.467481,-0.142000,0.950000,0.194000,192.000000,0.000000,0.000000,0.000000,0.000000,0.000000,0.000000,0.000000,0.000000,0.000000,1647150910.544706,0.000000
81.000000,-13881.260321,7131.189958,308.632887,30610.781087,26781.055544,36577.981601,12341.135721,14631.094293,-0.142000,0.950000,0.194000,192.000000,0.000000,0.000000,0.000000,0.000000,0.000000,0.000000,0.000000,0.000000,0.000000,1647150910.544722,0.000000
82.000000,-13888.390528,7122.740999,302.508509,30603.717936,26777.434561,36572.550127,12338.721733,14628.523842,-0.142000,0.950000,0.194000,192.000000,0.000000,0.000000,0.000000,0.000000,0.000000,0.000000,0.000000,0.000000,0.000000,1647150910.550890,0.000000
83.000000,-13897.957074,7115.499033,295.266544,30600.275767,26775.691125,36570.918449,12337.492387,14621.527746,-0.142000,0.950000,0.194000,192.000000,0.000000,0.000000,0.000000,0.000000,0.000000,0.000000,0.000000,0.000000,0.000000,1647150910.550906,0.000000
84.000000,-13893.307912,7120.014086,297.457015,30601.683927,26783.000145,36573.533603,12341.962736,14632.681266,-0.142000,0.950000,0.194000,192.000000,0.000000,0.000000,0.000000,0.000000,0.000000,0.000000,0.000000,0.000000,0.000000,1647150910.557016,0.000000
85.000000,-13885.931836,7130.184129,305.794216,30607.875360,26786.174093,36578.696856,12353.406829,14640.638487,-0.140000,0.948000,0.196000,192.000000,251.000000,160.000000,29.000000,160.000000,6.000000,32.000000,0.000000,0.000000,0.000000,1647150910.557032,0.000000
86.000000,-13894.492554,7122.383371,297.255850,30601.125133,26789.929186,36571.007856,12344.130855,14625.931040,-0.140000,0.948000,0.196000,192.000000,0.000000,0.000000,0.000000,0.000000,0.000000,0.000000,0.000000,0.000000,0.000000,1647150910.563136,0.000000
87.000000,-13886.960016,7125.266746,299.848652,30597.146523,26769.969078,36566.135176,12345.024925,14631.653086,-0.140000,0.948000,0.196000,192.000000,0.000000,0.000000,0.000000,0.000000,0.000000,0.000000,0.000000,0.000000,0.000000,1647150910.569500,0.000000
88.000000,-13889.686929,7126.250222,301.480329,30601.840389,26762.302430,36574.874708,12349.919957,14648.148674,-0.140000,0.948000,0.196000,192.000000,0.000000,0.000000,0.000000,0.000000,0.000000,0.000000,0.000000,0.000000,0.000000,1647150910.569534,0.000000
89.000000,-13882.981406,7131.949917,305.593050,30604.991985,26765.163453,36578.361580,12350.255233,14639.207976,-0.140000,0.948000,0.196000,192.000000,0.000000,0.000000,0.000000,0.000000,0.000000,0.000000,0.000000,0.000000,0.000000,1647150910.575552,0.000000
90.000000,-13890.625702,7126.876071,303.491986,30605.930758,26792.052602,36577.042827,12336.330096,14617.057397,-0.140000,0.948000,0.196000,192.000000,0.000000,0.000000,0.000000,0.000000,0.000000,0.000000,0.000000,0.000000,0.000000,1647150910.575568,0.000000
91.000000,-13888.681100,7126.764313,305.391884,30603.248549,26789.750372,36571.700760,12343.415599,14621.795967,-0.140000,0.948000,0.196000,192.000000,0.000000,0.000000,0.000000,0.000000,0.000000,0.000000,0.000000,0.000000,0.000000,1647150910.584574,0.000000
92.000000,-13881.305025,7129.580632,310.108103,30611.786915,26780.966137,36574.293563,12351.551634,14637.039857,-0.140000,0.948000,0.196000,192.000000,0.000000,0.000000,0.000000,0.000000,0.000000,0.000000,0.000000,0.000000,0.000000,1647150910.584590,0.000000
93.000000,-13881.305025,7131.301717,306.643582,30610.870494,26772.830102,36572.192499,12350.612861,14636.726932,-0.140000,0.948000,0.196000,192.000000,0.000000,0.000000,0.000000,0.000000,0.000000,0.000000,0.000000,0.000000,0.000000,1647150910.591099,0.000000
94.000000,-13878.488705,7138.566034,310.935117,30611.786915,26781.234358,36577.713380,12355.485541,14651.099104,-0.140000,0.948000,0.196000,192.000000,0.000000,0.000000,0.000000,0.000000,0.000000,0.000000,0.000000,0.000000,0.000000,1647150910.591116,0.000000
95.000000,-13879.248664,7135.570900,308.766998,30610.132886,26802.602625,36585.737656,12354.435009,14651.970822,-0.140000,0.948000,0.200000,192.000000,251.000000,160.000000,29.000000,160.000000,6.000000,64.000000,0.000000,0.000000,0.000000,1647150910.597779,0.000000
96.000000,-13873.303100,7136.710839,311.248042,30607.048345,26800.099230,36589.269231,12357.631309,14642.158406,-0.140000,0.948000,0.200000,192.000000,0.000000,0.000000,0.000000,0.000000,0.000000,0.000000,0.000000,0.000000,0.000000,1647150910.597795,0.000000
97.000000,-13874.443039,7137.671964,316.858329,30603.539122,26778.328631,36588.062237,12362.056954,14638.872700,-0.140000,0.948000,0.200000,192.000000,0.000000,0.000000,0.000000,0.000000,0.000000,0.000000,0.000000,0.000000,0.000000,1647150910.604420,0.000000
98.000000,-13876.789972,7138.521330,311.069228,30603.874398,26768.091532,36588.643383,12362.280472,14636.905746,-0.140000,0.948000,0.200000,192.000000,0.000000,0.000000,0.000000,0.000000,0.000000,0.000000,0.000000,0.000000,0.000000,1647150910.604437,0.000000
99.000000,-13881.081507,7134.498016,304.967201,30601.080430,26779.669735,36582.943688,12351.484579,14629.663781,-0.140000,0.948000,0.200000,192.000000,0.000000,0.000000,0.000000,0.000000,0.000000,0.000000,0.000000,0.000000,0.000000,1647150910.612386,0.000000
100.000000,-13879.405127,7135.414438,309.929289,30602.063906,26787.358735,36583.927165,12353.764457,14635.765807,-0.140000,0.948000,0.200000,192.000000,0.000000,0.000000,0.000000,0.000000,0.000000,0.000000,0.000000,0.000000,0.000000,1647150910.612403,0.000000
101.000000,-13890.536295,7125.356153,297.166443,30593.905520,26793.773686,36579.032133,12342.633288,14625.238135,-0.140000,0.948000,0.200000,192.000000,0.000000,0.000000,0.000000,0.000000,0.000000,0.000000,0.000000,0.000000,0.000000,1647150910.618548,0.000000
102.000000,-13884.702490,7130.005316,300.228632,30590.351592,26779.200349,36574.271211,12346.164864,14629.239098,-0.140000,0.948000,0.200000,192.000000,0.000000,0.000000,0.000000,0.000000,0.000000,0.000000,0.000000,0.000000,0.000000,1647150910.626044,0.000000
103.000000,-13873.772487,7140.845912,314.131417,30603.114438,26773.992392,36586.229394,12362.280472,14643.946546,-0.140000,0.948000,0.200000,192.000000,0.000000,0.000000,0.000000,0.000000,0.000000,0.000000,0.000000,0.000000,0.000000,1647150910.626060,0.000000
104.000000,-13873.325452,7141.628223,317.685344,30607.562436,26787.738715,36591.549109,12364.292129,14647.791046,-0.140000,0.948000,0.200000,192.000000,0.000000,0.000000,0.000000,0.000000,0.000000,0.000000,0.000000,0.000000,0.000000,1647150910.634531,0.000000
105.000000,-13872.654900,7142.589348,318.311193,30606.444848,26792.723154,36588.352810,12363.018079,14641.487854,-0.140000,0.950000,0.190000,192.000000,251.000000,160.000000,29.000000,176.000000,5.000000,240.000000,0.000000,0.000000,0.000000,1647150910.634547,0.000000
106.000000,-13879.852161,7130.541757,310.331620,30598.174703,26785.950576,36581.647287,12353.004498,14630.200223,-0.140000,0.950000,0.190000,192.000000,0.000000,0.000000,0.000000,0.000000,0.000000,0.000000,0.000000,0.000000,0.000000,1647150910.645685,0.000000
107.000000,-13879.963920,7128.664211,308.945812,30597.280633,26783.603642,36580.976734,12345.963698,14624.522880,-0.140000,0.950000,0.190000,192.000000,0.000000,0.000000,0.000000,0.000000,0.000000,0.000000,0.000000,0.000000,0.000000,1647150910.645707,0.000000
108.000000,-13885.820077,7126.138464,302.821434,30595.447790,26779.468570,36581.267307,12346.634250,14629.306153,-0.140000,0.950000,0.190000,192.000000,0.000000,0.000000,0.000000,0.000000,0.000000,0.000000,0.000000,0.000000,0.000000,1647150910.652003,0.000000
109.000000,-13876.208827,7131.458179,313.662030,30598.711145,26776.629898,36583.904813,12356.290204,14639.073865,-0.140000,0.950000,0.190000,192.000000,0.000000,0.000000,0.000000,0.000000,0.000000,0.000000,0.000000,0.000000,0.000000,1647150910.652037,0.000000
110.000000,-13869.995042,7135.459141,318.624117,30599.918139,26780.988488,36590.163301,12363.398059,14642.381923,-0.140000,0.950000,0.190000,192.000000,0.000000,0.000000,0.000000,0.000000,0.000000,0.000000,0.000000,0.000000,0.000000,1647150910.658234,0.000000
111.000000,-13880.455658,7125.333801,303.827262,30593.302023,26775.735828,36584.061275,12357.854826,14631.138996,-0.140000,0.950000,0.190000,192.000000,0.000000,0.000000,0.000000,0.000000,0.000000,0.000000,0.000000,0.000000,0.000000,1647150910.658251,0.000000
112.000000,-13883.853124,7121.891632,300.586259,30591.066848,26768.315049,36581.468473,12351.059896,14627.473310,-0.140000,0.950000,0.190000,192.000000,0.000000,0.000000,0.000000,0.000000,0.000000,0.000000,0.000000,0.000000,0.000000,1647150910.664690,0.000000
113.000000,-13888.725804,7114.984943,301.368570,30586.305927,26773.098323,36580.864976,12343.728524,14630.602554,-0.140000,0.950000,0.190000,192.000000,0.000000,0.000000,0.000000,0.000000,0.000000,0.000000,0.000000,0.000000,0.000000,1647150910.664706,0.000000
114.000000,-13888.792859,7114.135577,304.319001,30583.310793,26777.881596,36579.367409,12347.863596,14638.470368,-0.140000,0.950000,0.190000,192.000000,0.000000,0.000000,0.000000,0.000000,0.000000,0.000000,0.000000,0.000000,0.000000,1647150910.671869,0.000000
115.000000,-13878.332243,7124.931470,312.611498,30588.764618,26779.602680,36584.061275,12364.359184,14647.053438,-0.142000,0.956000,0.190000,192.000000,251.000000,144.000000,29.000000,224.000000,5.000000,240.000000,0.000000,0.000000,0.000000,1647150910.671885,0.000000
116.000000,-13879.248664,7124.238565,310.532786,30592.206787,26784.162436,36583.278964,12362.056954,14640.191453,-0.142000,0.956000,0.190000,192.000000,0.000000,0.000000,0.000000,0.000000,0.000000,0.000000,0.000000,0.000000,0.000000,1647150910.678361,0.000000
117.000000,-13891.720938,7111.900403,300.005114,30586.529444,26783.313070,36577.802787,12353.339774,14631.854252,-0.142000,0.956000,0.190000,192.000000,0.000000,0.000000,0.000000,0.000000,0.000000,0.000000,0.000000,0.000000,0.000000,1647150910.686248,0.000000
118.000000,-13894.425499,7111.073388,293.746626,30582.483778,26773.321840,36573.667714,12349.852902,14629.864947,-0.142000,0.956000,0.190000,192.000000,0.000000,0.000000,0.000000,0.000000,0.000000,0.000000,0.000000,0.000000,0.000000,1647150910.686264,0.000000
119.000000,-13890.178667,7115.499033,296.406483,30582.573185,26784.005974,36576.595792,12350.881082,14632.144825,-0.142000,0.956000,0.190000,192.000000,0.000000,0.000000,0.000000,0.000000,0.000000,0.000000,0.000000,0.000000,0.000000,1647150910.694290,0.000000
120.000000,-13886.289464,7121.377542,299.647486,30584.361325,26788.252805,36576.104054,12351.529283,14637.576298,-0.142000,0.956000,0.190000,192.000000,0.000000,0.000000,0.000000,0.000000,0.000000,0.000000,0.000000,0.000000,0.000000,1647150910.694306,0.000000
121.000000,-13880.478010,7126.876071,306.285954,30588.831674,26773.679468,36579.769740,12359.151227,14655.547101,-0.142000,0.956000,0.190000,192.000000,0.000000,0.000000,0.000000,0.000000,0.000000,0.000000,0.000000,0.000000,0.000000,1647150910.700968,0.000000
122.000000,-13886.580036,7118.851795,309.884585,30583.176682,26761.274250,36576.573441,12350.523454,14657.335241,-0.142000,0.956000,0.190000,192.000000,0.000000,0.000000,0.000000,0.000000,0.000000,0.000000,0.000000,0.000000,0.000000,1647150910.700984,0.000000
123.000000,-13878.198132,7128.820673,316.098370,30589.658688,26744.711607,36578.048656,12354.055030,14656.798799,-0.142000,0.956000,0.190000,192.000000,0.000000,0.000000,0.000000,0.000000,0.000000,0.000000,0.000000,0.000000,0.000000,1647150910.710157,0.000000
124.000000,-13880.790935,7128.865377,312.455036,30598.666441,26767.733904,36583.077798,12352.177483,14650.853235,-0.142000,0.956000,0.190000,192.000000,0.000000,0.000000,0.000000,0.000000,0.000000,0.000000,0.000000,0.000000,0.000000,1647150910.710174,0.000000
125.000000,-13871.380850,7135.816769,314.287879,30606.377793,26777.099285,36588.084589,12356.938405,14661.358555,-0.146000,0.954000,0.188000,192.000000,251.000000,112.000000,29.000000,208.000000,5.000000,224.000000,0.000000,0.000000,0.000000,1647150910.718324,0.000000
126.000000,-13873.616025,7129.692391,311.762132,30600.566340,26769.969078,36584.351848,12355.507893,14663.504322,-0.146000,0.954000,0.188000,192.000000,0.000000,0.000000,0.000000,0.000000,0.000000,0.000000,0.000000,0.000000,0.000000,1647150910.718340,0.000000
127.000000,-13874.823019,7126.898423,312.164463,30598.487627,26762.570651,36584.508310,12354.144437,14668.734630,-0.146000,0.954000,0.188000,192.000000,0.000000,0.000000,0.000000,0.000000,0.000000,0.000000,0.000000,0.000000,0.000000,1647150910.724711,0.000000
128.000000,-13876.789972,7124.462083,309.526957,30594.307851,26762.995334,36584.754179,12347.796541,14667.058249,-0.146000,0.954000,0.188000,192.000000,0.000000,0.000000,0.000000,0.000000,0.000000,0.000000,0.000000,0.000000,0.000000,1647150910.724727,0.000000
129.000000,-13878.444001,7124.126807,307.917632,30594.151389,26768.359753,36585.581194,12347.796541,14673.249683,-0.146000,0.954000,0.188000,192.000000,0.000000,0.000000,0.000000,0.000000,0.000000,0.000000,0.000000,0.000000,0.000000,1647150910.734341,0.000000
130.000000,-13875.314757,7127.658382,310.197510,30599.739325,26789.996241,36586.229394,12341.269832,14672.936758,-0.146000,0.954000,0.188000,192.000000,0.000000,0.000000,0.000000,0.000000,0.000000,0.000000,0.000000,0.000000,0.000000,1647150910.734353,0.000000
131.000000,-13872.699603,7128.798321,309.839882,30598.755848,26795.293605,36578.249821,12329.512814,14666.767677,-0.146000,0.954000,0.188000,192.000000,0.000000,0.000000,0.000000,0.000000,0.000000,0.000000,0.000000,0.000000,0.000000,1647150910.740596,0.000000
132.000000,-13862.082525,7141.002374,314.667858,30602.242720,26772.763046,36577.154586,12330.540994,14663.772543,-0.146000,0.954000,0.188000,192.000000,0.000000,0.000000,0.000000,0.000000,0.000000,0.000000,0.000000,0.000000,0.000000,1647150910.740612,0.000000
133.000000,-13865.323527,7136.397914,312.790312,30598.934662,26774.841759,36579.300353,12331.256250,14669.226369,-0.146000,0.954000,0.188000,192.000000,0.000000,0.000000,0.000000,0.000000,0.000000,0.000000,0.000000,0.000000,0.000000,1647150910.746821,0.000000
134.000000,-13863.691850,7135.168569,314.354934,30595.626604,26776.384029,36580.663810,12338.811140,14677.317700,-0.146000,0.954000,0.188000,192.000000,0.000000,0.000000,0.000000,0.000000,0.000000,0.000000,0.000000,0.000000,0.000000,1647150910.753894,0.000000
135.000000,-13857.545120,7137.806074,320.255795,30597.615909,26773.634764,36585.111807,12345.449608,14686.057232,-0.146000,0.954000,0.188000,192.000000,0.000000,0.000000,0.000000,0.000000,0.000000,0.000000,0.000000,0.000000,0.000000,1647150910.753910,0.000000
136.000000,-13862.238987,7124.685600,316.858329,30588.094066,26763.017686,36586.229394,12344.197910,14698.753023,-0.140000,0.956000,0.188000,192.000000,251.000000,160.000000,29.000000,224.000000,5.000000,224.000000,0.000000,0.000000,0.000000,1647150910.761176,0.000000
137.000000,-13860.584958,7124.484435,315.338411,30585.613023,26748.757273,36588.956307,12343.393248,14694.349729,-0.140000,0.956000,0.188000,192.000000,0.000000,0.000000,0.000000,0.000000,0.000000,0.000000,0.000000,0.000000,0.000000,1647150910.761192,0.000000
138.000000,-13858.841522,7124.037400,314.779617,30581.723819,26741.962342,36594.834816,12343.996745,14689.119421,-0.140000,0.956000,0.188000,192.000000,0.000000,0.000000,0.000000,0.000000,0.000000,0.000000,0.000000,0.000000,0.000000,1647150910.769289,0.000000
139.000000,-13867.491647,7119.432940,307.470597,30582.372020,26766.370447,36600.109828,12338.364105,14679.351709,-0.140000,0.956000,0.188000,192.000000,0.000000,0.000000,0.000000,0.000000,0.000000,0.000000,0.000000,0.000000,0.000000,1647150910.769305,0.000000
140.000000,-13869.011565,7118.360057,302.575565,30580.829749,26774.774703,36593.694877,12330.943326,14670.433363,-0.140000,0.956000,0.188000,192.000000,0.000000,0.000000,0.000000,0.000000,0.000000,0.000000,0.000000,0.000000,0.000000,1647150910.777019,0.000000
141.000000,-13861.099048,7121.019914,306.218899,30585.434209,26772.226604,36594.119560,12335.212509,14685.073755,-0.140000,0.956000,0.188000,192.000000,0.000000,0.000000,0.000000,0.000000,0.000000,0.000000,0.000000,0.000000,0.000000,1647150910.777035,0.000000
142.000000,-13864.652975,7119.947031,302.553213,30584.607194,26765.096398,36590.766798,12339.593451,14693.165087,-0.140000,0.956000,0.188000,192.000000,0.000000,0.000000,0.000000,0.000000,0.000000,0.000000,0.000000,0.000000,0.000000,1647150910.783850,0.000000
143.000000,-13868.899807,7120.908156,302.039123,30588.719915,26770.192596,36593.225490,12339.816968,14684.269093,-0.140000,0.956000,0.188000,192.000000,0.000000,0.000000,0.000000,0.000000,0.000000,0.000000,0.000000,0.000000,0.000000,1647150910.783866,0.000000
144.000000,-13869.413897,7121.243432,298.865175,30585.478912,26774.908814,36590.185653,12334.899585,14678.658805,-0.140000,0.956000,0.188000,192.000000,0.000000,0.000000,0.000000,0.000000,0.000000,0.000000,0.000000,0.000000,0.000000,1647150910.792368,0.000000
145.000000,-13870.889112,7115.879013,294.551288,30581.321488,26777.926299,36587.637554,12329.535166,14673.897883,-0.140000,0.956000,0.188000,192.000000,0.000000,0.000000,0.000000,0.000000,0.000000,0.000000,0.000000,0.000000,0.000000,1647150910.792384,0.000000
146.000000,-13873.392507,7108.748807,294.730102,30573.587784,26776.451084,36585.961173,12329.535166,14669.628700,-0.138000,0.950000,0.192000,192.000000,251.000000,176.000000,29.000000,176.000000,6.000000,0.000000,0.000000,0.000000,0.000000,1647150910.800340,0.000000
147.000000,-13873.079583,7114.180280,299.759245,30576.940546,26763.688238,36586.028229,12322.874346,14663.101991,-0.138000,0.950000,0.192000,192.000000,0.000000,0.000000,0.000000,0.000000,0.000000,0.000000,0.000000,0.000000,0.000000,1647150910.800356,0.000000
148.000000,-13874.197170,7118.784740,297.591126,30577.879319,26757.630915,36584.195385,12320.370951,14670.500418,-0.138000,0.950000,0.192000,192.000000,0.000000,0.000000,0.000000,0.000000,0.000000,0.000000,0.000000,0.000000,0.000000,1647150910.806929,0.000000
149.000000,-13874.823019,7117.823615,298.842823,30576.046476,26755.552203,36585.491787,12330.876271,14685.029052,-0.138000,0.950000,0.192000,192.000000,0.000000,0.000000,0.000000,0.000000,0.000000,0.000000,0.000000,0.000000,0.000000,1647150910.814835,0.000000
150.000000,-13870.240911,7122.450426,300.250983,30582.349668,26769.812616,36587.078761,12329.021076,14681.743345,-0.138000,0.950000,0.192000,192.000000,0.000000,0.000000,0.000000,0.000000,0.000000,0.000000,0.000000,0.000000,0.000000,1647150910.814847,0.000000
151.000000,-13863.669498,7128.798321,305.280126,30588.764618,26768.471511,36593.381952,12334.541957,14683.687947,-0.138000,0.950000,0.192000,192.000000,0.000000,0.000000,0.000000,0.000000,0.000000,0.000000,0.000000,0.000000,0.000000,1647150910.821197,0.000000
152.000000,-13865.815266,7125.803188,301.994419,30588.362287,26765.565785,36595.438313,12326.987067,14673.227331,-0.138000,0.950000,0.192000,192.000000,0.000000,0.000000,0.000000,0.000000,0.000000,0.000000,0.000000,0.000000,0.000000,1647150910.821217,0.000000
153.000000,-13867.089315,7126.965478,300.161576,30587.088238,26763.621183,36596.600604,12321.667352,14669.360479,-0.138000,0.950000,0.192000,192.000000,0.000000,0.000000,0.000000,0.000000,0.000000,0.000000,0.000000,0.000000,0.000000,1647150910.830089,0.000000
154.000000,-13868.944510,7120.036438,298.753416,30580.047438,26753.071159,36591.884386,12327.143529,14677.340052,-0.138000,0.950000,0.192000,192.000000,0.000000,0.000000,0.000000,0.000000,0.000000,0.000000,0.000000,0.000000,0.000000,1647150910.830106,0.000000
155.000000,-13866.731687,7122.137501,301.882661,30582.953165,26760.983677,36594.566595,12330.876271,14676.155409,-0.138000,0.950000,0.192000,192.000000,0.000000,0.000000,0.000000,0.000000,0.000000,0.000000,0.000000,0.000000,0.000000,1647150910.836485,0.000000
156.000000,-13867.156371,7127.166644,301.502681,30584.875415,26767.868014,36596.041810,12335.480730,14673.942587,-0.140000,0.956000,0.186000,192.000000,251.000000,160.000000,29.000000,224.000000,5.000000,208.000000,0.000000,0.000000,0.000000,1647150910.836502,0.000000
157.000000,-13872.632548,7120.774045,293.098425,30575.130054,26755.798072,36589.649211,12330.608050,14675.708374,-0.140000,0.956000,0.186000,192.000000,0.000000,0.000000,0.000000,0.000000,0.000000,0.000000,0.000000,0.000000,0.000000,1647150910.844014,0.000000
158.000000,-13875.784144,7117.264821,291.690265,30574.548909,26755.373389,36584.910641,12320.527413,14671.729764,-0.140000,0.956000,0.186000,192.000000,0.000000,0.000000,0.000000,0.000000,0.000000,0.000000,0.000000,0.000000,0.000000,1647150910.844030,0.000000
159.000000,-13879.718051,7111.721589,289.902126,30574.615964,26761.475415,36579.479167,12317.576983,14674.568435,-0.140000,0.956000,0.186000,192.000000,0.000000,0.000000,0.000000,0.000000,0.000000,0.000000,0.000000,0.000000,0.000000,1647150910.851844,0.000000
160.000000,-13868.832751,7118.203594,299.379265,30580.405066,26767.175110,36581.535528,12318.180480,14676.177761,-0.140000,0.956000,0.186000,192.000000,0.000000,0.000000,0.000000,0.000000,0.000000,0.000000,0.000000,0.000000,0.000000,1647150910.851861,0.000000
161.000000,-13868.095144,7120.170548,300.362742,30581.612060,26755.909831,36581.401417,12320.370951,14671.908578,-0.140000,0.956000,0.186000,192.000000,0.000000,0.000000,0.000000,0.000000,0.000000,0.000000,0.000000,0.000000,0.000000,1647150910.859226,0.000000
162.000000,-13864.518865,7123.769179,299.043989,30584.897767,26734.005121,36578.115711,12319.231012,14664.823075,-0.140000,0.956000,0.186000,192.000000,0.000000,0.000000,0.000000,0.000000,0.000000,0.000000,0.000000,0.000000,0.000000,1647150910.859242,0.000000
163.000000,-13869.212731,7121.131673,293.567812,30585.277746,26736.150889,36578.875670,12313.486613,14658.922214,-0.140000,0.956000,0.186000,192.000000,0.000000,0.000000,0.000000,0.000000,0.000000,0.000000,0.000000,0.000000,0.000000,1647150910.865800,0.000000
