%OpenBCI Raw EEG Data
%Number of channels = 8
%Sample Rate = 256 Hz
%Board = OpenBCI_GUI$BoardCytonSerial
%Channels = Fp1, Fp2, F3, F4, Fz, Pz, O1, O2
%Data recorded at AIMS Lab (http://aimsl.uiu.ac.bd) by Rana Depto (mail@ranadepto.com)
%Brainwaves were obtained via the Ultracortex Mark IV Headset using the OpenBCI Cyton Board
%Recording Application = ConcentrateToday (https://concentrate.today)
%Data type = RAW data with noise
%Day No = 2
%Subject ID = 6
%Session ID = 7
%Record starting timestamp (UTC+6) = 2022-03-12T10:07:00.507926
%Record ending timestamp (UTC+6)   = 2022-03-12T10:07:21.363693
%Recorded durations = ~20 seconds
Sample Index, EXG Channel 0, EXG Channel 1, EXG Channel 2, EXG Channel 3, EXG Channel 4, EXG Channel 5, EXG Channel 6, EXG Channel 7, Accel Channel 0, Accel Channel 1, Accel Channel 2, Other, Other, Other, Other, Other, Other, Other, Analog Channel 0, Analog Channel 1, Analog Channel 2, Timestamp, Timestamp (Formatted)
219.000000,2229.832379,12152.934033,-21917.628874,3511.637868,-49781.045292,24895.462381,32305.132723,-11642.375486,0.056000,0.940000,0.308000,192.000000,0.000000,0.000000,0.000000,0.000000,0.000000,0.000000,0.000000,0.000000,0.000000,1647058020.508065,0.000000
220.000000,2222.836283,12147.569614,-21921.898058,3508.530975,-49783.302818,24897.898721,32313.559331,-11617.900326,0.056000,0.940000,0.308000,192.000000,0.000000,0.000000,0.000000,0.000000,0.000000,0.000000,0.000000,0.000000,0.000000,1647058020.508076,0.000000
221.000000,2225.183216,12150.162417,-21919.685235,3509.536804,-49784.375701,24899.150419,32316.688575,-11608.020855,0.056000,0.940000,0.308000,192.000000,0.000000,0.000000,0.000000,0.000000,0.000000,0.000000,0.000000,0.000000,0.000000,1647058020.516028,0.000000
222.000000,2232.134608,12159.661908,-21917.517116,3512.308420,-49783.369873,24899.195123,32313.872256,-11611.619486,0.056000,0.940000,0.308000,192.000000,0.000000,0.000000,0.000000,0.000000,0.000000,0.000000,0.000000,0.000000,0.000000,1647058020.516034,0.000000
223.000000,2230.055896,12155.236263,-21918.724110,3509.425045,-49784.733329,24896.624672,32308.329023,-11615.553393,0.048000,0.934000,0.312000,192.000000,1.000000,128.000000,29.000000,48.000000,9.000000,192.000000,0.000000,0.000000,0.000000,1647058020.524364,0.000000
224.000000,2221.897509,12145.312088,-21918.947627,3507.078112,-49783.906315,24898.144591,32316.532113,-11612.670018,0.048000,0.934000,0.312000,192.000000,0.000000,0.000000,0.000000,0.000000,0.000000,0.000000,0.000000,0.000000,0.000000,1647058020.524368,0.000000
225.000000,2227.172521,12152.419943,-21912.085642,3512.487234,-49777.245495,24902.838457,32326.344529,-11600.443614,0.048000,0.934000,0.312000,192.000000,0.000000,0.000000,0.000000,0.000000,0.000000,0.000000,0.000000,0.000000,0.000000,1647058020.530636,0.000000
226.000000,2225.317326,12147.882539,-21912.979712,3512.107255,-49779.033635,24903.084326,32325.808087,-11598.521364,0.048000,0.934000,0.312000,192.000000,0.000000,0.000000,0.000000,0.000000,0.000000,0.000000,0.000000,0.000000,0.000000,1647058020.530641,0.000000
227.000000,2216.533091,12140.819388,-21921.339264,3505.267621,-49787.259077,24893.495428,32316.688575,-11609.808995,0.048000,0.934000,0.312000,192.000000,0.000000,0.000000,0.000000,0.000000,0.000000,0.000000,0.000000,0.000000,0.000000,1647058020.538581,0.000000
228.000000,2219.438817,12141.959327,-21919.282904,3505.133510,-49785.560344,24891.260253,32311.279453,-11613.631143,0.048000,0.934000,0.312000,192.000000,0.000000,0.000000,0.000000,0.000000,0.000000,0.000000,0.000000,0.000000,0.000000,1647058020.538586,0.000000
229.000000,2225.406733,12148.463684,-21912.197401,3510.475577,-49777.670178,24896.490562,32318.767288,-11607.707931,0.048000,0.934000,0.312000,192.000000,0.000000,0.000000,0.000000,0.000000,0.000000,0.000000,0.000000,0.000000,0.000000,1647058020.546572,0.000000
230.000000,2235.487370,12156.622071,-21905.693043,3514.051856,-49771.322283,24902.324367,32327.998558,-11601.672960,0.048000,0.934000,0.312000,192.000000,0.000000,0.000000,0.000000,0.000000,0.000000,0.000000,0.000000,0.000000,0.000000,1647058020.546576,0.000000
231.000000,2221.852806,12143.546300,-21920.892229,3501.378417,-49785.046254,24890.589701,32310.497142,-11620.090797,0.048000,0.934000,0.312000,192.000000,0.000000,0.000000,0.000000,0.000000,0.000000,0.000000,0.000000,0.000000,0.000000,1647058020.553678,0.000000
232.000000,2225.853768,12141.668754,-21919.953456,3500.529051,-49786.476765,24893.853056,32314.565160,-11612.714721,0.048000,0.934000,0.312000,192.000000,0.000000,0.000000,0.000000,0.000000,0.000000,0.000000,0.000000,0.000000,0.000000,1647058020.553684,0.000000
233.000000,2226.658431,12142.115789,-21918.522944,3500.260830,-49785.470937,24896.892893,32317.604997,-11610.099567,0.044000,0.936000,0.312000,192.000000,1.000000,96.000000,29.000000,64.000000,9.000000,192.000000,0.000000,0.000000,0.000000,1647058020.560256,0.000000
234.000000,2219.841149,12141.311126,-21921.495726,3500.886679,-49783.951018,24897.563445,32321.918884,-11609.518422,0.044000,0.936000,0.312000,192.000000,0.000000,0.000000,0.000000,0.000000,0.000000,0.000000,0.000000,0.000000,0.000000,1647058020.568186,0.000000
235.000000,2221.741047,12145.781475,-21919.796994,3505.513490,-49777.714882,24899.508047,32328.155020,-11609.272553,0.044000,0.936000,0.312000,192.000000,0.000000,0.000000,0.000000,0.000000,0.000000,0.000000,0.000000,0.000000,0.000000,1647058020.568198,0.000000
236.000000,2215.527262,12141.825216,-21926.256648,3501.177251,-49782.162879,24891.886102,32318.320253,-11620.381370,0.044000,0.936000,0.312000,192.000000,0.000000,0.000000,0.000000,0.000000,0.000000,0.000000,0.000000,0.000000,0.000000,1647058020.576241,0.000000
237.000000,2217.896547,12138.293640,-21927.106014,3498.271525,-49785.828565,24887.460457,32308.105505,-11627.556280,0.044000,0.936000,0.312000,192.000000,0.000000,0.000000,0.000000,0.000000,0.000000,0.000000,0.000000,0.000000,0.000000,1647058020.576249,0.000000
238.000000,2223.551538,12141.668754,-21920.758119,3500.663161,-49781.380568,24892.355489,32315.615692,-11619.755521,0.044000,0.936000,0.312000,192.000000,0.000000,0.000000,0.000000,0.000000,0.000000,0.000000,0.000000,0.000000,0.000000,1647058020.582988,0.000000
239.000000,2220.221128,12144.194501,-21919.685235,3502.831281,-49776.977274,24898.882198,32321.829477,-11611.485375,0.044000,0.936000,0.312000,192.000000,0.000000,0.000000,0.000000,0.000000,0.000000,0.000000,0.000000,0.000000,0.000000,1647058020.582994,0.000000
240.000000,2221.271660,12145.356792,-21919.260552,3503.278315,-49776.753757,24900.826800,32327.216247,-11601.047111,0.044000,0.936000,0.312000,192.000000,0.000000,0.000000,0.000000,0.000000,0.000000,0.000000,0.000000,0.000000,0.000000,1647058020.590925,0.000000
241.000000,2222.501006,12143.702763,-21919.841697,3501.244307,-49779.883001,24898.971605,32330.680767,-11604.556335,0.044000,0.936000,0.312000,192.000000,0.000000,0.000000,0.000000,0.000000,0.000000,0.000000,0.000000,0.000000,0.000000,1647058020.590953,0.000000
242.000000,2216.041352,12139.992373,-21924.088529,3496.662199,-49784.867440,24893.987166,32322.321215,-11615.106358,0.044000,0.936000,0.312000,192.000000,0.000000,0.000000,0.000000,0.000000,0.000000,0.000000,0.000000,0.000000,0.000000,1647058020.598857,0.000000
243.000000,2215.415503,12141.668754,-21926.077834,3494.449376,-49787.147318,24888.242768,32313.224055,-11624.181166,0.046000,0.930000,0.308000,192.000000,1.000000,112.000000,29.000000,16.000000,9.000000,160.000000,0.000000,0.000000,0.000000,1647058020.598888,0.000000
244.000000,2216.868367,12141.266422,-21927.106014,3492.929458,-49785.940324,24887.862788,32311.882950,-11629.210309,0.046000,0.930000,0.308000,192.000000,0.000000,0.000000,0.000000,0.000000,0.000000,0.000000,0.000000,0.000000,0.000000,1647058020.606068,0.000000
245.000000,2209.536995,12134.940879,-21931.621067,3488.168536,-49790.678893,24882.386611,32310.608901,-11626.908079,0.046000,0.930000,0.308000,192.000000,0.000000,0.000000,0.000000,0.000000,0.000000,0.000000,0.000000,0.000000,0.000000,1647058020.606073,0.000000
246.000000,2219.997611,12139.746504,-21922.747424,3495.768129,-49786.320303,24889.874445,32316.509761,-11615.575745,0.046000,0.930000,0.308000,192.000000,0.000000,0.000000,0.000000,0.000000,0.000000,0.000000,0.000000,0.000000,0.000000,1647058020.613544,0.000000
247.000000,2217.650678,12136.684315,-21924.088529,3496.438682,-49784.286294,24891.796695,32315.325119,-11629.769102,0.046000,0.930000,0.308000,192.000000,0.000000,0.000000,0.000000,0.000000,0.000000,0.000000,0.000000,0.000000,0.000000,1647058020.613549,0.000000
248.000000,2207.480634,12129.799978,-21934.683256,3487.497984,-49793.226992,24876.843378,32289.419447,-11659.586329,0.046000,0.930000,0.308000,192.000000,0.000000,0.000000,0.000000,0.000000,0.000000,0.000000,0.000000,0.000000,0.000000,1647058020.620567,0.000000
249.000000,2215.102579,12138.405399,-21928.536526,3494.404673,-49785.247420,24875.882253,32281.328116,-11662.961443,0.046000,0.930000,0.308000,192.000000,0.000000,0.000000,0.000000,0.000000,0.000000,0.000000,0.000000,0.000000,0.000000,1647058020.628515,0.000000
250.000000,2212.442721,12136.460797,-21928.491822,3496.505737,-49781.760547,24884.219454,32311.391212,-11627.735094,0.046000,0.930000,0.308000,192.000000,0.000000,0.000000,0.000000,0.000000,0.000000,0.000000,0.000000,0.000000,0.000000,1647058020.628520,0.000000
251.000000,2222.031620,12144.574481,-21918.701758,3504.462958,-49773.110422,24893.674242,32325.562218,-11609.674884,0.046000,0.930000,0.308000,192.000000,0.000000,0.000000,0.000000,0.000000,0.000000,0.000000,0.000000,0.000000,0.000000,1647058020.635794,0.000000
252.000000,2229.094771,12146.295565,-21915.080776,3507.502795,-49769.780012,24895.663547,32325.428107,-11618.660285,0.046000,0.930000,0.308000,192.000000,0.000000,0.000000,0.000000,0.000000,0.000000,0.000000,0.000000,0.000000,0.000000,1647058020.635800,0.000000
253.000000,2226.144341,12140.573518,-21918.478241,3507.279278,-49770.271751,24899.597454,32338.794451,-11606.567992,0.046000,0.930000,0.308000,192.000000,0.000000,0.000000,0.000000,0.000000,0.000000,0.000000,0.000000,0.000000,0.000000,1647058020.643165,0.000000
254.000000,2229.675916,12144.574481,-21914.499630,3509.805025,-49767.701300,24906.437088,32344.114166,-11590.742956,0.042000,0.934000,0.320000,192.000000,1.000000,80.000000,29.000000,48.000000,10.000000,0.000000,0.000000,0.000000,0.000000,1647058020.643171,0.000000
255.000000,2222.322192,12140.595870,-21921.875706,3501.914859,-49775.479707,24899.820971,32337.699215,-11596.397948,0.042000,0.934000,0.320000,192.000000,0.000000,0.000000,0.000000,0.000000,0.000000,0.000000,0.000000,0.000000,0.000000,1647058020.651306,0.000000
0.000000,2212.688591,12135.343210,-21930.123500,3493.711769,-49787.817870,24889.405059,32325.539866,-11609.853698,0.042000,0.934000,0.320000,192.000000,0.000000,0.000000,0.000000,0.000000,0.000000,0.000000,0.000000,0.000000,0.000000,1647058020.651337,0.000000
1.000000,2218.388285,12139.143007,-21923.596790,3496.081054,-49787.080263,24892.131971,32323.751727,-11611.328913,0.042000,0.934000,0.320000,192.000000,0.000000,0.000000,0.000000,0.000000,0.000000,0.000000,0.000000,0.000000,0.000000,1647058020.659132,0.000000
2.000000,2215.080227,12139.098303,-21925.027302,3494.918763,-49789.427196,24888.332175,32319.795468,-11616.313352,0.042000,0.934000,0.320000,192.000000,0.000000,0.000000,0.000000,0.000000,0.000000,0.000000,0.000000,0.000000,0.000000,1647058020.659137,0.000000
3.000000,2213.761474,12137.444274,-21926.971904,3493.063568,-49791.774129,24885.404096,32316.420354,-11621.767178,0.042000,0.934000,0.320000,192.000000,0.000000,0.000000,0.000000,0.000000,0.000000,0.000000,0.000000,0.000000,0.000000,1647058020.665806,0.000000
4.000000,2215.639021,12139.120655,-21923.574439,3497.913897,-49788.063739,24888.510989,32316.621520,-11625.097588,0.042000,0.934000,0.320000,192.000000,0.000000,0.000000,0.000000,0.000000,0.000000,0.000000,0.000000,0.000000,0.000000,1647058020.665810,0.000000
5.000000,2210.274602,12134.404437,-21925.876668,3494.941115,-49790.768300,24883.928881,32311.748840,-11634.686486,0.042000,0.934000,0.320000,192.000000,0.000000,0.000000,0.000000,0.000000,0.000000,0.000000,0.000000,0.000000,0.000000,1647058020.673714,0.000000
6.000000,2204.239631,12128.302411,-21931.352846,3489.844917,-49798.837280,24873.736486,32298.628366,-11644.431847,0.042000,0.934000,0.320000,192.000000,0.000000,0.000000,0.000000,0.000000,0.000000,0.000000,0.000000,0.000000,0.000000,1647058020.673718,0.000000
7.000000,2209.648753,12133.018629,-21926.815441,3494.829356,-49795.171594,24876.709268,32298.583662,-11637.480454,0.042000,0.934000,0.320000,192.000000,0.000000,0.000000,0.000000,0.000000,0.000000,0.000000,0.000000,0.000000,0.000000,1647058020.680803,0.000000
8.000000,2212.196852,12138.383047,-21922.166279,3500.350237,-49789.337789,24883.325384,32312.933482,-11627.153948,0.046000,0.938000,0.320000,192.000000,1.000000,112.000000,29.000000,80.000000,10.000000,0.000000,0.000000,0.000000,0.000000,1647058020.688853,0.000000
9.000000,2215.303745,12136.304335,-21920.065215,3501.825452,-49786.543821,24886.119352,32319.035509,-11624.941126,0.046000,0.938000,0.320000,192.000000,0.000000,0.000000,0.000000,0.000000,0.000000,0.000000,0.000000,0.000000,0.000000,1647058020.688857,0.000000
10.000000,2209.045256,12124.882594,-21923.015645,3498.740911,-49789.315437,24886.901663,32320.957759,-11627.221003,0.046000,0.938000,0.320000,192.000000,0.000000,0.000000,0.000000,0.000000,0.000000,0.000000,0.000000,0.000000,0.000000,1647058020.695395,0.000000
11.000000,2200.998628,12117.864146,-21928.424767,3494.605839,-49796.065664,24885.113524,32317.090907,-11629.076198,0.046000,0.938000,0.320000,192.000000,0.000000,0.000000,0.000000,0.000000,0.000000,0.000000,0.000000,0.000000,0.000000,1647058020.695399,0.000000
12.000000,2200.663352,12120.546355,-21926.591924,3497.310400,-49793.897545,24894.545960,32324.958721,-11615.016951,0.046000,0.938000,0.320000,192.000000,0.000000,0.000000,0.000000,0.000000,0.000000,0.000000,0.000000,0.000000,0.000000,1647058020.703391,0.000000
13.000000,2203.993762,12123.765007,-21924.446157,3499.679685,-49790.120100,24896.870541,32323.483506,-11617.028608,0.046000,0.938000,0.320000,192.000000,0.000000,0.000000,0.000000,0.000000,0.000000,0.000000,0.000000,0.000000,0.000000,1647058020.703394,0.000000
14.000000,2202.853823,12124.770835,-21927.374235,3499.590278,-49790.477728,24893.115448,32315.392174,-11624.069407,0.046000,0.938000,0.320000,192.000000,0.000000,0.000000,0.000000,0.000000,0.000000,0.000000,0.000000,0.000000,0.000000,1647058020.711386,0.000000
15.000000,2201.825643,12121.663943,-21930.168203,3494.114100,-49797.116196,24884.845303,32297.689593,-11637.033419,0.046000,0.938000,0.320000,192.000000,0.000000,0.000000,0.000000,0.000000,0.000000,0.000000,0.000000,0.000000,0.000000,1647058020.711391,0.000000
16.000000,2199.657524,12115.137233,-21935.912601,3486.916839,-49802.905298,24873.892948,32278.400037,-11655.674774,0.046000,0.938000,0.320000,192.000000,0.000000,0.000000,0.000000,0.000000,0.000000,0.000000,0.000000,0.000000,0.000000,1647058020.717968,0.000000
17.000000,2204.016114,12116.455986,-21930.525831,3491.074263,-49797.473824,24881.313727,32303.813971,-11629.746751,0.046000,0.938000,0.320000,192.000000,0.000000,0.000000,0.000000,0.000000,0.000000,0.000000,0.000000,0.000000,0.000000,1647058020.717973,0.000000
18.000000,2211.861576,12119.719341,-21924.177936,3496.975124,-49789.829527,24894.434201,32341.364901,-11602.902305,0.048000,0.930000,0.316000,192.000000,1.000000,128.000000,29.000000,16.000000,9.000000,224.000000,0.000000,0.000000,0.000000,1647058020.726064,0.000000
19.000000,2208.687628,12118.020608,-21927.687160,3495.231687,-49791.416501,24889.852093,32333.742956,-11610.792471,0.048000,0.930000,0.316000,192.000000,0.000000,0.000000,0.000000,0.000000,0.000000,0.000000,0.000000,0.000000,0.000000,1647058020.726068,0.000000
20.000000,2202.227974,12118.467643,-21931.933991,3495.768129,-49794.590449,24884.711192,32322.254160,-11614.771082,0.048000,0.930000,0.316000,192.000000,0.000000,0.000000,0.000000,0.000000,0.000000,0.000000,0.000000,0.000000,0.000000,1647058020.734011,0.000000
21.000000,2201.177442,12116.478338,-21933.342151,3498.673856,-49793.674027,24884.644137,32320.488372,-11612.222983,0.048000,0.930000,0.316000,192.000000,0.000000,0.000000,0.000000,0.000000,0.000000,0.000000,0.000000,0.000000,0.000000,1647058020.734015,0.000000
22.000000,2203.546727,12116.008951,-21928.827098,3501.758397,-49790.701245,24890.589701,32324.958721,-11601.024759,0.048000,0.930000,0.316000,192.000000,0.000000,0.000000,0.000000,0.000000,0.000000,0.000000,0.000000,0.000000,0.000000,1647058020.741256,0.000000
23.000000,2207.502986,12121.105149,-21924.647322,3506.005228,-49786.007379,24893.562483,32322.164753,-11604.623390,0.048000,0.930000,0.316000,192.000000,0.000000,0.000000,0.000000,0.000000,0.000000,0.000000,0.000000,0.000000,0.000000,1647058020.747562,0.000000
24.000000,2206.094826,12120.322838,-21926.636628,3504.217089,-49788.443719,24889.919149,32316.845038,-11616.067483,0.048000,0.930000,0.316000,192.000000,0.000000,0.000000,0.000000,0.000000,0.000000,0.000000,0.000000,0.000000,0.000000,1647058020.747566,0.000000
25.000000,2209.268774,12120.434597,-21926.211944,3503.032446,-49791.081225,24892.556655,32321.449497,-11613.765253,0.048000,0.930000,0.316000,192.000000,0.000000,0.000000,0.000000,0.000000,0.000000,0.000000,0.000000,0.000000,0.000000,1647058020.755744,0.000000
26.000000,2210.654582,12115.204288,-21929.765872,3497.757435,-49795.596277,24889.740335,32318.454363,-11617.922678,0.048000,0.930000,0.316000,192.000000,0.000000,0.000000,0.000000,0.000000,0.000000,0.000000,0.000000,0.000000,0.000000,1647058020.755748,0.000000
27.000000,2203.278506,12111.739768,-21934.795014,3492.102443,-49799.284315,24886.387573,32312.866427,-11616.179242,0.048000,0.930000,0.316000,192.000000,0.000000,0.000000,0.000000,0.000000,0.000000,0.000000,0.000000,0.000000,0.000000,1647058020.763657,0.000000
28.000000,2199.501061,12107.559992,-21938.460700,3488.302647,-49801.385379,24881.827817,32304.573930,-11624.114111,0.044000,0.932000,0.318000,192.000000,1.000000,96.000000,29.000000,32.000000,9.000000,240.000000,0.000000,0.000000,0.000000,1647058020.763661,0.000000
29.000000,2204.843128,12111.046864,-21934.102110,3490.873097,-49796.043312,24884.375916,32310.094811,-11623.264745,0.044000,0.932000,0.318000,192.000000,0.000000,0.000000,0.000000,0.000000,0.000000,0.000000,0.000000,0.000000,0.000000,1647058020.770885,0.000000
30.000000,2208.419407,12113.282038,-21933.029226,3490.291952,-49794.724559,24884.666489,32310.877122,-11628.852681,0.044000,0.932000,0.318000,192.000000,0.000000,0.000000,0.000000,0.000000,0.000000,0.000000,0.000000,0.000000,0.000000,1647058020.770888,0.000000
31.000000,2203.882003,12108.945800,-21935.867898,3487.565039,-49796.758568,24880.263195,32303.366936,-11637.368695,0.044000,0.932000,0.318000,192.000000,0.000000,0.000000,0.000000,0.000000,0.000000,0.000000,0.000000,0.000000,0.000000,1647058020.778283,0.000000
32.000000,2201.065683,12104.877782,-21937.432520,3483.564077,-49798.367894,24880.352602,32304.551578,-11631.713704,0.044000,0.932000,0.318000,192.000000,0.000000,0.000000,0.000000,0.000000,0.000000,0.000000,0.000000,0.000000,0.000000,1647058020.778287,0.000000
33.000000,2199.165785,12103.246105,-21939.891212,3483.944057,-49801.407731,24880.486713,32309.133686,-11628.405646,0.044000,0.932000,0.318000,192.000000,0.000000,0.000000,0.000000,0.000000,0.000000,0.000000,0.000000,0.000000,0.000000,1647058020.786208,0.000000
34.000000,2198.472881,12103.581381,-21940.002971,3484.994588,-49802.078283,24882.364259,32310.228921,-11627.757445,0.044000,0.932000,0.318000,192.000000,0.000000,0.000000,0.000000,0.000000,0.000000,0.000000,0.000000,0.000000,0.000000,1647058020.786212,0.000000
35.000000,2202.898527,12106.487108,-21937.991314,3487.296818,-49799.150205,24882.811294,32310.810067,-11624.628201,0.044000,0.932000,0.318000,192.000000,0.000000,0.000000,0.000000,0.000000,0.000000,0.000000,0.000000,0.000000,0.000000,1647058020.794274,0.000000
36.000000,2204.284335,12107.515288,-21936.381988,3477.126774,-49800.714827,24882.811294,32311.078287,-11629.858509,0.044000,0.932000,0.318000,192.000000,0.000000,0.000000,0.000000,0.000000,0.000000,0.000000,0.000000,0.000000,0.000000,1647058020.794278,0.000000
37.000000,2207.033599,12111.449195,-21932.962171,3480.814812,-49797.026789,24883.571253,32313.157000,-11635.357038,0.044000,0.932000,0.318000,192.000000,0.000000,0.000000,0.000000,0.000000,0.000000,0.000000,0.000000,0.000000,0.000000,1647058020.800380,0.000000
38.000000,2207.659448,12112.499727,-21930.168203,3503.367722,-49787.683760,24886.231111,32317.627349,-11627.623335,0.044000,0.932000,0.318000,192.000000,1.000000,96.000000,29.000000,32.000000,9.000000,240.000000,0.000000,0.000000,0.000000,1647058020.800384,0.000000
39.000000,2212.912108,12117.484166,-21925.988427,3504.015923,-49783.101652,24890.746163,32320.041337,-11608.691407,0.044000,0.932000,0.318000,192.000000,0.000000,0.000000,0.000000,0.000000,0.000000,0.000000,0.000000,0.000000,0.000000,1647058020.807958,0.000000
40.000000,2211.213375,12118.065312,-21923.462680,3503.837109,-49782.855783,24891.617881,32314.542808,-11610.881878,0.044000,0.932000,0.318000,192.000000,0.000000,0.000000,0.000000,0.000000,0.000000,0.000000,0.000000,0.000000,0.000000,1647058020.815860,0.000000
41.000000,2202.049160,12105.995370,-21931.665770,3491.074263,-49792.847013,24880.240843,32310.519494,-11627.265707,0.044000,0.932000,0.318000,192.000000,0.000000,0.000000,0.000000,0.000000,0.000000,0.000000,0.000000,0.000000,0.000000,1647058020.815864,0.000000
42.000000,2210.453416,12113.326742,-21925.519040,3495.790481,-49787.817870,24885.962890,32325.271645,-11619.666114,0.044000,0.932000,0.318000,192.000000,0.000000,0.000000,0.000000,0.000000,0.000000,0.000000,0.000000,0.000000,0.000000,1647058020.823055,0.000000
43.000000,2212.263907,12117.573573,-21927.441290,3499.567926,-49786.543821,24887.549864,32322.812953,-11615.240468,0.044000,0.932000,0.318000,192.000000,0.000000,0.000000,0.000000,0.000000,0.000000,0.000000,0.000000,0.000000,0.000000,1647058020.823063,0.000000
44.000000,2215.236689,12120.881631,-21927.106014,3501.713693,-49786.253248,24886.968718,32317.023852,-11611.574782,0.044000,0.932000,0.318000,192.000000,0.000000,0.000000,0.000000,0.000000,0.000000,0.000000,0.000000,0.000000,0.000000,1647058020.830608,0.000000
45.000000,2217.807140,12118.422940,-21924.624971,3501.646638,-49786.409710,24885.717021,32321.762421,-11609.741939,0.044000,0.932000,0.318000,192.000000,0.000000,0.000000,0.000000,0.000000,0.000000,0.000000,0.000000,0.000000,0.000000,1647058020.830612,0.000000
46.000000,2221.517530,12117.484166,-21919.796994,3505.893470,-49781.425271,24886.007593,32328.937331,-11603.863430,0.044000,0.932000,0.318000,192.000000,0.000000,0.000000,0.000000,0.000000,0.000000,0.000000,0.000000,0.000000,0.000000,1647058020.838458,0.000000
47.000000,2218.656506,12114.220812,-21921.518078,3505.759359,-49778.631303,24885.627614,32329.384366,-11604.869259,0.044000,0.932000,0.318000,192.000000,0.000000,0.000000,0.000000,0.000000,0.000000,0.000000,0.000000,0.000000,0.000000,1647058020.838462,0.000000
48.000000,2211.749817,12106.487108,-21929.452947,3500.350237,-49783.816908,24880.464361,32320.309558,-11615.911021,0.046000,0.924000,0.310000,192.000000,1.000000,112.000000,28.000000,224.000000,9.000000,176.000000,0.000000,0.000000,0.000000,1647058020.846707,0.000000
49.000000,2212.129797,12107.470585,-21929.095319,3501.803100,-49781.492326,24882.543073,32316.599168,-11616.760387,0.046000,0.924000,0.310000,192.000000,0.000000,0.000000,0.000000,0.000000,0.000000,0.000000,0.000000,0.000000,0.000000,1647058020.846712,0.000000
50.000000,2210.051085,12101.301503,-21929.117671,3498.696208,-49784.018074,24886.678146,32320.689538,-11612.446500,0.046000,0.924000,0.310000,192.000000,0.000000,0.000000,0.000000,0.000000,0.000000,0.000000,0.000000,0.000000,0.000000,1647058020.853201,0.000000
51.000000,2203.703189,12094.037186,-21934.035055,3494.561135,-49789.851879,24886.320518,32316.845038,-11619.420245,0.046000,0.924000,0.310000,192.000000,0.000000,0.000000,0.000000,0.000000,0.000000,0.000000,0.000000,0.000000,0.000000,1647058020.853205,0.000000
52.000000,2197.690570,12092.181992,-21940.047674,3490.068434,-49795.484518,24885.180579,32308.619596,-11628.763274,0.046000,0.924000,0.310000,192.000000,0.000000,0.000000,0.000000,0.000000,0.000000,0.000000,0.000000,0.000000,0.000000,1647058020.861134,0.000000
53.000000,2196.640038,12089.991521,-21942.841642,3487.386225,-49797.987914,24883.928881,32298.360145,-11634.462969,0.046000,0.924000,0.310000,192.000000,0.000000,0.000000,0.000000,0.000000,0.000000,0.000000,0.000000,0.000000,0.000000,1647058020.861137,0.000000
54.000000,2194.784843,12087.532829,-21944.585078,3484.994588,-49797.809100,24881.045506,32291.431104,-11639.469759,0.046000,0.924000,0.310000,192.000000,0.000000,0.000000,0.000000,0.000000,0.000000,0.000000,0.000000,0.000000,0.000000,1647058020.868273,0.000000
55.000000,2191.521489,12085.677634,-21944.272154,3484.614609,-49797.026789,24881.336079,32300.707078,-11627.824501,0.046000,0.924000,0.310000,192.000000,0.000000,0.000000,0.000000,0.000000,0.000000,0.000000,0.000000,0.000000,0.000000,1647058020.876154,0.000000
56.000000,2191.141509,12087.331663,-21942.014628,3483.497022,-49795.059835,24882.364259,32309.804238,-11625.723437,0.046000,0.924000,0.310000,192.000000,0.000000,0.000000,0.000000,0.000000,0.000000,0.000000,0.000000,0.000000,0.000000,1647058020.876158,0.000000
57.000000,2196.818852,12090.259742,-21939.220660,3481.083033,-49794.322228,24878.296242,32299.321270,-11639.447408,0.046000,0.924000,0.310000,192.000000,0.000000,0.000000,0.000000,0.000000,0.000000,0.000000,0.000000,0.000000,0.000000,1647058020.882781,0.000000
58.000000,2194.628381,12088.695119,-21943.847471,3476.456222,-49796.870327,24873.110637,32285.709058,-11647.806960,0.050000,0.928000,0.318000,192.000000,1.000000,144.000000,29.000000,0.000000,9.000000,240.000000,0.000000,0.000000,0.000000,1647058020.882785,0.000000
59.000000,2197.332942,12093.970131,-21938.706570,3480.814812,-49794.210469,24880.576119,32299.410677,-11625.812844,0.050000,0.928000,0.318000,192.000000,0.000000,0.000000,0.000000,0.000000,0.000000,0.000000,0.000000,0.000000,0.000000,1647058020.890787,0.000000
60.000000,2202.496195,12097.725224,-21932.671599,3485.173402,-49788.935457,24894.054221,32335.776965,-11595.436823,0.050000,0.928000,0.318000,192.000000,0.000000,0.000000,0.000000,0.000000,0.000000,0.000000,0.000000,0.000000,0.000000,1647058020.890791,0.000000
61.000000,2193.734311,12091.377329,-21944.763892,3465.436812,-49801.117158,24886.298166,32330.524305,-11602.835250,0.050000,0.928000,0.318000,192.000000,0.000000,0.000000,0.000000,0.000000,0.000000,0.000000,0.000000,0.000000,0.000000,1647058020.898798,0.000000
62.000000,2200.596297,12094.260704,-21941.634648,3475.875077,-49797.116196,24887.639271,32323.282340,-11610.568954,0.050000,0.928000,0.318000,192.000000,0.000000,0.000000,0.000000,0.000000,0.000000,0.000000,0.000000,0.000000,0.000000,1647058020.898802,0.000000
63.000000,2199.679875,12089.522134,-21936.046712,3494.583487,-49788.622533,24892.981338,32323.371747,-11606.433881,0.050000,0.928000,0.318000,192.000000,0.000000,0.000000,0.000000,0.000000,0.000000,0.000000,0.000000,0.000000,0.000000,1647058020.905864,0.000000
64.000000,2193.622553,12084.872971,-21938.617163,3485.039292,-49791.237687,24890.723811,32323.617616,-11615.352227,0.050000,0.928000,0.318000,192.000000,0.000000,0.000000,0.000000,0.000000,0.000000,0.000000,0.000000,0.000000,0.000000,1647058020.905868,0.000000
65.000000,2190.202736,12079.687366,-21944.182747,3475.562152,-49799.329019,24881.961928,32309.960700,-11629.322067,0.050000,0.928000,0.318000,192.000000,0.000000,0.000000,0.000000,0.000000,0.000000,0.000000,0.000000,0.000000,0.000000,1647058020.913411,0.000000
66.000000,2187.475823,12072.981843,-21947.222584,3470.197734,-49807.152129,24877.245710,32303.277529,-11620.604887,0.050000,0.928000,0.318000,192.000000,0.000000,0.000000,0.000000,0.000000,0.000000,0.000000,0.000000,0.000000,0.000000,1647058020.913414,0.000000
67.000000,2196.684742,12081.117878,-21939.533584,3477.797327,-49800.625420,24883.392439,32308.038450,-11609.741939,0.050000,0.928000,0.318000,192.000000,0.000000,0.000000,0.000000,0.000000,0.000000,0.000000,0.000000,0.000000,0.000000,1647058020.921393,0.000000
68.000000,2194.762492,12083.978901,-21938.617163,3484.145222,-49796.915030,24891.662585,32321.091869,-11604.221058,0.046000,0.928000,0.316000,192.000000,1.000000,112.000000,29.000000,0.000000,9.000000,224.000000,0.000000,0.000000,0.000000,1647058020.921397,0.000000
69.000000,2189.509832,12082.213114,-21943.467491,3481.664179,-49801.295972,24891.059088,32321.315386,-11612.826480,0.046000,0.928000,0.316000,192.000000,0.000000,0.000000,0.000000,0.000000,0.000000,0.000000,0.000000,0.000000,0.000000,1647058020.928435,0.000000
70.000000,2190.202736,12083.665977,-21946.797901,3478.020844,-49804.760492,24888.756858,32322.432974,-11616.045131,0.046000,0.928000,0.316000,192.000000,0.000000,0.000000,0.000000,0.000000,0.000000,0.000000,0.000000,0.000000,0.000000,1647058020.935531,0.000000
71.000000,2185.307704,12077.474544,-21950.262421,3473.192867,-49808.448530,24885.895835,32320.689538,-11615.084006,0.046000,0.928000,0.316000,192.000000,0.000000,0.000000,0.000000,0.000000,0.000000,0.000000,0.000000,0.000000,0.000000,1647058020.935535,0.000000
72.000000,2185.173593,12075.507590,-21949.949497,3471.360024,-49808.157958,24882.408963,32322.410622,-11612.334742,0.046000,0.928000,0.316000,192.000000,0.000000,0.000000,0.000000,0.000000,0.000000,0.000000,0.000000,0.000000,0.000000,1647058020.943215,0.000000
73.000000,2189.867460,12078.681538,-21945.143872,3473.841068,-49803.419388,24882.386611,32323.461154,-11612.893535,0.046000,0.928000,0.316000,192.000000,0.000000,0.000000,0.000000,0.000000,0.000000,0.000000,0.000000,0.000000,0.000000,1647058020.943219,0.000000
74.000000,2182.893715,12072.825381,-21951.871747,3468.342539,-49808.604992,24875.904605,32316.956796,-11622.951820,0.046000,0.928000,0.316000,192.000000,0.000000,0.000000,0.000000,0.000000,0.000000,0.000000,0.000000,0.000000,0.000000,1647058020.951135,0.000000
75.000000,2185.441814,12070.076116,-21950.910622,3465.839143,-49811.533071,24874.071762,32312.933482,-11628.316239,0.046000,0.928000,0.316000,192.000000,0.000000,0.000000,0.000000,0.000000,0.000000,0.000000,0.000000,0.000000,0.000000,1647058020.951140,0.000000
76.000000,2188.034616,12066.924520,-21951.469416,3450.192922,-49817.143359,24876.575157,32306.295014,-11630.976097,0.046000,0.928000,0.316000,192.000000,0.000000,0.000000,0.000000,0.000000,0.000000,0.000000,0.000000,0.000000,0.000000,1647058020.959057,0.000000
77.000000,2191.297971,12067.617424,-21949.100131,3463.581617,-49814.103522,24876.441047,32300.304747,-11636.809902,0.046000,0.928000,0.316000,192.000000,0.000000,0.000000,0.000000,0.000000,0.000000,0.000000,0.000000,0.000000,0.000000,1647058020.959061,0.000000
78.000000,2193.376683,12072.937140,-21946.507328,3480.010149,-49808.560289,24876.552805,32302.763439,-11634.552376,0.046000,0.932000,0.310000,192.000000,1.000000,112.000000,29.000000,32.000000,9.000000,176.000000,0.000000,0.000000,0.000000,1647058020.965661,0.000000
79.000000,2193.354332,12075.619349,-21946.641439,3475.249228,-49807.152129,24879.860864,32315.772154,-11625.566974,0.046000,0.932000,0.310000,192.000000,0.000000,0.000000,0.000000,0.000000,0.000000,0.000000,0.000000,0.000000,0.000000,1647058020.965665,0.000000
80.000000,2184.793614,12068.332680,-21957.772608,3464.363928,-49816.964545,24866.650983,32298.024869,-11645.795303,0.046000,0.932000,0.310000,192.000000,0.000000,0.000000,0.000000,0.000000,0.000000,0.000000,0.000000,0.000000,0.000000,1647058020.973678,0.000000
81.000000,2186.246477,12070.947834,-21957.482035,3464.810963,-49816.361048,24864.281698,32285.731409,-11646.354097,0.046000,0.932000,0.310000,192.000000,0.000000,0.000000,0.000000,0.000000,0.000000,0.000000,0.000000,0.000000,0.000000,1647058020.973682,0.000000
82.000000,2193.130814,12078.569779,-21949.547166,3473.841068,-49807.174481,24871.970698,32293.532168,-11630.663172,0.046000,0.932000,0.310000,192.000000,0.000000,0.000000,0.000000,0.000000,0.000000,0.000000,0.000000,0.000000,0.000000,1647058020.981722,0.000000
83.000000,2192.616724,12075.954625,-21949.256593,3472.142335,-49807.129777,24876.284585,32311.748840,-11616.670980,0.046000,0.932000,0.310000,192.000000,0.000000,0.000000,0.000000,0.000000,0.000000,0.000000,0.000000,0.000000,0.000000,1647058020.981725,0.000000
84.000000,2186.626457,12076.267550,-21950.888270,3470.421251,-49810.795463,24876.284585,32319.549599,-11618.570878,0.046000,0.932000,0.310000,192.000000,0.000000,0.000000,0.000000,0.000000,0.000000,0.000000,0.000000,0.000000,0.000000,1647058020.987803,0.000000
85.000000,2183.698378,12077.072212,-21951.983506,3470.600065,-49812.225975,24875.390515,32311.972357,-11620.984867,0.046000,0.932000,0.310000,192.000000,0.000000,0.000000,0.000000,0.000000,0.000000,0.000000,0.000000,0.000000,0.000000,1647058020.995435,0.000000
86.000000,2177.305779,12068.578549,-21961.482997,3461.257036,-49822.351315,24866.315707,32302.472866,-11630.014971,0.046000,0.932000,0.310000,192.000000,0.000000,0.000000,0.000000,0.000000,0.000000,0.000000,0.000000,0.000000,0.000000,1647058020.995446,0.000000
87.000000,2180.479727,12068.287977,-21959.493692,3461.301739,-49821.591356,24867.656811,32308.977224,-11622.996524,0.046000,0.932000,0.310000,192.000000,0.000000,0.000000,0.000000,0.000000,0.000000,0.000000,0.000000,0.000000,0.000000,1647058021.003456,0.000000
88.000000,2191.476785,12073.361823,-21952.587003,3462.821658,-49816.293993,24873.691782,32311.815895,-11619.129672,0.042000,0.932000,0.314000,192.000000,1.000000,80.000000,29.000000,32.000000,9.000000,208.000000,0.000000,0.000000,0.000000,1647058021.003464,0.000000
89.000000,2191.007398,12073.585340,-21954.978639,3461.167629,-49816.875138,24871.791884,32304.216302,-11628.875033,0.042000,0.932000,0.314000,192.000000,0.000000,0.000000,0.000000,0.000000,0.000000,0.000000,0.000000,0.000000,0.000000,1647058021.011455,0.000000
90.000000,2185.754739,12069.047936,-21956.744427,3461.033518,-49817.568042,24870.428428,32300.818837,-11634.172396,0.042000,0.932000,0.314000,192.000000,0.000000,0.000000,0.000000,0.000000,0.000000,0.000000,0.000000,0.000000,0.000000,1647058021.011462,0.000000
91.000000,2186.693512,12066.902169,-21957.660849,3460.362966,-49819.400885,24867.947384,32295.476770,-11637.882786,0.042000,0.932000,0.314000,192.000000,0.000000,0.000000,0.000000,0.000000,0.000000,0.000000,0.000000,0.000000,0.000000,1647058021.017941,0.000000
92.000000,2193.846070,12075.172314,-21952.810520,3462.866361,-49811.689533,24876.865730,32309.536017,-11615.687503,0.042000,0.932000,0.314000,192.000000,0.000000,0.000000,0.000000,0.000000,0.000000,0.000000,0.000000,0.000000,0.000000,1647058021.017945,0.000000
93.000000,2194.807195,12071.573683,-21953.816349,3454.618568,-49812.047161,24880.129085,32314.788677,-11608.423186,0.042000,0.932000,0.314000,192.000000,0.000000,0.000000,0.000000,0.000000,0.000000,0.000000,0.000000,0.000000,0.000000,1647058021.026232,0.000000
94.000000,2187.699340,12059.660203,-21957.593794,3469.258960,-49812.449493,24872.171864,32304.775096,-11623.443559,0.042000,0.932000,0.314000,192.000000,0.000000,0.000000,0.000000,0.000000,0.000000,0.000000,0.000000,0.000000,0.000000,1647058021.026240,0.000000
95.000000,2189.196907,12058.184988,-21956.543262,3464.006300,-49815.623440,24868.908509,32303.568101,-11627.355114,0.042000,0.932000,0.314000,192.000000,0.000000,0.000000,0.000000,0.000000,0.000000,0.000000,0.000000,0.000000,0.000000,1647058021.034395,0.000000
96.000000,2189.219259,12057.916767,-21955.850358,3459.044213,-49818.707981,24866.449817,32295.566177,-11638.285117,0.042000,0.932000,0.314000,192.000000,0.000000,0.000000,0.000000,0.000000,0.000000,0.000000,0.000000,0.000000,0.000000,1647058021.034411,0.000000
97.000000,2183.743082,12058.117933,-21955.738599,3458.217199,-49819.043257,24868.349715,32296.437895,-11639.737980,0.042000,0.932000,0.314000,192.000000,0.000000,0.000000,0.000000,0.000000,0.000000,0.000000,0.000000,0.000000,0.000000,1647058021.041595,0.000000
98.000000,2181.977294,12062.096544,-21956.587965,3461.324091,-49818.596222,24872.305974,32305.512703,-11625.052884,0.042000,0.932000,0.314000,192.000000,0.000000,0.000000,0.000000,0.000000,0.000000,0.000000,0.000000,0.000000,0.000000,1647058021.041612,0.000000
99.000000,2181.597314,12060.755439,-21959.516044,3460.362966,-49821.703115,24867.232128,32300.461209,-11626.863376,0.050000,0.934000,0.310000,192.000000,1.000000,144.000000,29.000000,48.000000,9.000000,176.000000,0.000000,0.000000,0.000000,1647058021.048122,0.000000
100.000000,2184.547744,12066.343375,-21955.760951,3461.726423,-49818.886795,24867.567404,32302.361107,-11625.052884,0.050000,0.934000,0.310000,192.000000,0.000000,0.000000,0.000000,0.000000,0.000000,0.000000,0.000000,0.000000,0.000000,1647058021.048139,0.000000
101.000000,2191.476785,12071.685442,-21952.318782,3466.621455,-49814.595260,24868.819102,32300.707078,-11631.378428,0.050000,0.934000,0.310000,192.000000,0.000000,0.000000,0.000000,0.000000,0.000000,0.000000,0.000000,0.000000,0.000000,1647058021.056007,0.000000
102.000000,2191.543840,12068.511494,-21956.878538,3465.727385,-49817.210414,24864.974602,32291.028773,-11638.195710,0.050000,0.934000,0.310000,192.000000,0.000000,0.000000,0.000000,0.000000,0.000000,0.000000,0.000000,0.000000,0.000000,1647058021.064024,0.000000
103.000000,2186.961733,12063.214131,-21960.119541,3464.252170,-49820.563176,24860.571308,32280.232880,-11638.709800,0.050000,0.934000,0.310000,192.000000,0.000000,0.000000,0.000000,0.000000,0.000000,0.000000,0.000000,0.000000,0.000000,1647058021.064041,0.000000
104.000000,2187.051140,12064.689346,-21958.487863,3464.676853,-49819.244423,24858.961983,32280.612860,-11646.421152,0.050000,0.934000,0.310000,192.000000,0.000000,0.000000,0.000000,0.000000,0.000000,0.000000,0.000000,0.000000,0.000000,1647058021.071193,0.000000
105.000000,2184.950076,12064.845808,-21960.745390,3462.486382,-49822.127798,24858.134968,32294.403886,-11643.180149,0.050000,0.934000,0.310000,192.000000,0.000000,0.000000,0.000000,0.000000,0.000000,0.000000,0.000000,0.000000,0.000000,1647058021.071210,0.000000
106.000000,2196.416521,12069.629081,-21958.420808,3462.888713,-49821.323135,24860.236032,32300.796485,-11634.977059,0.050000,0.934000,0.310000,192.000000,0.000000,0.000000,0.000000,0.000000,0.000000,0.000000,0.000000,0.000000,0.000000,1647058021.078704,0.000000
107.000000,2193.801367,12070.165523,-21961.415942,3461.301739,-49823.290089,24856.860919,32295.543825,-11636.340515,0.050000,0.934000,0.310000,192.000000,0.000000,0.000000,0.000000,0.000000,0.000000,0.000000,0.000000,0.000000,0.000000,1647058021.078738,0.000000
108.000000,2192.147337,12069.964358,-21961.505349,3458.865399,-49823.044219,24858.649058,32299.477732,-11618.526175,0.050000,0.934000,0.310000,192.000000,0.000000,0.000000,0.000000,0.000000,0.000000,0.000000,0.000000,0.000000,0.000000,1647058021.086696,0.000000
109.000000,2192.303800,12070.813724,-21959.381933,3459.692414,-49823.066571,24858.917279,32298.114276,-11618.928506,0.038000,0.936000,0.312000,192.000000,1.000000,48.000000,29.000000,64.000000,9.000000,192.000000,0.000000,0.000000,0.000000,1647058021.086713,0.000000
110.000000,2189.666294,12063.147076,-21961.617108,3453.433925,-49825.569967,24860.683067,32308.776058,-11616.000428,0.038000,0.936000,0.312000,192.000000,0.000000,0.000000,0.000000,0.000000,0.000000,0.000000,0.000000,0.000000,0.000000,1647058021.093759,0.000000
111.000000,2193.108462,12062.074192,-21957.169110,3443.576806,-49825.033525,24863.812311,32311.815895,-11613.452329,0.038000,0.936000,0.312000,192.000000,0.000000,0.000000,0.000000,0.000000,0.000000,0.000000,0.000000,0.000000,0.000000,1647058021.093771,0.000000
112.000000,2197.824681,12067.684480,-21954.598660,3467.873152,-49816.092827,24864.594622,32307.993747,-11618.235602,0.038000,0.936000,0.312000,192.000000,0.000000,0.000000,0.000000,0.000000,0.000000,0.000000,0.000000,0.000000,0.000000,1647058021.101337,0.000000
113.000000,2198.674047,12071.774849,-21955.649192,3469.504830,-49815.690495,24862.582965,32301.712907,-11625.410512,0.038000,0.936000,0.312000,192.000000,0.000000,0.000000,0.000000,0.000000,0.000000,0.000000,0.000000,0.000000,0.000000,1647058021.101353,0.000000
114.000000,2192.996704,12065.717526,-21958.532567,3461.793478,-49817.143359,24857.687933,32289.777075,-11638.463931,0.038000,0.936000,0.312000,192.000000,0.000000,0.000000,0.000000,0.000000,0.000000,0.000000,0.000000,0.000000,0.000000,1647058021.109117,0.000000
115.000000,2199.970448,12076.021680,-21948.943668,3468.275484,-49809.476710,24861.778302,32291.162883,-11631.333724,0.038000,0.936000,0.312000,192.000000,0.000000,0.000000,0.000000,0.000000,0.000000,0.000000,0.000000,0.000000,0.000000,1647058021.109133,0.000000
116.000000,2205.424274,12078.860352,-21946.775549,3468.230780,-49807.867385,24863.968773,32297.711944,-11627.310410,0.038000,0.936000,0.312000,192.000000,0.000000,0.000000,0.000000,0.000000,0.000000,0.000000,0.000000,0.000000,0.000000,1647058021.116073,0.000000
117.000000,2202.831471,12075.373480,-21952.810520,3462.195809,-49811.555423,24859.319611,32298.404848,-11636.295812,0.038000,0.936000,0.312000,192.000000,0.000000,0.000000,0.000000,0.000000,0.000000,0.000000,0.000000,0.000000,0.000000,1647058021.123609,0.000000
118.000000,2198.830509,12078.055689,-21953.749294,3463.872190,-49813.365914,24856.905622,32290.984069,-11640.363829,0.038000,0.936000,0.312000,192.000000,0.000000,0.000000,0.000000,0.000000,0.000000,0.000000,0.000000,0.000000,0.000000,1647058021.123625,0.000000
119.000000,2202.183271,12082.324872,-21948.898965,3465.772088,-49808.828510,24861.152454,32290.313517,-11634.440617,0.042000,0.936000,0.318000,192.000000,1.000000,80.000000,29.000000,64.000000,9.000000,240.000000,0.000000,0.000000,0.000000,1647058021.130911,0.000000
120.000000,2206.698323,12084.045957,-21948.898965,3467.716690,-49808.292068,24862.605317,32294.761514,-11638.083951,0.042000,0.936000,0.318000,192.000000,0.000000,0.000000,0.000000,0.000000,0.000000,0.000000,0.000000,0.000000,0.000000,1647058021.130928,0.000000
121.000000,2207.793559,12082.771907,-21950.485939,3465.325053,-49808.269716,24863.320573,32291.542863,-11642.554300,0.042000,0.936000,0.318000,192.000000,0.000000,0.000000,0.000000,0.000000,0.000000,0.000000,0.000000,0.000000,0.000000,1647058021.139065,0.000000
122.000000,2205.871309,12074.971148,-21948.653096,3462.844010,-49806.973315,24869.467302,32298.695421,-11627.980963,0.042000,0.936000,0.318000,192.000000,0.000000,0.000000,0.000000,0.000000,0.000000,0.000000,0.000000,0.000000,0.000000,1647058021.139082,0.000000
123.000000,2209.827567,12076.938102,-21948.116654,3466.040309,-49804.291106,24871.456608,32302.651680,-11630.573765,0.042000,0.936000,0.318000,192.000000,0.000000,0.000000,0.000000,0.000000,0.000000,0.000000,0.000000,0.000000,0.000000,1647058021.146902,0.000000
124.000000,2209.224070,12080.782602,-21948.273116,3468.163725,-49804.604030,24872.082457,32298.226034,-11624.047056,0.042000,0.936000,0.318000,192.000000,0.000000,0.000000,0.000000,0.000000,0.000000,0.000000,0.000000,0.000000,0.000000,1647058021.146919,0.000000
125.000000,2208.553518,12081.408451,-21947.602564,3471.203562,-49802.055931,24878.340945,32299.567139,-11609.205497,0.042000,0.936000,0.318000,192.000000,0.000000,0.000000,0.000000,0.000000,0.000000,0.000000,0.000000,0.000000,0.000000,1647058021.153609,0.000000
126.000000,2208.128835,12079.553256,-21953.346962,3468.454298,-49807.196833,24874.764666,32294.336831,-11616.805091,0.042000,0.936000,0.318000,192.000000,0.000000,0.000000,0.000000,0.000000,0.000000,0.000000,0.000000,0.000000,0.000000,1647058021.153626,0.000000
127.000000,2206.318343,12081.319044,-21952.698762,3469.527181,-49805.520452,24875.748143,32294.493293,-11619.710817,0.042000,0.936000,0.318000,192.000000,0.000000,0.000000,0.000000,0.000000,0.000000,0.000000,0.000000,0.000000,0.000000,1647058021.161598,0.000000
128.000000,2210.945155,12087.219904,-21946.440273,3475.562152,-49799.172556,24883.034811,32317.783811,-11604.511631,0.042000,0.936000,0.318000,192.000000,0.000000,0.000000,0.000000,0.000000,0.000000,0.000000,0.000000,0.000000,0.000000,1647058021.161615,0.000000
129.000000,2208.330000,12087.465774,-21945.255631,3475.495097,-49799.708998,24883.660660,32324.087003,-11607.506765,0.044000,0.932000,0.316000,192.000000,1.000000,96.000000,29.000000,32.000000,9.000000,224.000000,0.000000,0.000000,0.000000,1647058021.169560,0.000000
130.000000,2214.901413,12087.354015,-21941.880517,3475.830373,-49799.396074,24883.571253,32319.348433,-11613.809957,0.044000,0.932000,0.316000,192.000000,0.000000,0.000000,0.000000,0.000000,0.000000,0.000000,0.000000,0.000000,0.000000,1647058021.169577,0.000000
131.000000,2215.728428,12087.935160,-21942.819290,3472.745833,-49799.127853,24880.821989,32318.722584,-11611.664189,0.044000,0.932000,0.316000,192.000000,0.000000,0.000000,0.000000,0.000000,0.000000,0.000000,0.000000,0.000000,0.000000,1647058021.176641,0.000000
132.000000,2214.543785,12088.806878,-21942.528718,3474.377510,-49799.217260,24882.610128,32321.270683,-11605.740977,0.044000,0.932000,0.316000,192.000000,0.000000,0.000000,0.000000,0.000000,0.000000,0.000000,0.000000,0.000000,0.000000,1647058021.183037,0.000000
133.000000,2224.222091,12092.807840,-21934.683256,3481.172440,-49793.606972,24891.774343,32327.618578,-11598.074329,0.044000,0.932000,0.316000,192.000000,0.000000,0.000000,0.000000,0.000000,0.000000,0.000000,0.000000,0.000000,0.000000,1647058021.183053,0.000000
134.000000,2225.786713,12096.965265,-21935.152642,3482.759414,-49793.830489,24889.762686,32319.706061,-11607.685579,0.044000,0.932000,0.316000,192.000000,0.000000,0.000000,0.000000,0.000000,0.000000,0.000000,0.000000,0.000000,0.000000,1647058021.191233,0.000000
135.000000,2226.010230,12098.529887,-21937.030189,3480.971274,-49794.456338,24886.275814,32312.106468,-11614.972247,0.044000,0.932000,0.316000,192.000000,0.000000,0.000000,0.000000,0.000000,0.000000,0.000000,0.000000,0.000000,0.000000,1647058021.191251,0.000000
136.000000,2229.921786,12099.200439,-21937.834851,3466.017957,-49797.473824,24883.526550,32309.647776,-11621.074274,0.044000,0.932000,0.316000,192.000000,0.000000,0.000000,0.000000,0.000000,0.000000,0.000000,0.000000,0.000000,0.000000,1647058021.198968,0.000000
137.000000,2226.367858,12097.300541,-21939.578288,3477.707920,-49797.742045,24872.328326,32300.170636,-11634.395913,0.044000,0.932000,0.316000,192.000000,0.000000,0.000000,0.000000,0.000000,0.000000,0.000000,0.000000,0.000000,0.000000,1647058021.198977,0.000000
138.000000,2220.332887,12089.164506,-21943.154567,3483.072338,-49799.284315,24870.361372,32303.165770,-11622.124806,0.044000,0.932000,0.316000,192.000000,0.000000,0.000000,0.000000,0.000000,0.000000,0.000000,0.000000,0.000000,0.000000,1647058021.205941,0.000000
139.000000,2221.048143,12080.849657,-21950.128311,3470.220085,-49807.845033,24867.187425,32306.183255,-11618.548527,0.048000,0.934000,0.310000,192.000000,1.000000,128.000000,29.000000,48.000000,9.000000,176.000000,0.000000,0.000000,0.000000,1647058021.205947,0.000000
140.000000,2218.410637,12079.843829,-21950.418884,3467.560228,-49809.767283,24865.935727,32299.477732,-11626.081064,0.048000,0.934000,0.310000,192.000000,0.000000,0.000000,0.000000,0.000000,0.000000,0.000000,0.000000,0.000000,0.000000,1647058021.213664,0.000000
141.000000,2216.376628,12076.647529,-21951.514119,3466.353234,-49811.041333,24864.639326,32292.928671,-11635.558204,0.048000,0.934000,0.310000,192.000000,0.000000,0.000000,0.000000,0.000000,0.000000,0.000000,0.000000,0.000000,0.000000,1647058021.213673,0.000000
142.000000,2217.181291,12076.960454,-21955.380971,3462.575789,-49812.225975,24861.979468,32297.622537,-11633.993582,0.048000,0.934000,0.310000,192.000000,0.000000,0.000000,0.000000,0.000000,0.000000,0.000000,0.000000,0.000000,0.000000,1647058021.221800,0.000000
143.000000,2216.041352,12076.781640,-21957.370276,3461.569960,-49813.589431,24862.717076,32306.160904,-11626.125768,0.048000,0.934000,0.310000,192.000000,0.000000,0.000000,0.000000,0.000000,0.000000,0.000000,0.000000,0.000000,0.000000,1647058021.221816,0.000000
144.000000,2214.610841,12070.925483,-21956.699724,3459.468896,-49814.528205,24865.533395,32304.909206,-11628.897384,0.048000,0.934000,0.310000,192.000000,0.000000,0.000000,0.000000,0.000000,0.000000,0.000000,0.000000,0.000000,0.000000,1647058021.229015,0.000000
145.000000,2208.017076,12063.549407,-21962.868805,3456.362004,-49817.635097,24864.169939,32300.975299,-11638.463931,0.048000,0.934000,0.310000,192.000000,0.000000,0.000000,0.000000,0.000000,0.000000,0.000000,0.000000,0.000000,0.000000,1647058021.229031,0.000000
146.000000,2206.407750,12065.270491,-21963.718172,3459.446545,-49816.048123,24864.818140,32297.890758,-11635.714666,0.048000,0.934000,0.310000,192.000000,0.000000,0.000000,0.000000,0.000000,0.000000,0.000000,0.000000,0.000000,0.000000,1647058021.235526,0.000000
147.000000,2217.203643,12073.920616,-21956.275041,3466.621455,-49808.672048,24872.618898,32308.217264,-11620.537832,0.048000,0.934000,0.310000,192.000000,0.000000,0.000000,0.000000,0.000000,0.000000,0.000000,0.000000,0.000000,0.000000,1647058021.243265,0.000000
148.000000,2212.465073,12067.773887,-21961.192424,3463.223989,-49809.811987,24876.217529,32322.544732,-11610.881878,0.048000,0.934000,0.310000,192.000000,0.000000,0.000000,0.000000,0.000000,0.000000,0.000000,0.000000,0.000000,0.000000,1647058021.243282,0.000000
149.000000,2213.515605,12067.907997,-21960.566576,3463.693376,-49810.437836,24876.955137,32316.308596,-11607.573820,0.048000,0.938000,0.308000,192.000000,1.000000,128.000000,29.000000,80.000000,9.000000,160.000000,0.000000,0.000000,0.000000,1647058021.251529,0.000000
150.000000,2219.908204,12076.021680,-21954.039866,3467.783745,-49804.760492,24883.101867,32318.566122,-11598.208439,0.048000,0.938000,0.308000,192.000000,0.000000,0.000000,0.000000,0.000000,0.000000,0.000000,0.000000,0.000000,0.000000,1647058021.251575,0.000000
151.000000,2218.142416,12076.602826,-21951.938802,3470.801231,-49800.401902,24887.572216,32323.639968,-11594.855677,0.048000,0.938000,0.308000,192.000000,0.000000,0.000000,0.000000,0.000000,0.000000,0.000000,0.000000,0.000000,0.000000,1647058021.258502,0.000000
152.000000,2211.235727,12070.567855,-21957.325573,3465.995606,-49803.642905,24886.320518,32325.495163,-11596.710872,0.048000,0.938000,0.308000,192.000000,0.000000,0.000000,0.000000,0.000000,0.000000,0.000000,0.000000,0.000000,0.000000,1647058021.258519,0.000000
153.000000,2212.643887,12065.270491,-21955.068046,3464.810963,-49803.620553,24887.639271,32327.015081,-11596.152079,0.048000,0.938000,0.308000,192.000000,0.000000,0.000000,0.000000,0.000000,0.000000,0.000000,0.000000,0.000000,0.000000,1647058021.266028,0.000000
154.000000,2211.995687,12065.717526,-21954.352791,3466.733213,-49804.559327,24887.639271,32326.009253,-11602.522326,0.048000,0.938000,0.308000,192.000000,0.000000,0.000000,0.000000,0.000000,0.000000,0.000000,0.000000,0.000000,0.000000,1647058021.266045,0.000000
155.000000,2213.113274,12066.186913,-21953.414017,3466.844972,-49804.648734,24885.962890,32320.264854,-11601.605904,0.048000,0.938000,0.308000,192.000000,0.000000,0.000000,0.000000,0.000000,0.000000,0.000000,0.000000,0.000000,0.000000,1647058021.274102,0.000000
156.000000,2210.319306,12065.046974,-21958.063180,3458.328957,-49808.225013,24879.950271,32316.688575,-11607.350303,0.048000,0.938000,0.308000,192.000000,0.000000,0.000000,0.000000,0.000000,0.000000,0.000000,0.000000,0.000000,0.000000,1647058021.274119,0.000000
157.000000,2206.385399,12067.259797,-21962.645288,3442.794495,-49813.902356,24877.223358,32323.371747,-11611.798300,0.048000,0.938000,0.308000,192.000000,0.000000,0.000000,0.000000,0.000000,0.000000,0.000000,0.000000,0.000000,0.000000,1647058021.281831,0.000000
158.000000,2203.099692,12068.578549,-21963.695820,3462.575789,-49812.874176,24872.507140,32321.293035,-11618.906155,0.048000,0.938000,0.308000,192.000000,0.000000,0.000000,0.000000,0.000000,0.000000,0.000000,0.000000,0.000000,0.000000,1647058021.281842,0.000000
159.000000,2205.983067,12069.360861,-21964.209910,3464.274521,-49814.930536,24868.506177,32309.513665,-11623.264745,0.054000,0.938000,0.308000,192.000000,1.000000,176.000000,29.000000,80.000000,9.000000,160.000000,0.000000,0.000000,0.000000,1647058021.288717,0.000000
160.000000,2214.566137,12071.908959,-21960.276003,3462.486382,-49811.622478,24868.237957,32305.222130,-11621.431902,0.054000,0.938000,0.308000,192.000000,0.000000,0.000000,0.000000,0.000000,0.000000,0.000000,0.000000,0.000000,0.000000,1647058021.288734,0.000000
161.000000,2210.766341,12074.904093,-21961.572404,3463.805135,-49809.163786,24869.243785,32313.671090,-11608.847869,0.054000,0.938000,0.308000,192.000000,0.000000,0.000000,0.000000,0.000000,0.000000,0.000000,0.000000,0.000000,0.000000,1647058021.295787,0.000000
162.000000,2205.491329,12071.618387,-21965.975698,3461.927588,-49813.410618,24862.828834,32313.045241,-11612.379445,0.054000,0.938000,0.308000,192.000000,0.000000,0.000000,0.000000,0.000000,0.000000,0.000000,0.000000,0.000000,0.000000,1647058021.295804,0.000000
163.000000,2212.330963,12074.837038,-21958.040828,3464.878018,-49810.281373,24866.315707,32313.224055,-11609.965457,0.054000,0.938000,0.308000,192.000000,0.000000,0.000000,0.000000,0.000000,0.000000,0.000000,0.000000,0.000000,0.000000,1647058021.303773,0.000000
164.000000,2214.007344,12076.580474,-21956.207985,3465.213295,-49805.587507,24870.853111,32310.474790,-11611.306561,0.054000,0.938000,0.308000,192.000000,0.000000,0.000000,0.000000,0.000000,0.000000,0.000000,0.000000,0.000000,0.000000,1647058021.311815,0.000000
165.000000,2212.733294,12071.596035,-21958.778436,3461.972292,-49806.794501,24869.467302,32308.418430,-11615.553393,0.054000,0.938000,0.308000,192.000000,0.000000,0.000000,0.000000,0.000000,0.000000,0.000000,0.000000,0.000000,0.000000,1647058021.311832,0.000000
166.000000,2213.113274,12071.819552,-21959.761913,3461.413498,-49807.174481,24868.170901,32307.479657,-11621.230736,0.054000,0.938000,0.308000,192.000000,0.000000,0.000000,0.000000,0.000000,0.000000,0.000000,0.000000,0.000000,0.000000,1647058021.318314,0.000000
167.000000,2212.576832,12076.111087,-21959.694858,3462.933417,-49806.883908,24864.996954,32302.226997,-11621.945992,0.054000,0.938000,0.308000,192.000000,0.000000,0.000000,0.000000,0.000000,0.000000,0.000000,0.000000,0.000000,0.000000,1647058021.318330,0.000000
168.000000,2208.933498,12069.182047,-21967.003878,3457.166667,-49813.835301,24854.983372,32288.681840,-11639.358001,0.054000,0.938000,0.308000,192.000000,0.000000,0.000000,0.000000,0.000000,0.000000,0.000000,0.000000,0.000000,0.000000,1647058021.326317,0.000000
169.000000,2214.432027,12070.567855,-21964.098151,3458.060736,-49815.645792,24857.397360,32298.918939,-11634.530024,0.054000,0.934000,0.308000,192.000000,1.000000,176.000000,29.000000,48.000000,9.000000,160.000000,0.000000,0.000000,0.000000,1647058021.326334,0.000000
170.000000,2213.515605,12069.606730,-21964.746352,3457.971329,-49816.204586,24863.409980,32312.218226,-11622.370675,0.054000,0.934000,0.308000,192.000000,0.000000,0.000000,0.000000,0.000000,0.000000,0.000000,0.000000,0.000000,0.000000,1647058021.334351,0.000000
171.000000,2210.654582,12068.399735,-21968.233224,3456.339652,-49817.724504,24862.694724,32305.825628,-11619.017913,0.054000,0.934000,0.308000,192.000000,0.000000,0.000000,0.000000,0.000000,0.000000,0.000000,0.000000,0.000000,0.000000,1647058021.334387,0.000000
172.000000,2221.003440,12075.909922,-21958.823140,3465.995606,-49809.275545,24870.473131,32312.754668,-11603.438747,0.054000,0.934000,0.308000,192.000000,0.000000,0.000000,0.000000,0.000000,0.000000,0.000000,0.000000,0.000000,0.000000,1647058021.341023,0.000000
173.000000,2213.225032,12063.594110,-21962.846454,3458.351309,-49812.024809,24870.875462,32316.398003,-11606.031550,0.054000,0.934000,0.308000,192.000000,0.000000,0.000000,0.000000,0.000000,0.000000,0.000000,0.000000,0.000000,0.000000,1647058021.341040,0.000000
174.000000,2196.662390,12050.026602,-21972.591814,3447.041326,-49821.278432,24864.818140,32306.049145,-11622.773006,0.054000,0.934000,0.308000,192.000000,0.000000,0.000000,0.000000,0.000000,0.000000,0.000000,0.000000,0.000000,0.000000,1647058021.349061,0.000000
175.000000,2200.328076,12052.731163,-21969.082590,3447.778934,-49821.300783,24867.656811,32310.944177,-11615.262820,0.054000,0.934000,0.308000,192.000000,0.000000,0.000000,0.000000,0.000000,0.000000,0.000000,0.000000,0.000000,0.000000,1647058021.349077,0.000000
176.000000,2206.877137,12059.727259,-21966.042753,3450.639957,-49817.478635,24872.104808,32316.308596,-11607.640875,0.054000,0.934000,0.308000,192.000000,0.000000,0.000000,0.000000,0.000000,0.000000,0.000000,0.000000,0.000000,0.000000,1647058021.357026,0.000000
177.000000,2202.250326,12055.100448,-21971.250709,3433.920852,-49826.262871,24867.410942,32314.967491,-11611.530079,0.054000,0.934000,0.308000,192.000000,0.000000,0.000000,0.000000,0.000000,0.000000,0.000000,0.000000,0.000000,0.000000,1647058021.357043,0.000000
178.000000,2205.781902,12056.598014,-21966.154512,3452.249283,-49821.569004,24868.305012,32313.715793,-11610.546602,0.054000,0.934000,0.308000,192.000000,0.000000,0.000000,0.000000,0.000000,0.000000,0.000000,0.000000,0.000000,0.000000,1647058021.364237,0.000000
179.000000,2203.412617,12057.469732,-21961.795922,3466.844972,-49819.043257,24869.802579,32308.463133,-11615.508689,0.054000,0.938000,0.306000,192.000000,1.000000,176.000000,29.000000,80.000000,9.000000,144.000000,0.000000,0.000000,0.000000,1647058021.370596,0.000000
180.000000,2205.513681,12059.414334,-21957.929070,3465.503867,-49816.428103,24870.584890,32310.251273,-11617.185070,0.054000,0.938000,0.306000,192.000000,0.000000,0.000000,0.000000,0.000000,0.000000,0.000000,0.000000,0.000000,0.000000,1647058021.370613,0.000000
181.000000,2207.994724,12059.973128,-21956.699724,3467.783745,-49812.069513,24870.115503,32317.157962,-11614.882841,0.054000,0.938000,0.306000,192.000000,0.000000,0.000000,0.000000,0.000000,0.000000,0.000000,0.000000,0.000000,0.000000,1647058021.378674,0.000000
182.000000,2212.554480,12062.029488,-21953.123445,3468.946036,-49810.951926,24868.305012,32312.486447,-11618.973210,0.054000,0.938000,0.306000,192.000000,0.000000,0.000000,0.000000,0.000000,0.000000,0.000000,0.000000,0.000000,0.000000,1647058021.378690,0.000000
183.000000,2208.330000,12060.040183,-21956.140930,3464.252170,-49815.601088,24864.996954,32302.361107,-11631.177262,0.054000,0.938000,0.306000,192.000000,0.000000,0.000000,0.000000,0.000000,0.000000,0.000000,0.000000,0.000000,0.000000,1647058021.386724,0.000000
184.000000,2200.551593,12051.971203,-21962.511177,3457.189018,-49825.100580,24860.012515,32296.683764,-11638.821559,0.054000,0.938000,0.306000,192.000000,0.000000,0.000000,0.000000,0.000000,0.000000,0.000000,0.000000,0.000000,0.000000,1647058021.386740,0.000000
185.000000,2205.245460,12057.782657,-21957.035000,3461.614664,-49823.938289,24864.236994,32301.489389,-11625.209346,0.054000,0.938000,0.306000,192.000000,0.000000,0.000000,0.000000,0.000000,0.000000,0.000000,0.000000,0.000000,0.000000,1647058021.393920,0.000000
186.000000,2209.894623,12065.963395,-21951.447064,3467.627283,-49818.998554,24869.422599,32309.156037,-11623.622373,0.054000,0.938000,0.306000,192.000000,0.000000,0.000000,0.000000,0.000000,0.000000,0.000000,0.000000,0.000000,0.000000,1647058021.393937,0.000000
187.000000,2202.652657,12060.241349,-21961.013610,3460.430021,-49824.966469,24861.465378,32305.065668,-11633.747713,0.054000,0.938000,0.306000,192.000000,0.000000,0.000000,0.000000,0.000000,0.000000,0.000000,0.000000,0.000000,0.000000,1647058021.400966,0.000000
188.000000,2207.771207,12060.844846,-21955.895061,3461.592312,-49823.200682,24862.851186,32303.210473,-11624.225870,0.054000,0.938000,0.306000,192.000000,0.000000,0.000000,0.000000,0.000000,0.000000,0.000000,0.000000,0.000000,0.000000,1647058021.400975,0.000000
189.000000,2204.083169,12056.285090,-21957.236166,3461.122925,-49824.720600,24862.135930,32295.968508,-11626.550451,0.052000,0.940000,0.304000,192.000000,1.000000,160.000000,29.000000,96.000000,9.000000,128.000000,0.000000,0.000000,0.000000,1647058021.408905,0.000000
190.000000,2198.048198,12053.491122,-21960.924204,3456.630225,-49828.900376,24857.263250,32291.028773,-11638.687448,0.052000,0.940000,0.304000,192.000000,0.000000,0.000000,0.000000,0.000000,0.000000,0.000000,0.000000,0.000000,0.000000,1647058021.408911,0.000000
191.000000,2193.086111,12051.814741,-21963.584061,3456.429059,-49830.554406,24858.917279,32299.567139,-11630.730227,0.052000,0.940000,0.304000,192.000000,0.000000,0.000000,0.000000,0.000000,0.000000,0.000000,0.000000,0.000000,0.000000,1647058021.417325,0.000000
192.000000,2197.377646,12054.541654,-21960.410113,3456.898446,-49826.151112,24867.455645,32313.581683,-11613.675846,0.052000,0.940000,0.304000,192.000000,0.000000,0.000000,0.000000,0.000000,0.000000,0.000000,0.000000,0.000000,0.000000,1647058021.417341,0.000000
193.000000,2202.473843,12054.854578,-21960.924204,3447.890693,-49825.525263,24873.803541,32317.873218,-11613.966419,0.052000,0.940000,0.304000,192.000000,0.000000,0.000000,0.000000,0.000000,0.000000,0.000000,0.000000,0.000000,0.000000,1647058021.423418,0.000000
194.000000,2198.830509,12053.893453,-21963.204081,3468.364891,-49822.597184,24871.993050,32313.782849,-11618.593230,0.052000,0.940000,0.304000,192.000000,0.000000,0.000000,0.000000,0.000000,0.000000,0.000000,0.000000,0.000000,0.000000,1647058021.430992,0.000000
195.000000,2200.596297,12054.496950,-21963.807579,3457.367832,-49824.988821,24867.321535,32301.422334,-11632.004277,0.052000,0.940000,0.304000,192.000000,0.000000,0.000000,0.000000,0.000000,0.000000,0.000000,0.000000,0.000000,0.000000,1647058021.431010,0.000000
196.000000,2203.479672,12054.564006,-21961.639459,3464.207466,-49819.490292,24871.747180,32300.617671,-11624.583498,0.052000,0.940000,0.304000,192.000000,0.000000,0.000000,0.000000,0.000000,0.000000,0.000000,0.000000,0.000000,0.000000,1647058021.438985,0.000000
197.000000,2203.077340,12055.212206,-21958.443160,3476.947960,-49814.148225,24881.358431,32317.604997,-11601.471794,0.052000,0.940000,0.304000,192.000000,0.000000,0.000000,0.000000,0.000000,0.000000,0.000000,0.000000,0.000000,0.000000,1647058021.439002,0.000000
198.000000,2210.296954,12060.956605,-21952.788169,3477.685568,-49812.449493,24887.281643,32325.852791,-11597.023797,0.052000,0.940000,0.304000,192.000000,0.000000,0.000000,0.000000,0.000000,0.000000,0.000000,0.000000,0.000000,0.000000,1647058021.446988,0.000000
199.000000,2203.949059,12056.396849,-21957.794959,3473.192867,-49817.948022,24883.705364,32319.013157,-11606.612695,0.052000,0.940000,0.304000,192.000000,0.000000,0.000000,0.000000,0.000000,0.000000,0.000000,0.000000,0.000000,0.000000,1647058021.447005,0.000000
200.000000,2206.586564,12056.173331,-21956.543262,3472.544667,-49817.277469,24878.631518,32311.726488,-11616.447463,0.050000,0.928000,0.312000,192.000000,1.000000,144.000000,29.000000,0.000000,9.000000,192.000000,0.000000,0.000000,0.000000,1647058021.453577,0.000000
201.000000,2214.029695,12063.661166,-21952.631706,3477.909086,-49812.114216,24882.721887,32314.788677,-11612.915887,0.050000,0.928000,0.312000,192.000000,0.000000,0.000000,0.000000,0.000000,0.000000,0.000000,0.000000,0.000000,0.000000,1647058021.453593,0.000000
202.000000,2214.029695,12062.565930,-21954.978639,3475.651559,-49812.918879,24882.140742,32317.135610,-11607.819689,0.050000,0.928000,0.312000,192.000000,0.000000,0.000000,0.000000,0.000000,0.000000,0.000000,0.000000,0.000000,0.000000,1647058021.461575,0.000000
203.000000,2212.554480,12057.290919,-21957.862015,3471.695301,-49816.986897,24878.475056,32312.441744,-11610.993637,0.050000,0.928000,0.312000,192.000000,0.000000,0.000000,0.000000,0.000000,0.000000,0.000000,0.000000,0.000000,0.000000,1647058021.461591,0.000000
204.000000,2213.806178,12058.877892,-21959.493692,3468.409594,-49819.490292,24872.842416,32308.284319,-11621.253088,0.050000,0.928000,0.312000,192.000000,0.000000,0.000000,0.000000,0.000000,0.000000,0.000000,0.000000,0.000000,0.000000,1647058021.469268,0.000000
205.000000,2211.146320,12060.196645,-21960.901852,3466.710862,-49818.730333,24868.908509,32307.233787,-11625.075236,0.050000,0.928000,0.312000,192.000000,0.000000,0.000000,0.000000,0.000000,0.000000,0.000000,0.000000,0.000000,0.000000,1647058021.469278,0.000000
206.000000,2215.191986,12060.688384,-21958.487863,3468.923684,-49817.590394,24865.734561,32304.037488,-11619.800224,0.050000,0.928000,0.312000,192.000000,0.000000,0.000000,0.000000,0.000000,0.000000,0.000000,0.000000,0.000000,0.000000,1647058021.476195,0.000000
207.000000,2220.891681,12064.622291,-21954.151625,3471.583542,-49814.975240,24865.175768,32304.283357,-11624.739960,0.050000,0.928000,0.312000,192.000000,0.000000,0.000000,0.000000,0.000000,0.000000,0.000000,0.000000,0.000000,0.000000,1647058021.476211,0.000000
208.000000,2222.277489,12067.997404,-21952.363485,3471.002396,-49815.086998,24864.952250,32307.859636,-11621.387198,0.050000,0.928000,0.312000,192.000000,0.000000,0.000000,0.000000,0.000000,0.000000,0.000000,0.000000,0.000000,0.000000,1647058021.483261,0.000000
209.000000,2217.024829,12064.264663,-21955.135102,3468.610760,-49817.031600,24863.186462,32311.905302,-11622.504785,0.050000,0.928000,0.312000,192.000000,0.000000,0.000000,0.000000,0.000000,0.000000,0.000000,0.000000,0.000000,0.000000,1647058021.491265,0.000000
210.000000,2209.447588,12057.156808,-21961.974735,3462.240513,-49823.692420,24853.530509,32296.281433,-11643.493073,0.058000,0.926000,0.308000,192.000000,1.000000,208.000000,28.000000,240.000000,9.000000,160.000000,0.000000,0.000000,0.000000,1647058021.491281,0.000000
211.000000,2207.950021,12052.753514,-21967.540320,3455.713803,-49828.051010,24851.429445,32294.202720,-11639.670925,0.058000,0.926000,0.308000,192.000000,0.000000,0.000000,0.000000,0.000000,0.000000,0.000000,0.000000,0.000000,0.000000,1647058021.499365,0.000000
212.000000,2210.319306,12055.145151,-21964.522834,3456.384356,-49825.771132,24857.687933,32303.501046,-11625.052884,0.058000,0.926000,0.308000,192.000000,0.000000,0.000000,0.000000,0.000000,0.000000,0.000000,0.000000,0.000000,0.000000,1647058021.499382,0.000000
213.000000,2216.019001,12060.174294,-21960.074837,3451.086992,-49822.328964,24860.593660,32304.618633,-11621.923640,0.058000,0.926000,0.308000,192.000000,0.000000,0.000000,0.000000,0.000000,0.000000,0.000000,0.000000,0.000000,0.000000,1647058021.505716,0.000000
214.000000,2217.449512,12063.348241,-21959.627802,3450.349385,-49821.367839,24862.761779,32312.441744,-11620.761349,0.058000,0.926000,0.308000,192.000000,0.000000,0.000000,0.000000,0.000000,0.000000,0.000000,0.000000,0.000000,0.000000,1647058021.505750,0.000000
215.000000,2217.427160,12065.225788,-21960.007782,3472.835240,-49815.422275,24858.961983,32306.809104,-11631.154910,0.058000,0.926000,0.308000,192.000000,0.000000,0.000000,0.000000,0.000000,0.000000,0.000000,0.000000,0.000000,0.000000,1647058021.513841,0.000000
216.000000,2219.505873,12068.489142,-21961.527701,3465.928550,-49817.500987,24854.715151,32294.940328,-11640.833216,0.058000,0.926000,0.308000,192.000000,0.000000,0.000000,0.000000,0.000000,0.000000,0.000000,0.000000,0.000000,0.000000,1647058021.513857,0.000000
217.000000,2222.344544,12070.813724,-21960.901852,3463.983949,-49818.685629,24851.429445,32283.876214,-11652.120847,0.058000,0.926000,0.308000,192.000000,0.000000,0.000000,0.000000,0.000000,0.000000,0.000000,0.000000,0.000000,0.000000,1647058021.521889,0.000000
218.000000,2218.388285,12065.829285,-21962.354715,3460.295911,-49821.077266,24852.390570,32290.067648,-11646.398800,0.058000,0.926000,0.308000,192.000000,0.000000,0.000000,0.000000,0.000000,0.000000,0.000000,0.000000,0.000000,0.000000,1647058021.521906,0.000000
219.000000,2222.456303,12070.165523,-21958.689029,3451.601082,-49819.400885,24859.811349,32304.439819,-11624.181166,0.058000,0.926000,0.308000,192.000000,0.000000,0.000000,0.000000,0.000000,0.000000,0.000000,0.000000,0.000000,0.000000,1647058021.528990,0.000000
220.000000,2225.205568,12075.507590,-21954.129273,3455.870265,-49813.120045,24868.886157,32318.052032,-11603.729320,0.056000,0.926000,0.314000,192.000000,1.000000,192.000000,28.000000,240.000000,9.000000,208.000000,0.000000,0.000000,0.000000,1647058021.529007,0.000000
221.000000,2221.070495,12071.126648,-21959.091360,3467.068489,-49811.890699,24867.098018,32315.325119,-11614.122881,0.056000,0.926000,0.314000,192.000000,0.000000,0.000000,0.000000,0.000000,0.000000,0.000000,0.000000,0.000000,0.000000,1647058021.536495,0.000000
222.000000,2229.362992,12074.054727,-21956.655020,3464.252170,-49811.689533,24865.332230,32307.747878,-11620.940163,0.056000,0.926000,0.314000,192.000000,0.000000,0.000000,0.000000,0.000000,0.000000,0.000000,0.000000,0.000000,0.000000,1647058021.536512,0.000000
223.000000,2227.776018,12072.534808,-21959.784265,3460.966463,-49812.941231,24865.309878,32308.463133,-11620.738998,0.056000,0.926000,0.314000,192.000000,0.000000,0.000000,0.000000,0.000000,0.000000,0.000000,0.000000,0.000000,0.000000,1647058021.543496,0.000000
224.000000,2225.138512,12069.964358,-21963.114674,3457.524295,-49817.925670,24859.610183,32301.265872,-11631.087855,0.056000,0.926000,0.314000,192.000000,0.000000,0.000000,0.000000,0.000000,0.000000,0.000000,0.000000,0.000000,0.000000,1647058021.543513,0.000000
225.000000,2225.518492,12070.120820,-21960.946555,3457.166667,-49817.098655,24858.246727,32297.063744,-11629.143253,0.056000,0.926000,0.314000,192.000000,0.000000,0.000000,0.000000,0.000000,0.000000,0.000000,0.000000,0.000000,0.000000,1647058021.551518,0.000000
226.000000,2226.434913,12074.591169,-21960.611279,3460.810001,-49814.863481,24863.924070,32300.528264,-11623.063579,0.056000,0.926000,0.314000,192.000000,0.000000,0.000000,0.000000,0.000000,0.000000,0.000000,0.000000,0.000000,0.000000,1647058021.558533,0.000000
227.000000,2223.864463,12073.831209,-21960.946555,3459.178324,-49816.495158,24863.007648,32301.198816,-11628.025666,0.056000,0.926000,0.314000,192.000000,0.000000,0.000000,0.000000,0.000000,0.000000,0.000000,0.000000,0.000000,0.000000,1647058021.558550,0.000000
228.000000,2224.914995,12072.333643,-21964.008744,3455.087954,-49819.333830,24855.519814,32297.801351,-11626.304582,0.056000,0.926000,0.314000,192.000000,0.000000,0.000000,0.000000,0.000000,0.000000,0.000000,0.000000,0.000000,0.000000,1647058021.566049,0.000000
229.000000,2224.512663,12072.512456,-21965.796884,3444.381469,-49821.926632,24852.591735,32294.493293,-11624.695256,0.056000,0.926000,0.314000,192.000000,0.000000,0.000000,0.000000,0.000000,0.000000,0.000000,0.000000,0.000000,0.000000,1647058021.566065,0.000000
230.000000,2227.328983,12077.474544,-21964.545186,3451.399917,-49817.612745,24855.877442,32296.169674,-11628.249184,0.050000,0.934000,0.308000,192.000000,1.000000,144.000000,29.000000,48.000000,9.000000,160.000000,0.000000,0.000000,0.000000,1647058021.574079,0.000000
231.000000,2229.810027,12077.452192,-21964.589890,3467.157896,-49813.075341,24855.184538,32291.833436,-11637.413399,0.050000,0.934000,0.308000,192.000000,0.000000,0.000000,0.000000,0.000000,0.000000,0.000000,0.000000,0.000000,0.000000,1647058021.574096,0.000000
232.000000,2225.742009,12073.495933,-21969.931957,3457.010204,-49818.775036,24851.630610,32290.581738,-11640.654402,0.050000,0.934000,0.308000,192.000000,0.000000,0.000000,0.000000,0.000000,0.000000,0.000000,0.000000,0.000000,0.000000,1647058021.582061,0.000000
233.000000,2229.385344,12078.793297,-21967.048581,3458.887751,-49818.059780,24850.982410,32285.530244,-11636.407570,0.050000,0.934000,0.308000,192.000000,0.000000,0.000000,0.000000,0.000000,0.000000,0.000000,0.000000,0.000000,0.000000,1647058021.582078,0.000000
234.000000,2233.855693,12081.341396,-21965.349849,3459.893579,-49817.500987,24848.277849,32278.154168,-11644.968289,0.050000,0.934000,0.308000,192.000000,0.000000,0.000000,0.000000,0.000000,0.000000,0.000000,0.000000,0.000000,0.000000,1647058021.588787,0.000000
235.000000,2232.648698,12081.207285,-21966.914471,3457.881922,-49818.752684,24845.685046,32280.076418,-11650.109190,0.050000,0.934000,0.308000,192.000000,0.000000,0.000000,0.000000,0.000000,0.000000,0.000000,0.000000,0.000000,0.000000,1647058021.588822,0.000000
236.000000,2232.827512,12078.122744,-21966.199215,3455.512638,-49820.965507,24846.288543,32285.574947,-11649.818617,0.050000,0.934000,0.308000,192.000000,0.000000,0.000000,0.000000,0.000000,0.000000,0.000000,0.000000,0.000000,0.000000,1647058021.596536,0.000000
237.000000,2237.275510,12078.659186,-21960.745390,3459.290082,-49814.863481,24852.524680,32291.654622,-11644.856530,0.050000,0.934000,0.308000,192.000000,0.000000,0.000000,0.000000,0.000000,0.000000,0.000000,0.000000,0.000000,0.000000,1647058021.596547,0.000000
238.000000,2229.452399,12074.613520,-21965.640422,3455.356175,-49819.803216,24849.417788,32282.266889,-11645.169454,0.050000,0.934000,0.308000,192.000000,0.000000,0.000000,0.000000,0.000000,0.000000,0.000000,0.000000,0.000000,0.000000,1647058021.604390,0.000000
239.000000,2226.233748,12073.719451,-21967.607375,3454.372699,-49823.334792,24845.215660,32277.327153,-11641.950803,0.050000,0.934000,0.308000,192.000000,0.000000,0.000000,0.000000,0.000000,0.000000,0.000000,0.000000,0.000000,0.000000,1647058021.604395,0.000000
240.000000,2228.491274,12077.452192,-21965.752180,3457.680757,-49821.166673,24850.356561,32296.996688,-11632.026628,0.050000,0.936000,0.306000,192.000000,1.000000,144.000000,29.000000,64.000000,9.000000,144.000000,0.000000,0.000000,0.000000,1647058021.610572,0.000000
241.000000,2234.168617,12085.610579,-21960.946555,3459.535952,-49816.606917,24858.023209,32314.788677,-11619.196727,0.050000,0.936000,0.306000,192.000000,0.000000,0.000000,0.000000,0.000000,0.000000,0.000000,0.000000,0.000000,0.000000,1647058021.618173,0.000000
242.000000,2235.867350,12082.593093,-21957.504387,3454.752678,-49817.657449,24860.817177,32315.101601,-11623.823538,0.050000,0.936000,0.306000,192.000000,0.000000,0.000000,0.000000,0.000000,0.000000,0.000000,0.000000,0.000000,0.000000,1647058021.618185,0.000000
243.000000,2234.280376,12077.318082,-21957.057352,3472.142335,-49813.388266,24862.247689,32308.418430,-11628.137425,0.050000,0.936000,0.306000,192.000000,0.000000,0.000000,0.000000,0.000000,0.000000,0.000000,0.000000,0.000000,0.000000,1647058021.626372,0.000000
244.000000,2235.263853,12074.613520,-21959.650154,3465.257998,-49817.523338,24860.258384,32302.629328,-11631.333724,0.050000,0.936000,0.306000,192.000000,0.000000,0.000000,0.000000,0.000000,0.000000,0.000000,0.000000,0.000000,0.000000,1647058021.626388,0.000000
245.000000,2238.437800,12074.367651,-21961.013610,3462.933417,-49820.160844,24860.459549,32298.784828,-11628.539756,0.050000,0.936000,0.306000,192.000000,0.000000,0.000000,0.000000,0.000000,0.000000,0.000000,0.000000,0.000000,0.000000,1647058021.634328,0.000000
246.000000,2231.151132,12070.724317,-21964.880462,3459.670062,-49823.714772,24864.728733,32304.059840,-11621.990695,0.050000,0.936000,0.306000,192.000000,0.000000,0.000000,0.000000,0.000000,0.000000,0.000000,0.000000,0.000000,0.000000,1647058021.634344,0.000000
247.000000,2231.508759,12070.299634,-21963.069971,3458.328957,-49822.731295,24867.120369,32301.936424,-11628.807977,0.050000,0.936000,0.306000,192.000000,0.000000,0.000000,0.000000,0.000000,0.000000,0.000000,0.000000,0.000000,0.000000,1647058021.640975,0.000000
248.000000,2230.435876,12067.796238,-21966.109808,3454.707975,-49825.637022,24865.667506,32300.081229,-11629.724399,0.050000,0.936000,0.306000,192.000000,0.000000,0.000000,0.000000,0.000000,0.000000,0.000000,0.000000,0.000000,0.000000,1647058021.640992,0.000000
249.000000,2227.776018,12065.046974,-21966.780361,3451.265806,-49828.833321,24861.353619,32297.890758,-11633.166567,0.050000,0.936000,0.306000,192.000000,0.000000,0.000000,0.000000,0.000000,0.000000,0.000000,0.000000,0.000000,0.000000,1647058021.649030,0.000000
250.000000,2234.190969,12069.539674,-21959.426637,3443.085068,-49827.112237,24861.353619,32297.130799,-11634.351210,0.050000,0.940000,0.308000,192.000000,1.000000,144.000000,29.000000,96.000000,9.000000,160.000000,0.000000,0.000000,0.000000,1647058021.649048,0.000000
251.000000,2245.411544,12078.502724,-21950.687105,3460.206504,-49814.796426,24867.433294,32304.573930,-11634.865300,0.050000,0.940000,0.308000,192.000000,0.000000,0.000000,0.000000,0.000000,0.000000,0.000000,0.000000,0.000000,0.000000,1647058021.657013,0.000000
252.000000,2239.287167,12075.552294,-21954.911584,3473.036405,-49812.673010,24863.253518,32303.143418,-11640.922623,0.050000,0.940000,0.308000,192.000000,0.000000,0.000000,0.000000,0.000000,0.000000,0.000000,0.000000,0.000000,0.000000,1647058021.657030,0.000000
253.000000,2233.051030,12070.366689,-21959.069009,3461.704071,-49820.719638,24859.140797,32298.449552,-11634.395913,0.050000,0.940000,0.308000,192.000000,0.000000,0.000000,0.000000,0.000000,0.000000,0.000000,0.000000,0.000000,0.000000,1647058021.664122,0.000000
254.000000,2238.281338,12073.875913,-21953.928107,3465.749737,-49814.975240,24867.522701,32303.948081,-11619.777873,0.050000,0.940000,0.308000,192.000000,0.000000,0.000000,0.000000,0.000000,0.000000,0.000000,0.000000,0.000000,0.000000,1647058021.664138,0.000000
255.000000,2237.454323,12073.428878,-21954.352791,3464.989777,-49811.667181,24871.188387,32308.060802,-11619.219079,0.050000,0.940000,0.308000,192.000000,0.000000,0.000000,0.000000,0.000000,0.000000,0.000000,0.000000,0.000000,0.000000,1647058021.670678,0.000000
0.000000,2234.459190,12070.657262,-21955.649192,3463.246341,-49812.516548,24869.042619,32306.205607,-11626.550451,0.050000,0.940000,0.308000,192.000000,0.000000,0.000000,0.000000,0.000000,0.000000,0.000000,0.000000,0.000000,0.000000,1647058021.678584,0.000000
1.000000,2239.734201,12073.160657,-21954.151625,3466.263827,-49811.443664,24867.790922,32300.260043,-11630.327896,0.050000,0.940000,0.308000,192.000000,0.000000,0.000000,0.000000,0.000000,0.000000,0.000000,0.000000,0.000000,0.000000,1647058021.678617,0.000000
2.000000,2245.456248,12080.201457,-21948.653096,3468.834277,-49808.560289,24868.506177,32296.504950,-11631.490187,0.050000,0.940000,0.308000,192.000000,0.000000,0.000000,0.000000,0.000000,0.000000,0.000000,0.000000,0.000000,0.000000,1647058021.686623,0.000000
3.000000,2239.957719,12076.736936,-21951.536471,3466.710862,-49809.119083,24866.628631,32296.326136,-11636.005239,0.050000,0.940000,0.308000,192.000000,0.000000,0.000000,0.000000,0.000000,0.000000,0.000000,0.000000,0.000000,0.000000,1647058021.686640,0.000000
4.000000,2236.426143,12079.530904,-21952.296430,3469.080146,-49808.716751,24867.545052,32299.678898,-11634.306506,0.048000,0.938000,0.310000,192.000000,1.000000,128.000000,29.000000,80.000000,9.000000,176.000000,0.000000,0.000000,0.000000,1647058021.693744,0.000000
5.000000,2235.017983,12077.921579,-21956.386799,3465.257998,-49814.282336,24859.677238,32285.686706,-11647.739905,0.048000,0.938000,0.310000,192.000000,0.000000,0.000000,0.000000,0.000000,0.000000,0.000000,0.000000,0.000000,0.000000,1647058021.693761,0.000000
6.000000,2237.096696,12075.954625,-21955.537433,3462.888713,-49816.070475,24858.403189,32282.982145,-11646.577614,0.048000,0.938000,0.310000,192.000000,0.000000,0.000000,0.000000,0.000000,0.000000,0.000000,0.000000,0.000000,0.000000,1647058021.701066,0.000000
7.000000,2240.002422,12078.413317,-21952.743465,3463.939245,-49812.047161,24864.035829,32293.174540,-11636.429922,0.048000,0.938000,0.310000,192.000000,0.000000,0.000000,0.000000,0.000000,0.000000,0.000000,0.000000,0.000000,0.000000,1647058021.701081,0.000000
8.000000,2238.728373,12082.235465,-21953.481073,3464.118059,-49809.834338,24868.126198,32306.652642,-11629.031495,0.048000,0.938000,0.310000,192.000000,0.000000,0.000000,0.000000,0.000000,0.000000,0.000000,0.000000,0.000000,0.000000,1647058021.709144,0.000000
9.000000,2234.436838,12082.458983,-21956.319744,3460.653539,-49813.701190,24866.047486,32298.762476,-11631.110207,0.048000,0.938000,0.310000,192.000000,0.000000,0.000000,0.000000,0.000000,0.000000,0.000000,0.000000,0.000000,0.000000,1647058021.709154,0.000000
10.000000,2243.690460,12091.489088,-21947.691971,3467.493173,-49804.894603,24872.529491,32300.036526,-11624.963477,0.048000,0.938000,0.310000,192.000000,0.000000,0.000000,0.000000,0.000000,0.000000,0.000000,0.000000,0.000000,0.000000,1647058021.716275,0.000000
11.000000,2239.890664,12088.963340,-21952.832872,3454.573864,-49809.588469,24870.964869,32307.099677,-11625.946954,0.048000,0.938000,0.310000,192.000000,0.000000,0.000000,0.000000,0.000000,0.000000,0.000000,0.000000,0.000000,0.000000,1647058021.716292,0.000000
12.000000,2238.750725,12084.045957,-21952.877576,3456.764335,-49812.337734,24872.887119,32310.921825,-11616.648628,0.048000,0.938000,0.310000,192.000000,0.000000,0.000000,0.000000,0.000000,0.000000,0.000000,0.000000,0.000000,0.000000,1647058021.723704,0.000000
13.000000,2233.810989,12078.323910,-21957.459683,3464.654501,-49813.432969,24868.014439,32302.718735,-11628.293887,0.048000,0.938000,0.310000,192.000000,0.000000,0.000000,0.000000,0.000000,0.000000,0.000000,0.000000,0.000000,0.000000,1647058021.723721,0.000000
14.000000,2242.036431,12080.246160,-21955.850358,3448.628300,-49817.970373,24867.388590,32305.669165,-11626.326934,0.042000,0.940000,0.304000,192.000000,1.000000,80.000000,29.000000,96.000000,9.000000,128.000000,0.000000,0.000000,0.000000,1647058021.730947,0.000000
15.000000,2251.066536,12087.801050,-21944.741541,3475.673911,-49801.608896,24877.759800,32312.709965,-11608.311428,0.042000,0.940000,0.304000,192.000000,0.000000,0.000000,0.000000,0.000000,0.000000,0.000000,0.000000,0.000000,0.000000,1647058021.738950,0.000000
16.000000,2251.021832,12091.578494,-21941.344075,3483.809946,-49796.803271,24877.893910,32308.239616,-11613.117053,0.042000,0.940000,0.304000,192.000000,0.000000,0.000000,0.000000,0.000000,0.000000,0.000000,0.000000,0.000000,0.000000,1647058021.738967,0.000000
17.000000,2246.216207,12086.996387,-21943.199270,3477.976141,-49798.569059,24877.938614,32308.396078,-11616.805091,0.042000,0.940000,0.304000,192.000000,0.000000,0.000000,0.000000,0.000000,0.000000,0.000000,0.000000,0.000000,0.000000,1647058021.746194,0.000000
18.000000,2246.640890,12082.302521,-21943.691009,3473.215219,-49800.960696,24874.496445,32300.662375,-11628.584460,0.042000,0.940000,0.304000,192.000000,0.000000,0.000000,0.000000,0.000000,0.000000,0.000000,0.000000,0.000000,0.000000,1647058021.746211,0.000000
19.000000,2247.378498,12082.123707,-21942.439311,3468.946036,-49802.614725,24874.407038,32299.477732,-11625.812844,0.042000,0.940000,0.304000,192.000000,0.000000,0.000000,0.000000,0.000000,0.000000,0.000000,0.000000,0.000000,0.000000,1647058021.753597,0.000000
20.000000,2247.825533,12083.755384,-21939.265363,3469.527181,-49798.949039,24879.190311,32309.245444,-11612.267686,0.042000,0.940000,0.304000,192.000000,0.000000,0.000000,0.000000,0.000000,0.000000,0.000000,0.000000,0.000000,0.000000,1647058021.753613,0.000000
21.000000,2245.746821,12082.011948,-21941.187613,3467.470821,-49798.881984,24875.077590,32304.506875,-11618.280306,0.042000,0.940000,0.304000,192.000000,0.000000,0.000000,0.000000,0.000000,0.000000,0.000000,0.000000,0.000000,0.000000,1647058021.761535,0.000000
22.000000,2246.864408,12085.387061,-21939.265363,3464.565094,-49800.111330,24868.573233,32293.196892,-11634.552376,0.042000,0.940000,0.304000,192.000000,0.000000,0.000000,0.000000,0.000000,0.000000,0.000000,0.000000,0.000000,0.000000,1647058021.761570,0.000000
23.000000,2238.773076,12079.083869,-21943.802767,3458.463068,-49804.805196,24865.131064,32287.832473,-11641.347306,0.042000,0.940000,0.304000,192.000000,0.000000,0.000000,0.000000,0.000000,0.000000,0.000000,0.000000,0.000000,0.000000,1647058021.769539,0.000000
24.000000,2238.326041,12077.407489,-21948.362523,3446.504885,-49809.454359,24866.025134,32297.130799,-11625.477567,0.048000,0.932000,0.302000,192.000000,1.000000,128.000000,29.000000,32.000000,9.000000,112.000000,0.000000,0.000000,0.000000,1647058021.769555,0.000000
25.000000,2239.734201,12079.016814,-21949.502462,3462.955768,-49803.709960,24862.180634,32294.046258,-11634.775893,0.048000,0.932000,0.302000,192.000000,0.000000,0.000000,0.000000,0.000000,0.000000,0.000000,0.000000,0.000000,0.000000,1647058021.776167,0.000000
26.000000,2249.568969,12084.291826,-21942.573421,3469.705995,-49797.607934,24869.042619,32304.775096,-11623.063579,0.048000,0.932000,0.302000,192.000000,0.000000,0.000000,0.000000,0.000000,0.000000,0.000000,0.000000,0.000000,0.000000,1647058021.776184,0.000000
27.000000,2246.752649,12078.569779,-21944.003933,3467.381414,-49800.938344,24871.590718,32308.507837,-11614.435806,0.048000,0.932000,0.302000,192.000000,0.000000,0.000000,0.000000,0.000000,0.000000,0.000000,0.000000,0.000000,0.000000,1647058021.783910,0.000000
28.000000,2243.176370,12076.759288,-21946.529680,3462.195809,-49805.319286,24868.103846,32299.522436,-11624.181166,0.048000,0.932000,0.302000,192.000000,0.000000,0.000000,0.000000,0.000000,0.000000,0.000000,0.000000,0.000000,0.000000,1647058021.783921,0.000000
29.000000,2245.702117,12079.329739,-21946.104997,3461.368795,-49804.961658,24864.594622,32294.672107,-11632.496015,0.048000,0.932000,0.302000,192.000000,0.000000,0.000000,0.000000,0.000000,0.000000,0.000000,0.000000,0.000000,0.000000,1647058021.790840,0.000000
30.000000,2248.317271,12078.100393,-21948.943668,3457.568998,-49807.666219,24863.946422,32307.792581,-11626.483396,0.048000,0.932000,0.302000,192.000000,0.000000,0.000000,0.000000,0.000000,0.000000,0.000000,0.000000,0.000000,0.000000,1647058021.790845,0.000000
31.000000,2245.433896,12075.373480,-21953.995163,3450.394088,-49813.455321,24860.571308,32308.463133,-11623.600021,0.048000,0.932000,0.302000,192.000000,0.000000,0.000000,0.000000,0.000000,0.000000,0.000000,0.000000,0.000000,0.000000,1647058021.798997,0.000000
32.000000,2245.791524,12073.652395,-21955.492730,3436.625413,-49818.663277,24860.303087,32307.569064,-11620.336666,0.048000,0.932000,0.302000,192.000000,0.000000,0.000000,0.000000,0.000000,0.000000,0.000000,0.000000,0.000000,0.000000,1647058021.805390,0.000000
33.000000,2248.831361,12079.508552,-21951.357657,3461.011167,-49810.951926,24865.287526,32303.657508,-11622.035399,0.048000,0.932000,0.302000,192.000000,0.000000,0.000000,0.000000,0.000000,0.000000,0.000000,0.000000,0.000000,0.000000,1647058021.805395,0.000000
34.000000,2251.446515,12085.565875,-21945.792073,3473.103460,-49803.329981,24873.222396,32302.852846,-11616.872146,0.048000,0.932000,0.302000,192.000000,0.000000,0.000000,0.000000,0.000000,0.000000,0.000000,0.000000,0.000000,0.000000,1647058021.813426,0.000000
35.000000,2248.138457,12086.459945,-21949.770683,3466.353234,-49805.699266,24870.249614,32297.622537,-11624.069407,0.046000,0.934000,0.312000,192.000000,1.000000,112.000000,29.000000,48.000000,9.000000,192.000000,0.000000,0.000000,0.000000,1647058021.813431,0.000000
36.000000,2253.234655,12088.069271,-21950.575346,3463.134582,-49808.537937,24868.506177,32295.208549,-11622.057750,0.046000,0.934000,0.312000,192.000000,0.000000,0.000000,0.000000,0.000000,0.000000,0.000000,0.000000,0.000000,0.000000,1647058021.821592,0.000000
37.000000,2244.629233,12078.569779,-21958.756084,3453.612739,-49815.377571,24864.326401,32292.794561,-11630.462006,0.046000,0.934000,0.312000,192.000000,0.000000,0.000000,0.000000,0.000000,0.000000,0.000000,0.000000,0.000000,0.000000,1647058021.821600,0.000000
38.000000,2236.023812,12066.097506,-21962.466474,3445.923739,-49820.227900,24859.565480,32285.664354,-11636.854605,0.046000,0.934000,0.312000,192.000000,0.000000,0.000000,0.000000,0.000000,0.000000,0.000000,0.000000,0.000000,0.000000,1647058021.828988,0.000000
39.000000,2235.800294,12068.265625,-21964.522834,3433.227948,-49823.960641,24857.375009,32288.614784,-11631.378428,0.046000,0.934000,0.312000,192.000000,0.000000,0.000000,0.000000,0.000000,0.000000,0.000000,0.000000,0.000000,0.000000,1647058021.828998,0.000000
40.000000,2238.013117,12069.249102,-21962.622936,3437.318318,-49822.932461,24858.514948,32296.840226,-11627.690390,0.046000,0.934000,0.312000,192.000000,0.000000,0.000000,0.000000,0.000000,0.000000,0.000000,0.000000,0.000000,0.000000,1647058021.836494,0.000000
41.000000,2239.622443,12069.427916,-21956.699724,3456.227893,-49813.589431,24863.812311,32299.187159,-11627.019838,0.046000,0.934000,0.312000,192.000000,0.000000,0.000000,0.000000,0.000000,0.000000,0.000000,0.000000,0.000000,0.000000,1647058021.836510,0.000000
42.000000,2240.494161,12071.573683,-21957.973773,3450.215274,-49818.171539,24860.101922,32292.213415,-11630.283192,0.046000,0.934000,0.312000,192.000000,0.000000,0.000000,0.000000,0.000000,0.000000,0.000000,0.000000,0.000000,0.000000,1647058021.844510,0.000000
43.000000,2232.469884,12066.097506,-21964.500483,3444.225007,-49823.625365,24855.117483,32286.111389,-11638.776855,0.046000,0.934000,0.312000,192.000000,0.000000,0.000000,0.000000,0.000000,0.000000,0.000000,0.000000,0.000000,0.000000,1647058021.844544,0.000000
44.000000,2227.485445,12062.409468,-21967.830893,3441.274576,-49825.748780,24854.782206,32297.331965,-11633.211271,0.046000,0.934000,0.312000,192.000000,0.000000,0.000000,0.000000,0.000000,0.000000,0.000000,0.000000,0.000000,0.000000,1647058021.851679,0.000000
45.000000,2232.447533,12063.236483,-21966.042753,3443.152123,-49824.273565,24853.642267,32298.382497,-11634.105341,0.046000,0.936000,0.304000,192.000000,1.000000,112.000000,29.000000,64.000000,9.000000,128.000000,0.000000,0.000000,0.000000,1647058021.851696,0.000000
46.000000,2240.561216,12064.085849,-21959.404285,3443.465047,-49820.831397,24855.877442,32298.561311,-11629.143253,0.046000,0.936000,0.304000,192.000000,0.000000,0.000000,0.000000,0.000000,0.000000,0.000000,0.000000,0.000000,0.000000,1647058021.858184,0.000000
47.000000,2235.688536,12059.391982,-21961.840625,3427.081219,-49825.972298,24858.582003,32302.294052,-11626.349285,0.046000,0.936000,0.304000,192.000000,0.000000,0.000000,0.000000,0.000000,0.000000,0.000000,0.000000,0.000000,0.000000,1647058021.866007,0.000000
48.000000,2230.614690,12059.682555,-21960.834797,3441.632204,-49822.396019,24859.073741,32298.270738,-11623.756483,0.046000,0.936000,0.304000,192.000000,0.000000,0.000000,0.000000,0.000000,0.000000,0.000000,0.000000,0.000000,0.000000,1647058021.866023,0.000000
49.000000,2243.154018,12072.512456,-21948.988372,3459.334786,-49809.879042,24867.276832,32293.331002,-11620.873108,0.046000,0.936000,0.304000,192.000000,0.000000,0.000000,0.000000,0.000000,0.000000,0.000000,0.000000,0.000000,0.000000,1647058021.874242,0.000000
50.000000,2245.657414,12075.127611,-21949.278945,3456.473763,-49808.895565,24866.315707,32292.906319,-11621.163681,0.046000,0.936000,0.304000,192.000000,0.000000,0.000000,0.000000,0.000000,0.000000,0.000000,0.000000,0.000000,0.000000,1647058021.874258,0.000000
51.000000,2246.752649,12078.838000,-21947.267288,3455.892617,-49809.208490,24864.751084,32296.974337,-11617.721512,0.046000,0.936000,0.304000,192.000000,0.000000,0.000000,0.000000,0.000000,0.000000,0.000000,0.000000,0.000000,0.000000,1647058021.881402,0.000000
52.000000,2250.105411,12079.195628,-21946.999067,3454.149181,-49809.275545,24859.744294,32291.028773,-11626.952783,0.046000,0.936000,0.304000,192.000000,0.000000,0.000000,0.000000,0.000000,0.000000,0.000000,0.000000,0.000000,0.000000,1647058021.881419,0.000000
53.000000,2247.669071,12073.987672,-21952.698762,3451.511675,-49812.605955,24851.541203,32281.797502,-11637.234585,0.046000,0.936000,0.304000,192.000000,0.000000,0.000000,0.000000,0.000000,0.000000,0.000000,0.000000,0.000000,0.000000,1647058021.888673,0.000000
54.000000,2259.716661,12087.845753,-21942.618125,3458.843047,-49803.218222,24857.509119,32287.228976,-11633.725361,0.046000,0.936000,0.304000,192.000000,0.000000,0.000000,0.000000,0.000000,0.000000,0.000000,0.000000,0.000000,0.000000,1647058021.888689,0.000000
55.000000,2262.175353,12090.684425,-21943.400436,3455.490286,-49802.301801,24857.084436,32290.425276,-11647.471684,0.048000,0.934000,0.310000,192.000000,1.000000,128.000000,29.000000,48.000000,9.000000,176.000000,0.000000,0.000000,0.000000,1647058021.896786,0.000000
56.000000,2264.097603,12090.818535,-21941.947572,3457.837219,-49802.279449,24859.274907,32287.854825,-11644.923585,0.048000,0.934000,0.310000,192.000000,0.000000,0.000000,0.000000,0.000000,0.000000,0.000000,0.000000,0.000000,0.000000,1647058021.896803,0.000000
57.000000,2260.968359,12088.650416,-21943.243974,3457.434888,-49802.391208,24868.036791,32292.995726,-11621.923640,0.048000,0.934000,0.310000,192.000000,0.000000,0.000000,0.000000,0.000000,0.000000,0.000000,0.000000,0.000000,0.000000,1647058021.904785,0.000000
58.000000,2259.068460,12086.571704,-21950.977677,3444.917911,-49809.275545,24865.041657,32292.883968,-11626.282230,0.048000,0.934000,0.310000,192.000000,0.000000,0.000000,0.000000,0.000000,0.000000,0.000000,0.000000,0.000000,0.000000,1647058021.904802,0.000000
59.000000,2267.115088,12087.286960,-21946.373218,3465.481516,-49802.458263,24864.058180,32287.631308,-11634.172396,0.048000,0.934000,0.310000,192.000000,0.000000,0.000000,0.000000,0.000000,0.000000,0.000000,0.000000,0.000000,0.000000,1647058021.911359,0.000000
60.000000,2268.277379,12086.616407,-21947.669619,3461.681719,-49804.805196,24862.024172,32289.464151,-11641.392009,0.048000,0.934000,0.310000,192.000000,0.000000,0.000000,0.000000,0.000000,0.000000,0.000000,0.000000,0.000000,0.000000,1647058021.911375,0.000000
61.000000,2257.481486,12078.279207,-21954.688067,3451.019937,-49814.952888,24855.050427,32285.217319,-11645.124751,0.048000,0.934000,0.310000,192.000000,0.000000,0.000000,0.000000,0.000000,0.000000,0.000000,0.000000,0.000000,0.000000,1647058021.918339,0.000000
62.000000,2259.627254,12081.631968,-21948.921317,3455.780858,-49809.901394,24861.688895,32286.781941,-11633.837120,0.048000,0.934000,0.310000,192.000000,0.000000,0.000000,0.000000,0.000000,0.000000,0.000000,0.000000,0.000000,0.000000,1647058021.926441,0.000000
63.000000,2262.309463,12086.996387,-21947.490805,3461.569960,-49806.772149,24866.181596,32288.257156,-11634.887652,0.048000,0.934000,0.310000,192.000000,0.000000,0.000000,0.000000,0.000000,0.000000,0.000000,0.000000,0.000000,0.000000,1647058021.926458,0.000000
64.000000,2264.254065,12089.209210,-21944.987410,3463.872190,-49804.089940,24867.790922,32292.526340,-11639.246242,0.048000,0.934000,0.310000,192.000000,0.000000,0.000000,0.000000,0.000000,0.000000,0.000000,0.000000,0.000000,0.000000,1647058021.934463,0.000000
65.000000,2264.365824,12084.604750,-21945.814424,3462.128754,-49805.431045,24868.237957,32296.460247,-11634.798245,0.046000,0.934000,0.310000,192.000000,1.000000,112.000000,29.000000,48.000000,9.000000,176.000000,0.000000,0.000000,0.000000,1647058021.934498,0.000000
66.000000,2263.471754,12080.693195,-21948.362523,3457.613702,-49809.454359,24866.852148,32298.382497,-11632.898347,0.046000,0.934000,0.310000,192.000000,0.000000,0.000000,0.000000,0.000000,0.000000,0.000000,0.000000,0.000000,0.000000,1647058021.941064,0.000000
67.000000,2260.543675,12076.111087,-21951.514119,3438.681774,-49817.590394,24864.840491,32296.013212,-11631.333724,0.046000,0.934000,0.310000,192.000000,0.000000,0.000000,0.000000,0.000000,0.000000,0.000000,0.000000,0.000000,0.000000,1647058021.941080,0.000000
68.000000,2263.315292,12078.122744,-21948.429578,3456.473763,-49810.259022,24867.209776,32294.962680,-11627.422169,0.046000,0.934000,0.310000,192.000000,0.000000,0.000000,0.000000,0.000000,0.000000,0.000000,0.000000,0.000000,0.000000,1647058021.948780,0.000000
69.000000,2268.411490,12086.616407,-21939.779453,3474.198696,-49799.463129,24874.272928,32302.606976,-11621.744826,0.046000,0.934000,0.310000,192.000000,0.000000,0.000000,0.000000,0.000000,0.000000,0.000000,0.000000,0.000000,0.000000,1647058021.948792,0.000000
70.000000,2265.706928,12086.392890,-21944.741541,3464.654501,-49805.051065,24870.249614,32295.789694,-11630.216137,0.046000,0.934000,0.310000,192.000000,0.000000,0.000000,0.000000,0.000000,0.000000,0.000000,0.000000,0.000000,0.000000,1647058021.957071,0.000000
71.000000,2263.650568,12081.654320,-21950.061256,3456.719632,-49812.538899,24861.085398,32285.999630,-11640.453236,0.046000,0.934000,0.310000,192.000000,0.000000,0.000000,0.000000,0.000000,0.000000,0.000000,0.000000,0.000000,0.000000,1647058021.957087,0.000000
72.000000,2260.633082,12077.273378,-21953.414017,3452.651614,-49814.997591,24859.833701,32289.531206,-11640.900271,0.046000,0.934000,0.310000,192.000000,0.000000,0.000000,0.000000,0.000000,0.000000,0.000000,0.000000,0.000000,0.000000,1647058021.964102,0.000000
73.000000,2259.783716,12080.201457,-21955.448026,3452.115172,-49814.394094,24861.152454,32298.024869,-11626.393989,0.046000,0.934000,0.310000,192.000000,0.000000,0.000000,0.000000,0.000000,0.000000,0.000000,0.000000,0.000000,0.000000,1647058021.964119,0.000000
74.000000,2266.779812,12088.181029,-21954.911584,3446.393126,-49814.215280,24860.012515,32291.028773,-11629.322067,0.046000,0.934000,0.310000,192.000000,0.000000,0.000000,0.000000,0.000000,0.000000,0.000000,0.000000,0.000000,0.000000,1647058021.971459,0.000000
75.000000,2269.909056,12089.835058,-21952.564651,3452.897483,-49812.091865,24859.364314,32293.420409,-11637.815730,0.044000,0.936000,0.308000,192.000000,1.000000,96.000000,29.000000,64.000000,9.000000,160.000000,0.000000,0.000000,0.000000,1647058021.971475,0.000000
76.000000,2268.433841,12086.884628,-21952.475244,3463.000472,-49812.114216,24858.649058,32294.001555,-11634.708838,0.044000,0.936000,0.308000,192.000000,0.000000,0.000000,0.000000,0.000000,0.000000,0.000000,0.000000,0.000000,0.000000,1647058021.978618,0.000000
77.000000,2266.310426,12087.801050,-21953.279907,3457.211370,-49814.192929,24862.582965,32300.036526,-11612.580611,0.044000,0.936000,0.308000,192.000000,0.000000,0.000000,0.000000,0.000000,0.000000,0.000000,0.000000,0.000000,0.000000,1647058021.986793,0.000000
78.000000,2265.282245,12087.733994,-21956.789131,3453.590388,-49815.623440,24862.001820,32302.808142,-11612.714721,0.044000,0.936000,0.308000,192.000000,0.000000,0.000000,0.000000,0.000000,0.000000,0.000000,0.000000,0.000000,0.000000,1647058021.986809,0.000000
79.000000,2263.158830,12086.705814,-21959.404285,3453.612739,-49816.539862,24859.207852,32294.113313,-11626.349285,0.044000,0.936000,0.308000,192.000000,0.000000,0.000000,0.000000,0.000000,0.000000,0.000000,0.000000,0.000000,0.000000,1647058021.992975,0.000000
80.000000,2265.081080,12088.337492,-21957.504387,3454.193885,-49815.936365,24856.816215,32283.250366,-11635.379390,0.044000,0.936000,0.308000,192.000000,0.000000,0.000000,0.000000,0.000000,0.000000,0.000000,0.000000,0.000000,0.000000,1647058021.992985,0.000000
81.000000,2266.600998,12089.365672,-21955.269212,3453.456277,-49816.316344,24856.838567,32284.904395,-11634.753541,0.044000,0.936000,0.308000,192.000000,0.000000,0.000000,0.000000,0.000000,0.000000,0.000000,0.000000,0.000000,0.000000,1647058022.000901,0.000000
82.000000,2270.221981,12094.171297,-21952.139968,3453.389222,-49812.516548,24858.023209,32287.944232,-11633.188919,0.044000,0.936000,0.308000,192.000000,0.000000,0.000000,0.000000,0.000000,0.000000,0.000000,0.000000,0.000000,0.000000,1647058022.000907,0.000000
83.000000,2273.641798,12099.714529,-21950.888270,3453.635091,-49807.822681,24857.285602,32282.266889,-11634.686486,0.044000,0.936000,0.308000,192.000000,0.000000,0.000000,0.000000,0.000000,0.000000,0.000000,0.000000,0.000000,0.000000,1647058022.008876,0.000000
84.000000,2270.065519,12098.775756,-21953.302259,3452.428097,-49808.336772,24855.877442,32283.138607,-11639.290945,0.044000,0.936000,0.308000,192.000000,0.000000,0.000000,0.000000,0.000000,0.000000,0.000000,0.000000,0.000000,0.000000,1647058022.008881,0.000000
85.000000,2267.070385,12092.472564,-21956.275041,3448.270672,-49812.449493,24855.519814,32295.186197,-11637.860434,0.048000,0.936000,0.304000,192.000000,1.000000,128.000000,29.000000,64.000000,9.000000,128.000000,0.000000,0.000000,0.000000,1647058022.015932,0.000000
86.000000,2269.171449,12091.936122,-21949.949497,3449.745887,-49809.856690,24862.940593,32306.496180,-11628.092721,0.048000,0.936000,0.304000,192.000000,0.000000,0.000000,0.000000,0.000000,0.000000,0.000000,0.000000,0.000000,0.000000,1647058022.015943,0.000000
87.000000,2273.015949,12097.591114,-21947.423750,3440.447562,-49809.566117,24866.785093,32306.160904,-11619.733169,0.048000,0.936000,0.304000,192.000000,0.000000,0.000000,0.000000,0.000000,0.000000,0.000000,0.000000,0.000000,0.000000,1647058022.023454,0.000000
88.000000,2272.144231,12100.742710,-21948.720151,3462.799306,-49805.721617,24864.482863,32301.243520,-11623.980000,0.048000,0.936000,0.304000,192.000000,0.000000,0.000000,0.000000,0.000000,0.000000,0.000000,0.000000,0.000000,0.000000,1647058022.023458,0.000000
89.000000,2272.904190,12102.240277,-21946.663791,3466.286178,-49803.531146,24866.628631,32300.751782,-11627.824501,0.048000,0.936000,0.304000,192.000000,0.000000,0.000000,0.000000,0.000000,0.000000,0.000000,0.000000,0.000000,0.000000,1647058022.031504,0.000000
90.000000,2271.406623,12098.753404,-21952.251727,3457.345481,-49809.499062,24862.582965,32299.835360,-11634.060637,0.048000,0.936000,0.304000,192.000000,0.000000,0.000000,0.000000,0.000000,0.000000,0.000000,0.000000,0.000000,0.000000,1647058022.031508,0.000000
91.000000,2271.227809,12096.629989,-21953.302259,3450.863475,-49815.019943,24864.035829,32299.790657,-11628.875033,0.048000,0.936000,0.304000,192.000000,0.000000,0.000000,0.000000,0.000000,0.000000,0.000000,0.000000,0.000000,0.000000,1647058022.038579,0.000000
92.000000,2268.098565,12093.500745,-21955.693895,3449.701184,-49819.043257,24863.275869,32294.537997,-11633.099512,0.048000,0.936000,0.304000,192.000000,0.000000,0.000000,0.000000,0.000000,0.000000,0.000000,0.000000,0.000000,0.000000,1647058022.038583,0.000000
93.000000,2265.595170,12092.919599,-21956.878538,3449.477667,-49819.266775,24861.085398,32291.609918,-11644.297736,0.048000,0.936000,0.304000,192.000000,0.000000,0.000000,0.000000,0.000000,0.000000,0.000000,0.000000,0.000000,0.000000,1647058022.045614,0.000000
94.000000,2267.115088,12098.552239,-21953.078741,3451.869303,-49817.188062,24862.202986,32290.402924,-11638.575690,0.048000,0.936000,0.304000,192.000000,0.000000,0.000000,0.000000,0.000000,0.000000,0.000000,0.000000,0.000000,0.000000,1647058022.053292,0.000000
95.000000,2266.042205,12103.693140,-21951.044732,3448.158914,-49818.283298,24863.901718,32289.330040,-11629.210309,0.046000,0.944000,0.306000,192.000000,1.000000,112.000000,29.000000,128.000000,9.000000,144.000000,0.000000,0.000000,0.000000,1647058022.053299,0.000000
96.000000,2257.481486,12097.591114,-21958.309049,3443.867379,-49825.525263,24859.520776,32295.096790,-11628.651515,0.046000,0.944000,0.306000,192.000000,0.000000,0.000000,0.000000,0.000000,0.000000,0.000000,0.000000,0.000000,0.000000,1647058022.061469,0.000000
97.000000,2256.095678,12093.970131,-21951.044732,3459.111268,-49817.433932,24866.271003,32308.463133,-11625.231698,0.046000,0.944000,0.306000,192.000000,0.000000,0.000000,0.000000,0.000000,0.000000,0.000000,0.000000,0.000000,0.000000,1647058022.061479,0.000000
98.000000,2259.828420,12094.059538,-21950.262421,3456.987853,-49816.338696,24864.304050,32306.295014,-11634.462969,0.046000,0.944000,0.306000,192.000000,0.000000,0.000000,0.000000,0.000000,0.000000,0.000000,0.000000,0.000000,0.000000,1647058022.069546,0.000000
99.000000,2258.286149,12093.165468,-21955.291564,3453.858608,-49821.613708,24861.331268,32298.896587,-11636.452274,0.046000,0.944000,0.306000,192.000000,0.000000,0.000000,0.000000,0.000000,0.000000,0.000000,0.000000,0.000000,0.000000,1647058022.069562,0.000000
100.000000,2254.396946,12090.483259,-21956.990296,3452.137524,-49824.765304,24867.500349,32304.775096,-11623.801187,0.046000,0.944000,0.306000,192.000000,0.000000,0.000000,0.000000,0.000000,0.000000,0.000000,0.000000,0.000000,0.000000,1647058022.076137,0.000000
101.000000,2253.257007,12088.113974,-21956.342096,3453.143353,-49826.821664,24867.075666,32304.775096,-11623.488262,0.046000,0.944000,0.306000,192.000000,0.000000,0.000000,0.000000,0.000000,0.000000,0.000000,0.000000,0.000000,0.000000,1647058022.076154,0.000000
102.000000,2251.871199,12084.492992,-21956.587965,3454.417402,-49827.402810,24866.718038,32304.484523,-11626.326934,0.046000,0.944000,0.306000,192.000000,0.000000,0.000000,0.000000,0.000000,0.000000,0.000000,0.000000,0.000000,0.000000,1647058022.084183,0.000000
103.000000,2252.921731,12086.795221,-21954.710419,3456.049079,-49826.464036,24866.874500,32300.707078,-11630.193785,0.046000,0.944000,0.306000,192.000000,0.000000,0.000000,0.000000,0.000000,0.000000,0.000000,0.000000,0.000000,0.000000,1647058022.084199,0.000000
104.000000,2250.440687,12087.488125,-21958.040828,3453.299815,-49829.928557,24863.477035,32301.891721,-11638.598041,0.046000,0.944000,0.306000,192.000000,0.000000,0.000000,0.000000,0.000000,0.000000,0.000000,0.000000,0.000000,0.000000,1647058022.091984,0.000000
105.000000,2252.765268,12088.672768,-21955.649192,3455.020899,-49829.794446,24864.236994,32304.149247,-11636.742847,0.054000,0.938000,0.308000,192.000000,1.000000,176.000000,29.000000,80.000000,9.000000,160.000000,0.000000,0.000000,0.000000,1647058022.092001,0.000000
106.000000,2254.687518,12085.834096,-21953.928107,3454.149181,-49830.241481,24867.254480,32310.519494,-11628.360942,0.054000,0.938000,0.308000,192.000000,0.000000,0.000000,0.000000,0.000000,0.000000,0.000000,0.000000,0.000000,0.000000,1647058022.099337,0.000000
107.000000,2257.056803,12088.806878,-21952.564651,3454.775030,-49829.056839,24867.790922,32310.810067,-11629.366771,0.054000,0.938000,0.308000,192.000000,0.000000,0.000000,0.000000,0.000000,0.000000,0.000000,0.000000,0.000000,0.000000,1647058022.099370,0.000000
108.000000,2259.381385,12090.572666,-21948.161357,3446.706050,-49826.531092,24869.444951,32306.607939,-11639.045076,0.054000,0.938000,0.308000,192.000000,0.000000,0.000000,0.000000,0.000000,0.000000,0.000000,0.000000,0.000000,0.000000,1647058022.105820,0.000000
109.000000,2264.544638,12091.802012,-21944.741541,3462.866361,-49818.260946,24869.176730,32301.690555,-11639.581518,0.054000,0.938000,0.308000,192.000000,0.000000,0.000000,0.000000,0.000000,0.000000,0.000000,0.000000,0.000000,0.000000,1647058022.113899,0.000000
110.000000,2262.398870,12089.812707,-21946.663791,3473.304626,-49816.942193,24866.449817,32303.366936,-11637.078123,0.054000,0.938000,0.308000,192.000000,0.000000,0.000000,0.000000,0.000000,0.000000,0.000000,0.000000,0.000000,0.000000,1647058022.113916,0.000000
111.000000,2265.908094,12091.198515,-21944.473320,3466.599103,-49819.602051,24866.181596,32303.836322,-11634.172396,0.054000,0.938000,0.308000,192.000000,0.000000,0.000000,0.000000,0.000000,0.000000,0.000000,0.000000,0.000000,0.000000,1647058022.121784,0.000000
112.000000,2271.786603,12096.652340,-21941.053503,3464.095707,-49817.970373,24870.160207,32305.535055,-11623.264745,0.054000,0.938000,0.308000,192.000000,0.000000,0.000000,0.000000,0.000000,0.000000,0.000000,0.000000,0.000000,0.000000,1647058022.121801,0.000000
113.000000,2278.268609,12099.401605,-21937.320761,3458.105440,-49815.690495,24872.484788,32299.343622,-11625.008181,0.054000,0.938000,0.308000,192.000000,0.000000,0.000000,0.000000,0.000000,0.000000,0.000000,0.000000,0.000000,0.000000,1647058022.128430,0.000000
114.000000,2272.613617,12092.874896,-21939.086549,3474.064585,-49811.331905,24870.383724,32290.738200,-11638.754504,0.054000,0.938000,0.308000,192.000000,0.000000,0.000000,0.000000,0.000000,0.000000,0.000000,0.000000,0.000000,0.000000,1647058022.128446,0.000000
115.000000,2262.980016,12087.063442,-21947.334343,3462.195809,-49820.741990,24866.360410,32294.783866,-11649.371582,0.052000,0.938000,0.310000,192.000000,1.000000,160.000000,29.000000,80.000000,9.000000,176.000000,0.000000,0.000000,0.000000,1647058022.136460,0.000000
116.000000,2260.275455,12084.537695,-21952.676410,3453.925664,-49826.598147,24858.582003,32292.816912,-11657.462914,0.052000,0.938000,0.310000,192.000000,0.000000,0.000000,0.000000,0.000000,0.000000,0.000000,0.000000,0.000000,0.000000,1647058022.136476,0.000000
117.000000,2269.506725,12093.478393,-21944.272154,3462.419327,-49817.545690,24865.823968,32295.119142,-11630.350248,0.052000,0.938000,0.310000,192.000000,0.000000,0.000000,0.000000,0.000000,0.000000,0.000000,0.000000,0.000000,0.000000,1647058022.144463,0.000000
118.000000,2275.027606,12094.685387,-21940.181785,3467.113193,-49812.293030,24870.249614,32299.410677,-11616.581573,0.052000,0.938000,0.310000,192.000000,0.000000,0.000000,0.000000,0.000000,0.000000,0.000000,0.000000,0.000000,0.000000,1647058022.144479,0.000000
119.000000,2278.737995,12098.909867,-21936.113767,3469.214257,-49809.029676,24873.557672,32304.059840,-11624.114111,0.052000,0.938000,0.310000,192.000000,0.000000,0.000000,0.000000,0.000000,0.000000,0.000000,0.000000,0.000000,0.000000,1647058022.151641,0.000000
120.000000,2280.056748,12099.759233,-21937.276058,3468.342539,-49810.393132,24873.915300,32305.490351,-11627.109245,0.052000,0.938000,0.310000,192.000000,0.000000,0.000000,0.000000,0.000000,0.000000,0.000000,0.000000,0.000000,0.000000,1647058022.151657,0.000000
121.000000,2275.653455,12094.238352,-21940.517061,3464.788612,-49814.729370,24868.394419,32297.242558,-11631.490187,0.052000,0.938000,0.310000,192.000000,0.000000,0.000000,0.000000,0.000000,0.000000,0.000000,0.000000,0.000000,0.000000,1647058022.158890,0.000000
122.000000,2276.703987,12092.159640,-21937.097244,3468.677815,-49812.673010,24868.014439,32300.952947,-11628.025666,0.052000,0.938000,0.310000,192.000000,0.000000,0.000000,0.000000,0.000000,0.000000,0.000000,0.000000,0.000000,0.000000,1647058022.158906,0.000000
123.000000,2279.006216,12092.874896,-21934.280924,3470.756527,-49807.107426,24874.451742,32303.501046,-11629.702047,0.052000,0.938000,0.310000,192.000000,0.000000,0.000000,0.000000,0.000000,0.000000,0.000000,0.000000,0.000000,0.000000,1647058022.166012,0.000000
124.000000,2274.871144,12088.337492,-21943.311029,3447.577768,-49819.266775,24870.316669,32296.124970,-11638.039248,0.052000,0.938000,0.310000,192.000000,0.000000,0.000000,0.000000,0.000000,0.000000,0.000000,0.000000,0.000000,0.000000,1647058022.174081,0.000000
125.000000,2279.855583,12096.585285,-21936.471395,3470.488306,-49808.604992,24873.222396,32297.264909,-11635.625259,0.050000,0.932000,0.310000,192.000000,1.000000,144.000000,29.000000,32.000000,9.000000,176.000000,0.000000,0.000000,0.000000,1647058022.174099,0.000000
126.000000,2279.833231,12097.188782,-21935.532622,3473.394033,-49807.375647,24872.551843,32297.533130,-11639.022725,0.050000,0.932000,0.310000,192.000000,0.000000,0.000000,0.000000,0.000000,0.000000,0.000000,0.000000,0.000000,0.000000,1647058022.181274,0.000000
127.000000,2286.739920,12099.759233,-21936.002008,3460.586484,-49810.639001,24872.976526,32296.951985,-11638.128655,0.050000,0.932000,0.310000,192.000000,0.000000,0.000000,0.000000,0.000000,0.000000,0.000000,0.000000,0.000000,0.000000,1647058022.181290,0.000000
128.000000,2292.461967,12104.676617,-21930.928162,3483.429966,-49801.899469,24873.960003,32294.537997,-11634.217099,0.050000,0.932000,0.310000,192.000000,0.000000,0.000000,0.000000,0.000000,0.000000,0.000000,0.000000,0.000000,0.000000,1647058022.188787,0.000000
129.000000,2289.466833,12102.776718,-21938.281886,3477.171478,-49805.699266,24869.176730,32294.672107,-11640.363829,0.050000,0.932000,0.310000,192.000000,0.000000,0.000000,0.000000,0.000000,0.000000,0.000000,0.000000,0.000000,0.000000,1647058022.188821,0.000000
130.000000,2285.778795,12101.726186,-21941.947572,3471.985873,-49811.555423,24865.242823,32296.124970,-11641.771989,0.050000,0.932000,0.310000,192.000000,0.000000,0.000000,0.000000,0.000000,0.000000,0.000000,0.000000,0.000000,0.000000,1647058022.196754,0.000000
131.000000,2286.114071,12104.542506,-21942.171090,3471.807059,-49811.466016,24866.271003,32301.981127,-11630.819634,0.050000,0.932000,0.310000,192.000000,0.000000,0.000000,0.000000,0.000000,0.000000,0.000000,0.000000,0.000000,0.000000,1647058022.196770,0.000000
132.000000,2278.581533,12097.524059,-21948.451930,3466.397937,-49815.154054,24861.733599,32296.192026,-11632.764236,0.050000,0.932000,0.310000,192.000000,0.000000,0.000000,0.000000,0.000000,0.000000,0.000000,0.000000,0.000000,0.000000,1647058022.204764,0.000000
133.000000,2276.927504,12090.751480,-21950.329477,3464.900370,-49812.673010,24863.052352,32297.577834,-11626.639858,0.050000,0.932000,0.310000,192.000000,0.000000,0.000000,0.000000,0.000000,0.000000,0.000000,0.000000,0.000000,0.000000,1647058022.204781,0.000000
134.000000,2281.084929,12092.204343,-21946.552032,3465.213295,-49809.923745,24863.946422,32302.070534,-11627.958611,0.050000,0.932000,0.310000,192.000000,0.000000,0.000000,0.000000,0.000000,0.000000,0.000000,0.000000,0.000000,0.000000,1647058022.211404,0.000000
135.000000,2279.185030,12090.550314,-21947.200232,3461.189981,-49812.047161,24860.906584,32293.554520,-11637.480454,0.050000,0.932000,0.310000,192.000000,0.000000,0.000000,0.000000,0.000000,0.000000,0.000000,0.000000,0.000000,0.000000,1647058022.211420,0.000000
136.000000,2273.172411,12088.024567,-21952.296430,3453.657443,-49819.199719,24853.999895,32282.959793,-11650.958556,0.052000,0.934000,0.302000,192.000000,1.000000,160.000000,29.000000,48.000000,9.000000,112.000000,0.000000,0.000000,0.000000,1647058022.219374,0.000000
137.000000,2273.798260,12091.131460,-21952.810520,3450.639957,-49821.524301,24853.306991,32284.703229,-11651.785571,0.052000,0.934000,0.302000,192.000000,0.000000,0.000000,0.000000,0.000000,0.000000,0.000000,0.000000,0.000000,0.000000,1647058022.219391,0.000000
138.000000,2270.736071,12086.370538,-21955.313916,3451.131696,-49820.607879,24857.799692,32295.163845,-11639.916794,0.052000,0.934000,0.302000,192.000000,0.000000,0.000000,0.000000,0.000000,0.000000,0.000000,0.000000,0.000000,0.000000,1647058022.226117,0.000000
139.000000,2276.681635,12094.305407,-21947.893136,3457.211370,-49813.522376,24865.868672,32303.836322,-11624.717608,0.052000,0.934000,0.302000,192.000000,0.000000,0.000000,0.000000,0.000000,0.000000,0.000000,0.000000,0.000000,0.000000,1647058022.233275,0.000000
140.000000,2279.274437,12100.385082,-21946.730846,3450.259978,-49815.779902,24865.287526,32298.337793,-11632.473663,0.052000,0.934000,0.302000,192.000000,0.000000,0.000000,0.000000,0.000000,0.000000,0.000000,0.000000,0.000000,0.000000,1647058022.233281,0.000000
141.000000,2283.230696,12099.759233,-21947.937840,3466.599103,-49814.707019,24858.403189,32288.771247,-11643.604832,0.052000,0.934000,0.302000,192.000000,0.000000,0.000000,0.000000,0.000000,0.000000,0.000000,0.000000,0.000000,0.000000,1647058022.240667,0.000000
142.000000,2289.176260,12108.364655,-21941.008799,3479.026673,-49807.599164,24863.991125,32291.319345,-11634.351210,0.052000,0.934000,0.302000,192.000000,0.000000,0.000000,0.000000,0.000000,0.000000,0.000000,0.000000,0.000000,0.000000,1647058022.240673,0.000000
143.000000,2290.271496,12114.220812,-21937.387817,3477.998492,-49802.838242,24871.121332,32301.310575,-11624.449387,0.052000,0.934000,0.302000,192.000000,0.000000,0.000000,0.000000,0.000000,0.000000,0.000000,0.000000,0.000000,0.000000,1647058022.248602,0.000000
144.000000,2282.403682,12108.901096,-21943.847471,3463.738080,-49809.275545,24868.416771,32300.170636,-11629.255012,0.052000,0.934000,0.302000,192.000000,0.000000,0.000000,0.000000,0.000000,0.000000,0.000000,0.000000,0.000000,0.000000,1647058022.248606,0.000000
145.000000,2283.141289,12108.118785,-21942.662828,3478.691397,-49804.380513,24868.394419,32296.281433,-11633.457140,0.052000,0.934000,0.302000,192.000000,0.000000,0.000000,0.000000,0.000000,0.000000,0.000000,0.000000,0.000000,0.000000,1647058022.256876,0.000000
146.000000,2289.332722,12111.896230,-21939.868860,3480.278370,-49803.598202,24870.137855,32291.185235,-11637.815730,0.042000,0.934000,0.312000,192.000000,1.000000,80.000000,29.000000,48.000000,9.000000,192.000000,0.000000,0.000000,0.000000,1647058022.256883,0.000000
147.000000,2290.182089,12110.689236,-21939.198308,3476.031539,-49804.447568,24873.110637,32297.220206,-11630.216137,0.042000,0.934000,0.312000,192.000000,0.000000,0.000000,0.000000,0.000000,0.000000,0.000000,0.000000,0.000000,0.000000,1647058022.263691,0.000000
148.000000,2282.806013,12105.593038,-21946.484977,3469.571885,-49807.800330,24871.769532,32300.550616,-11625.969306,0.042000,0.934000,0.312000,192.000000,0.000000,0.000000,0.000000,0.000000,0.000000,0.000000,0.000000,0.000000,0.000000,1647058022.263707,0.000000
149.000000,2279.587362,12108.744634,-21952.788169,3464.118059,-49812.695362,24864.192291,32293.263947,-11640.542643,0.042000,0.934000,0.312000,192.000000,0.000000,0.000000,0.000000,0.000000,0.000000,0.000000,0.000000,0.000000,0.000000,1647058022.272166,0.000000
150.000000,2282.537792,12111.158623,-21952.564651,3458.619530,-49815.712847,24859.096093,32285.887871,-11650.824446,0.042000,0.934000,0.312000,192.000000,0.000000,0.000000,0.000000,0.000000,0.000000,0.000000,0.000000,0.000000,0.000000,1647058022.272200,0.000000
151.000000,2284.817670,12109.839870,-21953.995163,3460.430021,-49816.115179,24858.090265,32279.696438,-11657.351155,0.042000,0.934000,0.312000,192.000000,0.000000,0.000000,0.000000,0.000000,0.000000,0.000000,0.000000,0.000000,0.000000,1647058022.279639,0.000000
152.000000,2293.266629,12115.606620,-21948.898965,3461.301739,-49811.287202,24863.275869,32282.691572,-11641.906100,0.042000,0.934000,0.312000,192.000000,0.000000,0.000000,0.000000,0.000000,0.000000,0.000000,0.000000,0.000000,0.000000,1647058022.279656,0.000000
153.000000,2294.183051,12118.735864,-21948.653096,3450.438792,-49813.298859,24862.694724,32280.031714,-11641.973155,0.042000,0.934000,0.312000,192.000000,0.000000,0.000000,0.000000,0.000000,0.000000,0.000000,0.000000,0.000000,0.000000,1647058022.286524,0.000000
154.000000,2295.546507,12123.899117,-21945.076817,3477.529106,-49805.721617,24862.359448,32279.696438,-11647.896367,0.042000,0.934000,0.312000,192.000000,0.000000,0.000000,0.000000,0.000000,0.000000,0.000000,0.000000,0.000000,0.000000,1647058022.286532,0.000000
155.000000,2296.954667,12126.223698,-21943.243974,3479.406652,-49804.782844,24862.202986,32279.450569,-11644.677716,0.042000,0.934000,0.312000,192.000000,0.000000,0.000000,0.000000,0.000000,0.000000,0.000000,0.000000,0.000000,0.000000,1647058022.292871,0.000000
156.000000,2295.032417,12121.574536,-21942.215793,3465.213295,-49808.828510,24865.779265,32286.357258,-11637.033419,0.046000,0.938000,0.306000,192.000000,1.000000,112.000000,29.000000,80.000000,9.000000,144.000000,0.000000,0.000000,0.000000,1647058022.300834,0.000000
157.000000,2282.358978,12103.581381,-21947.244936,3460.228856,-49813.432969,24868.841454,32301.847017,-11625.097588,0.046000,0.938000,0.306000,192.000000,0.000000,0.000000,0.000000,0.000000,0.000000,0.000000,0.000000,0.000000,0.000000,1647058022.300838,0.000000
158.000000,2282.537792,12104.900134,-21947.066122,3468.387242,-49810.393132,24872.753009,32313.380517,-11616.782739,0.046000,0.938000,0.306000,192.000000,0.000000,0.000000,0.000000,0.000000,0.000000,0.000000,0.000000,0.000000,0.000000,1647058022.308945,0.000000
159.000000,2285.041187,12107.783509,-21950.441235,3459.804172,-49813.835301,24867.835625,32302.584625,-11630.596117,0.046000,0.938000,0.306000,192.000000,0.000000,0.000000,0.000000,0.000000,0.000000,0.000000,0.000000,0.000000,0.000000,1647058022.308950,0.000000
160.000000,2283.431862,12108.431710,-21949.569517,3457.680757,-49814.684667,24867.723866,32294.783866,-11636.899309,0.046000,0.938000,0.306000,192.000000,0.000000,0.000000,0.000000,0.000000,0.000000,0.000000,0.000000,0.000000,0.000000,1647058022.316146,0.000000
