%OpenBCI Raw EEG Data
%Number of channels = 8
%Sample Rate = 256 Hz
%Board = OpenBCI_GUI$BoardCytonSerial
%Channels = Fp1, Fp2, F3, F4, Fz, Pz, O1, O2
%Data recorded at AIMS Lab (http://aimsl.uiu.ac.bd) by Rana Depto (mail@ranadepto.com)
%Brainwaves were obtained via the Ultracortex Mark IV Headset using the OpenBCI Cyton Board
%Recording Application = ConcentrateToday (https://concentrate.today)
%Data type = RAW data with noise
%Day No = 2
%Subject ID = 3
%Session ID = 7
%Record starting timestamp (UTC+6) = 2022-03-06T14:43:20.906032
%Record ending timestamp (UTC+6)   = 2022-03-06T14:43:56.740099
%Recorded durations = ~35 seconds
Sample Index, EXG Channel 0, EXG Channel 1, EXG Channel 2, EXG Channel 3, EXG Channel 4, EXG Channel 5, EXG Channel 6, EXG Channel 7, Accel Channel 0, Accel Channel 1, Accel Channel 2, Other, Other, Other, Other, Other, Other, Other, Analog Channel 0, Analog Channel 1, Analog Channel 2, Timestamp, Timestamp (Formatted)
221.000000,-1224.137989,4104.696704,614.672973,9447.702402,-6334.462027,-16683.163247,2393.000113,2233.632175,-0.096000,0.962000,0.132000,192.000000,0.000000,0.000000,0.000000,0.000000,0.000000,0.000000,0.000000,0.000000,0.000000,1646556200.911429,0.000000
222.000000,-1225.859073,4104.920221,614.762379,9444.014364,-6334.193806,-16686.404250,2386.182831,2223.283317,-0.096000,0.962000,0.132000,192.000000,0.000000,0.000000,0.000000,0.000000,0.000000,0.000000,0.000000,0.000000,0.000000,1646556200.911437,0.000000
223.000000,-1222.081628,4113.257422,615.678801,9448.663527,-6332.159797,-16680.928073,2402.164328,2232.402829,-0.092000,0.970000,0.130000,192.000000,253.000000,32.000000,30.000000,80.000000,4.000000,16.000000,0.000000,0.000000,0.000000,1646556200.919333,0.000000
224.000000,-1210.548128,4121.594622,623.926595,9458.833570,-6325.342515,-16665.438314,2418.659916,2250.172466,-0.092000,0.970000,0.130000,192.000000,0.000000,0.000000,0.000000,0.000000,0.000000,0.000000,0.000000,0.000000,0.000000,1646556200.919338,0.000000
225.000000,-1215.353753,4116.409018,624.016002,9457.537169,-6327.488283,-16669.282814,2406.969953,2243.869274,-0.092000,0.970000,0.130000,192.000000,0.000000,0.000000,0.000000,0.000000,0.000000,0.000000,0.000000,0.000000,0.000000,1646556200.925924,0.000000
226.000000,-1211.933936,4117.884233,629.112199,9460.174675,-6325.655440,-16669.618090,2410.702695,2239.510684,-0.092000,0.970000,0.130000,192.000000,0.000000,0.000000,0.000000,0.000000,0.000000,0.000000,0.000000,0.000000,0.000000,1646556200.925929,0.000000
227.000000,-1215.912547,4118.018343,625.759438,9463.147457,-6323.621431,-16672.836742,2399.638581,2237.633137,-0.092000,0.970000,0.130000,192.000000,0.000000,0.000000,0.000000,0.000000,0.000000,0.000000,0.000000,0.000000,0.000000,1646556200.933850,0.000000
228.000000,-1209.922279,4123.271003,631.079153,9471.685823,-6316.960611,-16667.651137,2400.398541,2241.812914,-0.092000,0.970000,0.130000,192.000000,0.000000,0.000000,0.000000,0.000000,0.000000,0.000000,0.000000,0.000000,0.000000,1646556200.933854,0.000000
229.000000,-1194.946610,4134.066896,639.215188,9478.346643,-6312.065579,-16661.258538,2404.511262,2247.467905,-0.092000,0.970000,0.130000,192.000000,0.000000,0.000000,0.000000,0.000000,0.000000,0.000000,0.000000,0.000000,0.000000,1646556200.941916,0.000000
230.000000,-1208.558823,4120.007648,632.017926,9467.148419,-6322.369733,-16674.647233,2389.133261,2231.531111,-0.092000,0.970000,0.130000,192.000000,0.000000,0.000000,0.000000,0.000000,0.000000,0.000000,0.000000,0.000000,0.000000,1646556200.941920,0.000000
231.000000,-1217.723038,4108.652962,621.847882,9453.156227,-6332.875053,-16686.717175,2399.929154,2220.131722,-0.092000,0.970000,0.130000,192.000000,0.000000,0.000000,0.000000,0.000000,0.000000,0.000000,0.000000,0.000000,0.000000,1646556200.949060,0.000000
232.000000,-1216.091361,4111.804558,620.797351,9452.530378,-6330.528120,-16686.113678,2401.829052,2233.386306,-0.092000,0.970000,0.130000,192.000000,0.000000,0.000000,0.000000,0.000000,0.000000,0.000000,0.000000,0.000000,0.000000,1646556200.949066,0.000000
233.000000,-1202.613259,4129.328326,631.705002,9465.829666,-6320.089855,-16673.864922,2408.892203,2227.820722,-0.092000,0.970000,0.130000,192.000000,0.000000,0.000000,0.000000,0.000000,0.000000,0.000000,0.000000,0.000000,0.000000,1646556200.955580,0.000000
234.000000,-1208.156491,4126.087323,628.061667,9460.129972,-6327.689448,-16679.385803,2392.709540,2209.872271,-0.088000,0.982000,0.130000,192.000000,253.000000,64.000000,30.000000,176.000000,4.000000,16.000000,0.000000,0.000000,0.000000,1646556200.963608,0.000000
235.000000,-1204.334343,4124.455646,630.766229,9457.626576,-6329.410533,-16674.379012,2398.789215,2235.710887,-0.088000,0.982000,0.130000,192.000000,0.000000,0.000000,0.000000,0.000000,0.000000,0.000000,0.000000,0.000000,0.000000,1646556200.963618,0.000000
236.000000,-1205.004895,4121.281698,631.839112,9462.879236,-6324.180224,-16673.127314,2390.273200,2250.552446,-0.088000,0.982000,0.130000,192.000000,0.000000,0.000000,0.000000,0.000000,0.000000,0.000000,0.000000,0.000000,0.000000,1646556200.971621,0.000000
237.000000,-1218.818273,4107.893003,622.384324,9453.089172,-6331.712762,-16689.242922,2380.885468,2217.807140,-0.088000,0.982000,0.130000,192.000000,0.000000,0.000000,0.000000,0.000000,0.000000,0.000000,0.000000,0.000000,0.000000,1646556200.971625,0.000000
238.000000,-1213.342096,4114.151491,625.580624,9458.006556,-6327.823559,-16686.717175,2378.918514,2198.383474,-0.088000,0.982000,0.130000,192.000000,0.000000,0.000000,0.000000,0.000000,0.000000,0.000000,0.000000,0.000000,0.000000,1646556200.978721,0.000000
239.000000,-1210.481073,4116.163148,628.039316,9461.627538,-6327.577690,-16672.859093,2410.032142,2241.835265,-0.088000,0.982000,0.130000,192.000000,0.000000,0.000000,0.000000,0.000000,0.000000,0.000000,0.000000,0.000000,0.000000,1646556200.978725,0.000000
240.000000,-1203.373218,4124.589756,631.436781,9464.779134,-6324.627259,-16666.757067,2431.020430,2235.755591,-0.088000,0.982000,0.130000,192.000000,0.000000,0.000000,0.000000,0.000000,0.000000,0.000000,0.000000,0.000000,0.000000,1646556200.986219,0.000000
241.000000,-1201.093340,4130.177692,632.688479,9469.383594,-6322.839120,-16668.388744,2419.665744,2228.804198,-0.088000,0.982000,0.130000,192.000000,0.000000,0.000000,0.000000,0.000000,0.000000,0.000000,0.000000,0.000000,0.000000,1646556200.986223,0.000000
242.000000,-1209.654058,4121.326401,624.194816,9459.392364,-6328.717629,-16678.290567,2393.245982,2210.296954,-0.088000,0.982000,0.130000,192.000000,0.000000,0.000000,0.000000,0.000000,0.000000,0.000000,0.000000,0.000000,0.000000,1646556200.994181,0.000000
243.000000,-1208.715285,4121.415808,624.597147,9456.151361,-6327.622393,-16673.194369,2406.455863,2241.365879,-0.088000,0.982000,0.130000,192.000000,0.000000,0.000000,0.000000,0.000000,0.000000,0.000000,0.000000,0.000000,0.000000,1646556200.994185,0.000000
244.000000,-1212.515081,4121.080532,621.177330,9454.676146,-6332.048038,-16677.396497,2403.460730,2243.981033,-0.092000,0.972000,0.134000,192.000000,253.000000,32.000000,30.000000,96.000000,4.000000,48.000000,0.000000,0.000000,0.000000,1646556201.002224,0.000000
245.000000,-1214.571442,4121.885195,618.003382,9453.670317,-6336.630146,-16681.173942,2406.142939,2246.707946,-0.092000,0.972000,0.134000,192.000000,0.000000,0.000000,0.000000,0.000000,0.000000,0.000000,0.000000,0.000000,0.000000,1646556201.002228,0.000000
246.000000,-1218.415942,4112.318648,611.610784,9450.831646,-6342.598062,-16690.896951,2390.921401,2223.462131,-0.092000,0.972000,0.134000,192.000000,0.000000,0.000000,0.000000,0.000000,0.000000,0.000000,0.000000,0.000000,0.000000,1646556201.008804,0.000000
247.000000,-1218.773570,4111.804558,611.566080,9454.072649,-6341.502826,-16690.382861,2385.914610,2227.060762,-0.092000,0.972000,0.134000,192.000000,0.000000,0.000000,0.000000,0.000000,0.000000,0.000000,0.000000,0.000000,0.000000,1646556201.008808,0.000000
248.000000,-1219.645288,4114.620878,612.571909,9455.011422,-6339.871149,-16686.516009,2388.328599,2235.040335,-0.092000,0.972000,0.134000,192.000000,0.000000,0.000000,0.000000,0.000000,0.000000,0.000000,0.000000,0.000000,0.000000,1646556201.015752,0.000000
249.000000,-1225.076762,4112.989201,605.598164,9449.043506,-6346.956652,-16687.588893,2388.932096,2232.939271,-0.092000,0.972000,0.134000,192.000000,0.000000,0.000000,0.000000,0.000000,0.000000,0.000000,0.000000,0.000000,0.000000,1646556201.023785,0.000000
250.000000,-1222.036925,4114.598526,606.894565,9448.440009,-6348.789495,-16682.068012,2386.473404,2228.535977,-0.092000,0.972000,0.134000,192.000000,0.000000,0.000000,0.000000,0.000000,0.000000,0.000000,0.000000,0.000000,0.000000,1646556201.023789,0.000000
251.000000,-1219.332364,4116.610183,611.677839,9452.373916,-6342.910986,-16677.731774,2383.053587,2229.228882,-0.092000,0.972000,0.134000,192.000000,0.000000,0.000000,0.000000,0.000000,0.000000,0.000000,0.000000,0.000000,0.000000,1646556201.031055,0.000000
252.000000,-1221.455779,4111.893965,611.409618,9452.128047,-6342.329841,-16685.398422,2374.157593,2220.981088,-0.092000,0.972000,0.134000,192.000000,0.000000,0.000000,0.000000,0.000000,0.000000,0.000000,0.000000,0.000000,0.000000,1646556201.031060,0.000000
253.000000,-1220.002916,4113.592698,613.555385,9452.530378,-6343.358021,-16689.645253,2387.590991,2230.659393,-0.092000,0.972000,0.134000,192.000000,0.000000,0.000000,0.000000,0.000000,0.000000,0.000000,0.000000,0.000000,0.000000,1646556201.038434,0.000000
254.000000,-1213.833834,4123.963907,622.071400,9459.772344,-6334.618489,-16677.798829,2405.293573,2228.133646,-0.096000,0.970000,0.134000,192.000000,253.000000,0.000000,30.000000,80.000000,4.000000,48.000000,0.000000,0.000000,0.000000,1646556201.038437,0.000000
255.000000,-1209.430541,4133.128122,624.932423,9465.919073,-6329.254070,-16670.869788,2400.845575,2233.855693,-0.096000,0.970000,0.134000,192.000000,0.000000,0.000000,0.000000,0.000000,0.000000,0.000000,0.000000,0.000000,0.000000,1646556201.046458,0.000000
0.000000,-1206.480110,4133.865730,625.044182,9470.903512,-6327.041248,-16669.975718,2401.314962,2228.826550,-0.096000,0.970000,0.134000,192.000000,0.000000,0.000000,0.000000,0.000000,0.000000,0.000000,0.000000,0.000000,0.000000,1646556201.046461,0.000000
1.000000,-1208.603526,4127.495483,624.351278,9463.795658,-6330.304602,-16679.743431,2383.075939,2204.798425,-0.096000,0.970000,0.134000,192.000000,0.000000,0.000000,0.000000,0.000000,0.000000,0.000000,0.000000,0.000000,0.000000,1646556201.054458,0.000000
2.000000,-1203.283811,4129.775361,628.821627,9467.774268,-6331.064562,-16677.508256,2393.782424,2222.523358,-0.096000,0.970000,0.134000,192.000000,0.000000,0.000000,0.000000,0.000000,0.000000,0.000000,0.000000,0.000000,0.000000,1646556201.054462,0.000000
3.000000,-1199.752235,4135.542111,631.436781,9474.435088,-6327.980021,-16669.014593,2403.594840,2252.161771,-0.096000,0.970000,0.134000,192.000000,0.000000,0.000000,0.000000,0.000000,0.000000,0.000000,0.000000,0.000000,0.000000,1646556201.061082,0.000000
4.000000,-1209.587003,4126.869634,620.015039,9462.320442,-6337.211291,-16682.246826,2399.191546,2238.661318,-0.096000,0.970000,0.134000,192.000000,0.000000,0.000000,0.000000,0.000000,0.000000,0.000000,0.000000,0.000000,0.000000,1646556201.061086,0.000000
5.000000,-1204.513157,4132.010535,626.631156,9468.377765,-6330.796341,-16672.076782,2403.773654,2256.140382,-0.096000,0.970000,0.134000,192.000000,0.000000,0.000000,0.000000,0.000000,0.000000,0.000000,0.000000,0.000000,0.000000,1646556201.069108,0.000000
6.000000,-1209.363485,4128.344849,626.988784,9465.025004,-6333.500902,-16676.278910,2384.349988,2249.747783,-0.096000,0.970000,0.134000,192.000000,0.000000,0.000000,0.000000,0.000000,0.000000,0.000000,0.000000,0.000000,0.000000,1646556201.069112,0.000000
7.000000,-1213.878538,4123.449817,622.697249,9462.990995,-6339.602928,-16681.039832,2384.439395,2239.488332,-0.096000,0.970000,0.134000,192.000000,0.000000,0.000000,0.000000,0.000000,0.000000,0.000000,0.000000,0.000000,0.000000,1646556201.076134,0.000000
8.000000,-1217.186596,4118.219509,618.785694,9456.419582,-6344.117980,-16688.147686,2367.094441,2224.602070,-0.098000,0.972000,0.130000,192.000000,252.000000,240.000000,30.000000,96.000000,4.000000,16.000000,0.000000,0.000000,0.000000,1646556201.084212,0.000000
9.000000,-1217.834797,4121.192291,620.797351,9456.486637,-6344.140332,-16682.559750,2398.297477,2221.428123,-0.098000,0.972000,0.130000,192.000000,0.000000,0.000000,0.000000,0.000000,0.000000,0.000000,0.000000,0.000000,0.000000,1646556201.084215,0.000000
10.000000,-1214.169111,4125.081494,621.713772,9457.827742,-6340.161722,-16678.268215,2402.387846,2230.458227,-0.098000,0.972000,0.130000,192.000000,0.000000,0.000000,0.000000,0.000000,0.000000,0.000000,0.000000,0.000000,0.000000,1646556201.090838,0.000000
11.000000,-1218.103018,4118.778303,615.790560,9447.836512,-6345.883768,-16685.487829,2375.252828,2229.273585,-0.098000,0.972000,0.130000,192.000000,0.000000,0.000000,0.000000,0.000000,0.000000,0.000000,0.000000,0.000000,0.000000,1646556201.090842,0.000000
12.000000,-1218.684163,4116.610183,617.891624,9450.608128,-6345.906120,-16678.268215,2393.402445,2239.756553,-0.098000,0.972000,0.130000,192.000000,0.000000,0.000000,0.000000,0.000000,0.000000,0.000000,0.000000,0.000000,0.000000,1646556201.098733,0.000000
13.000000,-1213.386800,4123.427465,623.211339,9462.409849,-6341.346364,-16670.467457,2407.461692,2251.960606,-0.098000,0.972000,0.130000,192.000000,0.000000,0.000000,0.000000,0.000000,0.000000,0.000000,0.000000,0.000000,0.000000,1646556201.098736,0.000000
14.000000,-1220.829930,4115.626707,616.930499,9458.118315,-6347.113114,-16677.418849,2396.419930,2236.917882,-0.098000,0.972000,0.130000,192.000000,0.000000,0.000000,0.000000,0.000000,0.000000,0.000000,0.000000,0.000000,0.000000,1646556201.106761,0.000000
15.000000,-1218.505349,4115.157320,618.830397,9453.245634,-6345.347326,-16675.027213,2380.103157,2228.603033,-0.098000,0.972000,0.130000,192.000000,0.000000,0.000000,0.000000,0.000000,0.000000,0.000000,0.000000,0.000000,0.000000,1646556201.106765,0.000000
16.000000,-1217.655983,4115.604355,621.959641,9451.412791,-6340.340536,-16672.322651,2385.780500,2233.296899,-0.098000,0.972000,0.130000,192.000000,0.000000,0.000000,0.000000,0.000000,0.000000,0.000000,0.000000,0.000000,0.000000,1646556201.113846,0.000000
17.000000,-1208.514119,4120.186462,628.039316,9451.658660,-6338.239472,-16672.747335,2389.043854,2238.147228,-0.098000,0.972000,0.130000,192.000000,0.000000,0.000000,0.000000,0.000000,0.000000,0.000000,0.000000,0.000000,0.000000,1646556201.113850,0.000000
18.000000,-1206.368352,4122.622803,625.558272,9447.367125,-6343.469780,-16681.375108,2382.941828,2226.189044,-0.086000,0.970000,0.130000,192.000000,253.000000,80.000000,30.000000,80.000000,4.000000,16.000000,0.000000,0.000000,0.000000,1646556201.121383,0.000000
19.000000,-1216.806616,4118.800654,622.697249,9447.210663,-6344.810885,-16680.034003,2384.014712,2228.379515,-0.086000,0.970000,0.130000,192.000000,0.000000,0.000000,0.000000,0.000000,0.000000,0.000000,0.000000,0.000000,0.000000,1646556201.121387,0.000000
20.000000,-1227.490750,4108.429445,621.177330,9444.953137,-6345.034402,-16676.100096,2386.763976,2230.726448,-0.086000,0.970000,0.130000,192.000000,0.000000,0.000000,0.000000,0.000000,0.000000,0.000000,0.000000,0.000000,0.000000,1646556201.129387,0.000000
21.000000,-1220.069971,4117.370143,629.849807,9455.413753,-6333.769123,-16668.656965,2388.932096,2233.296899,-0.086000,0.970000,0.130000,192.000000,0.000000,0.000000,0.000000,0.000000,0.000000,0.000000,0.000000,0.000000,0.000000,1646556201.129390,0.000000
22.000000,-1217.007782,4120.767608,629.782752,9454.609091,-6330.818693,-16676.256558,2384.819375,2228.826550,-0.086000,0.970000,0.130000,192.000000,0.000000,0.000000,0.000000,0.000000,0.000000,0.000000,0.000000,0.000000,0.000000,1646556201.136436,0.000000
23.000000,-1215.845491,4125.528529,631.794409,9463.058050,-6325.186053,-16672.188541,2406.969953,2231.352297,-0.086000,0.970000,0.130000,192.000000,0.000000,0.000000,0.000000,0.000000,0.000000,0.000000,0.000000,0.000000,0.000000,1646556201.143612,0.000000
24.000000,-1211.106922,4131.027058,636.734144,9472.624597,-6320.291021,-16667.069991,2405.070055,2211.459245,-0.086000,0.970000,0.130000,192.000000,0.000000,0.000000,0.000000,0.000000,0.000000,0.000000,0.000000,0.000000,0.000000,1646556201.143616,0.000000
25.000000,-1219.377067,4120.298221,629.782752,9469.383594,-6325.476626,-16670.623919,2393.737721,2226.859597,-0.086000,0.970000,0.130000,192.000000,0.000000,0.000000,0.000000,0.000000,0.000000,0.000000,0.000000,0.000000,0.000000,1646556201.151011,0.000000
26.000000,-1221.433428,4117.951288,631.570891,9467.662509,-6325.454274,-16673.596701,2383.813546,2230.949966,-0.086000,0.970000,0.130000,192.000000,0.000000,0.000000,0.000000,0.000000,0.000000,0.000000,0.000000,0.000000,0.000000,1646556201.151015,0.000000
27.000000,-1221.835759,4115.425541,632.643775,9464.868541,-6324.537852,-16670.981547,2387.054549,2236.627309,-0.086000,0.970000,0.130000,192.000000,0.000000,0.000000,0.000000,0.000000,0.000000,0.000000,0.000000,0.000000,0.000000,1646556201.159083,0.000000
28.000000,-1217.499520,4123.069837,633.180217,9469.584759,-6323.040285,-16669.908663,2386.629866,2232.492236,-0.082000,0.978000,0.138000,192.000000,253.000000,112.000000,30.000000,144.000000,4.000000,80.000000,0.000000,0.000000,0.000000,1646556201.159086,0.000000
29.000000,-1215.621974,4126.489654,634.431915,9471.171733,-6322.257974,-16668.500503,2396.084654,2240.561216,-0.082000,0.978000,0.138000,192.000000,0.000000,0.000000,0.000000,0.000000,0.000000,0.000000,0.000000,0.000000,0.000000,1646556201.166282,0.000000
30.000000,-1207.038904,4133.686916,639.684575,9479.687748,-6318.324067,-16667.874654,2376.750395,2226.680783,-0.082000,0.978000,0.138000,192.000000,0.000000,0.000000,0.000000,0.000000,0.000000,0.000000,0.000000,0.000000,0.000000,1646556201.166285,0.000000
31.000000,-1214.459683,4129.730657,634.633080,9476.536152,-6321.341553,-16673.820218,2362.378223,2230.346469,-0.082000,0.978000,0.138000,192.000000,0.000000,0.000000,0.000000,0.000000,0.000000,0.000000,0.000000,0.000000,0.000000,1646556201.173658,0.000000
32.000000,-1209.989334,4133.776323,636.443572,9475.753841,-6320.447483,-16668.724021,2378.359721,2249.792486,-0.082000,0.978000,0.138000,192.000000,0.000000,0.000000,0.000000,0.000000,0.000000,0.000000,0.000000,0.000000,0.000000,1646556201.173662,0.000000
33.000000,-1202.680314,4141.018288,644.154923,9479.397175,-6318.100550,-16661.258538,2402.343142,2249.926597,-0.082000,0.978000,0.138000,192.000000,0.000000,0.000000,0.000000,0.000000,0.000000,0.000000,0.000000,0.000000,0.000000,1646556201.181698,0.000000
34.000000,-1200.914526,4140.839474,646.568912,9477.564332,-6318.569937,-16661.683221,2410.255660,2237.811951,-0.082000,0.978000,0.138000,192.000000,0.000000,0.000000,0.000000,0.000000,0.000000,0.000000,0.000000,0.000000,0.000000,1646556201.181702,0.000000
35.000000,-1214.213814,4130.222396,636.711793,9471.350547,-6325.811902,-16669.506332,2406.880546,2233.498065,-0.082000,0.978000,0.138000,192.000000,0.000000,0.000000,0.000000,0.000000,0.000000,0.000000,0.000000,0.000000,0.000000,1646556201.189659,0.000000
36.000000,-1206.793035,4141.308861,644.691365,9486.952065,-6313.160814,-16659.738619,2412.893166,2242.394059,-0.082000,0.978000,0.138000,192.000000,0.000000,0.000000,0.000000,0.000000,0.000000,0.000000,0.000000,0.000000,0.000000,1646556201.189662,0.000000
37.000000,-1199.774587,4149.579006,651.754517,9494.015216,-6304.354227,-16652.809579,2415.195395,2250.217170,-0.082000,0.978000,0.138000,192.000000,0.000000,0.000000,0.000000,0.000000,0.000000,0.000000,0.000000,0.000000,0.000000,1646556201.195841,0.000000
38.000000,-1205.988372,4142.292338,647.172409,9487.935542,-6310.880936,-16658.151645,2407.908727,2239.980071,-0.094000,0.972000,0.140000,192.000000,253.000000,16.000000,30.000000,96.000000,4.000000,96.000000,0.000000,0.000000,0.000000,1646556201.195846,0.000000
39.000000,-1203.574384,4146.203893,646.457153,9489.768385,-6312.870242,-16659.358640,2401.493776,2233.073382,-0.094000,0.972000,0.140000,192.000000,0.000000,0.000000,0.000000,0.000000,0.000000,0.000000,0.000000,0.000000,0.000000,1646556201.203366,0.000000
40.000000,-1208.938802,4140.906530,641.472714,9488.561390,-6315.932431,-16662.152608,2400.107968,2226.434913,-0.094000,0.972000,0.140000,192.000000,0.000000,0.000000,0.000000,0.000000,0.000000,0.000000,0.000000,0.000000,0.000000,1646556201.211411,0.000000
41.000000,-1223.355678,4122.399285,629.715697,9470.747050,-6327.264765,-16672.769686,2390.250849,2226.189044,-0.094000,0.972000,0.140000,192.000000,0.000000,0.000000,0.000000,0.000000,0.000000,0.000000,0.000000,0.000000,0.000000,1646556201.211414,0.000000
42.000000,-1229.457704,4120.342925,625.424162,9463.236864,-6332.830350,-16680.369279,2376.728043,2203.367913,-0.094000,0.972000,0.140000,192.000000,0.000000,0.000000,0.000000,0.000000,0.000000,0.000000,0.000000,0.000000,0.000000,1646556201.219398,0.000000
43.000000,-1217.611279,4134.938614,640.377479,9477.162001,-6323.017934,-16662.577291,2388.060378,2223.819759,-0.094000,0.972000,0.140000,192.000000,0.000000,0.000000,0.000000,0.000000,0.000000,0.000000,0.000000,0.000000,0.000000,1646556201.219406,0.000000
44.000000,-1209.318782,4140.727716,652.536828,9487.220286,-6313.607849,-16652.876634,2387.479232,2240.516512,-0.094000,0.972000,0.140000,192.000000,0.000000,0.000000,0.000000,0.000000,0.000000,0.000000,0.000000,0.000000,0.000000,1646556201.225931,0.000000
45.000000,-1226.753143,4124.410942,639.103429,9473.541018,-6325.297812,-16671.093305,2365.842744,2219.818797,-0.094000,0.972000,0.140000,192.000000,0.000000,0.000000,0.000000,0.000000,0.000000,0.000000,0.000000,0.000000,0.000000,1646556201.225934,0.000000
46.000000,-1233.615128,4119.650021,632.532016,9471.395251,-6329.142312,-16678.670547,2356.164438,2203.122044,-0.094000,0.972000,0.140000,192.000000,0.000000,0.000000,0.000000,0.000000,0.000000,0.000000,0.000000,0.000000,0.000000,1646556201.233959,0.000000
47.000000,-1228.809503,4125.774399,635.638909,9470.970568,-6326.504806,-16675.675413,2357.349081,2207.592393,-0.094000,0.972000,0.140000,192.000000,0.000000,0.000000,0.000000,0.000000,0.000000,0.000000,0.000000,0.000000,0.000000,1646556201.233963,0.000000
48.000000,-1229.100076,4126.981393,632.867293,9469.428297,-6329.566995,-16675.250730,2354.398650,2204.932535,-0.092000,0.974000,0.138000,192.000000,253.000000,32.000000,30.000000,112.000000,4.000000,80.000000,0.000000,0.000000,0.000000,1646556201.242040,0.000000
49.000000,-1230.463532,4125.260308,631.839112,9468.824800,-6331.332783,-16675.429544,2350.420040,2204.820777,-0.092000,0.974000,0.138000,192.000000,0.000000,0.000000,0.000000,0.000000,0.000000,0.000000,0.000000,0.000000,0.000000,1646556201.242045,0.000000
50.000000,-1224.137989,4133.418695,637.941138,9472.512838,-6327.756504,-16671.920320,2354.175133,2214.342620,-0.092000,0.974000,0.138000,192.000000,0.000000,0.000000,0.000000,0.000000,0.000000,0.000000,0.000000,0.000000,0.000000,1646556201.249096,0.000000
51.000000,-1227.557805,4126.534358,633.806066,9467.416640,-6331.958632,-16674.446067,2368.301436,2214.677896,-0.092000,0.974000,0.138000,192.000000,0.000000,0.000000,0.000000,0.000000,0.000000,0.000000,0.000000,0.000000,0.000000,1646556201.249100,0.000000
52.000000,-1222.729829,4126.959041,636.398868,9469.942387,-6329.924623,-16667.986413,2382.740662,2219.461169,-0.092000,0.974000,0.138000,192.000000,0.000000,0.000000,0.000000,0.000000,0.000000,0.000000,0.000000,0.000000,0.000000,1646556201.256566,0.000000
53.000000,-1229.502407,4116.587832,629.961566,9459.146495,-6336.384277,-16677.307090,2365.775688,2207.480634,-0.092000,0.974000,0.138000,192.000000,0.000000,0.000000,0.000000,0.000000,0.000000,0.000000,0.000000,0.000000,0.000000,1646556201.256570,0.000000
54.000000,-1228.228358,4118.890061,630.922691,9462.968643,-6334.931414,-16678.782306,2359.427793,2203.613782,-0.092000,0.974000,0.138000,192.000000,0.000000,0.000000,0.000000,0.000000,0.000000,0.000000,0.000000,0.000000,0.000000,1646556201.263635,0.000000
55.000000,-1217.477169,4132.032887,640.735107,9475.932655,-6322.593251,-16663.627823,2374.023482,2219.572928,-0.092000,0.974000,0.138000,192.000000,0.000000,0.000000,0.000000,0.000000,0.000000,0.000000,0.000000,0.000000,0.000000,1646556201.271560,0.000000
56.000000,-1221.098151,4128.881291,640.355127,9471.596416,-6322.168567,-16665.281852,2368.435546,2224.870291,-0.092000,0.974000,0.138000,192.000000,0.000000,0.000000,0.000000,0.000000,0.000000,0.000000,0.000000,0.000000,0.000000,1646556201.271564,0.000000
57.000000,-1215.107884,4133.753971,643.193798,9474.211571,-6319.978096,-16664.812465,2372.458860,2225.183216,-0.092000,0.974000,0.138000,192.000000,0.000000,0.000000,0.000000,0.000000,0.000000,0.000000,0.000000,0.000000,0.000000,1646556201.278234,0.000000
58.000000,-1216.292526,4134.916262,641.740935,9474.368033,-6321.430960,-16667.606433,2370.603665,2206.854785,-0.092000,0.982000,0.142000,192.000000,253.000000,32.000000,30.000000,176.000000,4.000000,112.000000,0.000000,0.000000,0.000000,1646556201.278238,0.000000
59.000000,-1215.420808,4136.369125,642.635005,9479.620693,-6320.581594,-16663.024326,2383.411215,2216.063704,-0.092000,0.982000,0.142000,192.000000,0.000000,0.000000,0.000000,0.000000,0.000000,0.000000,0.000000,0.000000,0.000000,1646556201.286238,0.000000
60.000000,-1204.401398,4146.650928,651.687461,9493.501126,-6309.562184,-16651.177901,2391.480195,2251.558274,-0.092000,0.982000,0.142000,192.000000,0.000000,0.000000,0.000000,0.000000,0.000000,0.000000,0.000000,0.000000,0.000000,1646556201.286241,0.000000
61.000000,-1204.580212,4145.041602,653.162676,9493.367016,-6307.192899,-16652.742523,2383.277104,2236.873178,-0.092000,0.982000,0.142000,192.000000,0.000000,0.000000,0.000000,0.000000,0.000000,0.000000,0.000000,0.000000,0.000000,1646556201.294152,0.000000
62.000000,-1212.157454,4135.385649,645.987767,9481.878219,-6315.641858,-16661.593814,2389.155613,2231.665222,-0.092000,0.982000,0.142000,192.000000,0.000000,0.000000,0.000000,0.000000,0.000000,0.000000,0.000000,0.000000,0.000000,1646556201.294156,0.000000
63.000000,-1211.598660,4132.815198,642.635005,9477.184353,-6320.961573,-16667.047640,2385.400520,2220.511701,-0.092000,0.982000,0.142000,192.000000,0.000000,0.000000,0.000000,0.000000,0.000000,0.000000,0.000000,0.000000,0.000000,1646556201.301359,0.000000
64.000000,-1215.398457,4123.673335,636.152999,9471.462306,-6327.108303,-16677.843532,2376.057491,2170.622608,-0.092000,0.982000,0.142000,192.000000,0.000000,0.000000,0.000000,0.000000,0.000000,0.000000,0.000000,0.000000,0.000000,1646556201.301363,0.000000
65.000000,-1218.482997,4120.499387,634.655432,9468.377765,-6328.583518,-16676.658890,2377.197430,2209.447588,-0.092000,0.982000,0.142000,192.000000,0.000000,0.000000,0.000000,0.000000,0.000000,0.000000,0.000000,0.000000,0.000000,1646556201.308795,0.000000
66.000000,-1215.063180,4124.388590,636.667089,9472.959873,-6326.191881,-16669.707497,2401.739645,2251.178295,-0.092000,0.982000,0.142000,192.000000,0.000000,0.000000,0.000000,0.000000,0.000000,0.000000,0.000000,0.000000,0.000000,1646556201.308798,0.000000
67.000000,-1210.391666,4133.776323,644.557255,9482.325254,-6318.346419,-16663.270195,2396.777558,2255.939216,-0.092000,0.982000,0.142000,192.000000,0.000000,0.000000,0.000000,0.000000,0.000000,0.000000,0.000000,0.000000,0.000000,1646556201.316875,0.000000
68.000000,-1215.063180,4134.603338,641.517418,9479.106603,-6324.761370,-16666.779419,2377.845630,2237.320213,-0.094000,0.980000,0.146000,192.000000,253.000000,16.000000,30.000000,160.000000,4.000000,144.000000,0.000000,0.000000,0.000000,1646556201.316879,0.000000
69.000000,-1215.510215,4135.765628,644.758421,9480.335949,-6322.883823,-16664.007802,2381.891296,2237.387268,-0.094000,0.980000,0.146000,192.000000,0.000000,0.000000,0.000000,0.000000,0.000000,0.000000,0.000000,0.000000,0.000000,1646556201.323836,0.000000
70.000000,-1219.399419,4135.251538,645.876008,9483.576951,-6320.223966,-16665.751239,2388.239192,2236.470847,-0.094000,0.980000,0.146000,192.000000,0.000000,0.000000,0.000000,0.000000,0.000000,0.000000,0.000000,0.000000,0.000000,1646556201.331078,0.000000
71.000000,-1217.678334,4137.754934,648.491162,9485.879181,-6313.741960,-16659.671564,2388.708578,2249.345452,-0.094000,0.980000,0.146000,192.000000,0.000000,0.000000,0.000000,0.000000,0.000000,0.000000,0.000000,0.000000,0.000000,1646556201.331081,0.000000
72.000000,-1224.741486,4130.289451,642.456191,9477.966664,-6319.441655,-16666.242977,2382.740662,2239.287167,-0.094000,0.980000,0.146000,192.000000,0.000000,0.000000,0.000000,0.000000,0.000000,0.000000,0.000000,0.000000,0.000000,1646556201.338492,0.000000
73.000000,-1224.003878,4140.571253,641.428011,9475.932655,-6323.956707,-16664.745410,2378.091500,2230.391172,-0.094000,0.980000,0.146000,192.000000,0.000000,0.000000,0.000000,0.000000,0.000000,0.000000,0.000000,0.000000,0.000000,1646556201.338496,0.000000
74.000000,-1220.472302,4156.440992,646.479505,9481.855867,-6320.112207,-16656.654079,2385.333465,2228.826550,-0.094000,0.980000,0.146000,192.000000,0.000000,0.000000,0.000000,0.000000,0.000000,0.000000,0.000000,0.000000,0.000000,1646556201.346438,0.000000
75.000000,-1208.603526,4173.584780,658.549447,9498.194992,-6308.288134,-16644.025343,2411.328544,2249.479562,-0.094000,0.980000,0.146000,192.000000,0.000000,0.000000,0.000000,0.000000,0.000000,0.000000,0.000000,0.000000,0.000000,1646556201.346441,0.000000
76.000000,-1221.902814,4162.744184,647.217112,9486.929713,-6318.189957,-16658.978660,2396.375227,2230.458227,-0.094000,0.980000,0.146000,192.000000,0.000000,0.000000,0.000000,0.000000,0.000000,0.000000,0.000000,0.000000,0.000000,1646556201.354531,0.000000
77.000000,-1228.876558,4156.575102,639.796333,9479.084251,-6325.744847,-16670.422753,2361.215933,2213.314439,-0.094000,0.980000,0.146000,192.000000,0.000000,0.000000,0.000000,0.000000,0.000000,0.000000,0.000000,0.000000,0.000000,1646556201.354536,0.000000
78.000000,-1236.878483,4151.322442,633.247272,9474.815068,-6329.723457,-16679.966948,2350.241226,2212.777998,-0.094000,0.980000,0.146000,192.000000,0.000000,0.000000,0.000000,0.000000,0.000000,0.000000,0.000000,0.000000,0.000000,1646556201.361128,0.000000
79.000000,-1242.354660,4150.294262,631.414429,9471.238789,-6332.919757,-16684.213779,2362.892313,2212.487425,-0.090000,0.962000,0.156000,192.000000,253.000000,48.000000,30.000000,16.000000,4.000000,224.000000,0.000000,0.000000,0.000000,1646556201.361133,0.000000
80.000000,-1234.084515,4158.117373,641.137438,9480.045376,-6321.877995,-16669.394573,2375.275180,2218.276527,-0.090000,0.962000,0.156000,192.000000,0.000000,0.000000,0.000000,0.000000,0.000000,0.000000,0.000000,0.000000,0.000000,1646556201.369090,0.000000
81.000000,-1244.299262,4149.847227,634.364859,9471.015271,-6326.996544,-16678.692899,2355.695052,2194.784843,-0.090000,0.962000,0.156000,192.000000,0.000000,0.000000,0.000000,0.000000,0.000000,0.000000,0.000000,0.000000,0.000000,1646556201.369094,0.000000
82.000000,-1233.615128,4159.503181,640.980976,9478.391347,-6322.973230,-16666.265329,2377.935037,2218.522396,-0.090000,0.962000,0.156000,192.000000,0.000000,0.000000,0.000000,0.000000,0.000000,0.000000,0.000000,0.000000,0.000000,1646556201.377137,0.000000
83.000000,-1226.529625,4165.538152,648.714679,9489.656626,-6316.692390,-16658.173997,2379.164383,2225.809065,-0.090000,0.962000,0.156000,192.000000,0.000000,0.000000,0.000000,0.000000,0.000000,0.000000,0.000000,0.000000,0.000000,1646556201.377140,0.000000
84.000000,-1228.764800,4162.967701,643.484371,9486.192106,-6322.146216,-16660.587986,2366.312130,2236.090867,-0.090000,0.962000,0.156000,192.000000,0.000000,0.000000,0.000000,0.000000,0.000000,0.000000,0.000000,0.000000,0.000000,1646556201.383296,0.000000
85.000000,-1218.661811,4172.824821,650.815743,9497.055053,-6312.624373,-16648.674506,2377.197430,2223.193911,-0.090000,0.962000,0.156000,192.000000,0.000000,0.000000,0.000000,0.000000,0.000000,0.000000,0.000000,0.000000,0.000000,1646556201.391218,0.000000
86.000000,-1213.744427,4178.256295,658.661206,9501.972437,-6304.041303,-16645.545262,2380.483136,2226.457265,-0.090000,0.962000,0.156000,192.000000,0.000000,0.000000,0.000000,0.000000,0.000000,0.000000,0.000000,0.000000,0.000000,1646556201.391251,0.000000
87.000000,-1209.832872,4182.324312,660.471697,9501.883030,-6303.236640,-16641.454892,2397.962200,2236.828475,-0.090000,0.962000,0.156000,192.000000,0.000000,0.000000,0.000000,0.000000,0.000000,0.000000,0.000000,0.000000,0.000000,1646556201.399203,0.000000
88.000000,-1213.252689,4180.424414,660.136421,9492.852925,-6309.763349,-16646.037000,2377.733872,2239.644794,-0.090000,0.962000,0.156000,192.000000,0.000000,0.000000,0.000000,0.000000,0.000000,0.000000,0.000000,0.000000,0.000000,1646556201.399219,0.000000
89.000000,-1215.398457,4181.139670,658.236522,9488.002597,-6312.445559,-16647.556919,2370.760127,2239.398925,-0.084000,0.962000,0.156000,192.000000,253.000000,96.000000,30.000000,16.000000,4.000000,224.000000,0.000000,0.000000,0.000000,1646556201.407078,0.000000
90.000000,-1221.567538,4175.954065,651.352185,9487.555562,-6315.753617,-16650.283831,2388.440357,2234.481541,-0.084000,0.962000,0.156000,192.000000,0.000000,0.000000,0.000000,0.000000,0.000000,0.000000,0.000000,0.000000,0.000000,1646556201.407092,0.000000
91.000000,-1217.074837,4181.743167,654.190857,9491.623579,-6313.339628,-16648.898023,2379.410253,2220.712867,-0.084000,0.962000,0.156000,192.000000,0.000000,0.000000,0.000000,0.000000,0.000000,0.000000,0.000000,0.000000,0.000000,1646556201.413773,0.000000
92.000000,-1210.771645,4188.851021,655.308444,9490.818917,-6314.412512,-16647.601622,2374.515220,2230.346469,-0.084000,0.962000,0.156000,192.000000,0.000000,0.000000,0.000000,0.000000,0.000000,0.000000,0.000000,0.000000,0.000000,1646556201.413789,0.000000
93.000000,-1210.279907,4189.588629,656.403679,9492.227077,-6315.619506,-16648.495692,2371.810659,2234.928576,-0.084000,0.962000,0.156000,192.000000,0.000000,0.000000,0.000000,0.000000,0.000000,0.000000,0.000000,0.000000,0.000000,1646556201.421797,0.000000
94.000000,-1212.000991,4193.678998,657.565970,9497.636199,-6311.819710,-16647.802788,2375.006959,2245.009213,-0.084000,0.962000,0.156000,192.000000,0.000000,0.000000,0.000000,0.000000,0.000000,0.000000,0.000000,0.000000,0.000000,1646556201.421812,0.000000
95.000000,-1216.180768,4195.489489,656.001348,9496.384501,-6309.383370,-16649.725038,2361.260636,2233.229844,-0.084000,0.962000,0.156000,192.000000,0.000000,0.000000,0.000000,0.000000,0.000000,0.000000,0.000000,0.000000,0.000000,1646556201.429770,0.000000
96.000000,-1221.969869,4190.125071,655.710775,9490.796565,-6310.366846,-16654.664773,2358.243151,2228.558329,-0.084000,0.962000,0.156000,192.000000,0.000000,0.000000,0.000000,0.000000,0.000000,0.000000,0.000000,0.000000,0.000000,1646556201.429787,0.000000
97.000000,-1224.830893,4188.448690,652.536828,9486.259161,-6314.010181,-16657.168169,2358.153744,2237.811951,-0.084000,0.962000,0.156000,192.000000,0.000000,0.000000,0.000000,0.000000,0.000000,0.000000,0.000000,0.000000,0.000000,1646556201.436965,0.000000
98.000000,-1218.773570,4193.969571,656.873066,9492.182373,-6310.210384,-16649.345058,2370.871886,2241.388230,-0.084000,0.962000,0.156000,192.000000,0.000000,0.000000,0.000000,0.000000,0.000000,0.000000,0.000000,0.000000,0.000000,1646556201.436980,0.000000
99.000000,-1214.303221,4203.200841,659.890552,9495.110452,-6306.298829,-16645.701724,2377.800927,2248.451382,-0.078000,0.970000,0.168000,192.000000,253.000000,144.000000,30.000000,80.000000,5.000000,64.000000,0.000000,0.000000,0.000000,1646556201.443472,0.000000
100.000000,-1210.659887,4208.028818,658.772964,9494.149327,-6306.678809,-16647.445160,2370.603665,2238.102524,-0.078000,0.970000,0.168000,192.000000,0.000000,0.000000,0.000000,0.000000,0.000000,0.000000,0.000000,0.000000,0.000000,1646556201.443487,0.000000
101.000000,-1208.469416,4215.427246,663.131555,9497.837364,-6301.135576,-16640.963154,2375.029311,2249.010175,-0.078000,0.970000,0.168000,192.000000,0.000000,0.000000,0.000000,0.000000,0.000000,0.000000,0.000000,0.000000,0.000000,1646556201.451429,0.000000
102.000000,-1216.426637,4211.269821,658.884723,9489.231943,-6306.097663,-16645.277041,2361.931188,2234.593300,-0.078000,0.970000,0.168000,192.000000,0.000000,0.000000,0.000000,0.000000,0.000000,0.000000,0.000000,0.000000,0.000000,1646556201.459458,0.000000
103.000000,-1220.651116,4208.185280,653.900284,9481.855867,-6315.105416,-16648.607451,2364.278122,2218.276527,-0.078000,0.970000,0.168000,192.000000,0.000000,0.000000,0.000000,0.000000,0.000000,0.000000,0.000000,0.000000,0.000000,1646556201.459473,0.000000
104.000000,-1229.055372,4200.026894,643.640833,9472.557541,-6323.755541,-16654.195387,2349.928302,2221.204605,-0.078000,0.970000,0.168000,192.000000,0.000000,0.000000,0.000000,0.000000,0.000000,0.000000,0.000000,0.000000,0.000000,1646556201.466607,0.000000
105.000000,-1222.863939,4206.173623,647.820610,9480.850039,-6318.145253,-16647.154587,2353.482229,2237.633137,-0.078000,0.970000,0.168000,192.000000,0.000000,0.000000,0.000000,0.000000,0.000000,0.000000,0.000000,0.000000,0.000000,1646556201.466623,0.000000
106.000000,-1229.882387,4199.848080,645.160752,9477.251408,-6321.386256,-16662.197311,2307.504691,2215.616669,-0.078000,0.970000,0.168000,192.000000,0.000000,0.000000,0.000000,0.000000,0.000000,0.000000,0.000000,0.000000,0.000000,1646556201.474086,0.000000
107.000000,-1227.870730,4202.865565,649.653453,9479.508934,-6317.362942,-16655.603547,2330.839912,2239.421277,-0.078000,0.970000,0.168000,192.000000,0.000000,0.000000,0.000000,0.000000,0.000000,0.000000,0.000000,0.000000,0.000000,1646556201.474120,0.000000
108.000000,-1223.020401,4211.046304,652.760345,9482.235847,-6314.904250,-16649.613279,2376.079843,2247.914940,-0.078000,0.970000,0.168000,192.000000,0.000000,0.000000,0.000000,0.000000,0.000000,0.000000,0.000000,0.000000,0.000000,1646556201.482101,0.000000
109.000000,-1221.724000,4209.973420,648.155886,9479.955969,-6320.671001,-16657.101113,2373.531744,2253.234655,-0.074000,0.970000,0.168000,192.000000,253.000000,176.000000,30.000000,80.000000,5.000000,64.000000,0.000000,0.000000,0.000000,1646556201.482117,0.000000
110.000000,-1218.974736,4205.592478,651.888627,9482.280550,-6315.954782,-16649.948555,2370.715424,2236.604957,-0.074000,0.970000,0.168000,192.000000,0.000000,0.000000,0.000000,0.000000,0.000000,0.000000,0.000000,0.000000,0.000000,1646556201.489300,0.000000
111.000000,-1224.339154,4203.491414,654.928464,9482.705233,-6309.271611,-16644.315916,2374.805793,2233.073382,-0.074000,0.970000,0.168000,192.000000,0.000000,0.000000,0.000000,0.000000,0.000000,0.000000,0.000000,0.000000,0.000000,1646556201.489317,0.000000
112.000000,-1235.157399,4197.031760,643.931406,9471.596416,-6319.821634,-16660.699744,2351.716441,2209.335829,-0.074000,0.970000,0.168000,192.000000,0.000000,0.000000,0.000000,0.000000,0.000000,0.000000,0.000000,0.000000,0.000000,1646556201.496699,0.000000
113.000000,-1232.296375,4193.589591,645.563083,9470.791754,-6322.079160,-16656.654079,2345.212083,2204.619611,-0.074000,0.970000,0.168000,192.000000,0.000000,0.000000,0.000000,0.000000,0.000000,0.000000,0.000000,0.000000,0.000000,1646556201.496714,0.000000
114.000000,-1228.831855,4192.963742,649.787563,9476.156172,-6317.832329,-16649.300355,2352.834028,2219.192948,-0.074000,0.970000,0.168000,192.000000,0.000000,0.000000,0.000000,0.000000,0.000000,0.000000,0.000000,0.000000,0.000000,1646556201.504692,0.000000
115.000000,-1226.306108,4195.690655,655.286092,9477.720794,-6313.518442,-16644.070046,2363.585217,2222.970393,-0.074000,0.970000,0.168000,192.000000,0.000000,0.000000,0.000000,0.000000,0.000000,0.000000,0.000000,0.000000,0.000000,1646556201.504707,0.000000
116.000000,-1236.699669,4187.174641,646.680671,9466.097887,-6321.050980,-16655.514140,2351.470572,2213.560309,-0.074000,0.970000,0.168000,192.000000,0.000000,0.000000,0.000000,0.000000,0.000000,0.000000,0.000000,0.000000,0.000000,1646556201.511769,0.000000
117.000000,-1234.062163,4193.835460,648.759383,9470.836457,-6316.133596,-16651.915509,2349.101287,2231.687573,-0.074000,0.970000,0.168000,192.000000,0.000000,0.000000,0.000000,0.000000,0.000000,0.000000,0.000000,0.000000,0.000000,1646556201.518996,0.000000
118.000000,-1231.692878,4201.211536,651.352185,9479.464230,-6312.154986,-16645.612317,2359.696014,2241.164713,-0.074000,0.970000,0.168000,192.000000,0.000000,0.000000,0.000000,0.000000,0.000000,0.000000,0.000000,0.000000,0.000000,1646556201.519011,0.000000
119.000000,-1227.468399,4208.297039,652.670938,9484.158097,-6311.663248,-16643.913584,2361.662967,2236.828475,-0.078000,0.972000,0.172000,192.000000,253.000000,144.000000,30.000000,96.000000,5.000000,96.000000,0.000000,0.000000,0.000000,1646556201.526432,0.000000
120.000000,-1227.043715,4210.532214,654.369671,9485.074518,-6308.712817,-16640.404360,2366.893276,2233.743934,-0.078000,0.972000,0.172000,192.000000,0.000000,0.000000,0.000000,0.000000,0.000000,0.000000,0.000000,0.000000,0.000000,1646556201.526448,0.000000
121.000000,-1229.837683,4209.638144,657.163639,9485.007463,-6303.795433,-16645.411151,2362.713499,2235.263853,-0.078000,0.972000,0.172000,192.000000,0.000000,0.000000,0.000000,0.000000,0.000000,0.000000,0.000000,0.000000,0.000000,1646556201.534389,0.000000
122.000000,-1227.021364,4214.957859,658.527095,9488.159059,-6300.979114,-16645.165282,2360.120697,2233.319251,-0.078000,0.972000,0.172000,192.000000,0.000000,0.000000,0.000000,0.000000,0.000000,0.000000,0.000000,0.000000,0.000000,1646556201.534404,0.000000
123.000000,-1219.086494,4220.389333,662.528057,9492.987036,-6299.347436,-16637.476282,2363.316996,2229.720620,-0.078000,0.972000,0.172000,192.000000,0.000000,0.000000,0.000000,0.000000,0.000000,0.000000,0.000000,0.000000,0.000000,1646556201.542368,0.000000
124.000000,-1225.903776,4213.393237,653.430897,9484.292207,-6310.031570,-16643.868881,2355.337424,2238.080172,-0.078000,0.972000,0.172000,192.000000,0.000000,0.000000,0.000000,0.000000,0.000000,0.000000,0.000000,0.000000,0.000000,1646556201.542383,0.000000
125.000000,-1235.805599,4205.458368,644.624310,9475.887951,-6319.151082,-16648.875671,2343.222778,2227.977184,-0.078000,0.972000,0.172000,192.000000,0.000000,0.000000,0.000000,0.000000,0.000000,0.000000,0.000000,0.000000,0.000000,1646556201.549025,0.000000
126.000000,-1246.154457,4193.880164,635.773019,9465.382631,-6325.186053,-16665.259500,2320.356944,2188.861631,-0.078000,0.972000,0.172000,192.000000,0.000000,0.000000,0.000000,0.000000,0.000000,0.000000,0.000000,0.000000,0.000000,1646556201.549040,0.000000
127.000000,-1243.896931,4193.880164,634.498970,9466.768440,-6324.291983,-16666.242977,2323.910871,2209.872271,-0.078000,0.972000,0.172000,192.000000,0.000000,0.000000,0.000000,0.000000,0.000000,0.000000,0.000000,0.000000,0.000000,1646556201.557045,0.000000
128.000000,-1234.553901,4203.469062,643.037336,9475.418565,-6315.887727,-16655.871768,2356.007976,2235.129742,-0.078000,0.972000,0.172000,192.000000,0.000000,0.000000,0.000000,0.000000,0.000000,0.000000,0.000000,0.000000,0.000000,1646556201.557060,0.000000
129.000000,-1229.435352,4211.515690,649.117011,9479.799507,-6308.824576,-16650.037962,2367.742642,2243.690460,-0.078000,0.980000,0.178000,192.000000,253.000000,144.000000,30.000000,160.000000,5.000000,144.000000,0.000000,0.000000,0.000000,1646556201.565044,0.000000
130.000000,-1239.650099,4204.318429,640.221016,9471.238789,-6317.117073,-16662.420829,2348.341328,2224.646774,-0.078000,0.980000,0.178000,192.000000,0.000000,0.000000,0.000000,0.000000,0.000000,0.000000,0.000000,0.000000,0.000000,1646556201.565060,0.000000
131.000000,-1234.777419,4207.961763,644.490200,9477.162001,-6313.160814,-16654.374201,2336.852531,2217.896547,-0.078000,0.980000,0.178000,192.000000,0.000000,0.000000,0.000000,0.000000,0.000000,0.000000,0.000000,0.000000,0.000000,1646556201.572228,0.000000
132.000000,-1231.737582,4208.878184,649.117011,9480.447707,-6310.098625,-16640.158491,2366.513296,2246.752649,-0.078000,0.980000,0.178000,192.000000,0.000000,0.000000,0.000000,0.000000,0.000000,0.000000,0.000000,0.000000,0.000000,1646556201.578631,0.000000
133.000000,-1236.744372,4206.419493,647.038298,9479.553637,-6311.462082,-16639.510291,2370.715424,2235.152094,-0.078000,0.980000,0.178000,192.000000,0.000000,0.000000,0.000000,0.000000,0.000000,0.000000,0.000000,0.000000,0.000000,1646556201.578648,0.000000
134.000000,-1233.592776,4212.387408,646.792429,9481.028853,-6309.740998,-16634.816424,2368.256732,2240.114181,-0.078000,0.980000,0.178000,192.000000,0.000000,0.000000,0.000000,0.000000,0.000000,0.000000,0.000000,0.000000,0.000000,1646556201.586455,0.000000
135.000000,-1219.757047,4226.245490,658.795316,9495.803356,-6299.772119,-16626.590982,2371.721252,2224.713829,-0.078000,0.980000,0.178000,192.000000,0.000000,0.000000,0.000000,0.000000,0.000000,0.000000,0.000000,0.000000,0.000000,1646556201.586470,0.000000
136.000000,-1237.191407,4209.056998,647.686499,9482.526419,-6310.366846,-16642.013686,2356.075031,2208.330000,-0.078000,0.980000,0.178000,192.000000,0.000000,0.000000,0.000000,0.000000,0.000000,0.000000,0.000000,0.000000,0.000000,1646556201.594676,0.000000
137.000000,-1245.796829,4201.815033,638.768153,9476.670262,-6318.011143,-16638.549166,2347.961348,2245.299786,-0.078000,0.980000,0.178000,192.000000,0.000000,0.000000,0.000000,0.000000,0.000000,0.000000,0.000000,0.000000,0.000000,1646556201.594693,0.000000
138.000000,-1262.806506,4185.744129,625.245348,9458.900626,-6335.199634,-16652.742523,2350.017709,2226.412562,-0.078000,0.980000,0.178000,192.000000,0.000000,0.000000,0.000000,0.000000,0.000000,0.000000,0.000000,0.000000,0.000000,1646556201.601823,0.000000
139.000000,-1263.342948,4184.648893,623.457208,9456.888969,-6341.145198,-16655.335326,2345.659118,2215.795483,-0.080000,0.964000,0.182000,192.000000,253.000000,128.000000,30.000000,32.000000,5.000000,176.000000,0.000000,0.000000,0.000000,1646556201.601839,0.000000
140.000000,-1247.786134,4201.747978,636.980013,9474.099812,-6325.096646,-16641.611355,2355.180962,2227.999536,-0.080000,0.964000,0.182000,192.000000,0.000000,0.000000,0.000000,0.000000,0.000000,0.000000,0.000000,0.000000,0.000000,1646556201.609304,0.000000
141.000000,-1254.245788,4191.600286,632.755534,9466.813143,-6328.784684,-16650.708515,2346.866113,2221.830454,-0.080000,0.964000,0.182000,192.000000,0.000000,0.000000,0.000000,0.000000,0.000000,0.000000,0.000000,0.000000,0.000000,1646556201.609319,0.000000
142.000000,-1251.474172,4193.142556,636.063592,9469.316538,-6325.074294,-16646.551090,2350.151819,2235.643832,-0.080000,0.964000,0.182000,192.000000,0.000000,0.000000,0.000000,0.000000,0.000000,0.000000,0.000000,0.000000,0.000000,1646556201.617340,0.000000
143.000000,-1253.172905,4193.187260,638.298766,9470.054146,-6324.761370,-16645.657020,2358.287854,2230.480579,-0.080000,0.964000,0.182000,192.000000,0.000000,0.000000,0.000000,0.000000,0.000000,0.000000,0.000000,0.000000,0.000000,1646556201.617356,0.000000
144.000000,-1257.956178,4189.253353,636.421220,9463.974472,-6328.337649,-16648.160416,2355.762107,2237.253158,-0.080000,0.964000,0.182000,192.000000,0.000000,0.000000,0.000000,0.000000,0.000000,0.000000,0.000000,0.000000,0.000000,1646556201.624534,0.000000
145.000000,-1260.213704,4182.234905,633.180217,9456.598396,-6330.773989,-16650.932032,2361.238284,2232.224015,-0.080000,0.964000,0.182000,192.000000,0.000000,0.000000,0.000000,0.000000,0.000000,0.000000,0.000000,0.000000,0.000000,1646556201.624549,0.000000
146.000000,-1246.847361,4195.958876,642.053859,9473.205742,-6317.988791,-16643.421846,2362.847610,2224.847940,-0.080000,0.964000,0.182000,192.000000,0.000000,0.000000,0.000000,0.000000,0.000000,0.000000,0.000000,0.000000,0.000000,1646556201.630880,0.000000
147.000000,-1242.667585,4201.390350,646.635967,9480.894742,-6313.272573,-16638.370352,2371.609494,2249.658376,-0.080000,0.964000,0.182000,192.000000,0.000000,0.000000,0.000000,0.000000,0.000000,0.000000,0.000000,0.000000,0.000000,1646556201.638924,0.000000
148.000000,-1248.367280,4191.823803,642.858522,9472.982225,-6320.134559,-16636.246936,2365.149840,2258.509667,-0.080000,0.964000,0.182000,192.000000,0.000000,0.000000,0.000000,0.000000,0.000000,0.000000,0.000000,0.000000,0.000000,1646556201.638939,0.000000
149.000000,-1261.219533,4180.200896,633.560197,9462.923940,-6329.321126,-16644.606488,2358.824296,2242.170542,-0.086000,0.954000,0.190000,192.000000,253.000000,80.000000,29.000000,208.000000,5.000000,240.000000,0.000000,0.000000,0.000000,1646556201.646999,0.000000
150.000000,-1261.912437,4179.798565,632.554368,9464.041527,-6326.191881,-16646.037000,2370.111927,2235.934405,-0.086000,0.954000,0.190000,192.000000,0.000000,0.000000,0.000000,0.000000,0.000000,0.000000,0.000000,0.000000,0.000000,1646556201.647032,0.000000
151.000000,-1246.422678,4196.718835,645.428973,9478.413698,-6311.707951,-16636.828081,2378.426776,2232.179312,-0.086000,0.954000,0.190000,192.000000,0.000000,0.000000,0.000000,0.000000,0.000000,0.000000,0.000000,0.000000,0.000000,1646556201.654147,0.000000
152.000000,-1246.802657,4196.562373,644.490200,9475.753841,-6311.439730,-16647.266346,2360.165401,2216.443684,-0.086000,0.954000,0.190000,192.000000,0.000000,0.000000,0.000000,0.000000,0.000000,0.000000,0.000000,0.000000,0.000000,1646556201.654162,0.000000
153.000000,-1252.725870,4185.386501,641.137438,9467.863675,-6316.647687,-16654.932994,2348.676604,2231.173483,-0.086000,0.954000,0.190000,192.000000,0.000000,0.000000,0.000000,0.000000,0.000000,0.000000,0.000000,0.000000,0.000000,1646556201.661596,0.000000
154.000000,-1240.275948,4197.501146,646.501857,9480.850039,-6310.322143,-16646.260517,2361.417098,2233.721582,-0.086000,0.954000,0.190000,192.000000,0.000000,0.000000,0.000000,0.000000,0.000000,0.000000,0.000000,0.000000,0.000000,1646556201.661614,0.000000
155.000000,-1225.188521,4213.996734,659.264703,9491.534172,-6297.872221,-16634.279982,2360.590084,2243.802219,-0.086000,0.954000,0.190000,192.000000,0.000000,0.000000,0.000000,0.000000,0.000000,0.000000,0.000000,0.000000,0.000000,1646556201.669651,0.000000
156.000000,-1239.180713,4198.954010,649.564046,9475.485620,-6308.489300,-16646.618145,2352.565807,2234.593300,-0.086000,0.954000,0.190000,192.000000,0.000000,0.000000,0.000000,0.000000,0.000000,0.000000,0.000000,0.000000,0.000000,1646556201.669667,0.000000
157.000000,-1260.370166,4176.132879,629.268662,9454.139704,-6329.388181,-16661.839683,2363.249941,2216.644849,-0.086000,0.954000,0.190000,192.000000,0.000000,0.000000,0.000000,0.000000,0.000000,0.000000,0.000000,0.000000,0.000000,1646556201.677626,0.000000
158.000000,-1257.486791,4179.910324,628.396944,9455.391402,-6331.712762,-16655.737657,2357.684357,2242.036431,-0.086000,0.954000,0.190000,192.000000,0.000000,0.000000,0.000000,0.000000,0.000000,0.000000,0.000000,0.000000,0.000000,1646556201.677643,0.000000
159.000000,-1246.400326,4195.400083,638.432877,9474.636254,-6319.084027,-16644.986468,2373.509392,2253.905207,-0.088000,0.956000,0.190000,192.000000,253.000000,64.000000,29.000000,224.000000,5.000000,240.000000,0.000000,0.000000,0.000000,1646556201.684217,0.000000
160.000000,-1260.392518,4184.090100,627.927557,9463.661547,-6330.125788,-16656.139988,2350.755316,2239.264815,-0.088000,0.956000,0.190000,192.000000,0.000000,0.000000,0.000000,0.000000,0.000000,0.000000,0.000000,0.000000,0.000000,1646556201.684233,0.000000
161.000000,-1255.698652,4188.694559,628.732220,9465.025004,-6329.343477,-16658.285756,2333.700935,2236.135571,-0.088000,0.956000,0.190000,192.000000,0.000000,0.000000,0.000000,0.000000,0.000000,0.000000,0.000000,0.000000,0.000000,1646556201.691282,0.000000
162.000000,-1251.541227,4192.159080,635.996537,9469.227132,-6322.570899,-16657.346983,2359.427793,2234.481541,-0.088000,0.956000,0.190000,192.000000,0.000000,0.000000,0.000000,0.000000,0.000000,0.000000,0.000000,0.000000,0.000000,1646556201.691298,0.000000
163.000000,-1252.681166,4188.851021,634.856598,9464.466210,-6323.889652,-16661.973794,2350.643557,2223.685649,-0.088000,0.956000,0.190000,192.000000,0.000000,0.000000,0.000000,0.000000,0.000000,0.000000,0.000000,0.000000,0.000000,1646556201.699288,0.000000
164.000000,-1252.725870,4188.627504,631.705002,9460.934634,-6325.856605,-16667.405268,2340.093534,2218.857672,-0.088000,0.956000,0.190000,192.000000,0.000000,0.000000,0.000000,0.000000,0.000000,0.000000,0.000000,0.000000,0.000000,1646556201.706392,0.000000
165.000000,-1244.366317,4198.909306,640.645700,9472.512838,-6317.429998,-16660.923262,2348.788363,2221.763399,-0.088000,0.956000,0.190000,192.000000,0.000000,0.000000,0.000000,0.000000,0.000000,0.000000,0.000000,0.000000,0.000000,1646556201.706408,0.000000
166.000000,-1229.837683,4210.576917,657.007177,9491.087138,-6301.224983,-16645.500558,2349.145991,2227.865425,-0.088000,0.956000,0.190000,192.000000,0.000000,0.000000,0.000000,0.000000,0.000000,0.000000,0.000000,0.000000,0.000000,1646556201.713833,0.000000
167.000000,-1231.826989,4207.313562,652.514476,9487.622617,-6304.622448,-16647.780436,2353.929264,2235.710887,-0.088000,0.956000,0.190000,192.000000,0.000000,0.000000,0.000000,0.000000,0.000000,0.000000,0.000000,0.000000,0.000000,1646556201.713848,0.000000
168.000000,-1226.529625,4212.096836,653.028566,9490.058957,-6304.376579,-16641.991334,2361.215933,2240.896492,-0.088000,0.956000,0.190000,192.000000,0.000000,0.000000,0.000000,0.000000,0.000000,0.000000,0.000000,0.000000,0.000000,1646556201.721867,0.000000
169.000000,-1233.503370,4204.944277,650.301653,9478.368995,-6312.154986,-16652.071971,2342.529874,2216.935422,-0.090000,0.960000,0.194000,192.000000,253.000000,48.000000,30.000000,0.000000,6.000000,16.000000,0.000000,0.000000,0.000000,1646556201.721883,0.000000
170.000000,-1228.541282,4216.276612,654.436726,9483.576951,-6306.924678,-16645.992296,2356.410307,2217.941251,-0.090000,0.960000,0.194000,192.000000,0.000000,0.000000,0.000000,0.000000,0.000000,0.000000,0.000000,0.000000,0.000000,1646556201.729870,0.000000
171.000000,-1223.936823,4226.021972,662.349243,9490.707158,-6295.748805,-16635.017590,2370.022520,2246.909111,-0.090000,0.960000,0.194000,192.000000,0.000000,0.000000,0.000000,0.000000,0.000000,0.000000,0.000000,0.000000,0.000000,1646556201.729903,0.000000
172.000000,-1227.200178,4218.757655,659.465868,9487.287341,-6299.816823,-16634.302334,2369.776651,2260.297806,-0.090000,0.960000,0.194000,192.000000,0.000000,0.000000,0.000000,0.000000,0.000000,0.000000,0.000000,0.000000,0.000000,1646556201.736488,0.000000
173.000000,-1232.721058,4213.281478,654.883761,9481.520591,-6307.483471,-16634.436445,2371.050700,2246.149152,-0.090000,0.960000,0.194000,192.000000,0.000000,0.000000,0.000000,0.000000,0.000000,0.000000,0.000000,0.000000,0.000000,1646556201.736504,0.000000
174.000000,-1237.593739,4209.682847,650.458115,9477.765498,-6310.366846,-16634.145872,2369.351967,2247.110277,-0.090000,0.960000,0.194000,192.000000,0.000000,0.000000,0.000000,0.000000,0.000000,0.000000,0.000000,0.000000,0.000000,1646556201.744472,0.000000
175.000000,-1239.091306,4210.040475,648.446458,9474.211571,-6313.160814,-16634.794072,2366.155668,2250.395984,-0.090000,0.960000,0.194000,192.000000,0.000000,0.000000,0.000000,0.000000,0.000000,0.000000,0.000000,0.000000,0.000000,1646556201.744487,0.000000
176.000000,-1247.964948,4199.736321,642.947929,9462.231035,-6320.536890,-16643.779474,2359.070165,2246.842056,-0.090000,0.960000,0.194000,192.000000,0.000000,0.000000,0.000000,0.000000,0.000000,0.000000,0.000000,0.000000,0.000000,1646556201.752483,0.000000
177.000000,-1232.832817,4218.422379,657.610674,9480.112431,-6305.672980,-16629.720226,2357.192619,2242.461114,-0.090000,0.960000,0.194000,192.000000,0.000000,0.000000,0.000000,0.000000,0.000000,0.000000,0.000000,0.000000,0.000000,1646556201.752498,0.000000
178.000000,-1243.963986,4208.297039,647.910017,9469.383594,-6315.664210,-16645.165282,2333.320955,2239.577739,-0.090000,0.960000,0.194000,192.000000,0.000000,0.000000,0.000000,0.000000,0.000000,0.000000,0.000000,0.000000,0.000000,1646556201.759686,0.000000
179.000000,-1242.913454,4208.788777,646.211284,9467.617806,-6318.234660,-16645.880538,2363.473459,2216.846015,-0.090000,0.960000,0.194000,192.000000,0.000000,0.000000,0.000000,0.000000,0.000000,0.000000,0.000000,0.000000,0.000000,1646556201.766133,0.000000
180.000000,-1246.489733,4205.257202,642.903226,9461.359317,-6321.989753,-16649.345058,2368.681415,2222.501006,-0.092000,0.956000,0.194000,192.000000,253.000000,32.000000,29.000000,224.000000,6.000000,16.000000,0.000000,0.000000,0.000000,1646556201.766148,0.000000
181.000000,-1250.825971,4199.021065,637.248234,9456.710155,-6327.465931,-16653.748352,2353.504581,2223.283317,-0.092000,0.956000,0.194000,192.000000,0.000000,0.000000,0.000000,0.000000,0.000000,0.000000,0.000000,0.000000,0.000000,1646556201.774141,0.000000
182.000000,-1245.863884,4205.681885,641.159790,9467.126068,-6319.933393,-16648.272174,2356.343252,2235.934405,-0.092000,0.956000,0.194000,192.000000,0.000000,0.000000,0.000000,0.000000,0.000000,0.000000,0.000000,0.000000,0.000000,1646556201.774157,0.000000
183.000000,-1233.235149,4218.265917,652.536828,9480.291245,-6307.282306,-16631.486014,2375.185773,2258.889646,-0.092000,0.956000,0.194000,192.000000,0.000000,0.000000,0.000000,0.000000,0.000000,0.000000,0.000000,0.000000,0.000000,1646556201.782180,0.000000
184.000000,-1242.466419,4206.978286,644.221979,9466.500219,-6320.134559,-16646.953421,2353.482229,2238.124876,-0.092000,0.956000,0.194000,192.000000,0.000000,0.000000,0.000000,0.000000,0.000000,0.000000,0.000000,0.000000,0.000000,1646556201.782196,0.000000
185.000000,-1249.037832,4201.546812,641.539769,9462.521608,-6324.068466,-16650.082666,2346.307319,2223.976222,-0.092000,0.956000,0.194000,192.000000,0.000000,0.000000,0.000000,0.000000,0.000000,0.000000,0.000000,0.000000,0.000000,1646556201.789278,0.000000
186.000000,-1245.573312,4204.743112,646.859485,9463.147457,-6318.569937,-16644.785302,2360.008938,2223.193911,-0.092000,0.956000,0.194000,192.000000,0.000000,0.000000,0.000000,0.000000,0.000000,0.000000,0.000000,0.000000,0.000000,1646556201.789295,0.000000
187.000000,-1244.187503,4208.229984,646.881836,9466.455515,-6315.239527,-16641.521948,2367.049738,2233.341602,-0.092000,0.956000,0.194000,192.000000,0.000000,0.000000,0.000000,0.000000,0.000000,0.000000,0.000000,0.000000,0.000000,1646556201.796731,0.000000
188.000000,-1243.516951,4210.532214,647.485333,9471.708175,-6313.697256,-16641.387837,2347.201389,2242.148190,-0.092000,0.956000,0.194000,192.000000,0.000000,0.000000,0.000000,0.000000,0.000000,0.000000,0.000000,0.000000,0.000000,1646556201.796747,0.000000
189.000000,-1236.699669,4213.773216,652.179200,9479.777155,-6309.293963,-16634.548203,2364.658101,2242.081135,-0.092000,0.956000,0.194000,192.000000,0.000000,0.000000,0.000000,0.000000,0.000000,0.000000,0.000000,0.000000,0.000000,1646556201.804729,0.000000
190.000000,-1238.644271,4205.793644,650.569874,9477.474925,-6310.724474,-16637.096302,2382.874773,2241.052954,-0.094000,0.956000,0.194000,192.000000,253.000000,16.000000,29.000000,224.000000,6.000000,16.000000,0.000000,0.000000,0.000000,1646556201.804746,0.000000
191.000000,-1248.233169,4194.528364,641.673880,9467.014309,-6320.179262,-16645.388799,2381.019578,2239.756553,-0.094000,0.956000,0.194000,192.000000,0.000000,0.000000,0.000000,0.000000,0.000000,0.000000,0.000000,0.000000,0.000000,1646556201.812781,0.000000
192.000000,-1245.081573,4196.629428,642.545598,9469.473001,-6322.190919,-16641.030209,2370.044872,2225.652602,-0.094000,0.956000,0.194000,192.000000,0.000000,0.000000,0.000000,0.000000,0.000000,0.000000,0.000000,0.000000,0.000000,1646556201.812797,0.000000
193.000000,-1245.953291,4198.372865,645.026641,9470.568236,-6322.034457,-16641.074913,2369.910761,2225.674954,-0.094000,0.956000,0.194000,192.000000,0.000000,0.000000,0.000000,0.000000,0.000000,0.000000,0.000000,0.000000,0.000000,1646556201.819022,0.000000
194.000000,-1255.586893,4192.695521,637.896435,9456.710155,-6329.477588,-16652.854282,2353.839857,2217.047181,-0.094000,0.956000,0.194000,192.000000,0.000000,0.000000,0.000000,0.000000,0.000000,0.000000,0.000000,0.000000,0.000000,1646556201.826404,0.000000
195.000000,-1249.641329,4197.679960,644.758421,9463.750954,-6319.329896,-16636.984543,2366.937979,2233.341602,-0.094000,0.956000,0.194000,192.000000,0.000000,0.000000,0.000000,0.000000,0.000000,0.000000,0.000000,0.000000,0.000000,1646556201.826419,0.000000
196.000000,-1247.160285,4202.530289,649.921674,9470.858809,-6313.339628,-16631.284849,2366.021558,2236.649661,-0.094000,0.956000,0.194000,192.000000,0.000000,0.000000,0.000000,0.000000,0.000000,0.000000,0.000000,0.000000,0.000000,1646556201.834411,0.000000
197.000000,-1243.941634,4209.302868,650.055784,9473.943350,-6315.597155,-16632.156567,2360.299511,2238.929539,-0.094000,0.956000,0.194000,192.000000,0.000000,0.000000,0.000000,0.000000,0.000000,0.000000,0.000000,0.000000,0.000000,1646556201.834426,0.000000
198.000000,-1246.087402,4207.022990,647.328871,9469.852980,-6321.609774,-16632.760064,2380.147860,2236.783771,-0.094000,0.956000,0.194000,192.000000,0.000000,0.000000,0.000000,0.000000,0.000000,0.000000,0.000000,0.000000,0.000000,1646556201.841555,0.000000
199.000000,-1247.137934,4204.720760,646.859485,9469.473001,-6325.521329,-16632.067160,2384.797023,2232.268719,-0.094000,0.956000,0.194000,192.000000,0.000000,0.000000,0.000000,0.000000,0.000000,0.000000,0.000000,0.000000,0.000000,1646556201.841572,0.000000
200.000000,-1249.618977,4198.149347,642.411487,9465.539094,-6328.851739,-16638.213889,2366.557999,2222.903338,-0.090000,0.960000,0.192000,192.000000,253.000000,48.000000,30.000000,0.000000,6.000000,0.000000,0.000000,0.000000,0.000000,1646556201.848989,0.000000
201.000000,-1233.950404,4214.667286,654.257912,9476.558504,-6317.899384,-16632.067160,2365.351005,2234.839169,-0.090000,0.960000,0.192000,192.000000,0.000000,0.000000,0.000000,0.000000,0.000000,0.000000,0.000000,0.000000,0.000000,1646556201.849004,0.000000
202.000000,-1228.116599,4218.332972,662.259836,9478.145478,-6310.702123,-16624.266401,2373.889372,2248.250216,-0.090000,0.960000,0.192000,192.000000,0.000000,0.000000,0.000000,0.000000,0.000000,0.000000,0.000000,0.000000,0.000000,1646556201.857037,0.000000
203.000000,-1235.783247,4212.521519,655.531961,9472.222265,-6317.742922,-16632.871822,2374.962255,2236.269681,-0.090000,0.960000,0.192000,192.000000,0.000000,0.000000,0.000000,0.000000,0.000000,0.000000,0.000000,0.000000,0.000000,1646556201.857054,0.000000
204.000000,-1235.805599,4217.304792,652.916807,9471.730527,-6316.915907,-16638.392703,2359.405441,2225.272623,-0.090000,0.960000,0.192000,192.000000,0.000000,0.000000,0.000000,0.000000,0.000000,0.000000,0.000000,0.000000,0.000000,1646556201.865051,0.000000
205.000000,-1226.730791,4228.346554,662.081023,9481.453536,-6308.757521,-16630.770758,2361.886485,2235.532073,-0.090000,0.960000,0.192000,192.000000,0.000000,0.000000,0.000000,0.000000,0.000000,0.000000,0.000000,0.000000,0.000000,1646556201.865067,0.000000
206.000000,-1236.565559,4218.891766,656.001348,9469.517704,-6314.837195,-16642.505424,2347.514313,2224.356201,-0.090000,0.960000,0.192000,192.000000,0.000000,0.000000,0.000000,0.000000,0.000000,0.000000,0.000000,0.000000,0.000000,1646556201.871629,0.000000
207.000000,-1233.123390,4220.702257,654.146153,9471.417602,-6315.507748,-16641.186671,2359.494848,2222.188082,-0.090000,0.960000,0.192000,192.000000,0.000000,0.000000,0.000000,0.000000,0.000000,0.000000,0.000000,0.000000,0.000000,1646556201.871644,0.000000
208.000000,-1238.130181,4216.164853,648.737031,9468.020137,-6320.201614,-16645.142930,2339.758258,2218.187120,-0.090000,0.960000,0.192000,192.000000,0.000000,0.000000,0.000000,0.000000,0.000000,0.000000,0.000000,0.000000,0.000000,1646556201.878684,0.000000
209.000000,-1234.889178,4219.025876,649.117011,9470.076498,-6322.257974,-16642.930107,2363.495810,2211.548652,-0.090000,0.960000,0.192000,192.000000,0.000000,0.000000,0.000000,0.000000,0.000000,0.000000,0.000000,0.000000,0.000000,1646556201.886496,0.000000
210.000000,-1226.574329,4228.771237,660.292883,9479.508934,-6311.596192,-16636.112825,2369.799002,2214.454378,-0.084000,0.962000,0.194000,192.000000,253.000000,96.000000,30.000000,16.000000,6.000000,16.000000,0.000000,0.000000,0.000000,1646556201.886511,0.000000
211.000000,-1238.308995,4217.103626,654.213208,9469.093021,-6317.653515,-16650.730866,2349.570674,2208.039428,-0.084000,0.962000,0.194000,192.000000,0.000000,0.000000,0.000000,0.000000,0.000000,0.000000,0.000000,0.000000,0.000000,1646556201.894664,0.000000
212.000000,-1236.744372,4224.211481,657.767136,9471.931693,-6312.937297,-16646.707552,2357.349081,2229.295937,-0.084000,0.962000,0.194000,192.000000,0.000000,0.000000,0.000000,0.000000,0.000000,0.000000,0.000000,0.000000,0.000000,1646556201.894679,0.000000
213.000000,-1238.599567,4225.418475,654.772002,9470.411774,-6314.948954,-16645.813483,2353.884560,2226.121989,-0.084000,0.962000,0.194000,192.000000,0.000000,0.000000,0.000000,0.000000,0.000000,0.000000,0.000000,0.000000,0.000000,1646556201.901104,0.000000
214.000000,-1234.419791,4225.060847,656.493086,9468.310710,-6315.820672,-16640.069084,2351.917607,2239.018946,-0.084000,0.962000,0.194000,192.000000,0.000000,0.000000,0.000000,0.000000,0.000000,0.000000,0.000000,0.000000,0.000000,1646556201.901137,0.000000
215.000000,-1238.308995,4219.495263,651.732165,9469.696518,-6317.765274,-16644.226509,2361.104174,2226.121989,-0.084000,0.962000,0.194000,192.000000,0.000000,0.000000,0.000000,0.000000,0.000000,0.000000,0.000000,0.000000,0.000000,1646556201.909261,0.000000
216.000000,-1236.476152,4219.450560,652.358014,9472.289321,-6315.887727,-16646.506387,2352.878732,2217.181291,-0.084000,0.962000,0.194000,192.000000,0.000000,0.000000,0.000000,0.000000,0.000000,0.000000,0.000000,0.000000,0.000000,1646556201.909276,0.000000
217.000000,-1229.882387,4224.613813,655.509610,9476.871428,-6311.484434,-16644.539433,2367.295607,2215.482559,-0.084000,0.962000,0.194000,192.000000,0.000000,0.000000,0.000000,0.000000,0.000000,0.000000,0.000000,0.000000,0.000000,1646556201.917330,0.000000
218.000000,-1238.867788,4218.355324,648.893493,9471.529361,-6317.854681,-16653.994221,2345.949691,2213.783826,-0.084000,0.962000,0.194000,192.000000,0.000000,0.000000,0.000000,0.000000,0.000000,0.000000,0.000000,0.000000,0.000000,1646556201.917345,0.000000
219.000000,-1237.392573,4222.088065,648.066479,9473.831591,-6317.340591,-16651.513177,2339.020650,2206.363047,-0.084000,0.962000,0.194000,192.000000,0.000000,0.000000,0.000000,0.000000,0.000000,0.000000,0.000000,0.000000,0.000000,1646556201.924172,0.000000
220.000000,-1230.754105,4231.274632,657.051880,9481.654701,-6307.215250,-16644.539433,2345.904988,2208.151186,-0.084000,0.958000,0.194000,192.000000,253.000000,96.000000,29.000000,240.000000,6.000000,16.000000,0.000000,0.000000,0.000000,1646556201.924181,0.000000
221.000000,-1227.736619,4239.522426,663.399775,9490.260123,-6298.296904,-16640.002029,2354.823334,2214.744951,-0.084000,0.958000,0.194000,192.000000,0.000000,0.000000,0.000000,0.000000,0.000000,0.000000,0.000000,0.000000,0.000000,1646556201.931943,0.000000
222.000000,-1223.959175,4240.908234,665.299674,9491.288303,-6295.748805,-16635.710494,2350.531799,2220.489349,-0.084000,0.958000,0.194000,192.000000,0.000000,0.000000,0.000000,0.000000,0.000000,0.000000,0.000000,0.000000,0.000000,1646556201.931958,0.000000
223.000000,-1219.377067,4241.914063,667.043110,9493.836402,-6297.179317,-16630.860165,2350.755316,2216.421332,-0.084000,0.958000,0.194000,192.000000,0.000000,0.000000,0.000000,0.000000,0.000000,0.000000,0.000000,0.000000,0.000000,1646556201.938873,0.000000
224.000000,-1214.705552,4246.049135,665.523191,9494.439899,-6300.487375,-16630.927221,2354.935092,2201.356256,-0.084000,0.958000,0.194000,192.000000,0.000000,0.000000,0.000000,0.000000,0.000000,0.000000,0.000000,0.000000,0.000000,1646556201.938888,0.000000
225.000000,-1224.585023,4238.807170,657.744784,9484.359263,-6306.432939,-16635.509328,2381.645427,2226.323155,-0.084000,0.958000,0.194000,192.000000,0.000000,0.000000,0.000000,0.000000,0.000000,0.000000,0.000000,0.000000,0.000000,1646556201.947032,0.000000
226.000000,-1232.631651,4233.107475,651.083964,9477.005539,-6313.205518,-16639.912622,2377.733872,2218.321230,-0.084000,0.958000,0.194000,192.000000,0.000000,0.000000,0.000000,0.000000,0.000000,0.000000,0.000000,0.000000,0.000000,1646556201.953568,0.000000
227.000000,-1240.700631,4232.951013,647.999424,9472.982225,-6318.257012,-16642.259555,2365.999206,2226.770190,-0.084000,0.958000,0.194000,192.000000,0.000000,0.000000,0.000000,0.000000,0.000000,0.000000,0.000000,0.000000,0.000000,1646556201.953584,0.000000
228.000000,-1243.136971,4231.922833,643.260854,9469.338890,-6322.749713,-16641.834872,2358.198447,2230.614690,-0.084000,0.958000,0.194000,192.000000,0.000000,0.000000,0.000000,0.000000,0.000000,0.000000,0.000000,0.000000,0.000000,1646556201.961626,0.000000
229.000000,-1249.730736,4221.104589,637.762325,9459.861751,-6328.449408,-16643.488901,2357.773764,2227.999536,-0.084000,0.958000,0.194000,192.000000,0.000000,0.000000,0.000000,0.000000,0.000000,0.000000,0.000000,0.000000,0.000000,1646556201.961641,0.000000
230.000000,-1243.025213,4230.313507,641.897397,9467.438992,-6322.325030,-16638.348000,2366.781517,2225.563195,-0.080000,0.956000,0.194000,192.000000,253.000000,128.000000,29.000000,224.000000,6.000000,16.000000,0.000000,0.000000,0.000000,1646556201.969556,0.000000
231.000000,-1232.944576,4238.270728,651.463944,9475.642082,-6309.718646,-16628.781453,2364.188715,2228.066591,-0.080000,0.956000,0.194000,192.000000,0.000000,0.000000,0.000000,0.000000,0.000000,0.000000,0.000000,0.000000,0.000000,1646556201.969572,0.000000
232.000000,-1243.651061,4224.658516,645.920711,9461.247559,-6318.212309,-16639.778511,2364.389880,2237.789600,-0.080000,0.956000,0.194000,192.000000,0.000000,0.000000,0.000000,0.000000,0.000000,0.000000,0.000000,0.000000,0.000000,1646556201.976777,0.000000
233.000000,-1247.495562,4221.462217,641.025679,9458.386535,-6326.415399,-16648.674506,2361.148877,2227.552501,-0.080000,0.956000,0.194000,192.000000,0.000000,0.000000,0.000000,0.000000,0.000000,0.000000,0.000000,0.000000,0.000000,1646556201.976793,0.000000
234.000000,-1252.524704,4220.389333,637.583511,9458.207721,-6328.874091,-16655.938823,2342.418115,2214.812006,-0.080000,0.956000,0.194000,192.000000,0.000000,0.000000,0.000000,0.000000,0.000000,0.000000,0.000000,0.000000,0.000000,1646556201.984250,0.000000
235.000000,-1247.093230,4228.592423,641.964453,9467.282530,-6325.118998,-16651.580233,2344.988566,2212.152149,-0.080000,0.956000,0.194000,192.000000,0.000000,0.000000,0.000000,0.000000,0.000000,0.000000,0.000000,0.000000,0.000000,1646556201.984283,0.000000
236.000000,-1242.108791,4232.839254,645.048993,9471.574065,-6320.603945,-16646.864014,2356.656177,2216.756608,-0.080000,0.956000,0.194000,192.000000,0.000000,0.000000,0.000000,0.000000,0.000000,0.000000,0.000000,0.000000,0.000000,1646556201.992263,0.000000
237.000000,-1254.402251,4217.662420,634.431915,9456.754858,-6331.198672,-16658.911605,2336.293737,2208.933498,-0.080000,0.956000,0.194000,192.000000,0.000000,0.000000,0.000000,0.000000,0.000000,0.000000,0.000000,0.000000,0.000000,1646556201.992280,0.000000
238.000000,-1236.923186,4236.169664,647.105354,9472.311672,-6318.771102,-16642.550128,2352.655214,2219.461169,-0.080000,0.956000,0.194000,192.000000,0.000000,0.000000,0.000000,0.000000,0.000000,0.000000,0.000000,0.000000,0.000000,1646556202.000068,0.000000
239.000000,-1233.257500,4244.216292,653.520304,9478.011367,-6310.165681,-16636.559860,2351.202351,2222.389248,-0.080000,0.956000,0.194000,192.000000,0.000000,0.000000,0.000000,0.000000,0.000000,0.000000,0.000000,0.000000,0.000000,1646556202.000078,0.000000
240.000000,-1224.585023,4252.397031,661.522229,9488.851963,-6300.219154,-16628.312067,2380.974875,2240.248292,-0.080000,0.962000,0.194000,192.000000,253.000000,128.000000,30.000000,16.000000,6.000000,16.000000,0.000000,0.000000,0.000000,1646556202.006200,0.000000
241.000000,-1215.666677,4258.543761,670.485278,9494.194030,-6290.920829,-16626.367465,2379.007921,2243.176370,-0.080000,0.962000,0.194000,192.000000,0.000000,0.000000,0.000000,0.000000,0.000000,0.000000,0.000000,0.000000,0.000000,1646556202.013901,0.000000
242.000000,-1223.333326,4250.586540,660.650511,9477.497277,-6302.409625,-16645.500558,2360.299511,2233.296899,-0.080000,0.962000,0.194000,192.000000,0.000000,0.000000,0.000000,0.000000,0.000000,0.000000,0.000000,0.000000,0.000000,1646556202.013916,0.000000
243.000000,-1224.763837,4248.865455,652.335662,9469.204780,-6312.669076,-16661.079724,2341.769915,2219.528224,-0.080000,0.962000,0.194000,192.000000,0.000000,0.000000,0.000000,0.000000,0.000000,0.000000,0.000000,0.000000,0.000000,1646556202.021773,0.000000
244.000000,-1225.479093,4241.847007,648.871142,9467.215475,-6315.910079,-16661.482055,2343.803924,2199.299896,-0.080000,0.962000,0.194000,192.000000,0.000000,0.000000,0.000000,0.000000,0.000000,0.000000,0.000000,0.000000,0.000000,1646556202.021787,0.000000
245.000000,-1233.749239,4233.710973,648.044127,9463.415678,-6318.480530,-16662.331422,2351.604682,2188.749872,-0.080000,0.962000,0.194000,192.000000,0.000000,0.000000,0.000000,0.000000,0.000000,0.000000,0.000000,0.000000,0.000000,1646556202.029723,0.000000
246.000000,-1232.341079,4238.248377,649.720508,9468.958911,-6317.586460,-16661.258538,2343.960386,2204.060817,-0.080000,0.962000,0.194000,192.000000,0.000000,0.000000,0.000000,0.000000,0.000000,0.000000,0.000000,0.000000,0.000000,1646556202.029739,0.000000
247.000000,-1237.772553,4235.119132,643.104391,9462.253387,-6323.576727,-16672.255596,2328.738848,2194.963657,-0.080000,0.962000,0.194000,192.000000,0.000000,0.000000,0.000000,0.000000,0.000000,0.000000,0.000000,0.000000,0.000000,1646556202.036545,0.000000
248.000000,-1224.674430,4249.200731,652.849752,9475.463268,-6313.786663,-16658.643384,2339.780610,2213.001515,-0.080000,0.962000,0.194000,192.000000,0.000000,0.000000,0.000000,0.000000,0.000000,0.000000,0.000000,0.000000,0.000000,1646556202.036561,0.000000
249.000000,-1227.244881,4243.925720,653.676767,9472.803411,-6313.965477,-16656.810541,2335.511426,2198.383474,-0.080000,0.962000,0.194000,192.000000,0.000000,0.000000,0.000000,0.000000,0.000000,0.000000,0.000000,0.000000,0.000000,1646556202.044539,0.000000
250.000000,-1227.311936,4245.043307,657.007177,9471.194085,-6309.942163,-16650.395590,2351.627034,2218.388285,-0.084000,0.968000,0.188000,192.000000,253.000000,96.000000,30.000000,64.000000,5.000000,224.000000,0.000000,0.000000,0.000000,1646556202.044555,0.000000
251.000000,-1216.359582,4255.749793,664.316197,9481.185315,-6301.046169,-16640.046732,2365.060433,2239.778905,-0.084000,0.968000,0.188000,192.000000,0.000000,0.000000,0.000000,0.000000,0.000000,0.000000,0.000000,0.000000,0.000000,1646556202.052511,0.000000
252.000000,-1217.924204,4256.174476,662.863334,9477.743146,-6305.158890,-16643.287735,2358.801944,2231.017021,-0.084000,0.968000,0.188000,192.000000,0.000000,0.000000,0.000000,0.000000,0.000000,0.000000,0.000000,0.000000,0.000000,1646556202.052549,0.000000
253.000000,-1217.544224,4260.331900,665.545543,9485.610960,-6304.756559,-16638.638573,2356.343252,2227.172521,-0.084000,0.968000,0.188000,192.000000,0.000000,0.000000,0.000000,0.000000,0.000000,0.000000,0.000000,0.000000,0.000000,1646556202.059105,0.000000
254.000000,-1216.583099,4263.863476,666.707834,9488.986074,-6303.124881,-16637.096302,2356.566770,2223.506835,-0.084000,0.968000,0.188000,192.000000,0.000000,0.000000,0.000000,0.000000,0.000000,0.000000,0.000000,0.000000,0.000000,1646556202.059121,0.000000
255.000000,-1214.236166,4263.103516,666.238447,9484.582780,-6304.220117,-16638.146834,2356.298549,2226.658431,-0.084000,0.968000,0.188000,192.000000,0.000000,0.000000,0.000000,0.000000,0.000000,0.000000,0.000000,0.000000,0.000000,1646556202.066118,0.000000
0.000000,-1227.937785,4248.708993,656.649549,9472.982225,-6311.573841,-16645.500558,2354.957444,2221.651640,-0.084000,0.968000,0.188000,192.000000,0.000000,0.000000,0.000000,0.000000,0.000000,0.000000,0.000000,0.000000,0.000000,1646556202.074114,0.000000
1.000000,-1221.500483,4256.308586,660.583456,9481.587646,-6309.271611,-16639.800863,2353.102249,2226.121989,-0.084000,0.968000,0.188000,192.000000,0.000000,0.000000,0.000000,0.000000,0.000000,0.000000,0.000000,0.000000,0.000000,1646556202.074147,0.000000
2.000000,-1223.266271,4258.677871,660.918732,9480.984149,-6313.026704,-16644.740599,2351.872903,2218.477692,-0.084000,0.968000,0.188000,192.000000,0.000000,0.000000,0.000000,0.000000,0.000000,0.000000,0.000000,0.000000,0.000000,1646556202.082155,0.000000
3.000000,-1217.432465,4270.099612,665.903171,9487.153231,-6306.634105,-16639.219718,2361.282988,2225.697306,-0.084000,0.968000,0.188000,192.000000,0.000000,0.000000,0.000000,0.000000,0.000000,0.000000,0.000000,0.000000,0.000000,1646556202.082171,0.000000
4.000000,-1219.734695,4269.160839,664.360900,9482.258199,-6306.611753,-16643.466549,2347.961348,2221.897509,-0.084000,0.968000,0.190000,192.000000,253.000000,96.000000,30.000000,64.000000,5.000000,240.000000,0.000000,0.000000,0.000000,1646556202.088785,0.000000
5.000000,-1216.069009,4271.843049,668.853601,9479.799507,-6300.241506,-16649.523872,2342.060488,2192.929649,-0.084000,0.968000,0.190000,192.000000,0.000000,0.000000,0.000000,0.000000,0.000000,0.000000,0.000000,0.000000,0.000000,1646556202.088801,0.000000
6.000000,-1213.476206,4277.095709,672.318121,9485.789774,-6292.708968,-16646.081703,2355.426831,2225.652602,-0.084000,0.968000,0.190000,192.000000,0.000000,0.000000,0.000000,0.000000,0.000000,0.000000,0.000000,0.000000,0.000000,1646556202.096789,0.000000
7.000000,-1219.980564,4274.011168,665.009101,9481.520591,-6298.900401,-16651.982564,2349.145991,2219.438817,-0.084000,0.968000,0.190000,192.000000,0.000000,0.000000,0.000000,0.000000,0.000000,0.000000,0.000000,0.000000,0.000000,1646556202.096805,0.000000
8.000000,-1223.713305,4274.569961,660.963435,9478.547809,-6305.896497,-16653.413076,2345.703822,2218.142416,-0.084000,0.968000,0.190000,192.000000,0.000000,0.000000,0.000000,0.000000,0.000000,0.000000,0.000000,0.000000,0.000000,1646556202.104826,0.000000
9.000000,-1217.834797,4283.801232,665.702005,9479.620693,-6302.007294,-16649.523872,2349.123639,2218.410637,-0.084000,0.968000,0.190000,192.000000,0.000000,0.000000,0.000000,0.000000,0.000000,0.000000,0.000000,0.000000,0.000000,1646556202.104841,0.000000
10.000000,-1211.509253,4297.480499,670.351168,9482.772289,-6296.173489,-16643.779474,2352.744621,2220.109370,-0.084000,0.968000,0.190000,192.000000,0.000000,0.000000,0.000000,0.000000,0.000000,0.000000,0.000000,0.000000,0.000000,1646556202.111937,0.000000
11.000000,-1221.478131,4299.670970,662.259836,9474.211571,-6304.555393,-16647.981602,2342.820447,2206.854785,-0.084000,0.968000,0.190000,192.000000,0.000000,0.000000,0.000000,0.000000,0.000000,0.000000,0.000000,0.000000,0.000000,1646556202.111953,0.000000
12.000000,-1220.002916,4311.383284,659.264703,9474.256274,-6310.053922,-16641.991334,2348.721307,2217.538919,-0.084000,0.968000,0.190000,192.000000,0.000000,0.000000,0.000000,0.000000,0.000000,0.000000,0.000000,0.000000,0.000000,1646556202.119416,0.000000
13.000000,-1217.700686,4321.262756,659.510572,9474.435088,-6312.333800,-16636.403398,2360.008938,2229.273585,-0.084000,0.968000,0.190000,192.000000,0.000000,0.000000,0.000000,0.000000,0.000000,0.000000,0.000000,0.000000,0.000000,1646556202.119433,0.000000
14.000000,-1214.862015,4329.577604,662.058671,9478.793678,-6309.428073,-16636.112825,2360.746546,2222.232785,-0.084000,0.968000,0.190000,192.000000,253.000000,96.000000,30.000000,64.000000,5.000000,240.000000,0.000000,0.000000,0.000000,1646556202.126281,0.000000
15.000000,-1219.332364,4327.610651,663.131555,9472.691652,-6309.606887,-16639.666753,2347.179037,2211.459245,-0.084000,0.968000,0.190000,192.000000,0.000000,0.000000,0.000000,0.000000,0.000000,0.000000,0.000000,0.000000,0.000000,1646556202.134516,0.000000
16.000000,-1227.378992,4324.839035,653.587360,9464.130934,-6320.223966,-16649.725038,2339.288871,2214.901413,-0.084000,0.968000,0.190000,192.000000,0.000000,0.000000,0.000000,0.000000,0.000000,0.000000,0.000000,0.000000,0.000000,1646556202.134532,0.000000
17.000000,-1226.887253,4323.788503,650.212246,9462.253387,-6325.007239,-16653.994221,2342.038136,2202.764416,-0.084000,0.968000,0.190000,192.000000,0.000000,0.000000,0.000000,0.000000,0.000000,0.000000,0.000000,0.000000,0.000000,1646556202.141603,0.000000
18.000000,-1229.681221,4320.189872,649.362880,9460.152323,-6327.912966,-16659.671564,2332.270423,2187.453471,-0.084000,0.968000,0.190000,192.000000,0.000000,0.000000,0.000000,0.000000,0.000000,0.000000,0.000000,0.000000,0.000000,1646556202.141620,0.000000
19.000000,-1221.634593,4329.577604,657.610674,9465.986129,-6319.575765,-16651.736695,2350.800020,2204.731370,-0.084000,0.968000,0.190000,192.000000,0.000000,0.000000,0.000000,0.000000,0.000000,0.000000,0.000000,0.000000,0.000000,1646556202.149065,0.000000
20.000000,-1216.717209,4335.701982,658.080060,9468.936559,-6313.630201,-16647.445160,2364.233418,2217.762437,-0.084000,0.968000,0.190000,192.000000,0.000000,0.000000,0.000000,0.000000,0.000000,0.000000,0.000000,0.000000,0.000000,1646556202.149081,0.000000
21.000000,-1215.152587,4343.033355,660.918732,9475.485620,-6305.293000,-16639.577346,2369.351967,2229.273585,-0.084000,0.968000,0.190000,192.000000,0.000000,0.000000,0.000000,0.000000,0.000000,0.000000,0.000000,0.000000,0.000000,1646556202.156897,0.000000
22.000000,-1226.127294,4335.389058,653.855581,9466.477867,-6313.294925,-16647.936898,2353.191656,2232.581643,-0.084000,0.968000,0.190000,192.000000,0.000000,0.000000,0.000000,0.000000,0.000000,0.000000,0.000000,0.000000,0.000000,1646556202.156931,0.000000
23.000000,-1229.815332,4335.009078,648.401755,9459.772344,-6320.134559,-16655.849416,2345.077973,2217.762437,-0.084000,0.968000,0.190000,192.000000,0.000000,0.000000,0.000000,0.000000,0.000000,0.000000,0.000000,0.000000,0.000000,1646556202.164972,0.000000
24.000000,-1215.331401,4351.929349,662.259836,9473.071632,-6305.069483,-16638.727980,2362.244113,2230.391172,-0.084000,0.968000,0.190000,192.000000,0.000000,0.000000,0.000000,0.000000,0.000000,0.000000,0.000000,0.000000,0.000000,1646556202.164988,0.000000
25.000000,-1204.557860,4365.519210,676.095566,9486.549733,-6291.546678,-16624.847546,2369.866058,2239.778905,-0.080000,0.968000,0.194000,192.000000,253.000000,128.000000,30.000000,64.000000,6.000000,16.000000,0.000000,0.000000,0.000000,1646556202.171692,0.000000
26.000000,-1210.346962,4362.300558,673.189840,9480.425355,-6295.167660,-16629.876689,2364.434584,2228.826550,-0.080000,0.968000,0.194000,192.000000,0.000000,0.000000,0.000000,0.000000,0.000000,0.000000,0.000000,0.000000,0.000000,1646556202.171707,0.000000
27.000000,-1230.351774,4342.943948,657.789488,9466.187294,-6313.004352,-16648.361581,2352.476400,2208.307649,-0.080000,0.968000,0.194000,192.000000,0.000000,0.000000,0.000000,0.000000,0.000000,0.000000,0.000000,0.000000,0.000000,1646556202.179502,0.000000
28.000000,-1242.779343,4327.588299,642.232673,9451.122219,-6329.611698,-16659.559805,2339.132409,2201.825643,-0.080000,0.968000,0.194000,192.000000,0.000000,0.000000,0.000000,0.000000,0.000000,0.000000,0.000000,0.000000,0.000000,1646556202.179516,0.000000
29.000000,-1227.378992,4343.949776,653.475601,9460.912283,-6319.620469,-16650.619108,2356.834991,2216.376628,-0.080000,0.968000,0.194000,192.000000,0.000000,0.000000,0.000000,0.000000,0.000000,0.000000,0.000000,0.000000,0.000000,1646556202.186485,0.000000
30.000000,-1216.516044,4360.959454,665.612598,9473.406908,-6306.678809,-16643.779474,2362.355871,2233.207492,-0.080000,0.968000,0.194000,192.000000,0.000000,0.000000,0.000000,0.000000,0.000000,0.000000,0.000000,0.000000,0.000000,1646556202.186500,0.000000
31.000000,-1213.096227,4367.955550,669.948837,9476.625559,-6302.230811,-16644.137102,2362.825258,2234.638004,-0.080000,0.968000,0.194000,192.000000,0.000000,0.000000,0.000000,0.000000,0.000000,0.000000,0.000000,0.000000,0.000000,1646556202.193816,0.000000
32.000000,-1223.020401,4357.874913,658.683557,9465.136762,-6310.970343,-16655.089456,2345.703822,2214.007344,-0.080000,0.968000,0.194000,192.000000,0.000000,0.000000,0.000000,0.000000,0.000000,0.000000,0.000000,0.000000,0.000000,1646556202.201384,0.000000
33.000000,-1226.417867,4352.443439,652.022738,9460.778172,-6315.485396,-16654.932994,2343.602758,2216.421332,-0.080000,0.968000,0.194000,192.000000,0.000000,0.000000,0.000000,0.000000,0.000000,0.000000,0.000000,0.000000,0.000000,1646556202.201400,0.000000
34.000000,-1218.058314,4358.768983,657.878895,9466.991957,-6309.271611,-16647.266346,2336.070220,2199.992800,-0.080000,0.968000,0.194000,192.000000,0.000000,0.000000,0.000000,0.000000,0.000000,0.000000,0.000000,0.000000,0.000000,1646556202.209286,0.000000
35.000000,-1222.215739,4356.779677,660.494049,9467.036661,-6306.097663,-16645.612317,2343.870979,2203.502024,-0.078000,0.966000,0.188000,192.000000,253.000000,144.000000,30.000000,48.000000,5.000000,224.000000,0.000000,0.000000,0.000000,1646556202.209302,0.000000
36.000000,-1227.982489,4353.426916,654.570836,9466.477867,-6311.864413,-16639.912622,2376.728043,2235.353259,-0.078000,0.966000,0.188000,192.000000,0.000000,0.000000,0.000000,0.000000,0.000000,0.000000,0.000000,0.000000,0.000000,1646556202.217152,0.000000
37.000000,-1226.529625,4356.466753,653.386194,9468.467172,-6313.898422,-16640.493767,2359.919531,2232.983975,-0.078000,0.966000,0.188000,192.000000,0.000000,0.000000,0.000000,0.000000,0.000000,0.000000,0.000000,0.000000,0.000000,1646556202.217167,0.000000
38.000000,-1227.915433,4354.008061,653.766174,9465.539094,-6314.233698,-16643.935936,2354.376299,2226.077286,-0.078000,0.966000,0.188000,192.000000,0.000000,0.000000,0.000000,0.000000,0.000000,0.000000,0.000000,0.000000,0.000000,1646556202.223939,0.000000
39.000000,-1231.379954,4350.096506,652.961511,9459.124143,-6316.200652,-16651.066142,2345.077973,2210.185195,-0.078000,0.966000,0.188000,192.000000,0.000000,0.000000,0.000000,0.000000,0.000000,0.000000,0.000000,0.000000,0.000000,1646556202.223955,0.000000
40.000000,-1225.881425,4355.438573,654.682595,9457.313652,-6313.853719,-16645.344096,2349.861246,2216.041352,-0.078000,0.966000,0.188000,192.000000,0.000000,0.000000,0.000000,0.000000,0.000000,0.000000,0.000000,0.000000,0.000000,1646556202.232001,0.000000
41.000000,-1223.288622,4359.528942,655.643720,9458.431239,-6313.071407,-16644.919413,2351.314110,2215.773131,-0.078000,0.966000,0.188000,192.000000,0.000000,0.000000,0.000000,0.000000,0.000000,0.000000,0.000000,0.000000,0.000000,1646556202.232017,0.000000
42.000000,-1224.897948,4362.300558,653.676767,9460.129972,-6314.188995,-16649.009782,2344.608586,2228.223053,-0.078000,0.966000,0.188000,192.000000,0.000000,0.000000,0.000000,0.000000,0.000000,0.000000,0.000000,0.000000,0.000000,1646556202.240017,0.000000
43.000000,-1223.154512,4363.909884,655.375499,9464.577969,-6313.540794,-16650.328535,2332.493941,2224.736181,-0.078000,0.966000,0.188000,192.000000,0.000000,0.000000,0.000000,0.000000,0.000000,0.000000,0.000000,0.000000,0.000000,1646556202.240051,0.000000
44.000000,-1226.931957,4358.009023,649.921674,9459.124143,-6318.301716,-16652.183730,2332.024554,2215.281393,-0.078000,0.966000,0.188000,192.000000,0.000000,0.000000,0.000000,0.000000,0.000000,0.000000,0.000000,0.000000,0.000000,1646556202.247100,0.000000
45.000000,-1222.796884,4360.914750,650.994557,9458.095963,-6319.709876,-16650.641459,2346.866113,2214.744951,-0.080000,0.968000,0.188000,192.000000,253.000000,128.000000,30.000000,64.000000,5.000000,224.000000,0.000000,0.000000,0.000000,1646556202.247115,0.000000
46.000000,-1218.482997,4365.318044,653.319139,9457.514817,-6320.201614,-16648.562747,2347.760182,2215.817835,-0.080000,0.968000,0.188000,192.000000,0.000000,0.000000,0.000000,0.000000,0.000000,0.000000,0.000000,0.000000,0.000000,1646556202.253549,0.000000
47.000000,-1222.595718,4356.980843,649.519342,9447.300070,-6327.465931,-16656.587023,2340.585272,2202.764416,-0.080000,0.968000,0.188000,192.000000,0.000000,0.000000,0.000000,0.000000,0.000000,0.000000,0.000000,0.000000,0.000000,1646556202.261607,0.000000
48.000000,-1203.686142,4374.973997,668.048938,9467.126068,-6310.746826,-16640.046732,2353.817505,2211.034562,-0.080000,0.968000,0.188000,192.000000,0.000000,0.000000,0.000000,0.000000,0.000000,0.000000,0.000000,0.000000,0.000000,1646556202.261622,0.000000
49.000000,-1198.366427,4382.081852,678.509555,9474.815068,-6299.749768,-16636.559860,2347.782534,2218.500044,-0.080000,0.968000,0.188000,192.000000,0.000000,0.000000,0.000000,0.000000,0.000000,0.000000,0.000000,0.000000,0.000000,1646556202.269681,0.000000
50.000000,-1205.340171,4372.247085,671.602866,9465.494390,-6301.716721,-16646.975773,2350.263578,2210.565175,-0.080000,0.968000,0.188000,192.000000,0.000000,0.000000,0.000000,0.000000,0.000000,0.000000,0.000000,0.000000,0.000000,1646556202.269696,0.000000
51.000000,-1211.777474,4367.329701,664.986749,9458.587701,-6307.394064,-16656.162340,2343.178075,2202.384436,-0.080000,0.968000,0.188000,192.000000,0.000000,0.000000,0.000000,0.000000,0.000000,0.000000,0.000000,0.000000,0.000000,1646556202.276214,0.000000
52.000000,-1212.962116,4368.469640,661.075194,9458.118315,-6313.227870,-16654.664773,2336.293737,2201.713884,-0.080000,0.968000,0.188000,192.000000,0.000000,0.000000,0.000000,0.000000,0.000000,0.000000,0.000000,0.000000,0.000000,1646556202.276228,0.000000
53.000000,-1208.692933,4376.270399,662.237485,9464.510913,-6310.746826,-16647.422808,2345.234435,2207.458282,-0.080000,0.968000,0.188000,192.000000,0.000000,0.000000,0.000000,0.000000,0.000000,0.000000,0.000000,0.000000,0.000000,1646556202.284212,0.000000
54.000000,-1210.034038,4379.734919,662.751575,9468.534227,-6306.365884,-16647.825140,2342.149894,2195.343637,-0.080000,0.968000,0.188000,192.000000,0.000000,0.000000,0.000000,0.000000,0.000000,0.000000,0.000000,0.000000,0.000000,1646556202.284229,0.000000
55.000000,-1217.991259,4373.945817,658.124764,9459.973509,-6309.830404,-16651.066142,2346.687299,2195.164823,-0.086000,0.970000,0.184000,192.000000,253.000000,80.000000,30.000000,80.000000,5.000000,192.000000,0.000000,0.000000,0.000000,1646556202.292254,0.000000
56.000000,-1216.359582,4375.376329,658.303578,9462.298091,-6308.913983,-16645.075875,2350.710613,2218.298878,-0.086000,0.970000,0.184000,192.000000,0.000000,0.000000,0.000000,0.000000,0.000000,0.000000,0.000000,0.000000,0.000000,1646556202.292270,0.000000
57.000000,-1200.154567,4389.815556,671.356996,9480.917094,-6296.888744,-16631.038979,2374.895200,2224.713829,-0.086000,0.970000,0.184000,192.000000,0.000000,0.000000,0.000000,0.000000,0.000000,0.000000,0.000000,0.000000,0.000000,1646556202.299327,0.000000
58.000000,-1187.704645,4402.868975,688.098453,9495.110452,-6284.997616,-16615.012779,2399.035084,2242.170542,-0.086000,0.970000,0.184000,192.000000,0.000000,0.000000,0.000000,0.000000,0.000000,0.000000,0.000000,0.000000,0.000000,1646556202.299342,0.000000
59.000000,-1197.561764,4394.084739,684.991561,9484.582780,-6291.837250,-16625.205174,2378.583238,2242.081135,-0.086000,0.970000,0.184000,192.000000,0.000000,0.000000,0.000000,0.000000,0.000000,0.000000,0.000000,0.000000,0.000000,1646556202.306866,0.000000
60.000000,-1222.081628,4370.213076,661.343415,9454.653794,-6316.200652,-16658.553977,2335.377316,2197.891736,-0.086000,0.970000,0.184000,192.000000,0.000000,0.000000,0.000000,0.000000,0.000000,0.000000,0.000000,0.000000,0.000000,1646556202.306882,0.000000
61.000000,-1225.590852,4371.308311,656.448383,9453.536207,-6320.872166,-16663.650175,2326.056638,2196.237707,-0.086000,0.970000,0.184000,192.000000,0.000000,0.000000,0.000000,0.000000,0.000000,0.000000,0.000000,0.000000,0.000000,1646556202.313896,0.000000
62.000000,-1228.250710,4370.838925,658.929427,9463.236864,-6314.434864,-16652.988392,2333.835046,2203.010285,-0.086000,0.970000,0.184000,192.000000,0.000000,0.000000,0.000000,0.000000,0.000000,0.000000,0.000000,0.000000,0.000000,1646556202.321947,0.000000
63.000000,-1218.058314,4379.846678,666.841944,9475.105640,-6303.661323,-16637.677448,2347.335499,2215.415503,-0.086000,0.970000,0.184000,192.000000,0.000000,0.000000,0.000000,0.000000,0.000000,0.000000,0.000000,0.000000,0.000000,1646556202.321965,0.000000
64.000000,-1219.265308,4382.148907,668.250104,9473.965701,-6302.566088,-16646.931070,2336.941938,2215.817835,-0.086000,0.970000,0.184000,192.000000,0.000000,0.000000,0.000000,0.000000,0.000000,0.000000,0.000000,0.000000,0.000000,1646556202.329017,0.000000
65.000000,-1219.354715,4381.813631,667.132517,9472.378727,-6304.041303,-16648.898023,2335.399668,2202.451492,-0.080000,0.964000,0.178000,192.000000,253.000000,128.000000,30.000000,32.000000,5.000000,144.000000,0.000000,0.000000,0.000000,1646556202.329061,0.000000
66.000000,-1213.163282,4387.558030,672.429880,9480.000672,-6297.626352,-16641.097264,2342.194598,2204.083169,-0.080000,0.964000,0.178000,192.000000,0.000000,0.000000,0.000000,0.000000,0.000000,0.000000,0.000000,0.000000,0.000000,1646556202.336464,0.000000
67.000000,-1230.776457,4373.163506,656.180162,9460.219378,-6313.853719,-16654.798884,2338.528912,2203.367913,-0.080000,0.964000,0.178000,192.000000,0.000000,0.000000,0.000000,0.000000,0.000000,0.000000,0.000000,0.000000,0.000000,1646556202.336480,0.000000
68.000000,-1227.557805,4377.410338,654.772002,9461.247559,-6318.704047,-16650.239128,2348.229569,2209.894623,-0.080000,0.964000,0.178000,192.000000,0.000000,0.000000,0.000000,0.000000,0.000000,0.000000,0.000000,0.000000,0.000000,1646556202.344516,0.000000
69.000000,-1221.232262,4383.601771,661.566932,9471.059975,-6311.842062,-16642.706590,2349.503618,2214.610841,-0.080000,0.964000,0.178000,192.000000,0.000000,0.000000,0.000000,0.000000,0.000000,0.000000,0.000000,0.000000,0.000000,1646556202.344531,0.000000
70.000000,-1223.176864,4380.696044,660.002310,9469.562408,-6313.183166,-16646.841663,2334.796171,2202.742064,-0.080000,0.964000,0.178000,192.000000,0.000000,0.000000,0.000000,0.000000,0.000000,0.000000,0.000000,0.000000,0.000000,1646556202.352532,0.000000
71.000000,-1219.667640,4383.534716,664.942046,9471.574065,-6308.198727,-16644.338267,2333.276252,2197.467053,-0.080000,0.964000,0.178000,192.000000,0.000000,0.000000,0.000000,0.000000,0.000000,0.000000,0.000000,0.000000,0.000000,1646556202.352547,0.000000
72.000000,-1217.454817,4384.585248,668.093642,9471.551713,-6306.142367,-16640.694933,2361.707671,2200.842166,-0.080000,0.964000,0.178000,192.000000,0.000000,0.000000,0.000000,0.000000,0.000000,0.000000,0.000000,0.000000,0.000000,1646556202.359130,0.000000
73.000000,-1216.091361,4383.668826,667.825421,9468.601283,-6309.852756,-16644.807654,2342.060488,2197.847032,-0.080000,0.964000,0.178000,192.000000,0.000000,0.000000,0.000000,0.000000,0.000000,0.000000,0.000000,0.000000,0.000000,1646556202.359147,0.000000
74.000000,-1199.931049,4403.070140,680.320046,9482.816992,-6298.632181,-16625.361636,2363.562866,2233.051030,-0.080000,0.964000,0.178000,192.000000,0.000000,0.000000,0.000000,0.000000,0.000000,0.000000,0.000000,0.000000,0.000000,1646556202.367165,0.000000
75.000000,-1209.251727,4395.336437,675.715587,9476.536152,-6302.968419,-16633.274154,2348.989528,2228.558329,-0.080000,0.968000,0.176000,192.000000,253.000000,128.000000,30.000000,64.000000,5.000000,128.000000,0.000000,0.000000,0.000000,1646556202.367182,0.000000
76.000000,-1212.626840,4395.939934,672.184011,9475.463268,-6306.097663,-16634.816424,2350.889427,2213.895585,-0.080000,0.968000,0.176000,192.000000,0.000000,0.000000,0.000000,0.000000,0.000000,0.000000,0.000000,0.000000,0.000000,1646556202.374192,0.000000
77.000000,-1214.146759,4395.671713,670.172354,9474.613902,-6307.863451,-16629.675523,2349.391860,2213.180329,-0.080000,0.968000,0.176000,192.000000,0.000000,0.000000,0.000000,0.000000,0.000000,0.000000,0.000000,0.000000,0.000000,1646556202.381291,0.000000
78.000000,-1221.947518,4384.071157,664.673825,9464.309748,-6316.647687,-16634.592907,2351.269406,2214.700248,-0.080000,0.968000,0.176000,192.000000,0.000000,0.000000,0.000000,0.000000,0.000000,0.000000,0.000000,0.000000,0.000000,1646556202.381306,0.000000
79.000000,-1223.914471,4383.758233,665.634950,9461.851056,-6317.765274,-16640.493767,2343.043964,2206.363047,-0.080000,0.968000,0.176000,192.000000,0.000000,0.000000,0.000000,0.000000,0.000000,0.000000,0.000000,0.000000,0.000000,1646556202.388835,0.000000
80.000000,-1213.386800,4395.515251,675.425014,9472.088155,-6309.092797,-16633.408264,2353.638691,2208.441759,-0.080000,0.968000,0.176000,192.000000,0.000000,0.000000,0.000000,0.000000,0.000000,0.000000,0.000000,0.000000,0.000000,1646556202.388851,0.000000
81.000000,-1200.311029,4405.260611,687.606715,9482.213495,-6297.246372,-16626.255706,2368.368491,2208.285297,-0.080000,0.968000,0.176000,192.000000,0.000000,0.000000,0.000000,0.000000,0.000000,0.000000,0.000000,0.000000,0.000000,1646556202.396765,0.000000
82.000000,-1192.174994,4411.854376,693.664037,9488.650797,-6290.473794,-16618.343189,2371.430680,2220.042315,-0.080000,0.968000,0.176000,192.000000,0.000000,0.000000,0.000000,0.000000,0.000000,0.000000,0.000000,0.000000,0.000000,1646556202.396781,0.000000
83.000000,-1194.879555,4411.362637,691.227697,9488.606094,-6289.780890,-16615.973904,2367.541476,2240.851789,-0.080000,0.968000,0.176000,192.000000,0.000000,0.000000,0.000000,0.000000,0.000000,0.000000,0.000000,0.000000,0.000000,1646556202.404799,0.000000
84.000000,-1201.875651,4406.512309,684.030436,9484.023986,-6291.479622,-16624.422863,2344.318014,2213.314439,-0.080000,0.968000,0.176000,192.000000,0.000000,0.000000,0.000000,0.000000,0.000000,0.000000,0.000000,0.000000,0.000000,1646556202.404815,0.000000
85.000000,-1203.216756,4407.607544,683.784566,9485.812126,-6288.260971,-16617.896154,2368.122622,2214.387323,-0.082000,0.964000,0.180000,192.000000,253.000000,112.000000,30.000000,32.000000,5.000000,160.000000,0.000000,0.000000,0.000000,1646556202.411413,0.000000
86.000000,-1201.585078,4411.809672,686.153851,9490.058957,-6285.958741,-16608.284904,2378.806755,2221.003440,-0.082000,0.964000,0.180000,192.000000,0.000000,0.000000,0.000000,0.000000,0.000000,0.000000,0.000000,0.000000,0.000000,1646556202.411448,0.000000
87.000000,-1212.962116,4402.153719,677.436671,9478.234885,-6298.743939,-16617.002084,2363.831087,2211.369838,-0.082000,0.964000,0.180000,192.000000,0.000000,0.000000,0.000000,0.000000,0.000000,0.000000,0.000000,0.000000,0.000000,1646556202.419445,0.000000
88.000000,-1222.953346,4391.089605,666.797241,9468.109544,-6313.093759,-16629.831985,2334.930281,2185.911201,-0.082000,0.964000,0.180000,192.000000,0.000000,0.000000,0.000000,0.000000,0.000000,0.000000,0.000000,0.000000,0.000000,1646556202.419462,0.000000
89.000000,-1222.506311,4390.910791,664.852639,9464.197989,-6314.837195,-16634.682314,2337.523083,2188.548707,-0.082000,0.964000,0.180000,192.000000,0.000000,0.000000,0.000000,0.000000,0.000000,0.000000,0.000000,0.000000,0.000000,1646556202.427243,0.000000
90.000000,-1220.494654,4397.772777,667.177220,9466.589626,-6310.925640,-16633.475320,2344.787400,2212.554480,-0.082000,0.964000,0.180000,192.000000,0.000000,0.000000,0.000000,0.000000,0.000000,0.000000,0.000000,0.000000,0.000000,1646556202.427258,0.000000
91.000000,-1214.459683,4407.786358,672.049901,9471.797582,-6304.622448,-16629.809633,2354.085726,2202.809120,-0.082000,0.964000,0.180000,192.000000,0.000000,0.000000,0.000000,0.000000,0.000000,0.000000,0.000000,0.000000,0.000000,1646556202.434525,0.000000
92.000000,-1217.052486,4404.746521,669.859430,9465.583797,-6307.997561,-16636.716323,2351.962310,2208.598221,-0.082000,0.964000,0.180000,192.000000,0.000000,0.000000,0.000000,0.000000,0.000000,0.000000,0.000000,0.000000,0.000000,1646556202.434539,0.000000
93.000000,-1229.725925,4390.620219,656.537790,9449.557596,-6322.839120,-16654.530663,2336.293737,2192.460262,-0.082000,0.964000,0.180000,192.000000,0.000000,0.000000,0.000000,0.000000,0.000000,0.000000,0.000000,0.000000,0.000000,1646556202.441122,0.000000
94.000000,-1229.882387,4390.128480,657.945950,9451.569253,-6321.229794,-16657.391686,2331.868092,2194.181346,-0.082000,0.964000,0.180000,192.000000,0.000000,0.000000,0.000000,0.000000,0.000000,0.000000,0.000000,0.000000,0.000000,1646556202.449133,0.000000
95.000000,-1225.076762,4397.951591,661.321063,9458.319480,-6314.948954,-16647.467512,2344.563883,2200.708056,-0.074000,0.962000,0.182000,192.000000,253.000000,176.000000,30.000000,16.000000,5.000000,176.000000,0.000000,0.000000,0.000000,1646556202.449149,0.000000
96.000000,-1229.167131,4397.213983,657.051880,9461.247559,-6316.826501,-16641.186671,2345.994395,2209.335829,-0.074000,0.962000,0.182000,192.000000,0.000000,0.000000,0.000000,0.000000,0.000000,0.000000,0.000000,0.000000,0.000000,1646556202.457074,0.000000
97.000000,-1230.418829,4393.324780,651.575703,9455.793733,-6323.666134,-16642.952459,2354.152781,2202.697361,-0.074000,0.962000,0.182000,192.000000,0.000000,0.000000,0.000000,0.000000,0.000000,0.000000,0.000000,0.000000,0.000000,1646556202.457089,0.000000
98.000000,-1228.049544,4394.196498,648.245293,9449.848169,-6327.465931,-16641.454892,2362.087651,2201.468015,-0.074000,0.962000,0.182000,192.000000,0.000000,0.000000,0.000000,0.000000,0.000000,0.000000,0.000000,0.000000,0.000000,1646556202.464255,0.000000
99.000000,-1237.303166,4385.144041,639.326947,9438.426428,-6334.953765,-16652.608413,2350.777668,2205.893660,-0.074000,0.962000,0.182000,192.000000,0.000000,0.000000,0.000000,0.000000,0.000000,0.000000,0.000000,0.000000,0.000000,1646556202.464271,0.000000
100.000000,-1240.790038,4381.746576,632.554368,9431.966774,-6340.586405,-16664.834817,2336.137275,2194.181346,-0.074000,0.962000,0.182000,192.000000,0.000000,0.000000,0.000000,0.000000,0.000000,0.000000,0.000000,0.000000,0.000000,1646556202.471704,0.000000
101.000000,-1233.860997,4390.039073,635.750668,9441.175692,-6334.417323,-16657.838721,2333.946804,2202.965582,-0.074000,0.962000,0.182000,192.000000,0.000000,0.000000,0.000000,0.000000,0.000000,0.000000,0.000000,0.000000,0.000000,1646556202.471720,0.000000
102.000000,-1224.540320,4403.695989,645.607787,9454.206759,-6324.068466,-16645.388799,2352.364642,2210.028733,-0.074000,0.962000,0.182000,192.000000,0.000000,0.000000,0.000000,0.000000,0.000000,0.000000,0.000000,0.000000,0.000000,1646556202.479703,0.000000
103.000000,-1220.204082,4408.747483,650.189894,9457.179541,-6321.498015,-16645.746427,2349.570674,2204.954887,-0.074000,0.962000,0.182000,192.000000,0.000000,0.000000,0.000000,0.000000,0.000000,0.000000,0.000000,0.000000,0.000000,1646556202.479714,0.000000
104.000000,-1209.654058,4418.895175,664.360900,9469.852980,-6306.924678,-16634.771721,2371.408328,2212.576832,-0.074000,0.962000,0.182000,192.000000,0.000000,0.000000,0.000000,0.000000,0.000000,0.000000,0.000000,0.000000,0.000000,1646556202.487402,0.000000
105.000000,-1215.532567,4411.787321,660.002310,9460.912283,-6311.730303,-16642.706590,2354.778630,2210.565175,-0.084000,0.964000,0.178000,192.000000,253.000000,96.000000,30.000000,32.000000,5.000000,144.000000,0.000000,0.000000,0.000000,1646556202.487412,0.000000
106.000000,-1213.655020,4411.966135,658.840020,9457.000727,-6315.284230,-16644.919413,2346.866113,2207.234765,-0.084000,0.964000,0.178000,192.000000,0.000000,0.000000,0.000000,0.000000,0.000000,0.000000,0.000000,0.000000,0.000000,1646556202.494029,0.000000
107.000000,-1209.721113,4417.196443,661.678691,9458.028908,-6314.166643,-16637.744503,2365.395709,2215.259041,-0.084000,0.964000,0.178000,192.000000,0.000000,0.000000,0.000000,0.000000,0.000000,0.000000,0.000000,0.000000,0.000000,1646556202.494045,0.000000
108.000000,-1200.445139,4427.433542,668.495973,9465.539094,-6306.298829,-16626.009837,2379.544363,2221.159902,-0.084000,0.964000,0.178000,192.000000,0.000000,0.000000,0.000000,0.000000,0.000000,0.000000,0.000000,0.000000,0.000000,1646556202.501056,0.000000
109.000000,-1205.295468,4419.252803,662.081023,9463.907416,-6311.707951,-16635.106997,2364.658101,2200.842166,-0.084000,0.964000,0.178000,192.000000,0.000000,0.000000,0.000000,0.000000,0.000000,0.000000,0.000000,0.000000,0.000000,1646556202.509034,0.000000
110.000000,-1218.147721,4407.652248,655.777831,9462.029870,-6316.357114,-16645.433503,2343.602758,2200.149262,-0.084000,0.964000,0.178000,192.000000,0.000000,0.000000,0.000000,0.000000,0.000000,0.000000,0.000000,0.000000,0.000000,1646556202.509041,0.000000
111.000000,-1226.127294,4399.918544,647.999424,9455.011422,-6323.800245,-16651.826102,2342.060488,2203.859652,-0.084000,0.964000,0.178000,192.000000,0.000000,0.000000,0.000000,0.000000,0.000000,0.000000,0.000000,0.000000,0.000000,1646556202.516131,0.000000
112.000000,-1218.527701,4403.919507,654.168505,9461.269910,-6317.854681,-16643.667715,2360.590084,2212.174500,-0.084000,0.964000,0.178000,192.000000,0.000000,0.000000,0.000000,0.000000,0.000000,0.000000,0.000000,0.000000,0.000000,1646556202.516136,0.000000
113.000000,-1200.087512,4423.745504,671.088776,9481.587646,-6301.537907,-16624.869898,2383.344160,2235.822646,-0.084000,0.964000,0.178000,192.000000,0.000000,0.000000,0.000000,0.000000,0.000000,0.000000,0.000000,0.000000,0.000000,1646556202.523623,0.000000
114.000000,-1197.181785,4430.383972,677.101395,9485.812126,-6293.200707,-16619.393721,2388.775633,2246.372670,-0.084000,0.964000,0.178000,192.000000,0.000000,0.000000,0.000000,0.000000,0.000000,0.000000,0.000000,0.000000,0.000000,1646556202.523629,0.000000
115.000000,-1204.714323,4425.488940,670.239409,9480.447707,-6297.872221,-16628.736750,2370.536610,2215.080227,-0.084000,0.964000,0.178000,192.000000,0.000000,0.000000,0.000000,0.000000,0.000000,0.000000,0.000000,0.000000,0.000000,1646556202.531670,0.000000
116.000000,-1202.881480,4426.986507,668.563028,9477.787850,-6300.465024,-16630.837814,2354.935092,2213.716771,-0.082000,0.964000,0.178000,192.000000,253.000000,112.000000,30.000000,32.000000,5.000000,144.000000,0.000000,0.000000,0.000000,1646556202.531678,0.000000
117.000000,-1205.809558,4423.209062,666.953703,9469.450649,-6304.711855,-16633.900003,2354.376299,2207.637096,-0.082000,0.964000,0.178000,192.000000,0.000000,0.000000,0.000000,0.000000,0.000000,0.000000,0.000000,0.000000,0.000000,1646556202.542468,0.000000
118.000000,-1223.109808,4404.321838,650.078136,9448.104733,-6322.995582,-16651.222605,2337.098400,2191.476785,-0.082000,0.964000,0.178000,192.000000,0.000000,0.000000,0.000000,0.000000,0.000000,0.000000,0.000000,0.000000,0.000000,1646556202.542477,0.000000
119.000000,-1210.659887,4417.799940,659.309406,9460.778172,-6314.792492,-16637.833910,2351.694089,2198.986971,-0.082000,0.964000,0.178000,192.000000,0.000000,0.000000,0.000000,0.000000,0.000000,0.000000,0.000000,0.000000,0.000000,1646556202.547388,0.000000
120.000000,-1210.883404,4420.079818,661.432822,9465.337928,-6310.590364,-16639.577346,2343.111020,2182.334922,-0.082000,0.964000,0.178000,192.000000,0.000000,0.000000,0.000000,0.000000,0.000000,0.000000,0.000000,0.000000,0.000000,1646556202.547397,0.000000
121.000000,-1215.845491,4415.967097,656.336624,9461.627538,-6317.519405,-16645.902889,2325.766066,2179.719768,-0.082000,0.964000,0.178000,192.000000,0.000000,0.000000,0.000000,0.000000,0.000000,0.000000,0.000000,0.000000,0.000000,1646556202.554262,0.000000
122.000000,-1220.315840,4411.295582,653.721470,9464.265044,-6318.257012,-16645.969945,2318.747618,2193.264925,-0.082000,0.964000,0.178000,192.000000,0.000000,0.000000,0.000000,0.000000,0.000000,0.000000,0.000000,0.000000,0.000000,1646556202.554271,0.000000
123.000000,-1220.852282,4411.206175,652.201551,9465.114411,-6317.899384,-16641.946631,2342.731040,2203.993762,-0.082000,0.964000,0.178000,192.000000,0.000000,0.000000,0.000000,0.000000,0.000000,0.000000,0.000000,0.000000,0.000000,1646556202.561583,0.000000
124.000000,-1231.111733,4402.488995,642.590301,9453.178579,-6325.118998,-16656.654079,2326.034287,2181.798480,-0.082000,0.964000,0.178000,192.000000,0.000000,0.000000,0.000000,0.000000,0.000000,0.000000,0.000000,0.000000,0.000000,1646556202.569346,0.000000
125.000000,-1232.832817,4401.527870,642.724412,9446.607166,-6323.308506,-16661.146779,2329.945842,2178.803346,-0.082000,0.964000,0.178000,192.000000,0.000000,0.000000,0.000000,0.000000,0.000000,0.000000,0.000000,0.000000,0.000000,1646556202.569353,0.000000
126.000000,-1231.201140,4404.701818,644.266682,9441.913300,-6324.202576,-16660.565634,2342.373412,2172.947189,-0.082000,0.970000,0.186000,192.000000,253.000000,112.000000,30.000000,80.000000,5.000000,208.000000,0.000000,0.000000,0.000000,1646556202.575876,0.000000
127.000000,-1223.914471,4414.044847,646.479505,9442.785018,-6324.448445,-16652.451951,2345.949691,2192.840242,-0.082000,0.970000,0.186000,192.000000,0.000000,0.000000,0.000000,0.000000,0.000000,0.000000,0.000000,0.000000,0.000000,1646556202.575885,0.000000
128.000000,-1218.661811,4415.832986,653.855581,9448.708230,-6320.872166,-16640.449064,2352.766973,2215.862538,-0.082000,0.970000,0.186000,192.000000,0.000000,0.000000,0.000000,0.000000,0.000000,0.000000,0.000000,0.000000,0.000000,1646556202.583886,0.000000
129.000000,-1234.442143,4399.002123,641.249197,9437.733524,-6333.500902,-16650.842625,2335.511426,2199.523413,-0.082000,0.970000,0.186000,192.000000,0.000000,0.000000,0.000000,0.000000,0.000000,0.000000,0.000000,0.000000,0.000000,1646556202.583897,0.000000
130.000000,-1229.971794,4404.053617,640.578644,9441.488617,-6331.288079,-16643.354791,2337.970118,2195.745968,-0.082000,0.970000,0.186000,192.000000,0.000000,0.000000,0.000000,0.000000,0.000000,0.000000,0.000000,0.000000,0.000000,1646556202.592250,0.000000
131.000000,-1217.119541,4417.755236,649.206418,9451.658660,-6321.766236,-16631.798939,2357.103212,2191.208564,-0.082000,0.970000,0.186000,192.000000,0.000000,0.000000,0.000000,0.000000,0.000000,0.000000,0.000000,0.000000,0.000000,1646556202.592266,0.000000
132.000000,-1224.361506,4414.156606,643.238502,9444.371992,-6327.041248,-16638.057427,2363.048776,2202.160919,-0.082000,0.970000,0.186000,192.000000,0.000000,0.000000,0.000000,0.000000,0.000000,0.000000,0.000000,0.000000,0.000000,1646556202.599499,0.000000
133.000000,-1227.669564,4410.066236,641.159790,9441.667431,-6330.706934,-16642.348962,2349.235397,2219.148245,-0.082000,0.970000,0.186000,192.000000,0.000000,0.000000,0.000000,0.000000,0.000000,0.000000,0.000000,0.000000,0.000000,1646556202.599514,0.000000
134.000000,-1223.556843,4416.078856,644.534903,9448.060030,-6323.464969,-16643.332439,2343.088668,2210.788692,-0.082000,0.970000,0.186000,192.000000,0.000000,0.000000,0.000000,0.000000,0.000000,0.000000,0.000000,0.000000,0.000000,1646556202.606892,0.000000
135.000000,-1224.227396,4414.715399,645.496028,9451.435143,-6320.179262,-16647.020477,2345.949691,2199.299896,-0.082000,0.970000,0.186000,192.000000,0.000000,0.000000,0.000000,0.000000,0.000000,0.000000,0.000000,0.000000,0.000000,1646556202.606907,0.000000
136.000000,-1227.513102,4409.462739,643.953758,9448.283547,-6324.359038,-16654.105980,2336.338441,2194.650733,-0.080000,0.976000,0.192000,192.000000,253.000000,128.000000,30.000000,128.000000,6.000000,0.000000,0.000000,0.000000,0.000000,1646556202.614846,0.000000
137.000000,-1222.573366,4413.754274,651.083964,9452.619785,-6322.056809,-16646.774608,2336.472551,2207.547689,-0.080000,0.976000,0.192000,192.000000,0.000000,0.000000,0.000000,0.000000,0.000000,0.000000,0.000000,0.000000,0.000000,1646556202.614861,0.000000
138.000000,-1201.942706,4431.590966,668.920656,9468.266007,-6306.030608,-16627.730921,2362.780555,2215.594317,-0.080000,0.976000,0.192000,192.000000,0.000000,0.000000,0.000000,0.000000,0.000000,0.000000,0.000000,0.000000,0.000000,1646556202.622078,0.000000
139.000000,-1200.601602,4434.787266,673.212191,9471.663472,-6301.739073,-16632.223622,2353.258711,2203.412617,-0.080000,0.976000,0.192000,192.000000,0.000000,0.000000,0.000000,0.000000,0.000000,0.000000,0.000000,0.000000,0.000000,1646556202.628525,0.000000
140.000000,-1211.621012,4422.605565,663.466831,9457.179541,-6310.813881,-16648.339230,2337.567787,2193.130814,-0.080000,0.976000,0.192000,192.000000,0.000000,0.000000,0.000000,0.000000,0.000000,0.000000,0.000000,0.000000,0.000000,1646556202.628542,0.000000
141.000000,-1207.463587,4426.718286,664.047976,9456.978376,-6310.389198,-16641.812520,2355.315072,2197.109425,-0.080000,0.976000,0.192000,192.000000,0.000000,0.000000,0.000000,0.000000,0.000000,0.000000,0.000000,0.000000,0.000000,1646556202.636491,0.000000
142.000000,-1203.999067,4433.602623,665.366729,9460.711117,-6308.690466,-16636.761026,2361.372395,2207.994724,-0.080000,0.976000,0.192000,192.000000,0.000000,0.000000,0.000000,0.000000,0.000000,0.000000,0.000000,0.000000,0.000000,1646556202.636507,0.000000
143.000000,-1202.568555,4435.569577,663.466831,9460.912283,-6309.763349,-16632.424788,2367.921456,2213.917937,-0.080000,0.976000,0.192000,192.000000,0.000000,0.000000,0.000000,0.000000,0.000000,0.000000,0.000000,0.000000,0.000000,1646556202.644484,0.000000
144.000000,-1204.468453,4429.534606,660.963435,9458.654756,-6311.864413,-16635.621087,2346.016746,2202.227974,-0.080000,0.976000,0.192000,192.000000,0.000000,0.000000,0.000000,0.000000,0.000000,0.000000,0.000000,0.000000,0.000000,1646556202.644501,0.000000
145.000000,-1196.868860,4435.167245,668.004235,9466.366108,-6303.661323,-16626.747444,2361.081822,2207.212413,-0.080000,0.976000,0.192000,192.000000,0.000000,0.000000,0.000000,0.000000,0.000000,0.000000,0.000000,0.000000,0.000000,1646556202.651696,0.000000
146.000000,-1204.401398,4428.014687,662.013967,9458.230073,-6311.842062,-16629.831985,2372.950598,2217.717733,-0.086000,0.962000,0.184000,192.000000,253.000000,80.000000,30.000000,16.000000,5.000000,192.000000,0.000000,0.000000,0.000000,1646556202.651711,0.000000
147.000000,-1199.640477,4431.769780,662.706871,9461.448724,-6312.624373,-16624.825194,2377.465651,2218.075361,-0.086000,0.962000,0.184000,192.000000,0.000000,0.000000,0.000000,0.000000,0.000000,0.000000,0.000000,0.000000,0.000000,1646556202.659166,0.000000
148.000000,-1204.513157,4430.160455,659.376461,9458.006556,-6315.954782,-16627.842680,2374.045834,2222.188082,-0.086000,0.962000,0.184000,192.000000,0.000000,0.000000,0.000000,0.000000,0.000000,0.000000,0.000000,0.000000,0.000000,1646556202.659183,0.000000
149.000000,-1201.607430,4432.976774,661.723395,9457.604224,-6315.418341,-16633.028285,2360.075994,2206.631268,-0.086000,0.962000,0.184000,192.000000,0.000000,0.000000,0.000000,0.000000,0.000000,0.000000,0.000000,0.000000,0.000000,1646556202.667115,0.000000
150.000000,-1220.360544,4411.921431,649.407583,9439.454608,-6325.074294,-16652.407247,2342.686336,2180.815003,-0.086000,0.962000,0.184000,192.000000,0.000000,0.000000,0.000000,0.000000,0.000000,0.000000,0.000000,0.000000,0.000000,1646556202.667149,0.000000
151.000000,-1222.930994,4409.842719,645.831304,9442.807370,-6327.063599,-16655.111808,2346.396726,2196.617686,-0.086000,0.962000,0.184000,192.000000,0.000000,0.000000,0.000000,0.000000,0.000000,0.000000,0.000000,0.000000,0.000000,1646556202.675186,0.000000
152.000000,-1209.721113,4422.985545,654.369671,9455.123181,-6316.424169,-16647.132235,2351.135296,2209.738160,-0.086000,0.962000,0.184000,192.000000,0.000000,0.000000,0.000000,0.000000,0.000000,0.000000,0.000000,0.000000,0.000000,1646556202.675202,0.000000
153.000000,-1221.120503,4410.759140,647.373575,9443.433218,-6323.733190,-16654.821236,2341.300528,2195.365989,-0.086000,0.962000,0.184000,192.000000,0.000000,0.000000,0.000000,0.000000,0.000000,0.000000,0.000000,0.000000,0.000000,1646556202.681326,0.000000
154.000000,-1223.981526,4408.456911,643.976110,9440.818064,-6329.388181,-16654.754180,2337.567787,2185.642980,-0.086000,0.962000,0.184000,192.000000,0.000000,0.000000,0.000000,0.000000,0.000000,0.000000,0.000000,0.000000,0.000000,1646556202.681341,0.000000
155.000000,-1221.276965,4412.189652,642.299729,9443.343811,-6328.874091,-16654.329497,2332.829217,2177.953980,-0.086000,0.962000,0.184000,192.000000,0.000000,0.000000,0.000000,0.000000,0.000000,0.000000,0.000000,0.000000,0.000000,1646556202.688735,0.000000
156.000000,-1215.979602,4418.962231,647.105354,9449.445838,-6323.107341,-16647.668677,2345.994395,2191.342675,-0.090000,0.966000,0.180000,192.000000,253.000000,48.000000,30.000000,48.000000,5.000000,160.000000,0.000000,0.000000,0.000000,1646556202.696741,0.000000
157.000000,-1210.414017,4424.594870,651.396889,9452.910358,-6320.469835,-16638.549166,2362.713499,2222.948041,-0.090000,0.966000,0.180000,192.000000,0.000000,0.000000,0.000000,0.000000,0.000000,0.000000,0.000000,0.000000,0.000000,1646556202.696756,0.000000
158.000000,-1210.771645,4427.098266,651.307482,9452.105695,-6324.135521,-16644.114750,2351.828200,2211.638059,-0.090000,0.966000,0.180000,192.000000,0.000000,0.000000,0.000000,0.000000,0.000000,0.000000,0.000000,0.000000,0.000000,1646556202.704774,0.000000
159.000000,-1204.580212,4438.028269,660.918732,9459.794695,-6314.680733,-16636.425750,2357.706709,2214.186157,-0.090000,0.966000,0.180000,192.000000,0.000000,0.000000,0.000000,0.000000,0.000000,0.000000,0.000000,0.000000,0.000000,1646556202.704789,0.000000
160.000000,-1201.227451,4444.711440,665.500839,9464.756783,-6307.371713,-16632.916526,2362.378223,2211.503948,-0.090000,0.966000,0.180000,192.000000,0.000000,0.000000,0.000000,0.000000,0.000000,0.000000,0.000000,0.000000,0.000000,1646556202.711416,0.000000
161.000000,-1189.582192,4456.244940,676.788470,9477.162001,-6295.748805,-16619.505479,2380.192564,2227.776018,-0.090000,0.966000,0.180000,192.000000,0.000000,0.000000,0.000000,0.000000,0.000000,0.000000,0.000000,0.000000,0.000000,1646556202.711432,0.000000
162.000000,-1201.875651,4442.431562,668.160697,9468.131896,-6305.225945,-16627.462700,2363.451107,2223.886815,-0.090000,0.966000,0.180000,192.000000,0.000000,0.000000,0.000000,0.000000,0.000000,0.000000,0.000000,0.000000,0.000000,1646556202.719472,0.000000
163.000000,-1199.305200,4445.270234,667.892476,9474.256274,-6304.398931,-16621.584192,2377.175078,2227.038411,-0.090000,0.966000,0.180000,192.000000,0.000000,0.000000,0.000000,0.000000,0.000000,0.000000,0.000000,0.000000,0.000000,1646556202.719487,0.000000
164.000000,-1207.709456,4439.972870,659.063537,9468.400117,-6310.724474,-16631.173090,2366.803869,2213.694419,-0.090000,0.966000,0.180000,192.000000,0.000000,0.000000,0.000000,0.000000,0.000000,0.000000,0.000000,0.000000,0.000000,1646556202.727436,0.000000
165.000000,-1214.951422,4436.217777,653.699118,9459.079440,-6318.413474,-16643.868881,2344.742697,2183.184288,-0.090000,0.966000,0.180000,192.000000,0.000000,0.000000,0.000000,0.000000,0.000000,0.000000,0.000000,0.000000,0.000000,1646556202.727451,0.000000
166.000000,-1203.127349,4451.662833,664.271493,9469.383594,-6306.678809,-16630.591945,2342.038136,2227.932480,-0.088000,0.968000,0.190000,192.000000,253.000000,64.000000,30.000000,64.000000,5.000000,240.000000,0.000000,0.000000,0.000000,1646556202.734008,0.000000
167.000000,-1194.946610,4458.301301,671.088776,9476.044414,-6297.581649,-16620.108976,2351.381165,2230.055896,-0.088000,0.968000,0.190000,192.000000,0.000000,0.000000,0.000000,0.000000,0.000000,0.000000,0.000000,0.000000,0.000000,1646556202.734023,0.000000
168.000000,-1194.052541,4458.636577,675.737938,9475.440916,-6293.424224,-16618.209078,2376.415119,2224.982050,-0.088000,0.968000,0.190000,192.000000,0.000000,0.000000,0.000000,0.000000,0.000000,0.000000,0.000000,0.000000,0.000000,1646556202.742039,0.000000
169.000000,-1200.802767,4452.914530,673.525116,9468.578931,-6295.860564,-16631.754235,2365.686281,2209.805216,-0.088000,0.968000,0.190000,192.000000,0.000000,0.000000,0.000000,0.000000,0.000000,0.000000,0.000000,0.000000,0.000000,1646556202.742054,0.000000
170.000000,-1205.831910,4448.377126,671.468755,9461.292262,-6300.375617,-16638.772683,2362.557037,2210.319306,-0.088000,0.968000,0.190000,192.000000,0.000000,0.000000,0.000000,0.000000,0.000000,0.000000,0.000000,0.000000,0.000000,1646556202.749118,0.000000
