%OpenBCI Raw EEG Data
%Number of channels = 8
%Sample Rate = 256 Hz
%Board = OpenBCI_GUI$BoardCytonSerial
%Channels = Fp1, Fp2, F3, F4, Fz, Pz, O1, O2
%Data recorded at AIMS Lab (http://aimsl.uiu.ac.bd) by Rana Depto (mail@ranadepto.com)
%Brainwaves were obtained via the Ultracortex Mark IV Headset using the OpenBCI Cyton Board
%Recording Application = ConcentrateToday (https://concentrate.today)
%Data type = RAW data with noise
%Day No = 2
%Subject ID = 1
%Session ID = 7
%Record starting timestamp (UTC+6) = 2022-03-07T13:57:39.690377
%Record ending timestamp (UTC+6)   = 2022-03-07T13:58:10.576731
%Recorded durations = ~30 seconds
Sample Index, EXG Channel 0, EXG Channel 1, EXG Channel 2, EXG Channel 3, EXG Channel 4, EXG Channel 5, EXG Channel 6, EXG Channel 7, Accel Channel 0, Accel Channel 1, Accel Channel 2, Other, Other, Other, Other, Other, Other, Other, Analog Channel 0, Analog Channel 1, Analog Channel 2, Timestamp, Timestamp (Formatted)
219.000000,43696.900451,41633.230940,4187.174641,26204.536999,-714.272346,17508.255542,20728.985456,18301.675415,0.004000,0.982000,0.092000,192.000000,0.000000,0.000000,0.000000,0.000000,0.000000,0.000000,0.000000,0.000000,0.000000,1646639859.690548,0.000000
220.000000,43697.638058,41634.795563,4187.241696,26206.772173,-713.668849,17508.747281,20728.851346,18297.048604,0.004000,0.982000,0.092000,192.000000,0.000000,0.000000,0.000000,0.000000,0.000000,0.000000,0.000000,0.000000,0.000000,1646639859.690567,0.000000
221.000000,43692.385398,41632.716850,4183.151327,26202.435935,-718.228605,17503.874600,20722.078767,18288.845514,0.004000,0.982000,0.092000,192.000000,0.000000,0.000000,0.000000,0.000000,0.000000,0.000000,0.000000,0.000000,0.000000,1646639859.698385,0.000000
222.000000,43689.144395,41629.699365,4179.865620,26197.987938,-722.967174,17498.867810,20712.869848,18278.183732,0.008000,0.980000,0.100000,192.000000,0.000000,64.000000,30.000000,160.000000,3.000000,32.000000,0.000000,0.000000,0.000000,1646639859.698399,0.000000
223.000000,43690.530204,41630.705193,4182.994864,26199.865484,-720.620241,17501.259446,20715.976741,18286.744450,0.008000,0.980000,0.100000,192.000000,0.000000,0.000000,0.000000,0.000000,0.000000,0.000000,0.000000,0.000000,0.000000,1646639859.705398,0.000000
224.000000,43700.119102,41637.075441,4186.168812,26203.039432,-716.015782,17505.461574,20724.604514,18298.389709,0.008000,0.980000,0.100000,192.000000,0.000000,0.000000,0.000000,0.000000,0.000000,0.000000,0.000000,0.000000,0.000000,1646639859.705405,0.000000
225.000000,43708.165730,41640.808182,4191.533231,26206.727470,-708.527947,17513.239981,20735.959200,18305.430508,0.008000,0.980000,0.100000,192.000000,0.000000,0.000000,0.000000,0.000000,0.000000,0.000000,0.000000,0.000000,0.000000,1646639859.712480,0.000000
226.000000,43714.290108,41640.584664,4192.136728,26205.252255,-706.918622,17512.792946,20735.780386,18306.905723,0.008000,0.980000,0.100000,192.000000,0.000000,0.000000,0.000000,0.000000,0.000000,0.000000,0.000000,0.000000,0.000000,1646639859.719965,0.000000
227.000000,43706.578756,41638.036566,4191.197955,26205.609883,-708.863224,17512.681188,20733.276991,18308.068014,0.008000,0.980000,0.100000,192.000000,0.000000,0.000000,0.000000,0.000000,0.000000,0.000000,0.000000,0.000000,0.000000,1646639859.719970,0.000000
228.000000,43699.269736,41636.829571,4191.890859,26207.286263,-709.801997,17512.390615,20730.348913,18304.603494,0.008000,0.980000,0.100000,192.000000,0.000000,0.000000,0.000000,0.000000,0.000000,0.000000,0.000000,0.000000,0.000000,1646639859.727958,0.000000
229.000000,43697.392189,41637.120144,4188.068710,26204.380537,-712.260689,17506.422699,20723.263410,18297.361529,0.008000,0.980000,0.100000,192.000000,0.000000,0.000000,0.000000,0.000000,0.000000,0.000000,0.000000,0.000000,0.000000,1646639859.727962,0.000000
230.000000,43700.052047,41636.784868,4190.147423,26208.627368,-709.310259,17507.540286,20722.503450,18297.093308,0.008000,0.980000,0.100000,192.000000,0.000000,0.000000,0.000000,0.000000,0.000000,0.000000,0.000000,0.000000,0.000000,1646639859.736008,0.000000
231.000000,43697.503948,41635.779039,4191.667341,26207.308615,-709.042038,17505.528629,20719.865944,18296.221590,0.008000,0.980000,0.100000,192.000000,0.000000,0.000000,0.000000,0.000000,0.000000,0.000000,0.000000,0.000000,0.000000,1646639859.736012,0.000000
232.000000,43694.486462,41635.175542,4189.655684,26203.553522,-712.528910,17501.661778,20714.345063,18291.170095,0.008000,0.980000,0.100000,192.000000,0.000000,0.000000,0.000000,0.000000,0.000000,0.000000,0.000000,0.000000,0.000000,1646639859.742588,0.000000
233.000000,43697.593355,41637.008385,4191.533231,26205.498124,-711.433674,17505.059243,20717.228439,18294.388747,0.004000,0.978000,0.084000,192.000000,0.000000,32.000000,30.000000,144.000000,2.000000,160.000000,0.000000,0.000000,0.000000,1646639859.742593,0.000000
234.000000,43708.165730,41643.333929,4197.925830,26211.376633,-703.767026,17514.223458,20734.729854,18304.357625,0.004000,0.978000,0.084000,192.000000,0.000000,0.000000,0.000000,0.000000,0.000000,0.000000,0.000000,0.000000,0.000000,1646639859.750596,0.000000
235.000000,43704.745913,41637.030737,4192.315542,26205.498124,-707.566822,17507.026196,20728.091386,18293.472325,0.004000,0.978000,0.084000,192.000000,0.000000,0.000000,0.000000,0.000000,0.000000,0.000000,0.000000,0.000000,0.000000,1646639859.750606,0.000000
236.000000,43708.322192,41637.008385,4193.276667,26205.788697,-707.700933,17507.987321,20732.807604,18297.093308,0.004000,0.978000,0.084000,192.000000,0.000000,0.000000,0.000000,0.000000,0.000000,0.000000,0.000000,0.000000,0.000000,1646639859.758604,0.000000
237.000000,43706.310535,41632.448629,4190.661513,26202.301824,-713.333573,17506.445051,20730.550078,18305.743433,0.004000,0.978000,0.084000,192.000000,0.000000,0.000000,0.000000,0.000000,0.000000,0.000000,0.000000,0.000000,0.000000,1646639859.758609,0.000000
238.000000,43695.335829,41619.685783,4179.731510,26191.617691,-723.838892,17495.738565,20719.240096,18292.377090,0.004000,0.978000,0.084000,192.000000,0.000000,0.000000,0.000000,0.000000,0.000000,0.000000,0.000000,0.000000,0.000000,1646639859.765805,0.000000
239.000000,43696.252250,41621.831551,4179.686806,26193.629348,-723.324802,17497.169077,20720.156517,18287.750278,0.004000,0.978000,0.084000,192.000000,0.000000,0.000000,0.000000,0.000000,0.000000,0.000000,0.000000,0.000000,0.000000,1646639859.765810,0.000000
240.000000,43693.055951,41621.540978,4181.966684,26192.601167,-721.871939,17496.140897,20716.602590,18288.845514,0.004000,0.978000,0.084000,192.000000,0.000000,0.000000,0.000000,0.000000,0.000000,0.000000,0.000000,0.000000,0.000000,1646639859.772314,0.000000
241.000000,43698.286259,41626.190141,4187.576972,26196.557426,-718.094494,17502.712310,20722.928133,18302.524782,0.004000,0.978000,0.084000,192.000000,0.000000,0.000000,0.000000,0.000000,0.000000,0.000000,0.000000,0.000000,0.000000,1646639859.780261,0.000000
242.000000,43706.422294,41629.721717,4191.063844,26201.184237,-712.797131,17508.724929,20733.276991,18311.800755,0.004000,0.978000,0.084000,192.000000,0.000000,0.000000,0.000000,0.000000,0.000000,0.000000,0.000000,0.000000,0.000000,1646639859.780265,0.000000
243.000000,43702.264869,41626.056031,4186.615847,26196.691537,-715.881671,17503.807545,20733.008770,18303.128279,0.008000,0.972000,0.092000,192.000000,0.000000,64.000000,30.000000,96.000000,2.000000,224.000000,0.000000,0.000000,0.000000,1646639859.788289,0.000000
244.000000,43692.072474,41621.608033,4182.458422,26191.528284,-718.988564,17500.052452,20726.280895,18296.310997,0.008000,0.972000,0.092000,192.000000,0.000000,0.000000,0.000000,0.000000,0.000000,0.000000,0.000000,0.000000,0.000000,1646639859.788293,0.000000
245.000000,43690.753721,41618.523493,4183.419547,26190.030717,-717.401590,17500.052452,20725.006846,18291.304206,0.008000,0.972000,0.092000,192.000000,0.000000,0.000000,0.000000,0.000000,0.000000,0.000000,0.000000,0.000000,0.000000,1646639859.795276,0.000000
246.000000,43690.083169,41616.958871,4181.765518,26188.600205,-718.832102,17499.918342,20725.364474,18292.421793,0.008000,0.972000,0.092000,192.000000,0.000000,0.000000,0.000000,0.000000,0.000000,0.000000,0.000000,0.000000,0.000000,1646639859.795280,0.000000
247.000000,43692.653619,41620.937481,4179.843268,26187.929653,-721.246090,17499.158382,20721.654084,18290.208970,0.008000,0.972000,0.092000,192.000000,0.000000,0.000000,0.000000,0.000000,0.000000,0.000000,0.000000,0.000000,0.000000,1646639859.802746,0.000000
248.000000,43699.090922,41624.960795,4185.587667,26194.702231,-715.524044,17508.099080,20731.198279,18298.277950,0.008000,0.972000,0.092000,192.000000,0.000000,0.000000,0.000000,0.000000,0.000000,0.000000,0.000000,0.000000,0.000000,1646639859.802750,0.000000
249.000000,43703.851843,41622.949138,4187.465213,26197.965586,-713.691200,17511.496545,20733.455805,18312.136032,0.008000,0.972000,0.092000,192.000000,0.000000,0.000000,0.000000,0.000000,0.000000,0.000000,0.000000,0.000000,0.000000,1646639859.810846,0.000000
250.000000,43689.256154,41614.097847,4178.859792,26187.996708,-721.603718,17500.477135,20716.602590,18294.969892,0.008000,0.972000,0.092000,192.000000,0.000000,0.000000,0.000000,0.000000,0.000000,0.000000,0.000000,0.000000,0.000000,1646639859.810850,0.000000
251.000000,43685.881041,41616.176559,4177.406928,26188.935481,-724.397686,17500.723004,20716.893162,18297.272122,0.008000,0.972000,0.092000,192.000000,0.000000,0.000000,0.000000,0.000000,0.000000,0.000000,0.000000,0.000000,0.000000,1646639859.818793,0.000000
252.000000,43694.732332,41621.608033,4178.390405,26192.869388,-721.313145,17500.879467,20713.495697,18296.422755,0.008000,0.972000,0.092000,192.000000,0.000000,0.000000,0.000000,0.000000,0.000000,0.000000,0.000000,0.000000,0.000000,1646639859.818796,0.000000
253.000000,43693.212413,41620.266929,4175.819954,26188.779019,-724.688259,17496.923208,20712.333406,18284.464572,0.006000,0.976000,0.088000,192.000000,0.000000,48.000000,30.000000,128.000000,2.000000,192.000000,0.000000,0.000000,0.000000,1646639859.825422,0.000000
254.000000,43697.861576,41622.367993,4179.284475,26190.298938,-722.341326,17502.689958,20721.542325,18296.020424,0.006000,0.976000,0.088000,192.000000,0.000000,0.000000,0.000000,0.000000,0.000000,0.000000,0.000000,0.000000,0.000000,1646639859.825426,0.000000
255.000000,43703.673029,41626.748935,4185.744129,26195.819818,-715.836968,17509.082557,20727.890221,18309.632636,0.006000,0.976000,0.088000,192.000000,0.000000,0.000000,0.000000,0.000000,0.000000,0.000000,0.000000,0.000000,0.000000,1646639859.832523,0.000000
0.000000,43697.325134,41622.926786,4181.698463,26189.337813,-719.435599,17502.220571,20723.442223,18299.529648,0.006000,0.976000,0.088000,192.000000,0.000000,0.000000,0.000000,0.000000,0.000000,0.000000,0.000000,0.000000,0.000000,1646639859.840452,0.000000
1.000000,43697.883928,41626.525417,4183.352492,26190.522455,-718.921509,17503.069938,20721.363511,18296.914494,0.006000,0.976000,0.088000,192.000000,0.000000,0.000000,0.000000,0.000000,0.000000,0.000000,0.000000,0.000000,0.000000,1646639859.840462,0.000000
2.000000,43696.229898,41628.313557,4181.810222,26190.723621,-721.089628,17501.773536,20722.391691,18297.361529,0.006000,0.976000,0.088000,192.000000,0.000000,0.000000,0.000000,0.000000,0.000000,0.000000,0.000000,0.000000,0.000000,1646639859.847682,0.000000
3.000000,43694.978201,41627.687708,4178.904495,26189.248406,-721.424904,17497.638464,20717.675473,18296.422755,0.006000,0.976000,0.088000,192.000000,0.000000,0.000000,0.000000,0.000000,0.000000,0.000000,0.000000,0.000000,0.000000,1646639859.847685,0.000000
4.000000,43692.117178,41625.273719,4179.396233,26188.667260,-721.067276,17494.889199,20715.797927,18289.739584,0.006000,0.976000,0.088000,192.000000,0.000000,0.000000,0.000000,0.000000,0.000000,0.000000,0.000000,0.000000,0.000000,1646639859.855073,0.000000
5.000000,43688.742064,41626.145437,4177.339873,26187.817894,-722.877767,17496.185600,20717.139032,18291.728889,0.006000,0.976000,0.088000,192.000000,0.000000,0.000000,0.000000,0.000000,0.000000,0.000000,0.000000,0.000000,0.000000,1646639859.855077,0.000000
6.000000,43687.847994,41628.961757,4177.853963,26191.349470,-723.213044,17499.650121,20723.442223,18299.216723,0.006000,0.976000,0.088000,192.000000,0.000000,0.000000,0.000000,0.000000,0.000000,0.000000,0.000000,0.000000,0.000000,1646639859.863125,0.000000
7.000000,43691.737198,41636.226074,4181.631408,26196.758592,-721.559015,17500.946522,20725.386825,18294.724023,0.006000,0.980000,0.088000,192.000000,0.000000,48.000000,30.000000,160.000000,2.000000,192.000000,0.000000,0.000000,0.000000,1646639859.863128,0.000000
8.000000,43693.547689,41631.778077,4180.960856,26193.651699,-721.961346,17503.472269,20727.778462,18300.937808,0.006000,0.980000,0.088000,192.000000,0.000000,0.000000,0.000000,0.000000,0.000000,0.000000,0.000000,0.000000,0.000000,1646639859.871049,0.000000
9.000000,43687.088035,41623.016193,4175.059995,26187.013231,-726.968137,17501.617074,20725.923267,18301.451898,0.006000,0.980000,0.088000,192.000000,0.000000,0.000000,0.000000,0.000000,0.000000,0.000000,0.000000,0.000000,0.000000,1646639859.871052,0.000000
10.000000,43694.687628,41631.845132,4177.719853,26188.264929,-723.771837,17504.388691,20727.085558,18299.842572,0.006000,0.980000,0.088000,192.000000,0.000000,0.000000,0.000000,0.000000,0.000000,0.000000,0.000000,0.000000,0.000000,1646639859.877676,0.000000
11.000000,43697.034561,41627.173618,4179.798565,26186.834417,-722.341326,17503.114641,20721.922305,18296.266293,0.006000,0.980000,0.088000,192.000000,0.000000,0.000000,0.000000,0.000000,0.000000,0.000000,0.000000,0.000000,0.000000,1646639859.877680,0.000000
12.000000,43695.559346,41628.872350,4184.671245,26195.708060,-715.345230,17505.685092,20729.767767,18295.975720,0.006000,0.980000,0.088000,192.000000,0.000000,0.000000,0.000000,0.000000,0.000000,0.000000,0.000000,0.000000,0.000000,1646639859.885704,0.000000
13.000000,43690.463148,41630.012289,4182.413719,26196.333909,-716.619279,17501.259446,20725.520936,18289.873694,0.006000,0.980000,0.088000,192.000000,0.000000,0.000000,0.000000,0.000000,0.000000,0.000000,0.000000,0.000000,0.000000,1646639859.885708,0.000000
14.000000,43693.972372,41631.867484,4184.000693,26197.160923,-717.066314,17503.002882,20726.616171,18301.608360,0.006000,0.980000,0.088000,192.000000,0.000000,0.000000,0.000000,0.000000,0.000000,0.000000,0.000000,0.000000,0.000000,1646639859.892906,0.000000
15.000000,43700.052047,41632.448629,4184.872411,26197.362089,-716.306355,17504.947484,20728.918401,18311.554886,0.006000,0.980000,0.088000,192.000000,0.000000,0.000000,0.000000,0.000000,0.000000,0.000000,0.000000,0.000000,0.000000,1646639859.900825,0.000000
16.000000,43697.347486,41629.408792,4180.536172,26192.981147,-720.262613,17503.338159,20725.230363,18306.369282,0.006000,0.980000,0.088000,192.000000,0.000000,0.000000,0.000000,0.000000,0.000000,0.000000,0.000000,0.000000,0.000000,1646639859.900829,0.000000
17.000000,43690.776073,41628.648833,4181.184373,26192.020022,-721.156683,17505.975664,20725.766805,18304.916418,0.006000,0.984000,0.090000,192.000000,0.000000,48.000000,30.000000,192.000000,2.000000,208.000000,0.000000,0.000000,0.000000,1646639859.907416,0.000000
18.000000,43694.844090,41633.275644,4185.565315,26195.775115,-716.194596,17510.669531,20727.286724,18307.844497,0.006000,0.984000,0.090000,192.000000,0.000000,0.000000,0.000000,0.000000,0.000000,0.000000,0.000000,0.000000,0.000000,1646639859.907421,0.000000
19.000000,43688.451491,41624.513760,4179.373882,26188.376688,-722.497788,17504.142821,20728.270200,18303.508258,0.006000,0.984000,0.090000,192.000000,0.000000,0.000000,0.000000,0.000000,0.000000,0.000000,0.000000,0.000000,0.000000,1646639859.915380,0.000000
20.000000,43694.352352,41628.671185,4183.441899,26193.070554,-720.597889,17503.069938,20729.588953,18300.222552,0.006000,0.984000,0.090000,192.000000,0.000000,0.000000,0.000000,0.000000,0.000000,0.000000,0.000000,0.000000,0.000000,1646639859.915384,0.000000
21.000000,43692.787730,41630.481676,4183.821879,26194.143438,-717.960384,17501.415909,20727.085558,18298.277950,0.006000,0.984000,0.090000,192.000000,0.000000,0.000000,0.000000,0.000000,0.000000,0.000000,0.000000,0.000000,0.000000,1646639859.923332,0.000000
22.000000,43690.172576,41630.884007,4179.485640,26193.383478,-720.530834,17497.929036,20723.822203,18297.629749,0.006000,0.984000,0.090000,192.000000,0.000000,0.000000,0.000000,0.000000,0.000000,0.000000,0.000000,0.000000,0.000000,1646639859.923342,0.000000
23.000000,43691.536032,41628.827647,4177.608094,26191.997670,-721.648421,17496.409118,20725.476232,18296.310997,0.006000,0.984000,0.090000,192.000000,0.000000,0.000000,0.000000,0.000000,0.000000,0.000000,0.000000,0.000000,0.000000,1646639859.930396,0.000000
24.000000,43684.785805,41625.229016,4176.982245,26188.309632,-723.481265,17495.403289,20723.710444,18292.533552,0.006000,0.984000,0.090000,192.000000,0.000000,0.000000,0.000000,0.000000,0.000000,0.000000,0.000000,0.000000,0.000000,1646639859.930400,0.000000
25.000000,43691.513680,41633.677975,4185.073577,26195.037507,-717.625107,17501.505315,20726.415005,18290.343081,0.006000,0.984000,0.090000,192.000000,0.000000,0.000000,0.000000,0.000000,0.000000,0.000000,0.000000,0.000000,0.000000,1646639859.937982,0.000000
26.000000,43698.085093,41634.437935,4189.074539,26197.764420,-713.065352,17507.674397,20731.265334,18302.703595,0.006000,0.984000,0.090000,192.000000,0.000000,0.000000,0.000000,0.000000,0.000000,0.000000,0.000000,0.000000,0.000000,1646639859.937987,0.000000
27.000000,43703.561271,41633.789734,4191.376769,26197.719717,-710.763122,17509.306074,20735.780386,18309.654988,0.004000,0.982000,0.082000,192.000000,0.000000,32.000000,30.000000,176.000000,2.000000,144.000000,0.000000,0.000000,0.000000,1646639859.946002,0.000000
28.000000,43691.044294,41623.843208,4182.413719,26188.667260,-718.519177,17499.940693,20727.242020,18296.914494,0.004000,0.982000,0.082000,192.000000,0.000000,0.000000,0.000000,0.000000,0.000000,0.000000,0.000000,0.000000,0.000000,1646639859.946006,0.000000
29.000000,43693.994724,41626.190141,4184.872411,26190.745972,-716.507520,17498.376071,20720.916476,18291.237151,0.004000,0.982000,0.082000,192.000000,0.000000,0.000000,0.000000,0.000000,0.000000,0.000000,0.000000,0.000000,0.000000,1646639859.953039,0.000000
30.000000,43691.133701,41623.954967,4184.470079,26189.986013,-715.971078,17500.164211,20721.944657,18295.528686,0.004000,0.982000,0.082000,192.000000,0.000000,0.000000,0.000000,0.000000,0.000000,0.000000,0.000000,0.000000,0.000000,1646639859.953044,0.000000
31.000000,43684.271715,41621.786847,4181.787870,26187.147342,-718.519177,17498.532533,20718.569543,18295.931017,0.004000,0.982000,0.082000,192.000000,0.000000,0.000000,0.000000,0.000000,0.000000,0.000000,0.000000,0.000000,0.000000,1646639859.961129,0.000000
32.000000,43684.204660,41620.311632,4177.339873,26184.487484,-721.983698,17493.861019,20716.155555,18287.079726,0.004000,0.982000,0.082000,192.000000,0.000000,0.000000,0.000000,0.000000,0.000000,0.000000,0.000000,0.000000,0.000000,1646639859.967652,0.000000
33.000000,43684.897564,41619.931653,4173.696539,26181.827626,-724.576500,17490.240036,20709.874715,18277.870807,0.004000,0.982000,0.082000,192.000000,0.000000,0.000000,0.000000,0.000000,0.000000,0.000000,0.000000,0.000000,0.000000,1646639859.967656,0.000000
34.000000,43689.479672,41621.697440,4177.183411,26183.861635,-721.827235,17491.424679,20704.510296,18276.887331,0.004000,0.982000,0.082000,192.000000,0.000000,0.000000,0.000000,0.000000,0.000000,0.000000,0.000000,0.000000,0.000000,1646639859.975604,0.000000
35.000000,43683.578811,41616.735353,4173.540076,26180.218301,-724.263576,17490.172981,20703.593874,18285.291587,0.004000,0.982000,0.082000,192.000000,0.000000,0.000000,0.000000,0.000000,0.000000,0.000000,0.000000,0.000000,0.000000,1646639859.975607,0.000000
36.000000,43688.898526,41624.558464,4176.892838,26183.347545,-721.938994,17494.375109,20713.450994,18289.739584,0.004000,0.982000,0.082000,192.000000,0.000000,0.000000,0.000000,0.000000,0.000000,0.000000,0.000000,0.000000,0.000000,1646639859.983698,0.000000
37.000000,43689.345561,41623.262062,4175.842306,26183.414600,-721.424904,17494.285702,20715.015616,18284.844552,-0.004000,0.984000,0.088000,192.000000,255.000000,224.000000,30.000000,192.000000,2.000000,192.000000,0.000000,0.000000,0.000000,1646639859.983701,0.000000
38.000000,43692.206584,41620.378687,4176.512858,26186.677955,-719.435599,17500.812411,20722.346988,18300.177848,-0.004000,0.984000,0.088000,192.000000,0.000000,0.000000,0.000000,0.000000,0.000000,0.000000,0.000000,0.000000,0.000000,1646639859.990254,0.000000
39.000000,43691.983067,41626.413658,4181.318484,26192.243539,-712.730075,17504.500449,20723.330465,18300.244904,-0.004000,0.984000,0.088000,192.000000,0.000000,0.000000,0.000000,0.000000,0.000000,0.000000,0.000000,0.000000,0.000000,1646639859.990257,0.000000
40.000000,43678.460262,41622.435048,4178.390405,26187.661432,-718.094494,17495.537400,20710.969950,18277.088496,-0.004000,0.984000,0.088000,192.000000,0.000000,0.000000,0.000000,0.000000,0.000000,0.000000,0.000000,0.000000,0.000000,1646639859.998278,0.000000
41.000000,43682.148299,41623.731449,4182.391367,26192.176484,-712.953593,17504.679263,20721.743491,18300.289607,-0.004000,0.984000,0.088000,192.000000,0.000000,0.000000,0.000000,0.000000,0.000000,0.000000,0.000000,0.000000,0.000000,1646639859.998281,0.000000
42.000000,43684.405826,41625.452533,4185.185335,26196.199798,-710.561956,17511.653007,20726.862040,18318.103947,-0.004000,0.984000,0.088000,192.000000,0.000000,0.000000,0.000000,0.000000,0.000000,0.000000,0.000000,0.000000,0.000000,1646639860.006324,0.000000
43.000000,43690.016114,41631.107525,4191.622638,26202.190066,-704.214061,17516.190412,20729.633657,18313.633599,-0.004000,0.984000,0.088000,192.000000,0.000000,0.000000,0.000000,0.000000,0.000000,0.000000,0.000000,0.000000,0.000000,1646639860.006336,0.000000
44.000000,43678.124985,41621.608033,4184.201859,26194.746935,-710.986639,17507.987321,20718.927171,18301.921284,-0.004000,0.984000,0.088000,192.000000,0.000000,0.000000,0.000000,0.000000,0.000000,0.000000,0.000000,0.000000,0.000000,1646639860.012880,0.000000
45.000000,43679.354331,41621.183350,4184.380673,26193.405830,-712.640668,17507.808507,20719.754186,18302.793002,-0.004000,0.984000,0.088000,192.000000,0.000000,0.000000,0.000000,0.000000,0.000000,0.000000,0.000000,0.000000,0.000000,1646639860.012883,0.000000
46.000000,43688.965582,41625.698403,4190.862678,26199.574912,-704.594040,17513.910534,20724.604514,18306.279875,-0.004000,0.984000,0.088000,192.000000,0.000000,0.000000,0.000000,0.000000,0.000000,0.000000,0.000000,0.000000,0.000000,1646639860.019861,0.000000
47.000000,43684.450529,41618.188216,4187.241696,26195.685708,-707.790340,17510.736586,20716.490831,18298.389709,-0.010000,0.984000,0.090000,192.000000,255.000000,176.000000,30.000000,192.000000,2.000000,208.000000,0.000000,0.000000,0.000000,1646639860.027891,0.000000
48.000000,43681.947134,41616.243615,4184.090100,26190.768324,-711.836006,17510.133089,20720.603552,18300.401366,-0.010000,0.984000,0.090000,192.000000,0.000000,0.000000,0.000000,0.000000,0.000000,0.000000,0.000000,0.000000,0.000000,1646639860.027894,0.000000
49.000000,43678.639076,41611.326231,4182.301960,26186.297975,-715.166416,17508.188487,20723.375168,18302.301264,-0.010000,0.984000,0.090000,192.000000,0.000000,0.000000,0.000000,0.000000,0.000000,0.000000,0.000000,0.000000,0.000000,1646639860.035950,0.000000
50.000000,43682.237706,41616.176559,4182.793699,26188.935481,-713.959421,17508.747281,20722.458747,18298.389709,-0.010000,0.984000,0.090000,192.000000,0.000000,0.000000,0.000000,0.000000,0.000000,0.000000,0.000000,0.000000,0.000000,1646639860.035954,0.000000
51.000000,43675.621590,41610.700382,4172.288379,26180.419467,-724.554148,17500.141859,20711.752261,18292.622959,-0.010000,0.984000,0.090000,192.000000,0.000000,0.000000,0.000000,0.000000,0.000000,0.000000,0.000000,0.000000,0.000000,1646639860.042592,0.000000
52.000000,43668.849012,41607.124103,4166.409870,26173.736295,-729.762105,17496.520876,20712.847497,18297.786212,-0.010000,0.984000,0.090000,192.000000,0.000000,0.000000,0.000000,0.000000,0.000000,0.000000,0.000000,0.000000,0.000000,1646639860.042596,0.000000
53.000000,43673.900506,41616.064801,4172.981283,26180.017135,-722.788360,17502.645254,20720.245924,18303.418851,-0.010000,0.984000,0.090000,192.000000,0.000000,0.000000,0.000000,0.000000,0.000000,0.000000,0.000000,0.000000,0.000000,1646639860.050577,0.000000
54.000000,43679.242573,41614.500179,4175.484678,26183.459304,-718.362715,17501.728833,20713.294531,18294.366395,-0.010000,0.984000,0.090000,192.000000,0.000000,0.000000,0.000000,0.000000,0.000000,0.000000,0.000000,0.000000,0.000000,1646639860.050581,0.000000
55.000000,43682.081244,41607.861711,4174.188277,26183.436952,-720.396724,17500.968874,20712.333406,18295.886313,-0.010000,0.984000,0.090000,192.000000,0.000000,0.000000,0.000000,0.000000,0.000000,0.000000,0.000000,0.000000,0.000000,1646639860.058566,0.000000
56.000000,43685.344599,41611.594452,4179.597399,26188.220225,-716.216948,17509.127260,20722.995189,18306.771613,-0.010000,0.984000,0.090000,192.000000,0.000000,0.000000,0.000000,0.000000,0.000000,0.000000,0.000000,0.000000,0.000000,1646639860.058571,0.000000
57.000000,43685.657523,41615.997746,4184.358321,26190.522455,-712.551261,17508.791984,20716.960218,18300.937808,-0.006000,0.980000,0.090000,192.000000,255.000000,208.000000,30.000000,160.000000,2.000000,208.000000,0.000000,0.000000,0.000000,1646639860.065757,0.000000
58.000000,43684.025846,41618.098809,4184.224210,26193.472885,-707.633878,17512.837650,20729.745415,18310.191430,-0.006000,0.980000,0.090000,192.000000,0.000000,0.000000,0.000000,0.000000,0.000000,0.000000,0.000000,0.000000,0.000000,1646639860.065761,0.000000
59.000000,43679.622552,41614.790751,4183.330141,26192.221188,-709.198500,17513.016464,20733.232288,18315.868773,-0.006000,0.980000,0.090000,192.000000,0.000000,0.000000,0.000000,0.000000,0.000000,0.000000,0.000000,0.000000,0.000000,1646639860.073251,0.000000
60.000000,43683.288238,41617.383554,4182.212553,26192.467057,-711.433674,17511.697711,20727.063206,18312.113680,-0.006000,0.980000,0.090000,192.000000,0.000000,0.000000,0.000000,0.000000,0.000000,0.000000,0.000000,0.000000,0.000000,1646639860.073254,0.000000
61.000000,43679.197869,41614.947214,4178.300998,26187.773190,-718.228605,17507.115603,20720.760014,18300.289607,-0.006000,0.980000,0.090000,192.000000,0.000000,0.000000,0.000000,0.000000,0.000000,0.000000,0.000000,0.000000,0.000000,1646639860.080234,0.000000
62.000000,43674.638113,41616.221263,4180.424414,26188.399039,-716.798093,17505.662740,20717.586066,18296.221590,-0.006000,0.980000,0.090000,192.000000,0.000000,0.000000,0.000000,0.000000,0.000000,0.000000,0.000000,0.000000,0.000000,1646639860.088303,0.000000
63.000000,43673.431119,41617.540016,4177.876315,26189.024888,-716.149892,17505.081595,20717.295494,18295.662796,-0.006000,0.980000,0.090000,192.000000,0.000000,0.000000,0.000000,0.000000,0.000000,0.000000,0.000000,0.000000,0.000000,1646639860.088306,0.000000
64.000000,43678.393206,41619.819894,4177.898667,26189.963661,-716.373410,17505.640388,20719.709482,18298.009729,-0.006000,0.980000,0.090000,192.000000,0.000000,0.000000,0.000000,0.000000,0.000000,0.000000,0.000000,0.000000,0.000000,1646639860.095472,0.000000
65.000000,43679.711959,41619.261100,4175.976417,26188.264929,-717.535701,17504.075766,20719.083633,18298.881447,-0.006000,0.980000,0.090000,192.000000,0.000000,0.000000,0.000000,0.000000,0.000000,0.000000,0.000000,0.000000,0.000000,1646639860.095500,0.000000
66.000000,43681.924782,41622.166827,4179.195068,26191.215359,-714.965250,17506.288589,20721.475270,18301.273084,-0.006000,0.980000,0.090000,192.000000,0.000000,0.000000,0.000000,0.000000,0.000000,0.000000,0.000000,0.000000,0.000000,1646639860.102866,0.000000
67.000000,43685.188137,41623.195007,4178.502164,26191.796504,-713.937070,17503.673435,20719.664779,18294.075822,-0.004000,0.976000,0.096000,192.000000,255.000000,224.000000,30.000000,128.000000,3.000000,0.000000,0.000000,0.000000,0.000000,1646639860.102870,0.000000
68.000000,43685.612820,41621.652737,4176.892838,26192.847036,-713.579442,17501.438260,20713.138069,18281.603549,-0.004000,0.976000,0.096000,192.000000,0.000000,0.000000,0.000000,0.000000,0.000000,0.000000,0.000000,0.000000,0.000000,1646639860.110850,0.000000
69.000000,43683.221183,41619.283452,4176.982245,26194.702231,-713.110055,17508.233191,20722.391691,18299.999034,-0.004000,0.976000,0.096000,192.000000,0.000000,0.000000,0.000000,0.000000,0.000000,0.000000,0.000000,0.000000,0.000000,1646639860.110854,0.000000
70.000000,43685.478709,41624.536112,4180.960856,26200.446630,-707.030381,17514.223458,20728.538421,18311.979569,-0.004000,0.976000,0.096000,192.000000,0.000000,0.000000,0.000000,0.000000,0.000000,0.000000,0.000000,0.000000,0.000000,1646639860.118856,0.000000
71.000000,43686.037503,41626.659528,4182.480774,26198.591435,-707.678581,17506.959141,20718.681302,18291.997110,-0.004000,0.976000,0.096000,192.000000,0.000000,0.000000,0.000000,0.000000,0.000000,0.000000,0.000000,0.000000,0.000000,1646639860.118860,0.000000
72.000000,43686.618648,41627.464190,4181.989036,26196.959757,-708.639706,17505.014539,20716.557886,18288.443183,-0.004000,0.976000,0.096000,192.000000,0.000000,0.000000,0.000000,0.000000,0.000000,0.000000,0.000000,0.000000,0.000000,1646639860.125489,0.000000
73.000000,43683.154128,41623.150304,4176.669321,26191.014193,-713.490035,17502.377034,20716.379072,18300.423718,-0.004000,0.976000,0.096000,192.000000,0.000000,0.000000,0.000000,0.000000,0.000000,0.000000,0.000000,0.000000,0.000000,1646639860.125493,0.000000
74.000000,43684.495233,41623.865560,4178.010425,26190.298938,-714.831139,17501.907647,20719.240096,18297.987377,-0.004000,0.976000,0.096000,192.000000,0.000000,0.000000,0.000000,0.000000,0.000000,0.000000,0.000000,0.000000,0.000000,1646639860.133456,0.000000
75.000000,43677.297971,41616.735353,4170.299073,26182.565234,-722.140160,17495.425641,20713.249828,18288.286720,-0.004000,0.976000,0.096000,192.000000,0.000000,0.000000,0.000000,0.000000,0.000000,0.000000,0.000000,0.000000,0.000000,1646639860.133460,0.000000
76.000000,43671.710035,41613.002612,4165.426393,26179.883025,-726.811674,17491.938769,20713.406290,18285.470401,-0.004000,0.976000,0.096000,192.000000,0.000000,0.000000,0.000000,0.000000,0.000000,0.000000,0.000000,0.000000,0.000000,1646639860.140582,0.000000
77.000000,43672.380587,41614.880158,4166.387518,26183.213435,-726.498750,17498.040795,20726.929096,18291.840648,-0.002000,0.972000,0.096000,192.000000,255.000000,240.000000,30.000000,96.000000,3.000000,0.000000,0.000000,0.000000,0.000000,1646639860.147681,0.000000
78.000000,43678.281448,41620.244577,4169.337948,26185.381554,-724.107113,17504.813374,20736.249773,18306.212819,-0.002000,0.972000,0.096000,192.000000,0.000000,0.000000,0.000000,0.000000,0.000000,0.000000,0.000000,0.000000,0.000000,1646639860.147684,0.000000
79.000000,43680.628381,41624.156132,4168.466230,26185.850940,-725.001183,17504.455746,20731.712369,18303.821183,-0.002000,0.972000,0.096000,192.000000,0.000000,0.000000,0.000000,0.000000,0.000000,0.000000,0.000000,0.000000,0.000000,1646639860.155084,0.000000
80.000000,43677.745006,41621.317461,4165.739318,26184.532188,-729.091552,17498.867810,20720.827069,18290.343081,-0.002000,0.972000,0.096000,192.000000,0.000000,0.000000,0.000000,0.000000,0.000000,0.000000,0.000000,0.000000,0.000000,1646639860.155088,0.000000
81.000000,43682.461224,41625.541940,4162.677129,26187.683783,-726.409343,17498.376071,20726.280895,18292.377090,-0.002000,0.972000,0.096000,192.000000,0.000000,0.000000,0.000000,0.000000,0.000000,0.000000,0.000000,0.000000,0.000000,1646639860.163108,0.000000
82.000000,43677.901468,41619.931653,4159.458477,26183.146379,-729.091552,17498.577237,20737.657933,18305.899895,-0.002000,0.972000,0.096000,192.000000,0.000000,0.000000,0.000000,0.000000,0.000000,0.000000,0.000000,0.000000,0.000000,1646639860.163112,0.000000
83.000000,43675.867459,41620.266929,4161.850114,26184.979222,-729.650346,17502.287627,20741.278916,18312.694825,-0.002000,0.972000,0.096000,192.000000,0.000000,0.000000,0.000000,0.000000,0.000000,0.000000,0.000000,0.000000,0.000000,1646639860.171133,0.000000
84.000000,43683.489404,41625.877217,4164.241751,26189.069592,-726.901081,17505.998016,20741.569488,18311.443128,-0.002000,0.972000,0.096000,192.000000,0.000000,0.000000,0.000000,0.000000,0.000000,0.000000,0.000000,0.000000,0.000000,1646639860.171136,0.000000
85.000000,43686.842166,41629.095868,4165.448745,26193.204664,-725.179997,17507.964970,20741.502433,18316.427567,-0.002000,0.972000,0.096000,192.000000,0.000000,0.000000,0.000000,0.000000,0.000000,0.000000,0.000000,0.000000,0.000000,1646639860.177759,0.000000
86.000000,43680.360160,41618.322327,4152.328271,26183.615766,-735.506503,17496.073842,20729.477194,18302.413023,-0.002000,0.972000,0.096000,192.000000,0.000000,0.000000,0.000000,0.000000,0.000000,0.000000,0.000000,0.000000,0.000000,1646639860.177768,0.000000
87.000000,43668.156107,41613.628461,4142.493503,26175.747952,-742.167323,17484.473286,20717.250790,18280.642424,-0.002000,0.972000,0.096000,192.000000,0.000000,0.000000,0.000000,0.000000,0.000000,0.000000,0.000000,0.000000,0.000000,1646639860.185785,0.000000
88.000000,43672.514698,41625.184312,4157.938559,26185.694478,-731.036154,17494.822144,20726.146785,18292.690014,-0.002000,0.978000,0.094000,192.000000,255.000000,240.000000,30.000000,144.000000,2.000000,240.000000,0.000000,0.000000,0.000000,1646639860.185788,0.000000
89.000000,43678.750834,41631.442801,4165.336986,26191.036545,-725.247052,17501.706481,20738.797872,18303.441203,-0.002000,0.978000,0.094000,192.000000,0.000000,0.000000,0.000000,0.000000,0.000000,0.000000,0.000000,0.000000,0.000000,1646639860.194099,0.000000
90.000000,43676.001570,41628.335908,4161.537190,26187.884949,-728.421000,17495.023310,20731.958238,18289.694880,-0.002000,0.978000,0.094000,192.000000,0.000000,0.000000,0.000000,0.000000,0.000000,0.000000,0.000000,0.000000,0.000000,1646639860.194111,0.000000
91.000000,43676.806233,41628.827647,4160.352547,26189.069592,-727.750448,17492.162286,20728.404311,18292.622959,-0.002000,0.978000,0.094000,192.000000,0.000000,0.000000,0.000000,0.000000,0.000000,0.000000,0.000000,0.000000,0.000000,1646639860.201332,0.000000
92.000000,43678.639076,41630.302862,4160.285492,26187.817894,-726.409343,17494.799792,20729.097215,18309.297360,-0.002000,0.978000,0.094000,192.000000,0.000000,0.000000,0.000000,0.000000,0.000000,0.000000,0.000000,0.000000,0.000000,1646639860.201349,0.000000
93.000000,43675.040445,41626.525417,4156.396288,26183.861635,-729.493884,17491.648196,20734.483985,18298.903799,-0.002000,0.978000,0.094000,192.000000,0.000000,0.000000,0.000000,0.000000,0.000000,0.000000,0.000000,0.000000,0.000000,1646639860.207588,0.000000
94.000000,43669.139584,41624.178484,4152.685899,26182.766400,-731.170265,17489.033042,20735.914497,18296.109831,-0.002000,0.978000,0.094000,192.000000,0.000000,0.000000,0.000000,0.000000,0.000000,0.000000,0.000000,0.000000,0.000000,1646639860.215541,0.000000
95.000000,43668.312570,41628.246501,4153.758783,26185.359202,-729.404477,17488.362490,20734.349875,18292.958235,-0.002000,0.978000,0.094000,192.000000,0.000000,0.000000,0.000000,0.000000,0.000000,0.000000,0.000000,0.000000,0.000000,1646639860.215554,0.000000
96.000000,43668.670198,41629.408792,4152.082402,26187.169693,-728.868035,17488.630711,20726.392654,18287.839685,-0.002000,0.978000,0.094000,192.000000,0.000000,0.000000,0.000000,0.000000,0.000000,0.000000,0.000000,0.000000,0.000000,1646639860.223563,0.000000
97.000000,43672.715863,41633.454458,4158.854980,26191.975318,-722.609546,17490.910589,20723.486927,18288.085555,-0.002000,0.978000,0.094000,192.000000,0.000000,0.000000,0.000000,0.000000,0.000000,0.000000,0.000000,0.000000,0.000000,1646639860.223573,0.000000
98.000000,43682.684741,41639.467077,4165.381690,26197.116220,-717.893328,17498.465478,20740.720122,18297.875619,0.016000,0.978000,0.104000,192.000000,0.000000,128.000000,30.000000,144.000000,3.000000,64.000000,0.000000,0.000000,0.000000,1646639860.230651,0.000000
99.000000,43682.707093,41635.577874,4163.772364,26196.423316,-718.295660,17499.560714,20745.525747,18299.127316,0.016000,0.978000,0.104000,192.000000,0.000000,0.000000,0.000000,0.000000,0.000000,0.000000,0.000000,0.000000,0.000000,1646639860.230666,0.000000
100.000000,43683.958791,41633.119182,4164.264102,26194.434010,-717.021610,17498.599589,20742.888241,18293.360566,0.016000,0.978000,0.104000,192.000000,0.000000,0.000000,0.000000,0.000000,0.000000,0.000000,0.000000,0.000000,0.000000,1646639860.238165,0.000000
101.000000,43683.712922,41630.548731,4163.370033,26192.511760,-716.507520,17497.191429,20740.206032,18294.880485,0.016000,0.978000,0.104000,192.000000,0.000000,0.000000,0.000000,0.000000,0.000000,0.000000,0.000000,0.000000,0.000000,1646639860.238179,0.000000
102.000000,43684.495233,41632.426278,4158.609111,26192.891740,-718.586232,17493.995129,20735.445110,18294.746374,0.016000,0.978000,0.104000,192.000000,0.000000,0.000000,0.000000,0.000000,0.000000,0.000000,0.000000,0.000000,0.000000,1646639860.246186,0.000000
103.000000,43692.251288,41641.858714,4165.404041,26199.641967,-712.305392,17498.219609,20739.311962,18297.115659,0.016000,0.978000,0.104000,192.000000,0.000000,0.000000,0.000000,0.000000,0.000000,0.000000,0.000000,0.000000,0.000000,1646639860.246200,0.000000
104.000000,43691.871308,41642.372804,4163.124164,26199.217284,-715.054657,17496.453821,20736.048607,18292.622959,0.016000,0.978000,0.104000,192.000000,0.000000,0.000000,0.000000,0.000000,0.000000,0.000000,0.000000,0.000000,0.000000,1646639860.254174,0.000000
105.000000,43693.324172,41637.321310,4158.184428,26199.485505,-717.178073,17496.722042,20736.808567,18296.154534,0.016000,0.978000,0.104000,192.000000,0.000000,0.000000,0.000000,0.000000,0.000000,0.000000,0.000000,0.000000,0.000000,1646639860.254186,0.000000
106.000000,43699.202680,41642.439859,4164.375861,26206.079269,-710.897232,17502.667606,20741.994171,18302.480078,0.016000,0.978000,0.104000,192.000000,0.000000,0.000000,0.000000,0.000000,0.000000,0.000000,0.000000,0.000000,0.000000,1646639860.260824,0.000000
107.000000,43694.888794,41641.456382,4163.593550,26203.307653,-712.685372,17498.756051,20737.613229,18294.656967,0.016000,0.978000,0.104000,192.000000,0.000000,0.000000,0.000000,0.000000,0.000000,0.000000,0.000000,0.000000,0.000000,1646639860.260853,0.000000
108.000000,43694.598221,41637.142496,4161.738355,26202.368880,-712.975945,17498.934865,20739.803700,18296.668624,0.024000,0.986000,0.102000,192.000000,0.000000,192.000000,30.000000,208.000000,3.000000,48.000000,0.000000,0.000000,0.000000,1646639860.267821,0.000000
109.000000,43702.287221,41645.300882,4165.784021,26207.934464,-708.349134,17505.863906,20745.413988,18302.234209,0.024000,0.986000,0.102000,192.000000,0.000000,0.000000,0.000000,0.000000,0.000000,0.000000,0.000000,0.000000,0.000000,1646639860.275862,0.000000
110.000000,43705.662335,41649.413603,4172.713062,26207.040394,-705.778683,17507.428528,20742.731779,18301.295436,0.024000,0.986000,0.102000,192.000000,0.000000,0.000000,0.000000,0.000000,0.000000,0.000000,0.000000,0.000000,0.000000,1646639860.275876,0.000000
111.000000,43700.364971,41647.066670,4171.282550,26205.811048,-705.845738,17507.987321,20746.844500,18303.262389,0.024000,0.986000,0.102000,192.000000,0.000000,0.000000,0.000000,0.000000,0.000000,0.000000,0.000000,0.000000,0.000000,1646639860.283876,0.000000
112.000000,43698.465073,41646.574932,4169.337948,26205.833400,-706.426884,17506.892086,20746.620982,18305.274046,0.024000,0.986000,0.102000,192.000000,0.000000,0.000000,0.000000,0.000000,0.000000,0.000000,0.000000,0.000000,0.000000,1646639860.283890,0.000000
113.000000,43700.074399,41645.636159,4168.287416,26204.045260,-709.600831,17504.053414,20734.953372,18304.558790,0.024000,0.986000,0.102000,192.000000,0.000000,0.000000,0.000000,0.000000,0.000000,0.000000,0.000000,0.000000,0.000000,1646639860.290324,0.000000
114.000000,43699.180329,41643.177467,4167.974492,26203.151191,-711.724247,17506.400348,20738.440244,18308.962084,0.024000,0.986000,0.102000,192.000000,0.000000,0.000000,0.000000,0.000000,0.000000,0.000000,0.000000,0.000000,0.000000,1646639860.290331,0.000000
115.000000,43709.909166,41655.582685,4176.222286,26208.850885,-706.560994,17509.261371,20748.029142,18298.121488,0.024000,0.986000,0.102000,192.000000,0.000000,0.000000,0.000000,0.000000,0.000000,0.000000,0.000000,0.000000,0.000000,1646639860.298445,0.000000
116.000000,43714.603032,41659.717758,4178.122184,26209.052051,-704.124654,17508.188487,20744.072884,18292.511200,0.024000,0.986000,0.102000,192.000000,0.000000,0.000000,0.000000,0.000000,0.000000,0.000000,0.000000,0.000000,0.000000,1646639860.298458,0.000000
117.000000,43700.812006,41651.984054,4170.746108,26208.225037,-705.443407,17513.888182,20744.452863,18303.932941,0.024000,0.986000,0.102000,192.000000,0.000000,0.000000,0.000000,0.000000,0.000000,0.000000,0.000000,0.000000,0.000000,1646639860.306734,0.000000
118.000000,43695.738160,41652.051109,4166.611036,26212.248351,-704.124654,17518.179717,20741.077750,18306.883372,0.014000,0.982000,0.106000,192.000000,0.000000,112.000000,30.000000,176.000000,3.000000,80.000000,0.000000,0.000000,0.000000,1646639860.306751,0.000000
119.000000,43705.796445,41666.356226,4172.266027,26220.496144,-700.280154,17526.136938,20747.515052,18326.396445,0.014000,0.982000,0.106000,192.000000,0.000000,0.000000,0.000000,0.000000,0.000000,0.000000,0.000000,0.000000,0.000000,1646639860.313301,0.000000
120.000000,43709.640945,41671.340665,4172.467193,26221.121993,-701.688314,17527.031008,20750.599593,18332.744340,0.014000,0.982000,0.106000,192.000000,0.000000,0.000000,0.000000,0.000000,0.000000,0.000000,0.000000,0.000000,0.000000,1646639860.313317,0.000000
121.000000,43714.267756,41678.381464,4183.039568,26227.425185,-696.815633,17532.529537,20756.455750,18330.665628,0.014000,0.982000,0.106000,192.000000,0.000000,0.000000,0.000000,0.000000,0.000000,0.000000,0.000000,0.000000,0.000000,1646639860.321355,0.000000
122.000000,43711.339678,41675.118110,4177.809260,26224.430051,-701.263631,17529.020313,20748.654991,18330.777387,0.014000,0.982000,0.106000,192.000000,0.000000,0.000000,0.000000,0.000000,0.000000,0.000000,0.000000,0.000000,0.000000,1646639860.321372,0.000000
123.000000,43713.038410,41670.826575,4173.785946,26220.227923,-709.042038,17519.856098,20736.138014,18317.947485,0.014000,0.982000,0.106000,192.000000,0.000000,0.000000,0.000000,0.000000,0.000000,0.000000,0.000000,0.000000,0.000000,1646639860.328393,0.000000
124.000000,43708.746875,41670.200726,4174.836478,26218.439784,-711.634840,17518.626752,20739.468424,18314.661779,0.014000,0.982000,0.106000,192.000000,0.000000,0.000000,0.000000,0.000000,0.000000,0.000000,0.000000,0.000000,0.000000,1646639860.336134,0.000000
125.000000,43707.361067,41670.848926,4182.927809,26221.680787,-707.522119,17524.259391,20742.418855,18311.465479,0.014000,0.982000,0.106000,192.000000,0.000000,0.000000,0.000000,0.000000,0.000000,0.000000,0.000000,0.000000,0.000000,1646639860.336150,0.000000
126.000000,43713.418390,41677.979133,4188.918077,26227.179316,-702.090645,17528.707388,20743.156462,18313.141860,0.014000,0.982000,0.106000,192.000000,0.000000,0.000000,0.000000,0.000000,0.000000,0.000000,0.000000,0.000000,0.000000,1646639860.343024,0.000000
127.000000,43715.407695,41680.504880,4190.013312,26231.247333,-699.095511,17531.836633,20741.994171,18323.937753,0.014000,0.982000,0.106000,192.000000,0.000000,0.000000,0.000000,0.000000,0.000000,0.000000,0.000000,0.000000,0.000000,1646639860.343040,0.000000
128.000000,43718.402829,41684.617601,4190.773271,26232.856659,-698.916697,17533.892993,20744.497567,18331.537346,0.014000,0.984000,0.100000,192.000000,0.000000,112.000000,30.000000,192.000000,3.000000,32.000000,0.000000,0.000000,0.000000,1646639860.351032,0.000000
129.000000,43723.454323,41688.193880,4197.143519,26232.476679,-695.966267,17535.927002,20744.564622,18329.883317,0.014000,0.984000,0.100000,192.000000,0.000000,0.000000,0.000000,0.000000,0.000000,0.000000,0.000000,0.000000,0.000000,1646639860.351067,0.000000
130.000000,43717.642870,41678.828499,4191.510879,26222.552505,-701.710665,17529.221479,20741.435378,18318.841555,0.014000,0.984000,0.100000,192.000000,0.000000,0.000000,0.000000,0.000000,0.000000,0.000000,0.000000,0.000000,0.000000,1646639860.359005,0.000000
131.000000,43719.095733,41679.521403,4192.159080,26223.714796,-699.989581,17528.327409,20738.484948,18314.438261,0.014000,0.984000,0.100000,192.000000,0.000000,0.000000,0.000000,0.000000,0.000000,0.000000,0.000000,0.000000,0.000000,1646639860.359021,0.000000
132.000000,43722.761419,41681.153081,4193.053149,26224.653569,-696.972096,17526.516918,20735.623924,18312.024273,0.014000,0.984000,0.100000,192.000000,0.000000,0.000000,0.000000,0.000000,0.000000,0.000000,0.000000,0.000000,0.000000,1646639860.366072,0.000000
133.000000,43727.991727,41682.114206,4194.438958,26225.435880,-696.905040,17527.299229,20739.311962,18311.040796,0.014000,0.984000,0.100000,192.000000,0.000000,0.000000,0.000000,0.000000,0.000000,0.000000,0.000000,0.000000,0.000000,1646639860.366089,0.000000
134.000000,43722.247329,41676.012179,4183.263085,26217.769232,-703.968192,17523.186508,20736.562697,18311.018444,0.014000,0.984000,0.100000,192.000000,0.000000,0.000000,0.000000,0.000000,0.000000,0.000000,0.000000,0.000000,0.000000,1646639860.373491,0.000000
135.000000,43713.776018,41678.515575,4190.125071,26218.104508,-702.492976,17522.985342,20731.712369,18314.907648,0.014000,0.984000,0.100000,192.000000,0.000000,0.000000,0.000000,0.000000,0.000000,0.000000,0.000000,0.000000,0.000000,1646639860.373509,0.000000
136.000000,43711.585547,41682.807110,4199.199879,26223.424223,-696.882689,17525.466386,20735.042779,18316.204049,0.014000,0.984000,0.100000,192.000000,0.000000,0.000000,0.000000,0.000000,0.000000,0.000000,0.000000,0.000000,0.000000,1646639860.382215,0.000000
137.000000,43715.519454,41685.288153,4203.022027,26226.017025,-693.664037,17529.221479,20742.709427,18318.550982,0.014000,0.984000,0.100000,192.000000,0.000000,0.000000,0.000000,0.000000,0.000000,0.000000,0.000000,0.000000,0.000000,1646639860.382231,0.000000
138.000000,43713.150169,41682.896517,4199.468100,26222.485450,-696.390950,17525.198165,20733.120529,18309.856154,0.008000,0.976000,0.104000,192.000000,0.000000,64.000000,30.000000,128.000000,3.000000,64.000000,0.000000,0.000000,0.000000,1646639860.388613,0.000000
139.000000,43727.768210,41693.558299,4210.912193,26233.817784,-686.153851,17538.340990,20744.743436,18322.864869,0.008000,0.976000,0.104000,192.000000,0.000000,0.000000,0.000000,0.000000,0.000000,0.000000,0.000000,0.000000,0.000000,1646639860.395869,0.000000
140.000000,43723.811951,41690.652572,4205.324257,26228.676883,-690.691255,17534.474139,20743.111759,18320.875564,0.008000,0.976000,0.104000,192.000000,0.000000,0.000000,0.000000,0.000000,0.000000,0.000000,0.000000,0.000000,0.000000,1646639860.395885,0.000000
141.000000,43718.268719,41686.808072,4199.222231,26225.324121,-695.005142,17529.981438,20739.580183,18313.186564,0.008000,0.976000,0.104000,192.000000,0.000000,0.000000,0.000000,0.000000,0.000000,0.000000,0.000000,0.000000,0.000000,1646639860.403310,0.000000
142.000000,43721.442666,41689.646743,4201.859737,26224.474755,-694.111072,17528.774444,20737.635581,18305.586971,0.008000,0.976000,0.104000,192.000000,0.000000,0.000000,0.000000,0.000000,0.000000,0.000000,0.000000,0.000000,0.000000,1646639860.403326,0.000000
143.000000,43718.224015,41685.958706,4199.557507,26219.132688,-698.313200,17523.164156,20737.814395,18297.339177,0.008000,0.976000,0.104000,192.000000,0.000000,0.000000,0.000000,0.000000,0.000000,0.000000,0.000000,0.000000,0.000000,1646639860.411333,0.000000
144.000000,43718.514588,41681.443653,4198.126995,26218.529191,-700.034285,17525.622848,20739.647238,18314.952351,0.008000,0.976000,0.104000,192.000000,0.000000,0.000000,0.000000,0.000000,0.000000,0.000000,0.000000,0.000000,0.000000,1646639860.411348,0.000000
145.000000,43717.307594,41682.404778,4195.489489,26217.724528,-704.951668,17524.549964,20741.055398,18320.249715,0.008000,0.976000,0.104000,192.000000,0.000000,0.000000,0.000000,0.000000,0.000000,0.000000,0.000000,0.000000,0.000000,1646639860.419290,0.000000
146.000000,43714.491274,41681.913040,4193.678998,26218.372729,-705.443407,17522.046569,20742.351799,18315.645256,0.008000,0.976000,0.104000,192.000000,0.000000,0.000000,0.000000,0.000000,0.000000,0.000000,0.000000,0.000000,0.000000,1646639860.419306,0.000000
147.000000,43712.032582,41683.388255,4195.333027,26221.770194,-702.805901,17522.538307,20744.519919,18312.136032,0.008000,0.976000,0.104000,192.000000,0.000000,0.000000,0.000000,0.000000,0.000000,0.000000,0.000000,0.000000,0.000000,1646639860.425883,0.000000
148.000000,43711.160864,41683.969400,4197.210574,26221.703139,-703.901136,17522.940638,20746.419817,18310.236133,0.002000,0.984000,0.102000,192.000000,0.000000,16.000000,30.000000,192.000000,3.000000,48.000000,0.000000,0.000000,0.000000,1646639860.425900,0.000000
149.000000,43717.397000,41689.602040,4200.473929,26225.368825,-700.704837,17524.862888,20748.476177,18315.935828,0.002000,0.984000,0.102000,192.000000,0.000000,0.000000,0.000000,0.000000,0.000000,0.000000,0.000000,0.000000,0.000000,1646639860.433925,0.000000
150.000000,43710.155035,41684.349380,4196.048283,26222.932484,-703.319991,17518.783214,20740.921288,18312.270142,0.002000,0.984000,0.102000,192.000000,0.000000,0.000000,0.000000,0.000000,0.000000,0.000000,0.000000,0.000000,0.000000,1646639860.433960,0.000000
151.000000,43711.876120,41690.049075,4200.406873,26226.039377,-700.548375,17519.252601,20740.496605,18310.124375,0.002000,0.984000,0.102000,192.000000,0.000000,0.000000,0.000000,0.000000,0.000000,0.000000,0.000000,0.000000,0.000000,1646639860.441887,0.000000
152.000000,43716.793503,41694.027685,4203.893745,26229.839174,-694.803976,17524.572316,20749.884337,18318.014540,0.002000,0.984000,0.102000,192.000000,0.000000,0.000000,0.000000,0.000000,0.000000,0.000000,0.000000,0.000000,0.000000,1646639860.441903,0.000000
153.000000,43717.844035,41692.060732,4204.184318,26229.593304,-695.183956,17526.583973,20752.544195,18316.449918,0.002000,0.984000,0.102000,192.000000,0.000000,0.000000,0.000000,0.000000,0.000000,0.000000,0.000000,0.000000,0.000000,1646639860.449108,0.000000
154.000000,43713.217224,41686.383389,4198.574030,26225.078252,-701.084817,17522.225383,20743.625849,18308.559753,0.002000,0.984000,0.102000,192.000000,0.000000,0.000000,0.000000,0.000000,0.000000,0.000000,0.000000,0.000000,0.000000,1646639860.449124,0.000000
155.000000,43710.132684,41684.796415,4199.222231,26224.273589,-704.236413,17524.013522,20749.079674,18311.309017,0.002000,0.984000,0.102000,192.000000,0.000000,0.000000,0.000000,0.000000,0.000000,0.000000,0.000000,0.000000,0.000000,1646639860.455614,0.000000
156.000000,43713.239576,41687.478624,4203.558469,26226.933447,-701.598907,17529.422644,20753.058285,18321.188488,0.002000,0.984000,0.102000,192.000000,0.000000,0.000000,0.000000,0.000000,0.000000,0.000000,0.000000,0.000000,0.000000,1646639860.463540,0.000000
157.000000,43711.473788,41682.494185,4198.350513,26222.172525,-704.772854,17522.895935,20744.341105,18312.426604,0.002000,0.984000,0.102000,192.000000,0.000000,0.000000,0.000000,0.000000,0.000000,0.000000,0.000000,0.000000,0.000000,1646639860.463557,0.000000
158.000000,43707.271660,41678.716740,4193.701350,26217.769232,-709.198500,17519.364359,20747.358590,18312.024273,0.008000,0.982000,0.098000,192.000000,0.000000,64.000000,30.000000,176.000000,3.000000,16.000000,0.000000,0.000000,0.000000,1646639860.471555,0.000000
159.000000,43708.188082,41684.327028,4199.579859,26221.256104,-706.516290,17523.410025,20752.097160,18318.908610,0.008000,0.982000,0.098000,192.000000,0.000000,0.000000,0.000000,0.000000,0.000000,0.000000,0.000000,0.000000,0.000000,1646639860.471572,0.000000
160.000000,43707.584585,41687.500976,4200.183356,26222.664264,-706.538642,17521.286609,20747.403294,18314.371206,0.008000,0.982000,0.098000,192.000000,0.000000,0.000000,0.000000,0.000000,0.000000,0.000000,0.000000,0.000000,0.000000,1646639860.478168,0.000000
161.000000,43708.188082,41688.663267,4198.864603,26223.066595,-707.745636,17517.509165,20742.374151,18305.877543,0.008000,0.982000,0.098000,192.000000,0.000000,0.000000,0.000000,0.000000,0.000000,0.000000,0.000000,0.000000,0.000000,1646639860.478185,0.000000
162.000000,43710.445608,41692.865395,4202.664399,26226.821688,-703.096474,17525.354627,20754.712314,18318.126299,0.008000,0.982000,0.098000,192.000000,0.000000,0.000000,0.000000,0.000000,0.000000,0.000000,0.000000,0.000000,0.000000,1646639860.487639,0.000000
163.000000,43716.167655,41697.760427,4208.587612,26232.655493,-695.519232,17531.903688,20762.311907,18333.079616,0.008000,0.982000,0.098000,192.000000,0.000000,0.000000,0.000000,0.000000,0.000000,0.000000,0.000000,0.000000,0.000000,1646639860.487655,0.000000
164.000000,43718.827512,41697.827482,4205.503071,26231.984941,-695.720398,17528.372112,20751.784235,18329.570392,0.008000,0.982000,0.098000,192.000000,0.000000,0.000000,0.000000,0.000000,0.000000,0.000000,0.000000,0.000000,0.000000,1646639860.494230,0.000000
165.000000,43714.960660,41695.927584,4202.977324,26229.503897,-698.179090,17525.242868,20744.966953,18321.501413,0.008000,0.982000,0.098000,192.000000,0.000000,0.000000,0.000000,0.000000,0.000000,0.000000,0.000000,0.000000,0.000000,1646639860.494247,0.000000
166.000000,43712.814893,41691.121959,4201.636219,26226.173487,-701.107168,17525.131109,20750.487834,18323.513070,0.008000,0.982000,0.098000,192.000000,0.000000,0.000000,0.000000,0.000000,0.000000,0.000000,0.000000,0.000000,0.000000,1646639860.501377,0.000000
167.000000,43711.563195,41690.361999,4202.038551,26225.435880,-701.576555,17525.421682,20749.571413,18316.315808,0.008000,0.982000,0.098000,192.000000,0.000000,0.000000,0.000000,0.000000,0.000000,0.000000,0.000000,0.000000,0.000000,1646639860.501393,0.000000
168.000000,43715.742971,41692.418360,4202.910269,26226.844040,-700.034285,17522.851231,20740.988343,18301.138973,0.008000,0.988000,0.098000,192.000000,0.000000,64.000000,30.000000,224.000000,3.000000,16.000000,0.000000,0.000000,0.000000,1646639860.508819,0.000000
169.000000,43715.497102,41695.234680,4207.693542,26231.873182,-696.368599,17528.886202,20748.476177,18314.885296,0.008000,0.988000,0.098000,192.000000,0.000000,0.000000,0.000000,0.000000,0.000000,0.000000,0.000000,0.000000,0.000000,1646639860.508835,0.000000
170.000000,43710.356201,41694.675886,4210.889841,26234.711854,-690.579497,17535.859947,20759.495587,18337.035875,0.008000,0.988000,0.098000,192.000000,0.000000,0.000000,0.000000,0.000000,0.000000,0.000000,0.000000,0.000000,0.000000,1646639860.515804,0.000000
171.000000,43711.451436,41691.904270,4207.805301,26231.739072,-693.015837,17529.377941,20749.705523,18326.128224,0.008000,0.988000,0.098000,192.000000,0.000000,0.000000,0.000000,0.000000,0.000000,0.000000,0.000000,0.000000,0.000000,1646639860.523876,0.000000
172.000000,43711.294974,41691.278421,4207.447673,26231.359092,-694.200479,17526.785138,20747.582107,18319.176831,0.008000,0.988000,0.098000,192.000000,0.000000,0.000000,0.000000,0.000000,0.000000,0.000000,0.000000,0.000000,0.000000,1646639860.523892,0.000000
173.000000,43708.523358,41688.439749,4204.474891,26226.329950,-697.754407,17523.164156,20744.922250,18316.159346,0.008000,0.988000,0.098000,192.000000,0.000000,0.000000,0.000000,0.000000,0.000000,0.000000,0.000000,0.000000,0.000000,1646639860.530881,0.000000
174.000000,43701.080227,41686.361037,4197.679960,26220.674958,-704.839910,17519.252601,20740.317791,18313.231267,0.008000,0.988000,0.098000,192.000000,0.000000,0.000000,0.000000,0.000000,0.000000,0.000000,0.000000,0.000000,0.000000,1646639860.530897,0.000000
175.000000,43703.136588,41687.076293,4198.372865,26221.010234,-703.655267,17519.520822,20736.786215,18311.890162,0.008000,0.988000,0.098000,192.000000,0.000000,0.000000,0.000000,0.000000,0.000000,0.000000,0.000000,0.000000,0.000000,1646639860.538487,0.000000
176.000000,43704.790617,41684.058807,4197.478795,26221.658435,-705.041075,17521.465423,20737.657933,18313.812412,0.008000,0.988000,0.098000,192.000000,0.000000,0.000000,0.000000,0.000000,0.000000,0.000000,0.000000,0.000000,0.000000,1646639860.538503,0.000000
177.000000,43709.395076,41685.914002,4197.657609,26224.050072,-704.392875,17524.393502,20741.167157,18313.097157,0.008000,0.988000,0.098000,192.000000,0.000000,0.000000,0.000000,0.000000,0.000000,0.000000,0.000000,0.000000,0.000000,1646639860.546485,0.000000
178.000000,43710.914995,41689.087950,4201.435054,26228.363958,-702.917660,17527.723912,20741.167157,18319.445052,0.002000,0.980000,0.092000,192.000000,0.000000,16.000000,30.000000,160.000000,2.000000,224.000000,0.000000,0.000000,0.000000,1646639860.546502,0.000000
179.000000,43713.597204,41694.139444,4205.793644,26232.007293,-697.329724,17529.713217,20741.413026,18323.200145,0.002000,0.980000,0.092000,192.000000,0.000000,0.000000,0.000000,0.000000,0.000000,0.000000,0.000000,0.000000,0.000000,1646639860.554484,0.000000
180.000000,43709.596242,41691.121959,4200.540984,26226.218191,-700.481319,17523.164156,20731.578258,18311.688997,0.002000,0.980000,0.092000,192.000000,0.000000,0.000000,0.000000,0.000000,0.000000,0.000000,0.000000,0.000000,0.000000,1646639860.554500,0.000000
181.000000,43710.870291,41692.910098,4197.858774,26224.497107,-702.582383,17522.292438,20728.113738,18311.510183,0.002000,0.980000,0.092000,192.000000,0.000000,0.000000,0.000000,0.000000,0.000000,0.000000,0.000000,0.000000,0.000000,1646639860.561123,0.000000
182.000000,43711.473788,41696.687543,4197.747016,26223.983016,-703.498805,17519.342008,20724.872735,18305.743433,0.002000,0.980000,0.092000,192.000000,0.000000,0.000000,0.000000,0.000000,0.000000,0.000000,0.000000,0.000000,0.000000,1646639860.561139,0.000000
183.000000,43707.472826,41694.027685,4198.261106,26225.391176,-702.247107,17519.811394,20728.940753,18295.551037,0.002000,0.980000,0.092000,192.000000,0.000000,0.000000,0.000000,0.000000,0.000000,0.000000,0.000000,0.000000,0.000000,1646639860.569093,0.000000
184.000000,43703.225994,41687.433921,4195.735359,26223.647740,-704.862261,17522.046569,20733.679322,18314.080633,0.002000,0.980000,0.092000,192.000000,0.000000,0.000000,0.000000,0.000000,0.000000,0.000000,0.000000,0.000000,0.000000,1646639860.569109,0.000000
185.000000,43707.986916,41690.920793,4197.232926,26227.268723,-701.733017,17525.376979,20736.853270,18331.291477,0.002000,0.980000,0.092000,192.000000,0.000000,0.000000,0.000000,0.000000,0.000000,0.000000,0.000000,0.000000,0.000000,1646639860.577510,0.000000
186.000000,43707.204605,41693.200671,4200.317466,26228.810993,-701.442444,17527.098063,20740.653067,18326.687017,0.002000,0.980000,0.092000,192.000000,0.000000,0.000000,0.000000,0.000000,0.000000,0.000000,0.000000,0.000000,0.000000,1646639860.584201,0.000000
187.000000,43709.752704,41696.955764,4205.637181,26233.773081,-696.279192,17530.897859,20745.168119,18314.058282,0.002000,0.980000,0.092000,192.000000,0.000000,0.000000,0.000000,0.000000,0.000000,0.000000,0.000000,0.000000,0.000000,1646639860.584217,0.000000
188.000000,43703.784788,41694.430017,4199.199879,26230.509726,-699.095511,17530.272011,20743.178814,18320.227363,-0.004000,0.982000,0.088000,192.000000,255.000000,224.000000,30.000000,176.000000,2.000000,192.000000,0.000000,0.000000,0.000000,1646639860.590532,0.000000
189.000000,43699.135625,41690.898441,4194.751882,26226.955799,-701.889479,17530.272011,20744.944602,18335.605363,-0.004000,0.982000,0.088000,192.000000,0.000000,0.000000,0.000000,0.000000,0.000000,0.000000,0.000000,0.000000,0.000000,1646639860.590548,0.000000
190.000000,43702.041352,41698.542738,4201.211536,26234.689502,-695.586287,17534.362380,20744.966953,18330.755035,-0.004000,0.982000,0.088000,192.000000,0.000000,0.000000,0.000000,0.000000,0.000000,0.000000,0.000000,0.000000,0.000000,1646639860.598688,0.000000
191.000000,43695.201718,41698.006296,4199.266934,26231.515554,-697.463834,17530.428473,20736.696808,18323.691884,-0.004000,0.982000,0.088000,192.000000,0.000000,0.000000,0.000000,0.000000,0.000000,0.000000,0.000000,0.000000,0.000000,1646639860.598704,0.000000
192.000000,43694.844090,41698.430979,4198.506975,26229.727415,-698.871994,17526.472214,20730.550078,18314.661779,-0.004000,0.982000,0.088000,192.000000,0.000000,0.000000,0.000000,0.000000,0.000000,0.000000,0.000000,0.000000,0.000000,1646639860.606590,0.000000
193.000000,43698.062742,41701.895499,4204.452539,26235.762386,-693.015837,17530.227307,20736.517994,18315.622904,-0.004000,0.982000,0.088000,192.000000,0.000000,0.000000,0.000000,0.000000,0.000000,0.000000,0.000000,0.000000,0.000000,1646639860.606622,0.000000
194.000000,43697.347486,41698.475683,4203.625524,26235.762386,-691.182994,17530.808452,20738.261430,18318.729796,-0.004000,0.982000,0.088000,192.000000,0.000000,0.000000,0.000000,0.000000,0.000000,0.000000,0.000000,0.000000,0.000000,1646639860.613258,0.000000
195.000000,43702.913070,41701.604927,4208.542908,26238.891630,-686.891459,17537.983362,20749.884337,18328.631619,-0.004000,0.982000,0.088000,192.000000,0.000000,0.000000,0.000000,0.000000,0.000000,0.000000,0.000000,0.000000,0.000000,1646639860.613274,0.000000
196.000000,43697.168672,41696.620488,4204.296077,26234.376578,-689.148985,17532.238964,20745.279878,18317.411043,-0.004000,0.982000,0.088000,192.000000,0.000000,0.000000,0.000000,0.000000,0.000000,0.000000,0.000000,0.000000,0.000000,1646639860.621442,0.000000
197.000000,43701.706076,41702.968383,4208.945240,26240.635066,-683.762215,17535.032932,20749.817282,18323.915401,-0.004000,0.982000,0.088000,192.000000,0.000000,0.000000,0.000000,0.000000,0.000000,0.000000,0.000000,0.000000,0.000000,1646639860.621458,0.000000
198.000000,43702.823663,41700.710857,4208.118225,26240.411549,-683.963380,17533.870641,20744.206994,18324.742416,-0.004000,0.982000,0.088000,192.000000,0.000000,0.000000,0.000000,0.000000,0.000000,0.000000,0.000000,0.000000,0.000000,1646639860.629394,0.000000
199.000000,43697.168672,41694.720589,4204.452539,26234.711854,-688.858412,17527.768615,20733.835785,18309.789098,-0.004000,0.982000,0.088000,192.000000,0.000000,0.000000,30.000000,176.000000,2.000000,224.000000,0.000000,0.000000,0.000000,1646639860.629410,0.000000
200.000000,43698.912108,41697.089874,4206.799472,26236.164717,-686.064444,17531.099025,20737.054436,18311.353721,-0.004000,0.982000,0.088000,192.000000,0.000000,0.000000,0.000000,0.000000,0.000000,0.000000,0.000000,0.000000,0.000000,1646639860.636432,0.000000
201.000000,43704.723561,41702.007258,4206.777120,26240.120976,-683.538697,17536.731665,20742.128282,18331.984381,-0.004000,0.982000,0.088000,192.000000,0.000000,0.000000,0.000000,0.000000,0.000000,0.000000,0.000000,0.000000,0.000000,1646639860.643007,0.000000
202.000000,43692.251288,41699.034476,4206.352437,26238.064615,-688.076101,17534.340028,20737.523822,18331.358532,-0.004000,0.982000,0.088000,192.000000,0.000000,0.000000,0.000000,0.000000,0.000000,0.000000,0.000000,0.000000,0.000000,1646639860.643023,0.000000
203.000000,43686.998628,41696.866357,4205.704237,26235.896496,-692.635857,17533.222441,20736.965029,18322.596648,-0.004000,0.982000,0.088000,192.000000,0.000000,0.000000,0.000000,0.000000,0.000000,0.000000,0.000000,0.000000,0.000000,1646639860.651114,0.000000
204.000000,43692.586564,41701.113188,4208.475853,26240.143328,-688.344322,17538.698618,20750.040799,18330.240945,-0.004000,0.982000,0.088000,192.000000,0.000000,0.000000,0.000000,0.000000,0.000000,0.000000,0.000000,0.000000,0.000000,1646639860.651130,0.000000
205.000000,43695.492291,41703.415418,4209.369923,26243.183165,-684.164546,17538.944487,20745.458692,18329.168061,-0.004000,0.982000,0.088000,192.000000,0.000000,0.000000,0.000000,0.000000,0.000000,0.000000,0.000000,0.000000,0.000000,1646639860.659007,0.000000
206.000000,43697.794521,41704.778874,4211.046304,26246.245354,-681.974075,17537.759845,20739.356666,18324.943581,-0.004000,0.982000,0.088000,192.000000,0.000000,0.000000,0.000000,0.000000,0.000000,0.000000,0.000000,0.000000,0.000000,1646639860.659023,0.000000
207.000000,43696.788692,41701.806092,4208.721722,26243.384331,-686.131500,17532.909516,20743.402331,18315.019407,-0.004000,0.982000,0.088000,192.000000,0.000000,0.000000,0.000000,0.000000,0.000000,0.000000,0.000000,0.000000,0.000000,1646639860.666116,0.000000
208.000000,43692.184233,41699.459159,4204.765463,26240.210383,-689.596020,17527.299229,20742.307096,18311.465479,-0.004000,0.982000,0.088000,192.000000,0.000000,0.000000,0.000000,0.000000,0.000000,0.000000,0.000000,0.000000,0.000000,1646639860.666133,0.000000
209.000000,43695.961678,41696.687543,4205.145443,26242.557316,-689.663075,17529.310886,20742.441206,18323.155442,-0.004000,0.982000,0.088000,192.000000,0.000000,0.000000,30.000000,176.000000,2.000000,208.000000,0.000000,0.000000,0.000000,1646639860.673485,0.000000
210.000000,43695.715808,41694.206499,4205.056036,26240.568011,-690.467738,17532.261316,20749.973744,18336.208860,-0.004000,0.982000,0.088000,192.000000,0.000000,0.000000,0.000000,0.000000,0.000000,0.000000,0.000000,0.000000,0.000000,1646639860.673501,0.000000
211.000000,43693.279468,41695.614659,4203.267897,26239.673941,-692.032360,17532.708351,20750.219613,18337.058227,-0.004000,0.982000,0.088000,192.000000,0.000000,0.000000,0.000000,0.000000,0.000000,0.000000,0.000000,0.000000,0.000000,1646639860.681581,0.000000
212.000000,43694.598221,41697.223985,4202.083254,26241.909116,-690.713607,17529.132072,20741.010695,18315.824069,-0.004000,0.982000,0.088000,192.000000,0.000000,0.000000,0.000000,0.000000,0.000000,0.000000,0.000000,0.000000,0.000000,1646639860.681597,0.000000
213.000000,43693.212413,41696.844005,4202.552641,26242.579668,-688.947819,17529.132072,20740.742474,18309.900857,-0.004000,0.982000,0.088000,192.000000,0.000000,0.000000,0.000000,0.000000,0.000000,0.000000,0.000000,0.000000,0.000000,1646639860.689640,0.000000
214.000000,43689.971410,41696.061694,4202.977324,26240.746825,-689.394854,17531.434301,20741.033046,18330.017427,-0.004000,0.982000,0.088000,192.000000,0.000000,0.000000,0.000000,0.000000,0.000000,0.000000,0.000000,0.000000,0.000000,1646639860.689674,0.000000
215.000000,43691.267811,41698.453331,4202.954972,26241.462081,-687.830232,17529.713217,20736.048607,18332.878450,-0.004000,0.982000,0.088000,192.000000,0.000000,0.000000,0.000000,0.000000,0.000000,0.000000,0.000000,0.000000,0.000000,1646639860.695784,0.000000
216.000000,43697.168672,41700.442636,4205.212498,26244.658380,-685.617409,17531.389598,20743.536442,18335.828881,-0.004000,0.982000,0.088000,192.000000,0.000000,0.000000,0.000000,0.000000,0.000000,0.000000,0.000000,0.000000,0.000000,1646639860.695800,0.000000
217.000000,43696.431064,41700.934374,4203.781987,26243.898421,-687.785529,17531.300191,20743.871718,18332.587878,-0.004000,0.982000,0.088000,192.000000,0.000000,0.000000,0.000000,0.000000,0.000000,0.000000,0.000000,0.000000,0.000000,1646639860.703319,0.000000
218.000000,43698.956811,41704.242433,4205.771292,26246.334761,-687.182032,17534.116511,20744.206994,18330.151538,-0.004000,0.982000,0.088000,192.000000,0.000000,0.000000,0.000000,0.000000,0.000000,0.000000,0.000000,0.000000,0.000000,1646639860.711295,0.000000
219.000000,43698.979163,41703.951860,4207.022990,26247.295886,-687.003218,17538.877432,20753.147692,18334.890107,0.004000,0.986000,0.088000,192.000000,0.000000,32.000000,30.000000,208.000000,2.000000,192.000000,0.000000,0.000000,0.000000,1646639860.711311,0.000000
220.000000,43697.481596,41703.393066,4206.598306,26244.367807,-687.472604,17537.804548,20751.493663,18326.619962,0.004000,0.986000,0.088000,192.000000,0.000000,0.000000,0.000000,0.000000,0.000000,0.000000,0.000000,0.000000,0.000000,1646639860.719340,0.000000
221.000000,43691.357218,41697.849834,4201.613867,26238.176374,-689.484261,17533.647124,20745.525747,18320.093253,0.004000,0.986000,0.088000,192.000000,0.000000,0.000000,0.000000,0.000000,0.000000,0.000000,0.000000,0.000000,0.000000,1646639860.719356,0.000000
222.000000,43689.524375,41694.698238,4200.809205,26236.991732,-689.864241,17535.099987,20747.023314,18325.480023,0.004000,0.986000,0.088000,192.000000,0.000000,0.000000,0.000000,0.000000,0.000000,0.000000,0.000000,0.000000,0.000000,1646639860.725879,0.000000
223.000000,43690.060817,41694.966459,4199.512803,26236.052958,-692.077064,17534.630601,20742.597668,18325.927058,0.004000,0.986000,0.088000,192.000000,0.000000,0.000000,0.000000,0.000000,0.000000,0.000000,0.000000,0.000000,0.000000,1646639860.725895,0.000000
224.000000,43690.150224,41696.352267,4198.842251,26237.595229,-690.244221,17533.088330,20739.222555,18325.256506,0.004000,0.986000,0.088000,192.000000,0.000000,0.000000,0.000000,0.000000,0.000000,0.000000,0.000000,0.000000,0.000000,1646639860.733921,0.000000
225.000000,43698.889756,41710.590328,4204.944277,26245.954781,-681.415281,17533.825938,20740.809529,18324.898878,0.004000,0.986000,0.088000,192.000000,0.000000,0.000000,0.000000,0.000000,0.000000,0.000000,0.000000,0.000000,0.000000,1646639860.733937,0.000000
226.000000,43701.460207,41714.077200,4206.911231,26247.385293,-679.649494,17533.334200,20742.329448,18322.239020,0.004000,0.986000,0.088000,192.000000,0.000000,0.000000,0.000000,0.000000,0.000000,0.000000,0.000000,0.000000,0.000000,1646639860.741906,0.000000
227.000000,43693.927669,41699.816787,4204.184318,26240.076272,-684.455119,17530.674342,20743.268221,18317.545154,0.004000,0.986000,0.088000,192.000000,0.000000,0.000000,0.000000,0.000000,0.000000,0.000000,0.000000,0.000000,0.000000,1646639860.741923,0.000000
228.000000,43691.536032,41694.899403,4203.871394,26238.712816,-683.941029,17532.820109,20745.346933,18323.647180,0.004000,0.986000,0.088000,192.000000,0.000000,0.000000,0.000000,0.000000,0.000000,0.000000,0.000000,0.000000,0.000000,1646639860.749115,0.000000
229.000000,43683.511756,41685.221098,4199.624562,26231.090871,-689.461909,17526.092234,20736.361532,18318.394520,0.004000,0.988000,0.090000,192.000000,0.000000,32.000000,30.000000,224.000000,2.000000,208.000000,0.000000,0.000000,0.000000,1646639860.749131,0.000000
230.000000,43683.444701,41685.914002,4199.579859,26231.314389,-689.238392,17528.014484,20737.255602,18315.242924,0.004000,0.988000,0.090000,192.000000,0.000000,0.000000,0.000000,0.000000,0.000000,0.000000,0.000000,0.000000,0.000000,1646639860.756548,0.000000
231.000000,43687.468015,41689.602040,4203.491414,26235.896496,-685.393892,17535.189394,20743.558793,18317.992189,0.004000,0.988000,0.090000,192.000000,0.000000,0.000000,0.000000,0.000000,0.000000,0.000000,0.000000,0.000000,0.000000,1646639860.756565,0.000000
232.000000,43694.195890,41690.898441,4204.586649,26236.790566,-684.835098,17535.591726,20746.129244,18317.746320,0.004000,0.988000,0.090000,192.000000,0.000000,0.000000,0.000000,0.000000,0.000000,0.000000,0.000000,0.000000,0.000000,1646639860.763593,0.000000
233.000000,43686.573945,41685.466967,4198.574030,26233.840136,-690.847718,17532.238964,20740.653067,18311.353721,0.004000,0.988000,0.090000,192.000000,0.000000,0.000000,0.000000,0.000000,0.000000,0.000000,0.000000,0.000000,0.000000,1646639860.771602,0.000000
234.000000,43680.360160,41681.175432,4194.573068,26229.638008,-694.379293,17528.595630,20735.020427,18299.619055,0.004000,0.988000,0.090000,192.000000,0.000000,0.000000,0.000000,0.000000,0.000000,0.000000,0.000000,0.000000,0.000000,1646639860.771619,0.000000
235.000000,43684.741102,41690.384351,4199.825728,26234.711854,-690.199517,17535.479967,20745.995134,18322.216668,0.004000,0.988000,0.090000,192.000000,0.000000,0.000000,0.000000,0.000000,0.000000,0.000000,0.000000,0.000000,0.000000,1646639860.778109,0.000000
236.000000,43688.026808,41695.189976,4204.206670,26240.456252,-684.097491,17542.587822,20757.975669,18346.602422,0.004000,0.988000,0.090000,192.000000,0.000000,0.000000,0.000000,0.000000,0.000000,0.000000,0.000000,0.000000,0.000000,1646639860.778120,0.000000
237.000000,43692.385398,41693.848871,4197.635257,26237.684636,-689.640723,17534.027104,20748.543233,18329.011599,0.004000,0.988000,0.090000,192.000000,0.000000,0.000000,0.000000,0.000000,0.000000,0.000000,0.000000,0.000000,0.000000,1646639860.786183,0.000000
238.000000,43697.213375,41696.531081,4195.288324,26238.489299,-690.735959,17528.483871,20737.501471,18310.861982,0.004000,0.988000,0.090000,192.000000,0.000000,0.000000,0.000000,0.000000,0.000000,0.000000,0.000000,0.000000,0.000000,1646639860.786200,0.000000
239.000000,43689.300858,41702.856624,4204.050208,26245.440691,-682.555220,17536.105816,20747.559756,18323.311904,0.006000,0.988000,0.090000,192.000000,0.000000,48.000000,30.000000,224.000000,2.000000,208.000000,0.000000,0.000000,0.000000,1646639860.793896,0.000000
240.000000,43682.885907,41699.503863,4205.346609,26241.931467,-684.231601,17535.144691,20750.376076,18332.520823,0.006000,0.988000,0.090000,192.000000,0.000000,0.000000,0.000000,0.000000,0.000000,0.000000,0.000000,0.000000,0.000000,1646639860.793907,0.000000
241.000000,43686.998628,41698.632145,4208.118225,26242.512613,-681.974075,17538.095121,20751.136035,18331.246773,0.006000,0.988000,0.090000,192.000000,0.000000,0.000000,0.000000,0.000000,0.000000,0.000000,0.000000,0.000000,0.000000,1646639860.801323,0.000000
242.000000,43690.485500,41701.470816,4210.599269,26245.820671,-678.576610,17540.844386,20750.398427,18332.878450,0.006000,0.988000,0.090000,192.000000,0.000000,0.000000,0.000000,0.000000,0.000000,0.000000,0.000000,0.000000,0.000000,1646639860.801335,0.000000
243.000000,43690.999590,41700.442636,4208.297039,26246.245354,-677.593133,17540.844386,20750.420779,18330.129186,0.006000,0.988000,0.090000,192.000000,0.000000,0.000000,0.000000,0.000000,0.000000,0.000000,0.000000,0.000000,0.000000,1646639860.808824,0.000000
244.000000,43688.339733,41695.525252,4203.826690,26242.870241,-680.856488,17539.056246,20749.370247,18323.244849,0.006000,0.988000,0.090000,192.000000,0.000000,0.000000,0.000000,0.000000,0.000000,0.000000,0.000000,0.000000,0.000000,1646639860.808840,0.000000
245.000000,43693.480634,41701.537872,4204.720760,26245.664209,-680.387101,17540.777330,20752.745360,18326.530555,0.006000,0.988000,0.090000,192.000000,0.000000,0.000000,0.000000,0.000000,0.000000,0.000000,0.000000,0.000000,0.000000,1646639860.816825,0.000000
246.000000,43695.604050,41710.612680,4208.699370,26248.525232,-673.949799,17547.259336,20759.249718,18338.309924,0.006000,0.988000,0.090000,192.000000,0.000000,0.000000,0.000000,0.000000,0.000000,0.000000,0.000000,0.000000,0.000000,1646639860.816842,0.000000
247.000000,43686.864518,41700.979078,4202.686751,26240.120976,-681.437633,17541.760807,20753.617078,18330.106834,0.006000,0.988000,0.090000,192.000000,0.000000,0.000000,0.000000,0.000000,0.000000,0.000000,0.000000,0.000000,0.000000,1646639860.823635,0.000000
248.000000,43689.390265,41696.106398,4204.720760,26242.020874,-684.321008,17544.174796,20757.126302,18328.117529,0.006000,0.988000,0.090000,192.000000,0.000000,0.000000,0.000000,0.000000,0.000000,0.000000,0.000000,0.000000,0.000000,1646639860.830859,0.000000
249.000000,43686.193965,41694.787645,4200.049245,26239.785700,-687.472604,17542.230194,20754.913480,18325.390616,0.010000,0.986000,0.098000,192.000000,0.000000,80.000000,30.000000,208.000000,3.000000,16.000000,0.000000,0.000000,0.000000,1646639860.830875,0.000000
250.000000,43689.077340,41700.889671,4205.570126,26240.769177,-683.695159,17542.230194,20752.946526,18326.664666,0.010000,0.986000,0.098000,192.000000,0.000000,0.000000,0.000000,0.000000,0.000000,0.000000,0.000000,0.000000,0.000000,1646639860.838481,0.000000
251.000000,43697.973335,41706.388200,4209.302868,26244.703084,-679.090700,17543.638354,20751.761884,18326.329389,0.010000,0.986000,0.098000,192.000000,0.000000,0.000000,0.000000,0.000000,0.000000,0.000000,0.000000,0.000000,0.000000,1646639860.838497,0.000000
252.000000,43705.058838,41714.144255,4210.711027,26250.089854,-674.553296,17542.476063,20750.040799,18323.468366,0.010000,0.986000,0.098000,192.000000,0.000000,0.000000,0.000000,0.000000,0.000000,0.000000,0.000000,0.000000,0.000000,1646639860.846458,0.000000
253.000000,43698.845053,41711.797322,4207.000638,26248.279363,-675.894401,17539.682095,20756.254584,18330.822090,0.010000,0.986000,0.098000,192.000000,0.000000,0.000000,0.000000,0.000000,0.000000,0.000000,0.000000,0.000000,0.000000,1646639860.846475,0.000000
254.000000,43694.978201,41706.209386,4202.038551,26243.473738,-682.219944,17529.087368,20742.731779,18319.735625,0.010000,0.986000,0.098000,192.000000,0.000000,0.000000,0.000000,0.000000,0.000000,0.000000,0.000000,0.000000,0.000000,1646639860.854312,0.000000
255.000000,43693.100654,41702.275479,4199.736321,26240.791528,-684.790395,17519.297304,20726.169136,18299.440241,0.010000,0.986000,0.098000,192.000000,0.000000,0.000000,0.000000,0.000000,0.000000,0.000000,0.000000,0.000000,0.000000,1646639860.854330,0.000000
0.000000,43695.894622,41703.750694,4200.071597,26239.562182,-685.013912,17517.285647,20723.933962,18294.187581,0.010000,0.986000,0.098000,192.000000,0.000000,0.000000,0.000000,0.000000,0.000000,0.000000,0.000000,0.000000,0.000000,1646639860.860845,0.000000
1.000000,43702.398980,41708.489264,4204.720760,26242.087929,-681.594095,17521.621885,20729.656008,18296.109831,0.010000,0.986000,0.098000,192.000000,0.000000,0.000000,0.000000,0.000000,0.000000,0.000000,0.000000,0.000000,0.000000,1646639860.860863,0.000000
2.000000,43693.547689,41702.387238,4195.221269,26236.432938,-688.187860,17518.984380,20729.253677,18298.054433,0.010000,0.986000,0.098000,192.000000,0.000000,0.000000,0.000000,0.000000,0.000000,0.000000,0.000000,0.000000,0.000000,1646639860.869146,0.000000
3.000000,43692.586564,41700.934374,4188.672207,26232.029644,-695.809805,17513.642313,20724.559811,18281.804714,0.010000,0.988000,0.098000,192.000000,0.000000,80.000000,30.000000,224.000000,3.000000,16.000000,0.000000,0.000000,0.000000,1646639860.869163,0.000000
4.000000,43696.855747,41703.817749,4195.333027,26235.650627,-692.322933,17522.337141,20737.121491,18302.301264,0.010000,0.988000,0.098000,192.000000,0.000000,0.000000,0.000000,0.000000,0.000000,0.000000,0.000000,0.000000,0.000000,1646639860.877141,0.000000
5.000000,43691.021942,41697.827482,4188.940428,26231.850831,-695.832157,17519.431415,20730.460671,18305.095232,0.010000,0.988000,0.098000,192.000000,0.000000,0.000000,0.000000,0.000000,0.000000,0.000000,0.000000,0.000000,0.000000,1646639860.877157,0.000000
6.000000,43691.178404,41695.972287,4189.767443,26233.370749,-698.067331,17521.443072,20731.488851,18305.430508,0.010000,0.988000,0.098000,192.000000,0.000000,0.000000,0.000000,0.000000,0.000000,0.000000,0.000000,0.000000,0.000000,1646639860.884332,0.000000
7.000000,43689.367913,41693.804168,4187.174641,26231.582610,-698.402607,17521.845403,20735.892145,18309.967912,0.010000,0.988000,0.098000,192.000000,0.000000,0.000000,0.000000,0.000000,0.000000,0.000000,0.000000,0.000000,0.000000,1646639860.890610,0.000000
8.000000,43685.836337,41691.323124,4183.576010,26227.022854,-699.900174,17515.676321,20731.198279,18301.764822,0.010000,0.988000,0.098000,192.000000,0.000000,0.000000,0.000000,0.000000,0.000000,0.000000,0.000000,0.000000,0.000000,1646639860.890625,0.000000
9.000000,43686.417483,41691.747807,4184.224210,26227.380482,-699.028456,17515.721025,20732.785253,18302.278912,0.010000,0.988000,0.098000,192.000000,0.000000,0.000000,0.000000,0.000000,0.000000,0.000000,0.000000,0.000000,0.000000,1646639860.898786,0.000000
10.000000,43686.685704,41692.060732,4184.000693,26227.581647,-699.251974,17515.251638,20728.449014,18304.804659,0.010000,0.988000,0.098000,192.000000,0.000000,0.000000,0.000000,0.000000,0.000000,0.000000,0.000000,0.000000,0.000000,1646639860.898803,0.000000
11.000000,43684.606991,41694.385313,4184.291266,26229.280380,-698.134386,17516.503336,20728.739587,18308.716215,0.010000,0.988000,0.098000,192.000000,0.000000,0.000000,0.000000,0.000000,0.000000,0.000000,0.000000,0.000000,0.000000,1646639860.906816,0.000000
12.000000,43689.189099,41697.805130,4186.682902,26231.359092,-694.021665,17521.443072,20732.785253,18308.470346,0.010000,0.988000,0.098000,192.000000,0.000000,0.000000,0.000000,0.000000,0.000000,0.000000,0.000000,0.000000,0.000000,1646639860.906833,0.000000
13.000000,43691.379570,41698.967421,4192.114376,26232.364921,-691.987657,17524.371150,20733.791081,18309.789098,0.006000,0.982000,0.102000,192.000000,0.000000,48.000000,30.000000,176.000000,3.000000,48.000000,0.000000,0.000000,0.000000,1646639860.913395,0.000000
14.000000,43690.932535,41698.833310,4195.847117,26236.678807,-690.601848,17529.422644,20736.316828,18313.655950,0.006000,0.982000,0.102000,192.000000,0.000000,0.000000,0.000000,0.000000,0.000000,0.000000,0.000000,0.000000,0.000000,1646639860.913411,0.000000
15.000000,43689.479672,41698.967421,4192.740225,26234.667150,-693.082892,17530.719045,20744.274049,18324.273029,0.006000,0.982000,0.102000,192.000000,0.000000,0.000000,0.000000,0.000000,0.000000,0.000000,0.000000,0.000000,0.000000,1646639860.921409,0.000000
16.000000,43688.876175,41701.716685,4192.986094,26237.438767,-690.579497,17532.685999,20746.509224,18325.971761,0.006000,0.982000,0.102000,192.000000,0.000000,0.000000,0.000000,0.000000,0.000000,0.000000,0.000000,0.000000,0.000000,1646639860.921427,0.000000
17.000000,43698.085093,41711.886729,4201.144481,26247.161775,-682.443462,17539.950316,20754.041762,18330.956200,0.006000,0.982000,0.102000,192.000000,0.000000,0.000000,0.000000,0.000000,0.000000,0.000000,0.000000,0.000000,0.000000,1646639860.929487,0.000000
18.000000,43699.135625,41713.004316,4197.836423,26246.602982,-681.951723,17533.892993,20743.312924,18323.915401,0.006000,0.982000,0.102000,192.000000,0.000000,0.000000,0.000000,0.000000,0.000000,0.000000,0.000000,0.000000,0.000000,1646639860.929503,0.000000
19.000000,43695.112311,41706.499959,4190.192126,26240.322142,-687.025569,17528.439168,20739.110796,18318.953314,0.006000,0.982000,0.102000,192.000000,0.000000,0.000000,0.000000,0.000000,0.000000,0.000000,0.000000,0.000000,0.000000,1646639860.936549,0.000000
20.000000,43693.234765,41705.695296,4190.683864,26238.779871,-688.076101,17528.014484,20743.469387,18317.254581,0.006000,0.982000,0.102000,192.000000,0.000000,0.000000,0.000000,0.000000,0.000000,0.000000,0.000000,0.000000,0.000000,1646639860.936566,0.000000
21.000000,43692.698323,41705.807055,4191.913210,26237.483470,-689.394854,17524.639371,20735.646276,18312.985398,0.006000,0.982000,0.102000,192.000000,0.000000,0.000000,0.000000,0.000000,0.000000,0.000000,0.000000,0.000000,0.000000,1646639860.943072,0.000000
22.000000,43694.151186,41704.331840,4191.801452,26235.158889,-690.154814,17524.996999,20736.652104,18316.092290,0.006000,0.982000,0.102000,192.000000,0.000000,0.000000,0.000000,0.000000,0.000000,0.000000,0.000000,0.000000,0.000000,1646639860.943106,0.000000
23.000000,43698.398018,41708.176340,4192.807280,26236.544697,-687.584363,17523.320618,20739.401369,18313.432433,0.014000,0.982000,0.094000,192.000000,0.000000,112.000000,30.000000,176.000000,2.000000,240.000000,0.000000,0.000000,0.000000,1646639860.951054,0.000000
24.000000,43699.023867,41709.718610,4189.789795,26237.729339,-686.131500,17520.996037,20736.048607,18309.230305,0.014000,0.982000,0.094000,192.000000,0.000000,0.000000,0.000000,0.000000,0.000000,0.000000,0.000000,0.000000,0.000000,1646639860.959030,0.000000
25.000000,43700.342619,41714.144255,4194.327199,26240.746825,-685.416244,17521.510127,20733.165232,18314.326503,0.014000,0.982000,0.094000,192.000000,0.000000,0.000000,0.000000,0.000000,0.000000,0.000000,0.000000,0.000000,0.000000,1646639860.959046,0.000000
26.000000,43700.163806,41711.685564,4197.411740,26244.077235,-684.857450,17524.125281,20734.551040,18318.573334,0.014000,0.982000,0.094000,192.000000,0.000000,0.000000,0.000000,0.000000,0.000000,0.000000,0.000000,0.000000,0.000000,1646639860.966207,0.000000
27.000000,43695.492291,41709.003354,4195.400083,26244.077235,-685.617409,17525.309923,20733.165232,18314.795889,0.014000,0.982000,0.094000,192.000000,0.000000,0.000000,0.000000,0.000000,0.000000,0.000000,0.000000,0.000000,0.000000,1646639860.966223,0.000000
28.000000,43699.023867,41711.909081,4195.757710,26245.395988,-681.571744,17526.315752,20735.579221,18313.767709,0.014000,0.982000,0.094000,192.000000,0.000000,0.000000,0.000000,0.000000,0.000000,0.000000,0.000000,0.000000,0.000000,1646639860.974423,0.000000
29.000000,43701.191986,41712.579633,4195.087158,26245.217174,-682.510517,17524.415854,20736.629753,18314.482965,0.014000,0.982000,0.094000,192.000000,0.000000,0.000000,0.000000,0.000000,0.000000,0.000000,0.000000,0.000000,0.000000,1646639860.974439,0.000000
30.000000,43698.509776,41708.578671,4190.080367,26240.724473,-687.517308,17521.376016,20735.020427,18313.074805,0.014000,0.982000,0.094000,192.000000,0.000000,0.000000,0.000000,0.000000,0.000000,0.000000,0.000000,0.000000,0.000000,1646639860.980860,0.000000
31.000000,43698.599183,41707.863415,4185.207687,26239.495127,-689.685427,17518.246772,20737.546174,18305.318750,0.014000,0.982000,0.094000,192.000000,0.000000,0.000000,0.000000,0.000000,0.000000,0.000000,0.000000,0.000000,0.000000,1646639860.980876,0.000000
32.000000,43700.476730,41710.322107,4182.056091,26240.322142,-693.038189,17513.262333,20734.416930,18302.591837,0.014000,0.982000,0.094000,192.000000,0.000000,0.000000,0.000000,0.000000,0.000000,0.000000,0.000000,0.000000,0.000000,1646639860.989039,0.000000
33.000000,43698.174500,41710.992659,4184.581838,26241.931467,-693.306410,17512.927057,20731.332389,18308.939732,0.010000,0.978000,0.102000,192.000000,0.000000,80.000000,30.000000,144.000000,3.000000,48.000000,0.000000,0.000000,0.000000,1646639860.989057,0.000000
34.000000,43696.609878,41711.707915,4185.989998,26243.138461,-693.015837,17518.313827,20740.474253,18316.427567,0.010000,0.978000,0.102000,192.000000,0.000000,0.000000,0.000000,0.000000,0.000000,0.000000,0.000000,0.000000,0.000000,1646639860.996828,0.000000
35.000000,43705.237651,41718.704011,4192.069673,26247.720569,-688.143157,17520.146670,20746.151596,18309.990264,0.010000,0.978000,0.102000,192.000000,0.000000,0.000000,0.000000,0.000000,0.000000,0.000000,0.000000,0.000000,0.000000,1646639860.996839,0.000000
36.000000,43707.830454,41721.363869,4196.428263,26250.291020,-683.493994,17523.387673,20747.917384,18308.000959,0.010000,0.978000,0.102000,192.000000,0.000000,0.000000,0.000000,0.000000,0.000000,0.000000,0.000000,0.000000,0.000000,1646639861.003817,0.000000
37.000000,43700.789654,41720.067468,4195.288324,26248.860508,-684.745691,17525.466386,20750.241965,18313.410081,0.010000,0.978000,0.102000,192.000000,0.000000,0.000000,0.000000,0.000000,0.000000,0.000000,0.000000,0.000000,0.000000,1646639861.003829,0.000000
38.000000,43699.850881,41720.447447,4195.020103,26248.257011,-684.656284,17528.103891,20754.466445,18315.488793,0.010000,0.978000,0.102000,192.000000,0.000000,0.000000,0.000000,0.000000,0.000000,0.000000,0.000000,0.000000,0.000000,1646639861.010741,0.000000
39.000000,43697.503948,41718.592253,4191.600286,26247.787624,-686.355017,17528.707388,20751.985401,18321.948447,0.010000,0.978000,0.102000,192.000000,0.000000,0.000000,0.000000,0.000000,0.000000,0.000000,0.000000,0.000000,0.000000,1646639861.018406,0.000000
40.000000,43699.023867,41723.688450,4196.495318,26249.911040,-682.890497,17530.830804,20751.650125,18322.440186,0.010000,0.978000,0.102000,192.000000,0.000000,0.000000,0.000000,0.000000,0.000000,0.000000,0.000000,0.000000,0.000000,1646639861.018418,0.000000
41.000000,43699.090922,41728.605834,4198.350513,26253.084988,-679.671845,17534.921173,20750.666648,18322.149613,0.010000,0.978000,0.102000,192.000000,0.000000,0.000000,0.000000,0.000000,0.000000,0.000000,0.000000,0.000000,0.000000,1646639861.026716,0.000000
42.000000,43697.168672,41729.388145,4193.209612,26252.079159,-682.957552,17533.691827,20749.191433,18318.394520,0.010000,0.978000,0.102000,192.000000,0.000000,0.000000,0.000000,0.000000,0.000000,0.000000,0.000000,0.000000,0.000000,1646639861.026733,0.000000
43.000000,43698.956811,41730.461029,4197.724664,26253.643781,-684.008084,17535.681133,20750.711352,18317.925133,0.004000,0.984000,0.102000,192.000000,0.000000,32.000000,30.000000,192.000000,3.000000,48.000000,0.000000,0.000000,0.000000,1646639861.035196,0.000000
44.000000,43697.213375,41725.789514,4194.818937,26250.581592,-689.908944,17531.568412,20743.670552,18313.633599,0.004000,0.984000,0.102000,192.000000,0.000000,0.000000,0.000000,0.000000,0.000000,0.000000,0.000000,0.000000,0.000000,1646639861.035212,0.000000
45.000000,43694.374704,41723.375526,4189.499222,26248.569935,-694.938087,17523.208859,20731.690017,18299.708462,0.004000,0.984000,0.102000,192.000000,0.000000,0.000000,0.000000,0.000000,0.000000,0.000000,0.000000,0.000000,0.000000,1646639861.041498,0.000000
46.000000,43689.949058,41721.386221,4185.386501,26245.843023,-698.648476,17517.173888,20725.565639,18289.627825,0.004000,0.984000,0.102000,192.000000,0.000000,0.000000,0.000000,0.000000,0.000000,0.000000,0.000000,0.000000,0.000000,1646639861.041514,0.000000
47.000000,43688.764416,41722.727325,4188.471042,26247.944087,-696.860337,17525.913420,20739.200203,18314.594724,0.004000,0.984000,0.102000,192.000000,0.000000,0.000000,0.000000,0.000000,0.000000,0.000000,0.000000,0.000000,0.000000,1646639861.049272,0.000000
48.000000,43694.844090,41730.215160,4197.858774,26254.828424,-691.026532,17536.128168,20746.241003,18339.583974,0.004000,0.984000,0.102000,192.000000,0.000000,0.000000,0.000000,0.000000,0.000000,0.000000,0.000000,0.000000,0.000000,1646639861.049289,0.000000
49.000000,43703.091884,41735.244302,4204.139615,26262.204500,-687.003218,17541.380828,20747.827977,18340.589802,0.004000,0.984000,0.102000,192.000000,0.000000,0.000000,0.000000,0.000000,0.000000,0.000000,0.000000,0.000000,0.000000,1646639861.057243,0.000000
50.000000,43698.643887,41735.154895,4204.899574,26263.925584,-685.572706,17542.498415,20748.364419,18333.817224,0.004000,0.984000,0.102000,192.000000,0.000000,0.000000,0.000000,0.000000,0.000000,0.000000,0.000000,0.000000,0.000000,1646639861.057259,0.000000
51.000000,43697.950983,41737.300663,4207.000638,26265.892537,-684.879802,17546.611136,20754.824073,18337.773483,0.004000,0.984000,0.102000,192.000000,0.000000,0.000000,0.000000,0.000000,0.000000,0.000000,0.000000,0.000000,0.000000,1646639861.063951,0.000000
52.000000,43699.180329,41737.390070,4204.944277,26267.188939,-684.499822,17543.370133,20748.163253,18326.150575,0.004000,0.984000,0.102000,192.000000,0.000000,0.000000,0.000000,0.000000,0.000000,0.000000,0.000000,0.000000,0.000000,1646639861.063967,0.000000
53.000000,43694.777035,41736.071317,4208.006466,26267.635973,-682.778738,17540.665572,20742.396503,18317.835726,0.004000,0.984000,0.102000,192.000000,0.000000,0.000000,0.000000,0.000000,0.000000,0.000000,0.000000,0.000000,0.000000,1646639861.071052,0.000000
54.000000,43693.212413,41735.043136,4211.448635,26268.261822,-681.437633,17547.505206,20751.337201,18332.498471,0.006000,0.984000,0.102000,192.000000,0.000000,48.000000,30.000000,192.000000,3.000000,48.000000,0.000000,0.000000,0.000000,1646639861.078891,0.000000
55.000000,43697.861576,41738.597064,4215.449597,26271.569880,-679.694197,17554.277784,20758.825035,18349.418741,0.006000,0.984000,0.102000,192.000000,0.000000,0.000000,0.000000,0.000000,0.000000,0.000000,0.000000,0.000000,0.000000,1646639861.078907,0.000000
56.000000,43695.224070,41741.905122,4217.595365,26270.765218,-680.185936,17552.623755,20757.305116,18338.019352,0.006000,0.984000,0.102000,192.000000,0.000000,0.000000,0.000000,0.000000,0.000000,0.000000,0.000000,0.000000,0.000000,1646639861.086859,0.000000
57.000000,43688.227974,41732.673852,4211.470987,26259.924622,-688.478433,17542.498415,20747.246831,18325.860003,0.006000,0.984000,0.102000,192.000000,0.000000,0.000000,0.000000,0.000000,0.000000,0.000000,0.000000,0.000000,0.000000,1646639861.086875,0.000000
58.000000,43684.249363,41719.955709,4211.538042,26251.363903,-691.473566,17539.190357,20739.736645,18318.998017,0.006000,0.984000,0.102000,192.000000,0.000000,0.000000,0.000000,0.000000,0.000000,0.000000,0.000000,0.000000,0.000000,1646639861.093555,0.000000
59.000000,43687.088035,41724.090782,4219.629374,26254.381389,-687.025569,17545.761770,20751.538366,18323.200145,0.006000,0.984000,0.102000,192.000000,0.000000,0.000000,0.000000,0.000000,0.000000,0.000000,0.000000,0.000000,0.000000,1646639861.093572,0.000000
60.000000,43690.597259,41728.963462,4226.446656,26260.952802,-681.817613,17557.608194,20766.134055,18343.048494,0.006000,0.984000,0.102000,192.000000,0.000000,0.000000,0.000000,0.000000,0.000000,0.000000,0.000000,0.000000,0.000000,1646639861.101601,0.000000
61.000000,43681.298933,41715.731229,4218.645897,26249.843985,-689.640723,17549.270993,20756.411047,18329.972724,0.006000,0.984000,0.102000,192.000000,0.000000,0.000000,0.000000,0.000000,0.000000,0.000000,0.000000,0.000000,0.000000,1646639861.101617,0.000000
62.000000,43674.883983,41705.024744,4215.829577,26241.305618,-696.167433,17544.264203,20750.711352,18316.651084,0.006000,0.984000,0.102000,192.000000,0.000000,0.000000,0.000000,0.000000,0.000000,0.000000,0.000000,0.000000,0.000000,1646639861.109577,0.000000
63.000000,43677.186212,41711.909081,4219.495263,26242.557316,-693.641686,17541.671400,20748.498529,18306.458689,0.006000,0.984000,0.102000,192.000000,0.000000,0.000000,0.000000,0.000000,0.000000,0.000000,0.000000,0.000000,0.000000,1646639861.109594,0.000000
64.000000,43681.589506,41714.703049,4222.222176,26244.904249,-692.434691,17544.353610,20752.164215,18324.809471,0.004000,0.978000,0.098000,192.000000,0.000000,32.000000,30.000000,144.000000,3.000000,16.000000,0.000000,0.000000,0.000000,1646639861.116680,0.000000
65.000000,43689.457320,41723.017898,4230.358211,26253.375560,-685.617409,17552.087313,20760.724933,18341.863852,0.004000,0.978000,0.098000,192.000000,0.000000,0.000000,0.000000,0.000000,0.000000,0.000000,0.000000,0.000000,0.000000,1646639861.116715,0.000000
66.000000,43682.885907,41721.386221,4227.184263,26253.621430,-688.590191,17545.135921,20747.269183,18322.797814,0.004000,0.978000,0.098000,192.000000,0.000000,0.000000,0.000000,0.000000,0.000000,0.000000,0.000000,0.000000,0.000000,1646639861.124168,0.000000
67.000000,43683.042369,41724.761334,4230.917004,26258.427055,-683.270476,17551.327354,20757.103951,18338.913422,0.004000,0.978000,0.098000,192.000000,0.000000,0.000000,0.000000,0.000000,0.000000,0.000000,0.000000,0.000000,0.000000,1646639861.124185,0.000000
68.000000,43680.516622,41722.906139,4229.687659,26257.264764,-683.739863,17549.606270,20755.807549,18335.091273,0.004000,0.978000,0.098000,192.000000,0.000000,0.000000,0.000000,0.000000,0.000000,0.000000,0.000000,0.000000,0.000000,1646639861.131172,0.000000
69.000000,43676.895640,41718.324032,4226.893690,26254.761369,-686.489127,17545.426493,20748.967916,18328.206936,0.004000,0.978000,0.098000,192.000000,0.000000,0.000000,0.000000,0.000000,0.000000,0.000000,0.000000,0.000000,0.000000,1646639861.139284,0.000000
70.000000,43677.476785,41717.988755,4226.737228,26254.336685,-687.584363,17544.755941,20748.409122,18328.028122,0.004000,0.978000,0.098000,192.000000,0.000000,0.000000,0.000000,0.000000,0.000000,0.000000,0.000000,0.000000,0.000000,1646639861.139301,0.000000
71.000000,43677.722654,41719.709840,4225.641993,26255.834252,-687.293790,17546.789950,20753.393561,18328.408102,0.004000,0.978000,0.098000,192.000000,0.000000,0.000000,0.000000,0.000000,0.000000,0.000000,0.000000,0.000000,0.000000,1646639861.146344,0.000000
72.000000,43672.715863,41715.798285,4218.511786,26253.442616,-689.506613,17543.414836,20752.052456,18324.541250,0.004000,0.978000,0.098000,192.000000,0.000000,0.000000,0.000000,0.000000,0.000000,0.000000,0.000000,0.000000,0.000000,1646639861.146361,0.000000
73.000000,43671.978256,41716.155912,4215.740170,26250.648648,-692.613505,17539.168005,20745.637506,18315.198221,0.004000,0.978000,0.098000,192.000000,0.000000,0.000000,0.000000,0.000000,0.000000,0.000000,0.000000,0.000000,0.000000,1646639861.153866,0.000000
74.000000,43667.932590,41712.780799,4217.975344,26247.944087,-695.161604,17538.631563,20748.297363,18315.220572,0.010000,0.982000,0.102000,192.000000,0.000000,80.000000,30.000000,176.000000,3.000000,48.000000,0.000000,0.000000,0.000000,1646639861.153883,0.000000
75.000000,43673.162898,41719.106343,4225.954917,26254.828424,-689.193689,17545.202976,20755.293459,18325.591782,0.010000,0.982000,0.102000,192.000000,0.000000,0.000000,0.000000,0.000000,0.000000,0.000000,0.000000,0.000000,0.000000,1646639861.161704,0.000000
76.000000,43672.246477,41718.167569,4220.814016,26251.430959,-691.674732,17541.514938,20752.052456,18322.529593,0.010000,0.982000,0.102000,192.000000,0.000000,0.000000,0.000000,0.000000,0.000000,0.000000,0.000000,0.000000,0.000000,1646639861.161721,0.000000
77.000000,43666.993817,41707.103456,4213.281478,26242.110281,-699.296677,17535.815243,20746.151596,18317.567506,0.010000,0.982000,0.102000,192.000000,0.000000,0.000000,0.000000,0.000000,0.000000,0.000000,0.000000,0.000000,0.000000,1646639861.169906,0.000000
78.000000,43672.447642,41711.685564,4218.467083,26245.328932,-696.279192,17538.944487,20747.425645,18318.528631,0.010000,0.982000,0.102000,192.000000,0.000000,0.000000,0.000000,0.000000,0.000000,0.000000,0.000000,0.000000,0.000000,1646639861.169922,0.000000
79.000000,43678.907297,41715.842988,4222.780969,26250.425130,-692.613505,17543.325429,20751.828939,18320.026197,0.010000,0.982000,0.102000,192.000000,0.000000,0.000000,0.000000,0.000000,0.000000,0.000000,0.000000,0.000000,0.000000,1646639861.177902,0.000000
80.000000,43681.857727,41716.446485,4221.059885,26251.341552,-694.401645,17544.398313,20755.248756,18329.033950,0.010000,0.982000,0.102000,192.000000,0.000000,0.000000,0.000000,0.000000,0.000000,0.000000,0.000000,0.000000,0.000000,1646639861.177919,0.000000
81.000000,43684.986971,41718.659308,4227.452484,26254.716665,-690.534793,17546.365267,20754.354686,18329.101006,0.010000,0.982000,0.102000,192.000000,0.000000,0.000000,0.000000,0.000000,0.000000,0.000000,0.000000,0.000000,0.000000,1646639861.184517,0.000000
82.000000,43680.963657,41719.508674,4228.637127,26254.649610,-687.807880,17548.511034,20753.348858,18332.744340,0.010000,0.982000,0.102000,192.000000,0.000000,0.000000,0.000000,0.000000,0.000000,0.000000,0.000000,0.000000,0.000000,1646639861.184534,0.000000
83.000000,43680.315456,41724.470761,4229.240624,26258.292944,-683.605752,17552.668459,20752.521843,18334.510128,0.010000,0.982000,0.102000,192.000000,0.000000,0.000000,0.000000,0.000000,0.000000,0.000000,0.000000,0.000000,0.000000,1646639861.191515,0.000000
84.000000,43677.968523,41724.694279,4228.368906,26257.175357,-685.215078,17550.455636,20752.924174,18327.268163,0.008000,0.986000,0.104000,192.000000,0.000000,64.000000,30.000000,208.000000,3.000000,64.000000,0.000000,0.000000,0.000000,1646639861.191532,0.000000
85.000000,43671.441814,41719.374564,4225.709048,26253.040284,-688.657247,17544.465368,20748.654991,18320.607343,0.008000,0.986000,0.104000,192.000000,0.000000,0.000000,0.000000,0.000000,0.000000,0.000000,0.000000,0.000000,0.000000,1646639861.200294,0.000000
86.000000,43670.346578,41717.653479,4228.279499,26256.594212,-688.500784,17546.231156,20750.286669,18322.529593,0.008000,0.986000,0.104000,192.000000,0.000000,0.000000,0.000000,0.000000,0.000000,0.000000,0.000000,0.000000,0.000000,1646639861.206552,0.000000
87.000000,43671.978256,41719.598081,4227.676002,26258.605869,-688.500784,17542.811339,20747.403294,18315.868773,0.008000,0.986000,0.104000,192.000000,0.000000,0.000000,0.000000,0.000000,0.000000,0.000000,0.000000,0.000000,0.000000,1646639861.206569,0.000000
88.000000,43672.671160,41721.788552,4230.201749,26261.109264,-683.941029,17546.052342,20752.320677,18325.547078,0.008000,0.986000,0.104000,192.000000,0.000000,0.000000,0.000000,0.000000,0.000000,0.000000,0.000000,0.000000,0.000000,1646639861.214187,0.000000
89.000000,43677.297971,41728.225854,4233.509807,26264.819654,-679.291866,17546.275860,20749.213785,18326.552907,0.008000,0.986000,0.104000,192.000000,0.000000,0.000000,0.000000,0.000000,0.000000,0.000000,0.000000,0.000000,0.000000,1646639861.214203,0.000000
90.000000,43669.072529,41720.603910,4222.222176,26254.426092,-688.970171,17530.026141,20732.829956,18298.501468,0.008000,0.986000,0.104000,192.000000,0.000000,0.000000,0.000000,0.000000,0.000000,0.000000,0.000000,0.000000,0.000000,1646639861.222166,0.000000
91.000000,43663.372834,41717.519369,4217.260089,26250.156909,-693.507575,17527.813319,20736.897974,18303.217686,0.008000,0.986000,0.104000,192.000000,0.000000,0.000000,0.000000,0.000000,0.000000,0.000000,0.000000,0.000000,0.000000,1646639861.222182,0.000000
92.000000,43670.525392,41725.744811,4230.089990,26258.292944,-684.656284,17540.777330,20757.148654,18333.191375,0.008000,0.986000,0.104000,192.000000,0.000000,0.000000,0.000000,0.000000,0.000000,0.000000,0.000000,0.000000,0.000000,1646639861.228767,0.000000
93.000000,43670.301875,41724.247244,4225.910214,26253.375560,-688.590191,17536.709313,20750.487834,18331.291477,0.008000,0.986000,0.104000,192.000000,0.000000,0.000000,0.000000,0.000000,0.000000,0.000000,0.000000,0.000000,0.000000,1646639861.228783,0.000000
94.000000,43662.657578,41710.232700,4215.047266,26244.367807,-698.760235,17527.880374,20739.669590,18317.880430,0.012000,0.982000,0.100000,192.000000,0.000000,96.000000,30.000000,176.000000,3.000000,32.000000,0.000000,0.000000,0.000000,1646639861.236789,0.000000
95.000000,43661.338825,41707.885767,4214.622583,26244.680732,-699.073160,17529.713217,20741.994171,18321.255543,0.012000,0.982000,0.100000,192.000000,0.000000,0.000000,0.000000,0.000000,0.000000,0.000000,0.000000,0.000000,0.000000,1646639861.236805,0.000000
96.000000,43654.812116,41706.924642,4213.482644,26244.099586,-699.386084,17531.233136,20743.514090,18322.574296,0.012000,0.982000,0.100000,192.000000,0.000000,0.000000,0.000000,0.000000,0.000000,0.000000,0.000000,0.000000,0.000000,1646639861.244808,0.000000
97.000000,43657.874305,41714.837159,4221.082237,26249.016970,-692.725264,17536.686961,20745.101064,18323.915401,0.012000,0.982000,0.100000,192.000000,0.000000,0.000000,0.000000,0.000000,0.000000,0.000000,0.000000,0.000000,0.000000,1646639861.244824,0.000000
98.000000,43656.332035,41713.339593,4217.796530,26244.770139,-694.133424,17535.927002,20748.230308,18323.803642,0.012000,0.982000,0.100000,192.000000,0.000000,0.000000,0.000000,0.000000,0.000000,0.000000,0.000000,0.000000,0.000000,1646639861.252783,0.000000
99.000000,43659.863610,41717.094686,4223.987964,26247.944087,-688.813709,17538.698618,20753.281802,18327.111700,0.012000,0.982000,0.100000,192.000000,0.000000,0.000000,0.000000,0.000000,0.000000,0.000000,0.000000,0.000000,0.000000,1646639861.252799,0.000000
100.000000,43662.411709,41720.290985,4229.285327,26250.983924,-687.338494,17538.206880,20752.097160,18325.591782,0.012000,0.982000,0.100000,192.000000,0.000000,0.000000,0.000000,0.000000,0.000000,0.000000,0.000000,0.000000,0.000000,1646639861.259115,0.000000
101.000000,43659.528334,41714.457180,4225.351420,26247.631162,-689.864241,17535.681133,20746.755093,18321.814337,0.012000,0.982000,0.100000,192.000000,0.000000,0.000000,0.000000,0.000000,0.000000,0.000000,0.000000,0.000000,0.000000,1646639861.266394,0.000000
102.000000,43654.946226,41708.958651,4219.137635,26242.624371,-695.206308,17535.301153,20748.878509,18328.855136,0.012000,0.982000,0.100000,192.000000,0.000000,0.000000,0.000000,0.000000,0.000000,0.000000,0.000000,0.000000,0.000000,1646639861.266411,0.000000
103.000000,43650.744099,41707.014049,4212.566222,26241.216211,-700.146043,17534.004752,20746.956259,18328.497509,0.012000,0.982000,0.100000,192.000000,0.000000,0.000000,0.000000,0.000000,0.000000,0.000000,0.000000,0.000000,0.000000,1646639861.275810,0.000000
104.000000,43648.039537,41705.918813,4209.369923,26240.366845,-701.755369,17534.027104,20749.213785,18329.168061,0.004000,0.982000,0.096000,192.000000,0.000000,32.000000,30.000000,176.000000,3.000000,0.000000,0.000000,0.000000,0.000000,1646639861.275828,0.000000
105.000000,43648.799497,41708.668078,4211.314525,26242.311447,-700.280154,17533.669476,20746.553927,18325.435320,0.004000,0.982000,0.096000,192.000000,0.000000,0.000000,0.000000,0.000000,0.000000,0.000000,0.000000,0.000000,0.000000,1646639861.282201,0.000000
106.000000,43649.782974,41708.601023,4209.951068,26242.736130,-701.420093,17529.355589,20740.004866,18314.684131,0.004000,0.982000,0.096000,192.000000,0.000000,0.000000,0.000000,0.000000,0.000000,0.000000,0.000000,0.000000,0.000000,1646639861.282217,0.000000
107.000000,43653.314549,41713.339593,4213.259126,26249.173432,-696.569764,17529.400293,20741.010695,18311.420776,0.004000,0.982000,0.096000,192.000000,0.000000,0.000000,0.000000,0.000000,0.000000,0.000000,0.000000,0.000000,0.000000,1646639861.289092,0.000000
108.000000,43652.286369,41715.105380,4212.990905,26249.665171,-694.312238,17530.316714,20746.777445,18323.602477,0.004000,0.982000,0.096000,192.000000,0.000000,0.000000,0.000000,0.000000,0.000000,0.000000,0.000000,0.000000,0.000000,1646639861.289109,0.000000
109.000000,43649.470049,41711.886729,4209.280516,26244.792491,-697.575593,17524.840537,20740.451901,18323.736587,0.004000,0.982000,0.096000,192.000000,0.000000,0.000000,0.000000,0.000000,0.000000,0.000000,0.000000,0.000000,0.000000,1646639861.297122,0.000000
110.000000,43658.142526,41721.788552,4222.356286,26254.604906,-689.394854,17533.378903,20752.521843,18326.687017,0.004000,0.982000,0.096000,192.000000,0.000000,0.000000,0.000000,0.000000,0.000000,0.000000,0.000000,0.000000,0.000000,1646639861.297139,0.000000
111.000000,43654.923875,41722.213235,4220.635202,26252.749712,-691.630029,17533.065979,20751.538366,18331.157366,0.004000,0.982000,0.096000,192.000000,0.000000,0.000000,0.000000,0.000000,0.000000,0.000000,0.000000,0.000000,0.000000,1646639861.304189,0.000000
112.000000,43654.096860,41726.571825,4218.869414,26255.476624,-690.244221,17533.960048,20749.414951,18330.285648,0.004000,0.982000,0.096000,192.000000,0.000000,0.000000,0.000000,0.000000,0.000000,0.000000,0.000000,0.000000,0.000000,1646639861.304206,0.000000
113.000000,43654.610950,41726.214197,4219.852891,26257.488281,-688.970171,17534.675304,20747.224480,18327.759901,0.004000,0.982000,0.096000,192.000000,0.000000,0.000000,0.000000,0.000000,0.000000,0.000000,0.000000,0.000000,0.000000,1646639861.311624,0.000000
114.000000,43653.918046,41724.046078,4218.623545,26257.622392,-688.321971,17533.691827,20743.514090,18325.725892,0.006000,0.982000,0.088000,192.000000,0.000000,48.000000,30.000000,176.000000,2.000000,192.000000,0.000000,0.000000,0.000000,1646639861.311640,0.000000
115.000000,43651.548761,41722.213235,4215.628411,26255.521328,-689.998351,17531.702522,20743.469387,18322.864869,0.006000,0.982000,0.088000,192.000000,0.000000,0.000000,0.000000,0.000000,0.000000,0.000000,0.000000,0.000000,0.000000,1646639861.318756,0.000000
116.000000,43650.811154,41723.733154,4215.650763,26253.040284,-690.870069,17527.567450,20739.535479,18316.986360,0.006000,0.982000,0.088000,192.000000,0.000000,0.000000,0.000000,0.000000,0.000000,0.000000,0.000000,0.000000,0.000000,1646639861.326704,0.000000
117.000000,43650.520581,41726.035383,4215.404894,26254.940183,-690.959476,17525.779310,20739.468424,18315.086462,0.006000,0.982000,0.088000,192.000000,0.000000,0.000000,0.000000,0.000000,0.000000,0.000000,0.000000,0.000000,0.000000,1646639861.326720,0.000000
118.000000,43653.202790,41726.102439,4218.556490,26257.912965,-689.305447,17528.260354,20740.206032,18319.333293,0.006000,0.982000,0.088000,192.000000,0.000000,0.000000,0.000000,0.000000,0.000000,0.000000,0.000000,0.000000,0.000000,1646639861.333832,0.000000
119.000000,43648.911255,41723.576692,4216.164853,26254.984886,-690.803014,17527.187470,20737.099139,18317.969837,0.006000,0.982000,0.088000,192.000000,0.000000,0.000000,0.000000,0.000000,0.000000,0.000000,0.000000,0.000000,0.000000,1646639861.333848,0.000000
120.000000,43651.459354,41725.476590,4215.516653,26254.180223,-691.026532,17527.768615,20743.447035,18316.449918,0.006000,0.982000,0.088000,192.000000,0.000000,0.000000,0.000000,0.000000,0.000000,0.000000,0.000000,0.000000,0.000000,1646639861.341677,0.000000
121.000000,43654.230971,41728.427020,4218.511786,26256.571860,-689.193689,17531.434301,20755.338163,18321.188488,0.006000,0.982000,0.088000,192.000000,0.000000,0.000000,0.000000,0.000000,0.000000,0.000000,0.000000,0.000000,0.000000,1646639861.341693,0.000000
122.000000,43642.362194,41721.565035,4214.644934,26250.536889,-692.434691,17527.656856,20751.828939,18323.222497,0.006000,0.982000,0.088000,192.000000,0.000000,0.000000,0.000000,0.000000,0.000000,0.000000,0.000000,0.000000,0.000000,1646639861.349841,0.000000
123.000000,43637.511866,41719.419267,4213.057961,26249.128729,-693.999314,17526.360455,20744.788139,18319.556811,0.006000,0.982000,0.088000,192.000000,0.000000,0.000000,0.000000,0.000000,0.000000,0.000000,0.000000,0.000000,0.000000,1646639861.349858,0.000000
124.000000,43643.300968,41723.911968,4215.337839,26253.040284,-691.562973,17529.400293,20747.112721,18315.757014,0.012000,0.986000,0.092000,192.000000,0.000000,96.000000,30.000000,208.000000,2.000000,224.000000,0.000000,0.000000,0.000000,1646639861.357216,0.000000
125.000000,43641.423421,41725.409535,4213.437940,26253.934354,-691.384159,17532.797758,20751.471311,18321.054378,0.012000,0.986000,0.092000,192.000000,0.000000,0.000000,0.000000,0.000000,0.000000,0.000000,0.000000,0.000000,0.000000,1646639861.357232,0.000000
126.000000,43641.646939,41728.382317,4216.611888,26256.504805,-686.869107,17538.765673,20756.969840,18331.850270,0.012000,0.986000,0.092000,192.000000,0.000000,0.000000,0.000000,0.000000,0.000000,0.000000,0.000000,0.000000,0.000000,1646639861.364087,0.000000
127.000000,43641.132848,41726.393011,4214.957859,26255.342514,-684.566877,17539.838557,20759.763808,18334.197203,0.012000,0.986000,0.092000,192.000000,0.000000,0.000000,0.000000,0.000000,0.000000,0.000000,0.000000,0.000000,0.000000,1646639861.364104,0.000000
128.000000,43637.556569,41724.314299,4212.007429,26251.609773,-689.104282,17532.954220,20751.605421,18321.926096,0.012000,0.986000,0.092000,192.000000,0.000000,0.000000,0.000000,0.000000,0.000000,0.000000,0.000000,0.000000,0.000000,1646639861.373405,0.000000
129.000000,43636.260168,41724.202540,4215.851929,26255.789549,-687.651418,17533.021275,20749.929041,18320.629695,0.012000,0.986000,0.092000,192.000000,0.000000,0.000000,0.000000,0.000000,0.000000,0.000000,0.000000,0.000000,0.000000,1646639861.373439,0.000000
130.000000,43640.819924,41729.097572,4217.774179,26261.958630,-683.114014,17535.345857,20751.337201,18327.379921,0.012000,0.986000,0.092000,192.000000,0.000000,0.000000,0.000000,0.000000,0.000000,0.000000,0.000000,0.000000,0.000000,1646639861.380510,0.000000
131.000000,43645.044404,41730.237511,4222.311583,26262.942107,-679.649494,17536.754016,20750.443131,18330.039779,0.012000,0.986000,0.092000,192.000000,0.000000,0.000000,0.000000,0.000000,0.000000,0.000000,0.000000,0.000000,0.000000,1646639861.387109,0.000000
132.000000,43647.391337,41728.918759,4219.919946,26259.611697,-681.996427,17534.854118,20752.074808,18330.084482,0.012000,0.986000,0.092000,192.000000,0.000000,0.000000,0.000000,0.000000,0.000000,0.000000,0.000000,0.000000,0.000000,1646639861.387125,0.000000
133.000000,43647.167819,41728.672889,4216.768350,26258.941145,-684.544526,17532.842461,20752.924174,18331.693808,0.012000,0.986000,0.092000,192.000000,0.000000,0.000000,0.000000,0.000000,0.000000,0.000000,0.000000,0.000000,0.000000,1646639861.393607,0.000000
134.000000,43647.279578,41735.043136,4218.534138,26264.372619,-681.817613,17534.965877,20753.840596,18334.823052,0.008000,0.984000,0.096000,192.000000,0.000000,64.000000,30.000000,192.000000,3.000000,0.000000,0.000000,0.000000,0.000000,1646639861.393623,0.000000
135.000000,43646.050232,41731.735078,4216.053094,26261.153968,-681.951723,17533.468310,20751.560718,18332.945506,0.008000,0.984000,0.096000,192.000000,0.000000,0.000000,0.000000,0.000000,0.000000,0.000000,0.000000,0.000000,0.000000,1646639861.401636,0.000000
136.000000,43637.958901,41716.759410,4214.264955,26253.554374,-684.723340,17533.445958,20747.313887,18328.855136,0.008000,0.984000,0.096000,192.000000,0.000000,0.000000,0.000000,0.000000,0.000000,0.000000,0.000000,0.000000,0.000000,1646639861.401652,0.000000
137.000000,43641.512828,41717.139389,4216.343667,26252.123863,-684.321008,17531.635467,20744.721084,18325.971761,0.008000,0.984000,0.096000,192.000000,0.000000,0.000000,0.000000,0.000000,0.000000,0.000000,0.000000,0.000000,0.000000,1646639861.409576,0.000000
138.000000,43640.372889,41718.055811,4216.880109,26250.872165,-684.946857,17528.416816,20741.390674,18321.076729,0.008000,0.984000,0.096000,192.000000,0.000000,0.000000,0.000000,0.000000,0.000000,0.000000,0.000000,0.000000,0.000000,1646639861.409591,0.000000
139.000000,43632.013337,41711.842026,4211.135711,26245.641857,-689.819537,17527.589801,20741.211860,18319.646218,0.008000,0.984000,0.096000,192.000000,0.000000,0.000000,0.000000,0.000000,0.000000,0.000000,0.000000,0.000000,0.000000,1646639861.416738,0.000000
140.000000,43635.410802,41714.501883,4213.661458,26247.117072,-689.908944,17532.194261,20743.357628,18325.435320,0.008000,0.984000,0.096000,192.000000,0.000000,0.000000,0.000000,0.000000,0.000000,0.000000,0.000000,0.000000,0.000000,1646639861.416754,0.000000
141.000000,43636.863665,41717.094686,4217.125978,26247.497052,-688.411377,17534.854118,20741.994171,18319.690921,0.008000,0.984000,0.096000,192.000000,0.000000,0.000000,0.000000,0.000000,0.000000,0.000000,0.000000,0.000000,0.000000,1646639861.424212,0.000000
142.000000,43632.303909,41715.284194,4216.790702,26248.033494,-689.037226,17539.011543,20750.554890,18323.110738,0.008000,0.984000,0.096000,192.000000,0.000000,0.000000,0.000000,0.000000,0.000000,0.000000,0.000000,0.000000,0.000000,1646639861.424228,0.000000
143.000000,43630.515770,41715.977098,4215.516653,26247.608810,-688.858412,17541.336124,20757.618041,18336.231212,0.008000,0.984000,0.096000,192.000000,0.000000,0.000000,0.000000,0.000000,0.000000,0.000000,0.000000,0.000000,0.000000,1646639861.432194,0.000000
144.000000,43631.029860,41716.066505,4214.868452,26246.647685,-689.372502,17539.637392,20755.002887,18333.638410,0.006000,0.980000,0.092000,192.000000,0.000000,48.000000,30.000000,160.000000,2.000000,224.000000,0.000000,0.000000,0.000000,1646639861.432210,0.000000
145.000000,43631.901578,41717.921700,4215.382542,26248.748749,-689.819537,17539.547985,20755.718142,18331.403235,0.006000,0.980000,0.092000,192.000000,0.000000,0.000000,0.000000,0.000000,0.000000,0.000000,0.000000,0.000000,0.000000,1646639861.439303,0.000000
146.000000,43634.181456,41719.039287,4216.388371,26251.028627,-688.187860,17541.224365,20757.707448,18330.620924,0.006000,0.980000,0.092000,192.000000,0.000000,0.000000,0.000000,0.000000,0.000000,0.000000,0.000000,0.000000,0.000000,1646639861.439320,0.000000
147.000000,43626.134828,41712.579633,4212.499167,26244.658380,-691.831194,17539.458578,20755.494625,18331.738512,0.006000,0.980000,0.092000,192.000000,0.000000,0.000000,0.000000,0.000000,0.000000,0.000000,0.000000,0.000000,0.000000,1646639861.445897,0.000000
148.000000,43627.788857,41714.591290,4215.270783,26246.178299,-690.378331,17541.917269,20758.333297,18337.125282,0.006000,0.980000,0.092000,192.000000,0.000000,0.000000,0.000000,0.000000,0.000000,0.000000,0.000000,0.000000,0.000000,1646639861.453823,0.000000
149.000000,43623.989060,41715.395953,4212.454464,26245.597153,-691.250049,17543.794816,20759.830863,18338.913422,0.006000,0.980000,0.092000,192.000000,0.000000,0.000000,0.000000,0.000000,0.000000,0.000000,0.000000,0.000000,0.000000,1646639861.453840,0.000000
150.000000,43620.748057,41714.747753,4212.856795,26242.780834,-691.987657,17540.643220,20752.231270,18333.973686,0.006000,0.980000,0.092000,192.000000,0.000000,0.000000,0.000000,0.000000,0.000000,0.000000,0.000000,0.000000,0.000000,1646639861.461827,0.000000
151.000000,43628.392354,41722.012069,4216.522481,26248.726398,-686.779700,17545.471197,20757.126302,18336.208860,0.006000,0.980000,0.092000,192.000000,0.000000,0.000000,0.000000,0.000000,0.000000,0.000000,0.000000,0.000000,0.000000,1646639861.461843,0.000000
152.000000,43629.018203,41717.742886,4215.293135,26249.464005,-687.293790,17544.286554,20755.516977,18331.939677,0.006000,0.980000,0.092000,192.000000,0.000000,0.000000,0.000000,0.000000,0.000000,0.000000,0.000000,0.000000,0.000000,1646639861.469941,0.000000
153.000000,43628.057078,41719.754543,4215.471949,26252.280325,-685.058616,17541.514938,20748.878509,18321.367302,0.006000,0.980000,0.092000,192.000000,0.000000,0.000000,0.000000,0.000000,0.000000,0.000000,0.000000,0.000000,0.000000,1646639861.469957,0.000000
154.000000,43625.598386,41715.865340,4212.096836,26250.894517,-688.634895,17536.955182,20741.368323,18316.047587,0.006000,0.984000,0.096000,192.000000,0.000000,48.000000,30.000000,192.000000,3.000000,0.000000,0.000000,0.000000,0.000000,1646639861.476489,0.000000
155.000000,43630.672232,41721.676793,4214.644934,26256.258935,-684.879802,17541.470235,20749.526709,18326.932886,0.006000,0.984000,0.096000,192.000000,0.000000,0.000000,0.000000,0.000000,0.000000,0.000000,0.000000,0.000000,0.000000,1646639861.476505,0.000000
156.000000,43629.934624,41724.314299,4213.415589,26256.504805,-683.695159,17542.610174,20756.858081,18343.674343,0.006000,0.984000,0.096000,192.000000,0.000000,0.000000,0.000000,0.000000,0.000000,0.000000,0.000000,0.000000,0.000000,1646639861.484515,0.000000
157.000000,43629.778162,41723.129657,4214.600231,26255.990715,-681.929372,17540.397351,20750.085503,18340.366285,0.006000,0.984000,0.096000,192.000000,0.000000,0.000000,0.000000,0.000000,0.000000,0.000000,0.000000,0.000000,0.000000,1646639861.484532,0.000000
158.000000,43630.068735,41723.219064,4215.226080,26255.342514,-680.655322,17541.581993,20748.565584,18335.538308,0.006000,0.984000,0.096000,192.000000,0.000000,0.000000,0.000000,0.000000,0.000000,0.000000,0.000000,0.000000,0.000000,1646639861.492481,0.000000
159.000000,43630.851046,41727.152971,4222.557452,26259.969325,-678.822479,17543.236022,20750.599593,18332.073788,0.006000,0.984000,0.096000,192.000000,0.000000,0.000000,0.000000,0.000000,0.000000,0.000000,0.000000,0.000000,0.000000,1646639861.492497,0.000000
160.000000,43629.576997,41728.672889,4223.429170,26262.517424,-674.843869,17546.074694,20754.578204,18333.996038,0.006000,0.984000,0.096000,192.000000,0.000000,0.000000,0.000000,0.000000,0.000000,0.000000,0.000000,0.000000,0.000000,1646639861.499730,0.000000
161.000000,43625.374869,41727.197674,4218.355324,26257.063598,-678.956590,17545.135921,20756.746323,18339.382808,0.006000,0.984000,0.096000,192.000000,0.000000,0.000000,0.000000,0.000000,0.000000,0.000000,0.000000,0.000000,0.000000,1646639861.499746,0.000000
162.000000,43622.782066,41723.688450,4215.874280,26254.269630,-682.331703,17542.699581,20752.633602,18335.828881,0.006000,0.984000,0.096000,192.000000,0.000000,0.000000,0.000000,0.000000,0.000000,0.000000,0.000000,0.000000,0.000000,1646639861.506163,0.000000
163.000000,43621.105685,41720.380392,4214.734341,26254.336685,-682.644627,17542.788987,20749.549061,18332.610230,0.006000,0.984000,0.096000,192.000000,0.000000,0.000000,0.000000,0.000000,0.000000,0.000000,0.000000,0.000000,0.000000,1646639861.514144,0.000000
164.000000,43621.798589,41723.576692,4213.482644,26255.610735,-682.622276,17541.693752,20747.090369,18327.066997,0.006000,0.984000,0.096000,192.000000,0.000000,0.000000,0.000000,0.000000,0.000000,0.000000,0.000000,0.000000,0.000000,1646639861.514160,0.000000
165.000000,43619.742229,41719.955709,4215.226080,26254.314334,-681.705854,17540.062075,20740.183680,18316.002883,0.006000,0.974000,0.094000,192.000000,0.000000,48.000000,30.000000,112.000000,2.000000,240.000000,0.000000,0.000000,0.000000,1646639861.522035,0.000000
