%OpenBCI Raw EEG Data
%Number of channels = 8
%Sample Rate = 256 Hz
%Board = OpenBCI_GUI$BoardCytonSerial
%Channels = Fp1, Fp2, F3, F4, Fz, Pz, O1, O2
%Data recorded at AIMS Lab (http://aimsl.uiu.ac.bd) by Rana Depto (mail@ranadepto.com)
%Brainwaves were obtained via the Ultracortex Mark IV Headset using the OpenBCI Cyton Board
%Recording Application = ConcentrateToday (https://concentrate.today)
%Data type = RAW data with noise
%Day No = 2
%Subject ID = 2
%Session ID = 7
%Record starting timestamp (UTC+6) = 2022-03-06T13:58:26.260824
%Record ending timestamp (UTC+6)   = 2022-03-06T13:58:52.111218
%Recorded durations = ~25 seconds
Sample Index, EXG Channel 0, EXG Channel 1, EXG Channel 2, EXG Channel 3, EXG Channel 4, EXG Channel 5, EXG Channel 6, EXG Channel 7, Accel Channel 0, Accel Channel 1, Accel Channel 2, Other, Other, Other, Other, Other, Other, Other, Analog Channel 0, Analog Channel 1, Analog Channel 2, Timestamp, Timestamp (Formatted)
219.000000,68990.134476,66820.830622,54641.007440,54734.080104,28501.782239,47788.610791,49035.391097,44366.782232,0.000000,0.000000,0.000000,196.000000,3.000000,48.000000,0.000000,38.000000,192.000000,11.000000,0.000000,0.000000,0.000000,1646553506.260587,0.000000
220.000000,69006.384195,66828.743139,54654.105562,54743.445485,28510.499419,47795.495128,49033.088867,44365.083500,0.000000,0.000000,0.000000,196.000000,0.000000,0.000000,0.000000,38.000000,192.000000,15.000000,0.000000,0.000000,0.000000,1646553506.268233,0.000000
221.000000,68997.622311,66820.182421,54644.494312,54736.717610,28502.452791,47783.492241,49015.788617,44344.944578,0.000000,0.000000,0.000000,196.000000,0.000000,0.000000,0.000000,38.000000,192.000000,19.000000,0.000000,0.000000,0.000000,1646553506.268240,0.000000
222.000000,68980.322061,66802.859819,54629.473940,54724.982944,28488.594709,47775.423262,49022.963527,44348.610264,0.000000,0.000000,0.000000,196.000000,0.000000,0.000000,0.000000,38.000000,192.000000,23.000000,0.000000,0.000000,0.000000,1646553506.276233,0.000000
223.000000,68978.779790,66804.737366,54630.747990,54728.022781,28487.857102,47779.021892,49031.703059,44351.873619,0.000000,0.000000,0.000000,196.000000,0.000000,0.000000,0.000000,38.000000,192.000000,27.000000,0.000000,0.000000,0.000000,1646553506.276239,0.000000
224.000000,68990.246235,66815.868535,54640.918033,54739.221005,28498.384774,47790.890669,49043.951815,44362.088366,0.000000,0.000000,0.000000,196.000000,0.000000,0.000000,0.000000,38.000000,192.000000,31.000000,0.000000,0.000000,0.000000,1646553506.283418,0.000000
225.000000,68995.789468,66821.009436,54645.880121,54743.512540,28503.570378,47792.075311,49040.442591,44356.723947,0.000000,0.000000,0.000000,196.000000,0.000000,0.000000,0.000000,38.000000,192.000000,35.000000,0.000000,0.000000,0.000000,1646553506.283422,0.000000
226.000000,68993.263721,66822.685817,54642.415600,54740.159779,28499.100029,47788.901363,49035.726373,44355.002863,0.000000,0.000000,0.000000,196.000000,0.000000,0.000000,0.000000,38.000000,192.000000,38.000000,0.000000,0.000000,0.000000,1646553506.290848,0.000000
227.000000,68996.482372,66826.217392,54646.081286,54739.913909,28500.776410,47793.081140,49040.040259,44362.088366,0.000000,0.000000,0.000000,196.000000,253.000000,240.000000,0.000000,38.000000,192.000000,42.000000,0.000000,0.000000,0.000000,1646553506.290852,0.000000
228.000000,69000.483334,66829.033712,54649.098772,54742.014973,28504.464448,47795.226907,49040.867274,44364.725872,0.000000,0.000000,0.000000,196.000000,30.000000,144.000000,0.000000,38.000000,192.000000,46.000000,0.000000,0.000000,0.000000,1646553506.298816,0.000000
229.000000,68994.135439,66821.791747,54641.409772,54736.807017,28499.815285,47792.075311,49039.146190,44361.082537,0.000000,0.000000,0.000000,196.000000,3.000000,48.000000,0.000000,38.000000,192.000000,50.000000,0.000000,0.000000,0.000000,1646553506.298820,0.000000
230.000000,68994.068383,66822.730520,54644.807237,54737.097590,28502.743364,47791.583573,49036.307518,44359.629674,0.000000,0.000000,0.000000,196.000000,0.000000,0.000000,0.000000,38.000000,192.000000,54.000000,0.000000,0.000000,0.000000,1646553506.306891,0.000000
231.000000,68987.340508,66820.495346,54642.795580,54735.287098,28500.351727,47790.309523,49036.195759,44360.344930,0.000000,0.000000,0.000000,196.000000,0.000000,0.000000,0.000000,38.000000,192.000000,58.000000,0.000000,0.000000,0.000000,1646553506.306896,0.000000
232.000000,68987.452267,66822.484651,54639.956908,54735.600023,28499.614119,47792.902326,49037.335698,44365.597590,0.000000,0.000000,0.000000,196.000000,0.000000,0.000000,0.000000,38.000000,192.000000,62.000000,0.000000,0.000000,0.000000,1646553506.313483,0.000000
233.000000,68985.999404,66825.032750,54636.112408,54735.018877,28498.764753,47793.259954,49037.000422,44368.190392,0.000000,0.000000,0.000000,196.000000,0.000000,0.000000,0.000000,38.000000,192.000000,66.000000,0.000000,0.000000,0.000000,1646553506.313487,0.000000
234.000000,68985.686479,66829.994837,54639.867501,54738.125770,28502.251625,47793.863451,49042.945986,44368.726834,0.000000,0.000000,0.000000,196.000000,0.000000,0.000000,0.000000,38.000000,192.000000,70.000000,0.000000,0.000000,0.000000,1646553506.320506,0.000000
235.000000,68978.489218,66823.758700,54633.966641,54733.498959,28494.093239,47785.816823,49032.463018,44356.813354,0.000000,0.000000,0.000000,196.000000,0.000000,0.000000,0.000000,38.000000,192.000000,74.000000,0.000000,0.000000,0.000000,1646553506.328479,0.000000
236.000000,68984.703003,66824.742177,54641.677993,54739.131598,28497.222483,47789.773082,49035.659317,44361.596627,0.000000,0.000000,0.000000,196.000000,0.000000,0.000000,0.000000,38.000000,192.000000,78.000000,0.000000,0.000000,0.000000,1646553506.328483,0.000000
237.000000,68987.452267,66827.357331,54642.281490,54738.841026,28497.982442,47788.007294,49030.652527,44362.267180,0.000000,0.000000,0.000000,196.000000,253.000000,240.000000,0.000000,38.000000,192.000000,82.000000,0.000000,0.000000,0.000000,1646553506.336456,0.000000
238.000000,68990.872084,66828.787843,54640.605109,54735.443561,28497.624814,47792.343532,49048.332757,44363.317712,0.000000,0.000000,0.000000,196.000000,30.000000,224.000000,0.000000,38.000000,192.000000,86.000000,0.000000,0.000000,0.000000,1646553506.336460,0.000000
239.000000,68987.496971,66823.557535,54638.235824,54726.100531,28492.975651,47783.022855,49032.708887,44354.041738,0.000000,0.000000,0.000000,196.000000,3.000000,32.000000,0.000000,38.000000,192.000000,90.000000,0.000000,0.000000,0.000000,1646553506.343033,0.000000
240.000000,68985.708831,66823.669293,54640.582757,54727.151063,28493.981480,47788.096701,49044.510608,44364.725872,0.000000,0.000000,0.000000,196.000000,0.000000,0.000000,0.000000,38.000000,192.000000,94.000000,0.000000,0.000000,0.000000,1646553506.343036,0.000000
241.000000,68988.681613,66835.426311,54643.443780,54736.136465,28497.378945,47788.879012,49041.135495,44361.037834,0.000000,0.000000,0.000000,196.000000,0.000000,0.000000,0.000000,38.000000,192.000000,98.000000,0.000000,0.000000,0.000000,1646553506.351109,0.000000
242.000000,68990.827381,66837.840299,54644.069629,54736.114113,28496.998965,47785.123919,49027.724448,44354.622883,0.000000,0.000000,0.000000,196.000000,0.000000,0.000000,0.000000,38.000000,192.000000,102.000000,0.000000,0.000000,0.000000,1646553506.351112,0.000000
243.000000,68972.297784,66814.706244,54636.246519,54724.401799,28492.081582,47782.061730,49025.556329,44348.185581,0.000000,0.000000,0.000000,196.000000,0.000000,0.000000,0.000000,38.000000,192.000000,106.000000,0.000000,0.000000,0.000000,1646553506.359088,0.000000
244.000000,68975.807008,66814.169802,54638.191120,54727.441636,28497.378945,47783.581648,49023.432913,44349.012595,0.000000,0.000000,0.000000,196.000000,0.000000,0.000000,0.000000,38.000000,192.000000,110.000000,0.000000,0.000000,0.000000,1646553506.359091,0.000000
245.000000,68980.478523,66819.176593,54636.023001,54726.681677,28494.361460,47777.770195,49018.895509,44344.139915,0.000000,0.000000,0.000000,196.000000,0.000000,0.000000,0.000000,38.000000,192.000000,114.000000,0.000000,0.000000,0.000000,1646553506.365706,0.000000
246.000000,68980.903206,66821.277657,54636.581795,54728.112188,28494.763791,47781.458233,49025.668088,44352.432412,0.000000,0.000000,0.000000,196.000000,0.000000,0.000000,0.000000,38.000000,192.000000,118.000000,0.000000,0.000000,0.000000,1646553506.365709,0.000000
247.000000,68982.378421,66821.747043,54641.052144,54731.330840,28499.345899,47790.756558,49041.135495,44357.930941,0.000000,0.000000,0.000000,196.000000,253.000000,208.000000,0.000000,38.000000,192.000000,122.000000,0.000000,0.000000,0.000000,1646553506.373734,0.000000
248.000000,68976.075229,66817.701378,54633.184330,54723.463026,28490.136980,47781.905267,49028.305594,44344.721060,0.000000,0.000000,0.000000,196.000000,30.000000,208.000000,0.000000,38.000000,192.000000,126.000000,0.000000,0.000000,0.000000,1646553506.373737,0.000000
249.000000,68981.618462,66824.250439,54638.839321,54728.715685,28496.127247,47784.967456,49026.718620,44350.756031,0.000000,0.000000,0.000000,196.000000,3.000000,32.000000,0.000000,38.000000,192.000000,130.000000,0.000000,0.000000,0.000000,1646553506.380778,0.000000
250.000000,68983.317194,66826.329151,54640.269833,54730.369715,28497.535407,47786.040340,49033.088867,44359.741433,0.000000,0.000000,0.000000,196.000000,0.000000,0.000000,0.000000,38.000000,192.000000,134.000000,0.000000,0.000000,0.000000,1646553506.390322,0.000000
251.000000,68979.293880,66820.472994,54637.453513,54727.754560,28493.869721,47783.626352,49028.998498,44350.465459,0.000000,0.000000,0.000000,196.000000,0.000000,0.000000,0.000000,38.000000,192.000000,138.000000,0.000000,0.000000,0.000000,1646553506.390327,0.000000
252.000000,68984.501837,66824.317494,54641.700344,54729.743866,28497.937739,47786.308561,49032.753591,44353.304130,0.000000,0.000000,0.000000,196.000000,0.000000,0.000000,0.000000,38.000000,192.000000,142.000000,0.000000,0.000000,0.000000,1646553506.396410,0.000000
253.000000,68982.668994,66824.608067,54640.202777,54726.614621,28496.931910,47782.464061,49020.102503,44352.812392,0.000000,0.000000,0.000000,196.000000,0.000000,0.000000,0.000000,38.000000,192.000000,146.000000,0.000000,0.000000,0.000000,1646553506.396413,0.000000
254.000000,68975.739953,66817.321398,54634.659545,54722.099569,28492.796837,47779.111299,49016.772093,44356.947465,0.000000,0.000000,0.000000,196.000000,0.000000,0.000000,0.000000,38.000000,192.000000,150.000000,0.000000,0.000000,0.000000,1646553506.403450,0.000000
255.000000,68975.807008,66818.282523,54634.950117,54723.261860,28492.685079,47782.151137,49034.877006,44357.573313,0.000000,0.000000,0.000000,196.000000,0.000000,0.000000,0.000000,38.000000,192.000000,154.000000,0.000000,0.000000,0.000000,1646553506.403469,0.000000
0.000000,68986.513494,66833.906392,54644.494312,54733.454255,28502.117515,47786.800300,49027.232710,44355.204029,0.000000,0.000000,0.000000,196.000000,0.000000,0.000000,0.000000,38.000000,192.000000,158.000000,0.000000,0.000000,0.000000,1646553506.411408,0.000000
1.000000,68978.131590,66831.894735,54640.470998,54729.319183,28499.457657,47785.459195,49023.969355,44349.124354,0.000000,0.000000,0.000000,196.000000,0.000000,0.000000,0.000000,38.000000,192.000000,162.000000,0.000000,0.000000,0.000000,1646553506.411413,0.000000
2.000000,68979.383287,66828.944305,54642.192083,54731.442598,28502.139867,47789.884840,49027.500931,44357.215686,0.000000,0.000000,0.000000,196.000000,0.000000,0.000000,0.000000,38.000000,192.000000,166.000000,0.000000,0.000000,0.000000,1646553506.418606,0.000000
3.000000,68978.980956,66821.545878,54642.840283,54729.654459,28500.418782,47792.008256,49035.078172,44361.127241,0.000000,0.000000,0.000000,196.000000,0.000000,0.000000,0.000000,38.000000,192.000000,170.000000,0.000000,0.000000,0.000000,1646553506.418609,0.000000
4.000000,68968.207415,66808.268941,54632.469074,54716.981020,28486.605404,47781.838212,49027.947966,44350.644273,0.000000,0.000000,0.000000,196.000000,0.000000,0.000000,0.000000,38.000000,192.000000,174.000000,0.000000,0.000000,0.000000,1646553506.425979,0.000000
5.000000,68970.084962,66820.785918,54636.470036,54724.222985,28490.449904,47785.459195,49024.394038,44355.852229,0.000000,0.000000,0.000000,196.000000,0.000000,0.000000,0.000000,38.000000,192.000000,178.000000,0.000000,0.000000,0.000000,1646553506.425982,0.000000
6.000000,68982.020793,66832.632343,54644.963699,54734.460084,28500.687003,47792.902326,49038.632099,44362.200125,0.000000,0.000000,0.000000,196.000000,0.000000,0.000000,0.000000,38.000000,192.000000,182.000000,0.000000,0.000000,0.000000,1646553506.433989,0.000000
7.000000,68975.225863,66824.026921,54637.028830,54726.882842,28495.322585,47783.447538,49024.416390,44349.459630,0.000000,0.000000,0.000000,196.000000,253.000000,224.000000,0.000000,38.000000,192.000000,186.000000,0.000000,0.000000,0.000000,1646553506.433993,0.000000
8.000000,68970.733162,66821.568229,54634.860710,54725.921717,28492.215692,47782.709930,49014.291050,44346.419793,0.000000,0.000000,0.000000,196.000000,30.000000,192.000000,0.000000,38.000000,192.000000,190.000000,0.000000,0.000000,0.000000,1646553506.441008,0.000000
9.000000,68972.454247,66826.552668,54635.933594,54729.430941,28495.344936,47788.208459,49026.182178,44351.314825,0.000000,0.000000,0.000000,196.000000,3.000000,64.000000,0.000000,38.000000,192.000000,194.000000,0.000000,0.000000,0.000000,1646553506.441011,0.000000
10.000000,68970.263776,66824.317494,54634.011344,54724.960592,28493.020355,47787.314390,49023.924652,44352.790040,0.000000,0.000000,0.000000,196.000000,0.000000,0.000000,0.000000,38.000000,192.000000,198.000000,0.000000,0.000000,0.000000,1646553506.448304,0.000000
11.000000,68970.286127,66825.792709,54636.067705,54723.261860,28493.020355,47786.733244,49024.371687,44351.203066,0.000000,0.000000,0.000000,196.000000,0.000000,0.000000,0.000000,38.000000,192.000000,202.000000,0.000000,0.000000,0.000000,1646553506.457050,0.000000
12.000000,68959.445531,66812.918104,54622.343734,54713.024761,28482.179759,47769.500049,49003.808082,44330.639461,0.000000,0.000000,0.000000,196.000000,0.000000,0.000000,0.000000,38.000000,192.000000,206.000000,0.000000,0.000000,0.000000,1646553506.457081,0.000000
13.000000,68976.209340,66828.296104,54638.973431,54731.688467,28500.284672,47783.022855,49009.172500,44342.441182,0.000000,0.000000,0.000000,196.000000,0.000000,0.000000,0.000000,38.000000,192.000000,210.000000,0.000000,0.000000,0.000000,1646553506.463723,0.000000
14.000000,68970.800217,66823.065796,54634.816007,54726.569918,28495.076715,47780.273590,49005.998553,44347.045642,0.000000,0.000000,0.000000,196.000000,0.000000,0.000000,0.000000,38.000000,192.000000,214.000000,0.000000,0.000000,0.000000,1646553506.463727,0.000000
15.000000,68976.186988,66828.653732,54638.749914,54729.274479,28498.340070,47790.845965,49035.234634,44354.399366,0.000000,0.000000,0.000000,196.000000,0.000000,0.000000,0.000000,38.000000,192.000000,218.000000,0.000000,0.000000,0.000000,1646553506.470858,0.000000
16.000000,68968.587395,66820.048311,54630.278603,54721.183148,28489.332317,47784.140442,49025.377515,44345.324557,0.000000,0.000000,0.000000,196.000000,0.000000,0.000000,0.000000,38.000000,192.000000,222.000000,0.000000,0.000000,0.000000,1646553506.470890,0.000000
17.000000,68963.312383,66812.918104,54629.116312,54716.936316,28486.247776,47779.714797,49019.029620,44337.389688,0.000000,0.000000,0.000000,196.000000,254.000000,0.000000,0.000000,38.000000,192.000000,226.000000,0.000000,0.000000,0.000000,1646553506.478254,0.000000
18.000000,68976.075229,66830.620686,54640.739219,54730.995563,28499.569416,47789.549564,49031.613652,44347.515028,0.000000,0.000000,0.000000,196.000000,30.000000,176.000000,0.000000,38.000000,192.000000,230.000000,0.000000,0.000000,0.000000,1646553506.478258,0.000000
19.000000,68985.060630,66844.210547,54649.523455,54742.551415,28508.912445,47796.925640,49031.859521,44362.960084,0.000000,0.000000,0.000000,196.000000,3.000000,32.000000,0.000000,38.000000,192.000000,234.000000,0.000000,0.000000,0.000000,1646553506.486183,0.000000
20.000000,68974.845883,66835.448663,54645.008402,54737.790494,28504.285634,47793.371712,49031.434838,44357.908590,0.000000,0.000000,0.000000,196.000000,0.000000,0.000000,0.000000,38.000000,192.000000,238.000000,0.000000,0.000000,0.000000,1646553506.486187,0.000000
21.000000,68966.821607,66825.546840,54638.794618,54730.280308,28498.764753,47786.554430,49030.808989,44352.164191,0.000000,0.000000,0.000000,196.000000,0.000000,0.000000,0.000000,38.000000,192.000000,242.000000,0.000000,0.000000,0.000000,1646553506.494311,0.000000
22.000000,68957.858557,66821.903506,54632.446722,54724.871185,28491.321622,47777.099642,49012.972297,44337.680261,0.000000,0.000000,0.000000,196.000000,0.000000,0.000000,0.000000,38.000000,192.000000,246.000000,0.000000,0.000000,0.000000,1646553506.494315,0.000000
23.000000,68955.869252,66822.529354,54629.876271,54722.814825,28486.828922,47778.731320,49010.290087,44344.475191,0.000000,0.000000,0.000000,196.000000,0.000000,0.000000,0.000000,38.000000,192.000000,250.000000,0.000000,0.000000,0.000000,1646553506.500912,0.000000
24.000000,68983.361898,66843.137663,54650.976318,54739.936261,28505.559684,47798.602021,49038.185065,44362.982436,0.000000,0.000000,0.000000,196.000000,0.000000,0.000000,0.000000,38.000000,192.000000,254.000000,0.000000,0.000000,0.000000,1646553506.500915,0.000000
25.000000,68979.405639,66839.024942,54648.763496,54737.477569,28505.559684,47800.166643,49043.929463,44369.866773,0.000000,0.000000,0.000000,196.000000,0.000000,0.000000,0.000000,38.000000,193.000000,2.000000,0.000000,0.000000,0.000000,1646553506.508023,0.000000
26.000000,68971.671936,66828.340808,54640.538054,54727.329877,28497.066021,47791.069483,49029.423181,44362.893029,0.000000,0.000000,0.000000,196.000000,0.000000,0.000000,0.000000,38.000000,193.000000,6.000000,0.000000,0.000000,0.000000,1646553506.515920,0.000000
27.000000,68961.501892,66820.450642,54628.713981,54716.489281,28486.784218,47780.742977,49012.033524,44345.659834,0.000000,0.000000,0.000000,196.000000,254.000000,0.000000,0.000000,38.000000,193.000000,10.000000,0.000000,0.000000,0.000000,1646553506.515924,0.000000
28.000000,68965.391095,66825.144508,54630.256251,54717.852738,28487.924157,47785.190974,49025.556329,44355.360491,0.000000,0.000000,0.000000,196.000000,30.000000,128.000000,0.000000,38.000000,193.000000,14.000000,0.000000,0.000000,0.000000,1646553506.523809,0.000000
29.000000,68970.420238,66828.094939,54637.900548,54724.692371,28494.853198,47793.036436,49030.026678,44360.456688,0.000000,0.000000,0.000000,196.000000,3.000000,48.000000,0.000000,38.000000,193.000000,18.000000,0.000000,0.000000,0.000000,1646553506.523812,0.000000
30.000000,68948.739046,66806.704319,54624.176577,54709.873165,28481.911538,47781.257067,49017.755570,44347.850305,0.000000,0.000000,0.000000,196.000000,0.000000,0.000000,0.000000,38.000000,193.000000,22.000000,0.000000,0.000000,0.000000,1646553506.531058,0.000000
31.000000,68951.197738,66813.789822,54627.059952,54709.828461,28481.308041,47781.681750,49018.649640,44350.823087,0.000000,0.000000,0.000000,196.000000,0.000000,0.000000,0.000000,38.000000,193.000000,26.000000,0.000000,0.000000,0.000000,1646553506.531062,0.000000
32.000000,68950.840110,66816.919067,54623.014286,54708.532060,28479.631660,47774.864468,49004.322172,44341.703575,0.000000,0.000000,0.000000,196.000000,0.000000,0.000000,0.000000,38.000000,193.000000,30.000000,0.000000,0.000000,0.000000,1646553506.538461,0.000000
33.000000,68951.644772,66814.281561,54630.390362,54712.845947,28486.225425,47778.999541,49011.854710,44345.257502,0.000000,0.000000,0.000000,196.000000,0.000000,0.000000,0.000000,38.000000,193.000000,34.000000,0.000000,0.000000,0.000000,1646553506.538464,0.000000
34.000000,68969.816741,66828.452567,54642.773228,54727.911023,28501.178742,47789.326047,49018.426122,44359.361453,0.000000,0.000000,0.000000,196.000000,0.000000,0.000000,0.000000,38.000000,193.000000,38.000000,0.000000,0.000000,0.000000,1646553506.546560,0.000000
35.000000,68957.299764,66812.873401,54627.864614,54713.114168,28487.231253,47774.484488,49003.405750,44343.692880,0.000000,0.000000,0.000000,196.000000,0.000000,0.000000,0.000000,38.000000,193.000000,42.000000,0.000000,0.000000,0.000000,1646553506.546564,0.000000
36.000000,68951.577717,66804.513848,54624.936536,54706.721569,28482.760904,47775.177392,49019.655468,44342.821162,0.000000,0.000000,0.000000,196.000000,0.000000,0.000000,0.000000,38.000000,193.000000,46.000000,0.000000,0.000000,0.000000,1646553506.555123,0.000000
37.000000,68964.474674,66816.829660,54639.152245,54722.747770,28495.277881,47794.154023,49034.161751,44369.307979,0.000000,0.000000,0.000000,196.000000,253.000000,208.000000,0.000000,38.000000,193.000000,50.000000,0.000000,0.000000,0.000000,1646553506.555127,0.000000
38.000000,68960.607822,66815.734424,54636.000649,54721.518424,28492.059230,47791.695332,49034.049992,44368.726834,0.000000,0.000000,0.000000,196.000000,30.000000,144.000000,0.000000,38.000000,193.000000,54.000000,0.000000,0.000000,0.000000,1646553506.561405,0.000000
39.000000,68967.670973,66820.540049,54638.928728,54723.753598,28494.361460,47788.320218,49021.331849,44361.373110,0.000000,0.000000,0.000000,196.000000,3.000000,0.000000,0.000000,38.000000,193.000000,58.000000,0.000000,0.000000,0.000000,1646553506.561409,0.000000
40.000000,68967.380401,66815.309741,54636.023001,54720.445540,28491.746305,47786.487375,49028.126780,44355.338139,0.000000,0.000000,0.000000,196.000000,0.000000,0.000000,0.000000,38.000000,193.000000,62.000000,0.000000,0.000000,0.000000,1646553506.568137,0.000000
41.000000,68964.094694,66811.889924,54633.921937,54716.981020,28489.309965,47782.844041,49022.315326,44346.218627,0.000000,0.000000,0.000000,196.000000,0.000000,0.000000,0.000000,38.000000,193.000000,66.000000,0.000000,0.000000,0.000000,1646553506.576155,0.000000
42.000000,68956.673915,66808.783032,54629.809216,54710.431958,28486.068962,47779.245410,49015.833320,44347.291511,0.000000,0.000000,0.000000,196.000000,0.000000,0.000000,0.000000,38.000000,193.000000,70.000000,0.000000,0.000000,0.000000,1646553506.576158,0.000000
43.000000,68952.963525,66808.805383,54625.674144,54704.866374,28481.777427,47772.450480,49011.206509,44337.523799,0.000000,0.000000,0.000000,196.000000,0.000000,0.000000,0.000000,38.000000,193.000000,74.000000,0.000000,0.000000,0.000000,1646553506.583254,0.000000
44.000000,68962.530072,66816.784956,54633.050219,54711.326028,28487.208901,47774.685654,49005.707980,44327.957252,0.000000,0.000000,0.000000,196.000000,0.000000,0.000000,0.000000,38.000000,193.000000,78.000000,0.000000,0.000000,0.000000,1646553506.583257,0.000000
45.000000,68970.733162,66823.803404,54641.208606,54717.003371,28490.449904,47783.089910,49017.442646,44338.954310,0.000000,0.000000,0.000000,196.000000,0.000000,0.000000,0.000000,38.000000,193.000000,82.000000,0.000000,0.000000,0.000000,1646553506.590783,0.000000
46.000000,68968.721505,66824.988046,54640.918033,54717.360999,28489.265262,47789.884840,49030.138437,44366.938694,0.000000,0.000000,0.000000,196.000000,0.000000,0.000000,0.000000,38.000000,193.000000,86.000000,0.000000,0.000000,0.000000,1646553506.590786,0.000000
47.000000,68968.453284,66827.156165,54643.600243,54721.049037,28489.265262,47792.365884,49024.818721,44366.759880,0.000000,0.000000,0.000000,196.000000,253.000000,208.000000,0.000000,38.000000,193.000000,90.000000,0.000000,0.000000,0.000000,1646553506.598759,0.000000
48.000000,68976.611671,66837.057988,54652.809161,54729.654459,28495.993137,47796.657419,49023.164692,44367.519840,0.000000,0.000000,0.000000,196.000000,30.000000,128.000000,0.000000,38.000000,193.000000,94.000000,0.000000,0.000000,0.000000,1646553506.598762,0.000000
49.000000,68971.604880,66835.582773,54648.919958,54727.396933,28495.032012,47792.567050,49017.688515,44358.400328,0.000000,0.000000,0.000000,196.000000,2.000000,224.000000,0.000000,38.000000,193.000000,98.000000,0.000000,0.000000,0.000000,1646553506.606800,0.000000
50.000000,68962.932403,66828.117291,54642.281490,54725.117055,28490.539311,47783.738111,49001.014114,44347.224456,0.000000,0.000000,0.000000,196.000000,0.000000,0.000000,0.000000,38.000000,193.000000,102.000000,0.000000,0.000000,0.000000,1646553506.606805,0.000000
51.000000,68957.500930,66819.042482,54635.665373,54717.159834,28483.096180,47777.189049,48998.644829,44344.542246,0.000000,0.000000,0.000000,196.000000,0.000000,0.000000,0.000000,38.000000,193.000000,106.000000,0.000000,0.000000,0.000000,1646553506.614786,0.000000
52.000000,68956.651563,66818.282523,54636.872367,54715.505804,28483.096180,47780.027721,49012.771131,44348.476153,0.000000,0.000000,0.000000,196.000000,0.000000,0.000000,0.000000,38.000000,193.000000,110.000000,0.000000,0.000000,0.000000,1646553506.614789,0.000000
53.000000,68959.624345,66826.016227,54641.610937,54722.345438,28489.734648,47787.828480,49023.656431,44355.606360,0.000000,0.000000,0.000000,196.000000,0.000000,0.000000,0.000000,38.000000,193.000000,114.000000,0.000000,0.000000,0.000000,1646553506.622807,0.000000
54.000000,68954.841072,66826.016227,54634.771304,54721.004334,28488.505302,47785.906230,49016.660335,44353.728813,0.000000,0.000000,0.000000,196.000000,0.000000,0.000000,0.000000,38.000000,193.000000,118.000000,0.000000,0.000000,0.000000,1646553506.622810,0.000000
55.000000,68949.297839,66821.590581,54630.770341,54715.863432,28482.984422,47780.608866,49010.133625,44350.688976,0.000000,0.000000,0.000000,196.000000,0.000000,0.000000,0.000000,38.000000,193.000000,122.000000,0.000000,0.000000,0.000000,1646553506.629879,0.000000
56.000000,68942.279392,66810.794689,54626.858786,54714.522328,28479.430494,47780.117128,49007.607878,44349.638444,0.000000,0.000000,0.000000,196.000000,0.000000,0.000000,0.000000,38.000000,193.000000,126.000000,0.000000,0.000000,0.000000,1646553506.637004,0.000000
57.000000,68942.793482,66810.012378,54626.501158,54717.025723,28481.777427,47781.681750,49004.366875,44350.800735,0.000000,0.000000,0.000000,196.000000,253.000000,192.000000,0.000000,38.000000,193.000000,130.000000,0.000000,0.000000,0.000000,1646553506.637007,0.000000
58.000000,68934.121005,66801.094031,54621.047332,54711.750711,28476.167140,47775.535020,48993.302762,44340.183656,0.000000,0.000000,0.000000,196.000000,30.000000,144.000000,0.000000,38.000000,193.000000,134.000000,0.000000,0.000000,0.000000,1646553506.643152,0.000000
59.000000,68915.837278,66785.291348,54613.738312,54702.541793,28468.142863,47773.724529,49008.121968,44333.589892,0.000000,0.000000,0.000000,196.000000,2.000000,208.000000,0.000000,38.000000,193.000000,138.000000,0.000000,0.000000,0.000000,1646553506.643181,0.000000
60.000000,68911.188115,66783.234988,54615.302934,54703.659380,28469.953355,47777.524326,49011.586489,44333.634595,0.000000,0.000000,0.000000,196.000000,0.000000,0.000000,0.000000,38.000000,193.000000,142.000000,0.000000,0.000000,0.000000,1646553506.651011,0.000000
61.000000,68921.693435,66788.688813,54628.088132,54712.622429,28480.950413,47792.656457,49021.085980,44344.475191,0.000000,0.000000,0.000000,196.000000,0.000000,0.000000,0.000000,38.000000,193.000000,146.000000,0.000000,0.000000,0.000000,1646553506.651015,0.000000
62.000000,68908.304740,66780.128095,54625.271812,54710.990752,28477.307079,47797.953820,49024.975184,44359.629674,0.000000,0.000000,0.000000,196.000000,0.000000,0.000000,0.000000,38.000000,193.000000,150.000000,0.000000,0.000000,0.000000,1646553506.659029,0.000000
63.000000,68890.311586,66762.805493,54613.537146,54698.540830,28466.041799,47787.202631,49011.698247,44354.220552,0.000000,0.000000,0.000000,196.000000,0.000000,0.000000,0.000000,38.000000,193.000000,154.000000,0.000000,0.000000,0.000000,1646553506.659033,0.000000
64.000000,68880.342708,66753.618926,54608.396245,54695.255124,28463.739570,47783.693407,49004.322172,44355.025215,0.000000,0.000000,0.000000,196.000000,0.000000,0.000000,0.000000,38.000000,193.000000,158.000000,0.000000,0.000000,0.000000,1646553506.665653,0.000000
65.000000,68876.878187,66746.242851,54604.305876,54690.583609,28461.012657,47783.358131,49004.188061,44350.733680,0.000000,0.000000,0.000000,196.000000,0.000000,0.000000,0.000000,38.000000,193.000000,162.000000,0.000000,0.000000,0.000000,1646553506.665657,0.000000
66.000000,68866.596385,66729.166118,54598.941457,54681.486449,28452.608401,47781.592343,49008.971335,44348.163229,0.000000,0.000000,0.000000,196.000000,0.000000,0.000000,0.000000,38.000000,193.000000,166.000000,0.000000,0.000000,0.000000,1646553506.673685,0.000000
67.000000,68845.205765,66706.546152,54585.664521,54664.096792,28439.979665,47769.097718,49004.545689,44335.601549,0.000000,0.000000,0.000000,196.000000,253.000000,240.000000,0.000000,38.000000,193.000000,170.000000,0.000000,0.000000,0.000000,1646553506.673688,0.000000
68.000000,68842.948239,66707.797850,54586.647998,54667.114278,28442.348950,47768.449517,49001.170576,44335.176865,0.000000,0.000000,0.000000,196.000000,30.000000,224.000000,0.000000,38.000000,193.000000,174.000000,0.000000,0.000000,0.000000,1646553506.681848,0.000000
69.000000,68824.373940,66687.524818,54570.018300,54654.262025,28427.350930,47755.306692,48990.329980,44331.466476,0.000000,0.000000,0.000000,196.000000,2.000000,208.000000,0.000000,38.000000,193.000000,178.000000,0.000000,0.000000,0.000000,1646553506.681852,0.000000
70.000000,68814.494469,66670.291623,54564.430364,54648.696440,28421.070089,47753.295035,48991.134642,44332.628767,0.000000,0.000000,0.000000,196.000000,0.000000,0.000000,0.000000,38.000000,193.000000,182.000000,0.000000,0.000000,0.000000,1646553506.688783,0.000000
71.000000,68824.731567,66676.773629,54576.455602,54659.179408,28432.760052,47765.856715,49000.790596,44333.433429,0.000000,0.000000,0.000000,196.000000,0.000000,0.000000,0.000000,38.000000,193.000000,186.000000,0.000000,0.000000,0.000000,1646553506.688787,0.000000
72.000000,68810.761727,66667.497655,54569.213637,54650.886911,28424.445203,47763.353320,48996.320247,44334.863941,0.000000,0.000000,0.000000,196.000000,0.000000,0.000000,0.000000,38.000000,193.000000,190.000000,0.000000,0.000000,0.000000,1646553506.695919,0.000000
73.000000,68805.352605,66665.664812,54570.845314,54649.858731,28427.194467,47769.298884,49004.970372,44342.284720,0.000000,0.000000,0.000000,196.000000,0.000000,0.000000,0.000000,38.000000,193.000000,194.000000,0.000000,0.000000,0.000000,1646553506.704688,0.000000
74.000000,68805.911399,66664.144893,54575.203905,54654.865522,28434.794061,47772.696349,49006.624401,44342.351775,0.000000,0.000000,0.000000,196.000000,0.000000,0.000000,0.000000,38.000000,193.000000,198.000000,0.000000,0.000000,0.000000,1646553506.704692,0.000000
75.000000,68806.045509,66668.414076,54577.796707,54660.609920,28438.035064,47774.640951,49005.283297,44345.145744,0.000000,0.000000,0.000000,196.000000,0.000000,0.000000,0.000000,38.000000,193.000000,202.000000,0.000000,0.000000,0.000000,1646553506.712726,0.000000
76.000000,68802.424527,66667.072972,54576.924989,54660.498161,28435.308151,47769.991788,48992.118119,44338.417868,0.000000,0.000000,0.000000,196.000000,0.000000,0.000000,0.000000,38.000000,193.000000,206.000000,0.000000,0.000000,0.000000,1646553506.712730,0.000000
77.000000,68810.873486,66673.420867,54585.217486,54668.768307,28441.588991,47781.771157,49017.576756,44357.170982,0.000000,0.000000,0.000000,196.000000,253.000000,224.000000,0.000000,38.000000,193.000000,210.000000,0.000000,0.000000,0.000000,1646553506.720020,0.000000
78.000000,68815.165021,66679.701707,54583.071719,54669.192990,28440.069072,47781.502936,49022.494140,44357.439203,0.000000,0.000000,0.000000,196.000000,30.000000,192.000000,0.000000,38.000000,193.000000,214.000000,0.000000,0.000000,0.000000,1646553506.720024,0.000000
79.000000,68816.148498,66682.585082,54580.322454,54666.264911,28437.051587,47772.226962,49006.490291,44343.044680,0.000000,0.000000,0.000000,196.000000,3.000000,0.000000,0.000000,38.000000,193.000000,218.000000,0.000000,0.000000,0.000000,1646553506.726333,0.000000
80.000000,68813.600399,66681.691013,54575.785050,54659.380574,28430.837802,47763.286264,48992.475747,44335.199217,0.000000,0.000000,0.000000,196.000000,0.000000,0.000000,0.000000,38.000000,193.000000,222.000000,0.000000,0.000000,0.000000,1646553506.726337,0.000000
81.000000,68820.015349,66688.754164,54572.454640,54659.201760,28429.496697,47761.006386,48988.385378,44330.684165,0.000000,0.000000,0.000000,196.000000,0.000000,0.000000,0.000000,38.000000,193.000000,226.000000,0.000000,0.000000,0.000000,1646553506.733983,0.000000
82.000000,68835.169832,66697.985434,54576.589713,54662.152190,28432.648293,47766.750785,49010.826529,44330.035964,0.000000,0.000000,0.000000,196.000000,0.000000,0.000000,0.000000,38.000000,193.000000,230.000000,0.000000,0.000000,0.000000,1646553506.733986,0.000000
83.000000,68846.122187,66705.070937,54583.094070,54664.163847,28438.526802,47773.411605,49018.224957,44344.698709,0.000000,0.000000,0.000000,196.000000,0.000000,0.000000,0.000000,38.000000,193.000000,234.000000,0.000000,0.000000,0.000000,1646553506.740982,0.000000
84.000000,68862.774237,66716.962065,54595.789861,54674.177429,28450.239116,47779.670093,49013.911070,44351.918322,0.000000,0.000000,0.000000,196.000000,0.000000,0.000000,0.000000,38.000000,193.000000,238.000000,0.000000,0.000000,0.000000,1646553506.740986,0.000000
85.000000,68861.477835,66716.515030,54594.001722,54673.506877,28448.696846,47773.568067,48996.901393,44341.234188,0.000000,0.000000,0.000000,196.000000,0.000000,0.000000,0.000000,38.000000,193.000000,242.000000,0.000000,0.000000,0.000000,1646553506.748862,0.000000
86.000000,68859.823806,66718.817260,54592.817079,54673.283359,28447.869831,47776.697311,49007.786692,44350.197238,0.000000,0.000000,0.000000,196.000000,0.000000,0.000000,0.000000,38.000000,193.000000,246.000000,0.000000,0.000000,0.000000,1646553506.748869,0.000000
87.000000,68866.551681,66731.870679,54596.169841,54676.166734,28449.769729,47773.903343,49006.266773,44348.163229,0.000000,0.000000,0.000000,196.000000,253.000000,240.000000,0.000000,38.000000,193.000000,250.000000,0.000000,0.000000,0.000000,1646553506.756109,0.000000
88.000000,68879.001603,66748.992115,54607.837451,54686.806165,28462.376113,47782.978151,49016.503872,44353.214723,0.000000,0.000000,0.000000,196.000000,30.000000,192.000000,0.000000,38.000000,193.000000,254.000000,0.000000,0.000000,0.000000,1646553506.764077,0.000000
89.000000,68889.328109,66755.474121,54609.357370,54688.683711,28464.343067,47780.050073,49008.993686,44348.900837,0.000000,0.000000,0.000000,196.000000,3.000000,16.000000,0.000000,38.000000,194.000000,2.000000,0.000000,0.000000,0.000000,1646553506.764091,0.000000
90.000000,68898.894656,66757.642240,54611.547841,54691.008293,28463.784273,47777.479622,48997.661352,44351.627749,0.000000,0.000000,0.000000,196.000000,0.000000,0.000000,0.000000,38.000000,194.000000,6.000000,0.000000,0.000000,0.000000,1646553506.771905,0.000000
91.000000,68903.677929,66763.051362,54613.783015,54694.852793,28466.108855,47781.793509,49004.925669,44353.125316,0.000000,0.000000,0.000000,196.000000,0.000000,0.000000,0.000000,38.000000,194.000000,10.000000,0.000000,0.000000,0.000000,1646553506.771922,0.000000
92.000000,68901.688624,66760.011525,54610.743178,54692.796432,28461.571450,47781.547640,49008.479596,44347.336214,0.000000,0.000000,0.000000,196.000000,0.000000,0.000000,0.000000,38.000000,194.000000,14.000000,0.000000,0.000000,0.000000,1646553506.780121,0.000000
93.000000,68903.744984,66765.018316,54612.643076,54694.875144,28463.292535,47785.190974,49012.145282,44349.102002,0.000000,0.000000,0.000000,196.000000,0.000000,0.000000,0.000000,38.000000,194.000000,18.000000,0.000000,0.000000,0.000000,1646553506.780137,0.000000
94.000000,68904.504943,66767.879339,54612.352504,54696.529173,28464.901860,47786.375616,49020.594242,44358.623845,0.000000,0.000000,0.000000,196.000000,0.000000,0.000000,0.000000,38.000000,194.000000,22.000000,0.000000,0.000000,0.000000,1646553506.787964,0.000000
95.000000,68907.813002,66769.533368,54611.145510,54695.210421,28463.828977,47787.247334,49025.690439,44366.089328,0.000000,0.000000,0.000000,196.000000,0.000000,0.000000,0.000000,38.000000,194.000000,26.000000,0.000000,0.000000,0.000000,1646553506.787978,0.000000
96.000000,68914.183249,66774.629566,54612.866594,54695.098662,28463.605459,47786.532079,49016.235652,44365.217610,0.000000,0.000000,0.000000,196.000000,0.000000,0.000000,0.000000,38.000000,194.000000,30.000000,0.000000,0.000000,0.000000,1646553506.796079,0.000000
97.000000,68910.226990,66772.304985,54606.004608,54688.862525,28456.788177,47780.675922,49010.468901,44354.488773,0.000000,0.000000,0.000000,196.000000,254.000000,32.000000,0.000000,38.000000,194.000000,33.000000,0.000000,0.000000,0.000000,1646553506.796094,0.000000
98.000000,68906.270731,66768.818112,54606.205774,54687.119089,28454.575354,47774.372730,48995.381474,44344.654005,0.000000,0.000000,0.000000,196.000000,30.000000,160.000000,0.000000,38.000000,194.000000,37.000000,0.000000,0.000000,0.000000,1646553506.802455,0.000000
99.000000,68914.384414,66771.992060,54609.022094,54692.885839,28458.375151,47775.043282,48993.101596,44341.971796,0.000000,0.000000,0.000000,196.000000,2.000000,208.000000,0.000000,38.000000,194.000000,41.000000,0.000000,0.000000,0.000000,1646553506.802469,0.000000
100.000000,68928.287200,66779.435191,54614.990010,54699.680769,28462.264354,47783.179317,49001.125872,44356.120450,0.000000,0.000000,0.000000,196.000000,0.000000,0.000000,0.000000,38.000000,194.000000,45.000000,0.000000,0.000000,0.000000,1646553506.809338,0.000000
101.000000,68928.555420,66783.212636,54615.280582,54697.423243,28461.817320,47786.062692,49013.285221,44347.760898,0.000000,0.000000,0.000000,196.000000,0.000000,0.000000,0.000000,38.000000,194.000000,49.000000,0.000000,0.000000,0.000000,1646553506.809353,0.000000
102.000000,68934.970371,66791.214560,54622.388437,54702.072406,28469.796892,47788.342570,49000.142396,44354.399366,0.000000,0.000000,0.000000,196.000000,0.000000,0.000000,0.000000,38.000000,194.000000,53.000000,0.000000,0.000000,0.000000,1646553506.816434,0.000000
103.000000,68939.418368,66797.540104,54627.574042,54707.906211,28475.854215,47792.298829,49013.352276,44359.294398,0.000000,0.000000,0.000000,196.000000,0.000000,0.000000,0.000000,38.000000,194.000000,57.000000,0.000000,0.000000,0.000000,1646553506.823541,0.000000
104.000000,68931.014112,66785.492514,54613.201870,54696.417415,28463.359590,47776.652608,48999.829471,44342.910569,0.000000,0.000000,0.000000,196.000000,0.000000,0.000000,0.000000,38.000000,194.000000,61.000000,0.000000,0.000000,0.000000,1646553506.823556,0.000000
105.000000,68929.650656,66783.458505,54612.374856,54697.356188,28462.286706,47774.417433,48996.141433,44342.418831,0.000000,0.000000,0.000000,196.000000,0.000000,0.000000,0.000000,38.000000,194.000000,65.000000,0.000000,0.000000,0.000000,1646553506.831002,0.000000
106.000000,68928.890697,66781.983290,54612.933649,54694.450461,28459.425683,47773.188087,49001.841128,44340.496581,0.000000,0.000000,0.000000,196.000000,0.000000,0.000000,0.000000,38.000000,194.000000,69.000000,0.000000,0.000000,0.000000,1646553506.831017,0.000000
107.000000,68931.304685,66786.967729,54616.353466,54694.763386,28458.665724,47772.450480,49000.656486,44337.300281,0.000000,0.000000,0.000000,196.000000,253.000000,208.000000,0.000000,38.000000,194.000000,73.000000,0.000000,0.000000,0.000000,1646553506.839030,0.000000
108.000000,68939.261906,66795.059060,54621.047332,54701.804185,28465.550061,47779.491279,49004.925669,44344.743412,0.000000,0.000000,0.000000,196.000000,30.000000,160.000000,0.000000,38.000000,194.000000,77.000000,0.000000,0.000000,0.000000,1646553506.839046,0.000000
109.000000,68949.029618,66803.999758,54626.389399,54711.057807,28473.931965,47791.181241,49015.766265,44361.306055,0.000000,0.000000,0.000000,196.000000,2.000000,240.000000,0.000000,38.000000,194.000000,81.000000,0.000000,0.000000,0.000000,1646553506.846951,0.000000
110.000000,68946.325057,66799.060023,54620.823815,54702.921772,28467.405256,47785.123919,49013.866367,44357.595665,0.000000,0.000000,0.000000,196.000000,0.000000,0.000000,0.000000,38.000000,194.000000,85.000000,0.000000,0.000000,0.000000,1646553506.846965,0.000000
111.000000,68939.396017,66789.672290,54615.369989,54693.422281,28462.398465,47776.362035,49009.865404,44348.856133,0.000000,0.000000,0.000000,196.000000,0.000000,0.000000,0.000000,38.000000,194.000000,89.000000,0.000000,0.000000,0.000000,1646553506.854965,0.000000
112.000000,68942.011171,66796.802497,54620.577946,54699.814880,28467.248794,47776.250276,49011.810006,44341.301243,0.000000,0.000000,0.000000,196.000000,0.000000,0.000000,0.000000,38.000000,194.000000,93.000000,0.000000,0.000000,0.000000,1646553506.854980,0.000000
113.000000,68953.142339,66805.229104,54629.339830,54708.844985,28476.256547,47785.079215,49012.927593,44352.499467,0.000000,0.000000,0.000000,196.000000,0.000000,0.000000,0.000000,38.000000,194.000000,97.000000,0.000000,0.000000,0.000000,1646553506.862920,0.000000
114.000000,68951.421255,66808.000721,54627.439931,54709.537889,28474.915442,47786.397968,49010.513605,44362.378938,0.000000,0.000000,0.000000,196.000000,0.000000,0.000000,0.000000,38.000000,194.000000,101.000000,0.000000,0.000000,0.000000,1646553506.862936,0.000000
115.000000,68957.612688,66810.057081,54631.642059,54714.142348,28475.787160,47788.901363,49018.359067,44361.708386,0.000000,0.000000,0.000000,196.000000,0.000000,0.000000,0.000000,38.000000,194.000000,105.000000,0.000000,0.000000,0.000000,1646553506.870853,0.000000
116.000000,68958.394999,66812.247552,54633.072571,54719.953802,28480.324564,47791.672980,49016.772093,44360.635502,0.000000,0.000000,0.000000,196.000000,0.000000,0.000000,0.000000,38.000000,194.000000,109.000000,0.000000,0.000000,0.000000,1646553506.870868,0.000000
117.000000,68959.579642,66815.756776,54633.452551,54721.898403,28483.006773,47793.818747,49011.966468,44358.333273,0.000000,0.000000,0.000000,196.000000,253.000000,192.000000,0.000000,38.000000,194.000000,113.000000,0.000000,0.000000,0.000000,1646553506.877966,0.000000
118.000000,68959.937270,66811.778165,54631.932632,54716.109302,28481.129227,47791.941201,49005.216242,44352.298302,0.000000,0.000000,0.000000,196.000000,30.000000,144.000000,0.000000,38.000000,194.000000,117.000000,0.000000,0.000000,0.000000,1646553506.883964,0.000000
119.000000,68957.679743,66806.883133,54625.405923,54709.224964,28474.468407,47788.454329,49006.110311,44348.274988,0.000000,0.000000,0.000000,196.000000,3.000000,0.000000,0.000000,38.000000,194.000000,121.000000,0.000000,0.000000,0.000000,1646553506.883976,0.000000
120.000000,68963.267680,66814.080395,54628.959850,54710.789586,28475.541291,47791.136538,49007.630230,44352.097136,0.000000,0.000000,0.000000,196.000000,0.000000,0.000000,0.000000,38.000000,194.000000,125.000000,0.000000,0.000000,0.000000,1646553506.890961,0.000000
121.000000,68962.306555,66814.505078,54631.195024,54713.605906,28476.413009,47793.550526,49011.675896,44354.064090,0.000000,0.000000,0.000000,196.000000,0.000000,0.000000,0.000000,38.000000,194.000000,129.000000,0.000000,0.000000,0.000000,1646553506.890971,0.000000
122.000000,68967.648622,66818.304875,54633.273737,54718.366828,28480.391619,47798.177337,49015.520396,44358.355624,0.000000,0.000000,0.000000,196.000000,0.000000,0.000000,0.000000,38.000000,194.000000,133.000000,0.000000,0.000000,0.000000,1646553506.899325,0.000000
123.000000,68955.221052,66806.771375,54621.762588,54706.810976,28471.115645,47789.840137,49013.598146,44351.225418,0.000000,0.000000,0.000000,196.000000,0.000000,0.000000,0.000000,38.000000,194.000000,137.000000,0.000000,0.000000,0.000000,1646553506.899339,0.000000
124.000000,68942.659371,66793.069755,54609.692646,54694.025778,28459.358628,47774.573895,48996.588468,44331.757049,0.000000,0.000000,0.000000,196.000000,0.000000,0.000000,0.000000,38.000000,194.000000,141.000000,0.000000,0.000000,0.000000,1646553506.906417,0.000000
125.000000,68954.148168,66795.751965,54613.157167,54699.501955,28461.437340,47773.389253,48991.246401,44326.191464,0.000000,0.000000,0.000000,196.000000,0.000000,0.000000,0.000000,38.000000,194.000000,145.000000,0.000000,0.000000,0.000000,1646553506.906432,0.000000
126.000000,68961.792464,66802.390433,54619.750931,54705.827499,28467.159387,47776.786718,48986.261962,44338.440220,0.000000,0.000000,0.000000,196.000000,0.000000,0.000000,0.000000,38.000000,194.000000,149.000000,0.000000,0.000000,0.000000,1646553506.913875,0.000000
127.000000,68977.617500,66823.401072,54635.888891,54724.357095,28484.996079,47791.427111,49007.406712,44347.380918,0.000000,0.000000,0.000000,196.000000,253.000000,224.000000,0.000000,38.000000,194.000000,153.000000,0.000000,0.000000,0.000000,1646553506.913890,0.000000
128.000000,68986.781715,66833.794634,54637.922899,54727.173415,28486.650108,47793.639933,49008.680762,44357.506258,0.000000,0.000000,0.000000,196.000000,30.000000,192.000000,0.000000,38.000000,194.000000,157.000000,0.000000,0.000000,0.000000,1646553506.921859,0.000000
129.000000,68985.462962,66827.826718,54632.312612,54718.657400,28478.737590,47785.995637,49001.751721,44349.504334,0.000000,0.000000,0.000000,196.000000,2.000000,240.000000,0.000000,38.000000,194.000000,161.000000,0.000000,0.000000,0.000000,1646553506.921876,0.000000
130.000000,68965.704020,66806.257284,54625.383571,54707.369769,28470.310983,47782.799337,48998.510718,44341.323595,0.000000,0.000000,0.000000,196.000000,0.000000,0.000000,0.000000,38.000000,194.000000,165.000000,0.000000,0.000000,0.000000,1646553506.929897,0.000000
131.000000,68970.599052,66813.141622,54636.693554,54716.712799,28480.436323,47796.098625,49008.546651,44350.756031,0.000000,0.000000,0.000000,196.000000,0.000000,0.000000,0.000000,38.000000,194.000000,169.000000,0.000000,0.000000,0.000000,1646553506.929913,0.000000
132.000000,68981.462000,66824.049273,54641.946213,54723.284212,28487.410067,47798.445558,49006.646753,44354.824049,0.000000,0.000000,0.000000,196.000000,0.000000,0.000000,0.000000,38.000000,194.000000,173.000000,0.000000,0.000000,0.000000,1646553506.936664,0.000000
133.000000,68978.220997,66822.507003,54643.443780,54721.294906,28488.795875,47798.713779,49005.417407,44359.696729,0.000000,0.000000,0.000000,196.000000,0.000000,0.000000,0.000000,38.000000,194.000000,177.000000,0.000000,0.000000,0.000000,1646553506.936679,0.000000
134.000000,68969.727334,66817.433157,54638.682859,54716.489281,28483.252643,47791.136538,48996.230840,44351.918322,0.000000,0.000000,0.000000,196.000000,0.000000,0.000000,0.000000,38.000000,194.000000,181.000000,0.000000,0.000000,0.000000,1646553506.944865,0.000000
135.000000,68974.778828,66824.876288,54642.370897,54720.333781,28485.197244,47792.410587,48990.933477,44353.639406,0.000000,0.000000,0.000000,196.000000,0.000000,0.000000,0.000000,38.000000,194.000000,185.000000,0.000000,0.000000,0.000000,1646553506.952838,0.000000
136.000000,68974.331793,66822.462299,54640.091019,54718.366828,28480.525730,47790.376579,48998.018980,44351.985377,0.000000,0.000000,0.000000,196.000000,0.000000,0.000000,0.000000,38.000000,194.000000,189.000000,0.000000,0.000000,0.000000,1646553506.952854,0.000000
137.000000,68977.282223,66821.165898,54640.292184,54718.433883,28481.553910,47796.053922,49017.397942,44363.317712,0.000000,0.000000,0.000000,196.000000,253.000000,224.000000,0.000000,38.000000,194.000000,193.000000,0.000000,0.000000,0.000000,1646553506.959899,0.000000
138.000000,68976.477561,66822.529354,54638.794618,54716.198709,28481.665669,47797.037398,49021.153035,44360.724909,0.000000,0.000000,0.000000,196.000000,30.000000,128.000000,0.000000,38.000000,194.000000,197.000000,0.000000,0.000000,0.000000,1646553506.959915,0.000000
139.000000,68962.485369,66807.710148,54624.198928,54703.145290,28467.718180,47787.224983,49010.535957,44349.571389,0.000000,0.000000,0.000000,196.000000,3.000000,48.000000,0.000000,38.000000,194.000000,201.000000,0.000000,0.000000,0.000000,1646553506.966226,0.000000
140.000000,68955.332810,66803.351558,54616.733446,54698.831403,28460.856195,47782.061730,49001.796425,44342.709403,0.000000,0.000000,0.000000,196.000000,0.000000,0.000000,0.000000,38.000000,194.000000,205.000000,0.000000,0.000000,0.000000,1646553506.966242,0.000000
141.000000,68972.141322,66819.645979,54632.156149,54716.086950,28478.514073,47797.238564,49009.530128,44356.545133,0.000000,0.000000,0.000000,196.000000,0.000000,0.000000,0.000000,38.000000,194.000000,209.000000,0.000000,0.000000,0.000000,1646553506.974080,0.000000
142.000000,68981.596110,66826.530317,54639.308708,54720.087912,28485.331355,47799.049055,49007.831396,44356.902761,0.000000,0.000000,0.000000,196.000000,0.000000,0.000000,0.000000,38.000000,194.000000,213.000000,0.000000,0.000000,0.000000,1646553506.974095,0.000000
143.000000,68980.165598,66822.149375,54636.715905,54716.645743,28481.643317,47795.606887,49013.195814,44354.108793,0.000000,0.000000,0.000000,196.000000,0.000000,0.000000,0.000000,38.000000,194.000000,217.000000,0.000000,0.000000,0.000000,1646553506.982142,0.000000
144.000000,68985.842942,66824.451604,54640.605109,54719.372656,28484.481988,47796.880936,49020.661297,44361.931904,0.000000,0.000000,0.000000,196.000000,0.000000,0.000000,0.000000,38.000000,194.000000,221.000000,0.000000,0.000000,0.000000,1646553506.982158,0.000000
145.000000,68981.462000,66820.495346,54638.526397,54716.556336,28483.006773,47791.807090,49019.029620,44359.629674,0.000000,0.000000,0.000000,196.000000,0.000000,0.000000,0.000000,38.000000,194.000000,225.000000,0.000000,0.000000,0.000000,1646553506.988748,0.000000
146.000000,68979.517398,66819.266000,54636.045353,54716.019895,28483.699677,47790.868317,49020.929518,44362.043662,0.000000,0.000000,0.000000,196.000000,0.000000,0.000000,0.000000,38.000000,194.000000,229.000000,0.000000,0.000000,0.000000,1646553506.988764,0.000000
147.000000,68978.645680,66814.862706,54631.485597,54713.002409,28479.832826,47778.798375,49011.117102,44348.789078,0.000000,0.000000,0.000000,196.000000,253.000000,208.000000,0.000000,38.000000,194.000000,233.000000,0.000000,0.000000,0.000000,1646553506.996723,0.000000
148.000000,68991.185008,66824.138680,54641.543882,54725.027648,28488.929986,47778.574858,49010.223032,44348.699671,0.000000,0.000000,0.000000,196.000000,30.000000,208.000000,0.000000,38.000000,194.000000,237.000000,0.000000,0.000000,0.000000,1646553506.996737,0.000000
149.000000,68990.201532,66825.636247,54641.521530,54728.134540,28485.711334,47770.863506,49001.327038,44340.518932,0.000000,0.000000,0.000000,196.000000,2.000000,240.000000,0.000000,38.000000,194.000000,241.000000,0.000000,0.000000,0.000000,1646553507.003396,0.000000
150.000000,68988.502799,66828.743139,54640.493350,54730.280308,28484.236119,47772.696349,49001.349390,44343.916398,0.000000,0.000000,0.000000,196.000000,0.000000,0.000000,0.000000,38.000000,194.000000,245.000000,0.000000,0.000000,0.000000,1646553507.011555,0.000000
151.000000,68986.826418,66825.479785,54640.761571,54728.961555,28485.264300,47776.451442,49009.865404,44340.116601,0.000000,0.000000,0.000000,196.000000,0.000000,0.000000,0.000000,38.000000,194.000000,249.000000,0.000000,0.000000,0.000000,1646553507.011570,0.000000
152.000000,68988.949834,66823.646942,54643.935519,54727.396933,28487.633584,47779.625390,49017.554404,44326.236168,0.000000,0.000000,0.000000,196.000000,0.000000,0.000000,0.000000,38.000000,194.000000,253.000000,0.000000,0.000000,0.000000,1646553507.019638,0.000000
153.000000,68983.652471,66818.528392,54640.582757,54724.088874,28484.794913,47786.867355,49024.729314,44356.791002,0.000000,0.000000,0.000000,196.000000,0.000000,0.000000,0.000000,38.000000,195.000000,1.000000,0.000000,0.000000,0.000000,1646553507.019649,0.000000
154.000000,68981.819628,66813.633360,54637.632327,54723.753598,28483.431456,47785.034512,49020.214262,44359.964950,0.000000,0.000000,0.000000,196.000000,0.000000,0.000000,0.000000,38.000000,195.000000,5.000000,0.000000,0.000000,0.000000,1646553507.027652,0.000000
155.000000,68984.613596,66814.706244,54642.125027,54728.313354,28486.001907,47788.320218,49019.968393,44355.293435,0.000000,0.000000,0.000000,196.000000,0.000000,0.000000,0.000000,38.000000,195.000000,9.000000,0.000000,0.000000,0.000000,1646553507.027667,0.000000
156.000000,68986.781715,66819.713035,54649.478751,54734.728305,28491.098105,47795.808053,49028.260890,44359.674377,0.000000,0.000000,0.000000,196.000000,0.000000,0.000000,0.000000,38.000000,195.000000,13.000000,0.000000,0.000000,0.000000,1646553507.035779,0.000000
157.000000,68974.264738,66808.470107,54636.715905,54722.636011,28479.430494,47783.402834,49012.547614,44349.437278,0.000000,0.000000,0.000000,196.000000,253.000000,240.000000,0.000000,38.000000,195.000000,17.000000,0.000000,0.000000,0.000000,1646553507.035794,0.000000
158.000000,68984.993575,66821.232953,54649.344641,54732.895462,28493.981480,47792.656457,49020.415428,44364.748223,0.000000,0.000000,0.000000,196.000000,30.000000,208.000000,0.000000,38.000000,195.000000,21.000000,0.000000,0.000000,0.000000,1646553507.042896,0.000000
159.000000,68985.664128,66822.305837,54651.579815,54732.560185,28496.373117,47794.355189,49035.368745,44367.162212,0.000000,0.000000,0.000000,196.000000,2.000000,224.000000,0.000000,38.000000,195.000000,25.000000,0.000000,0.000000,0.000000,1646553507.042911,0.000000
160.000000,68979.517398,66812.806346,54642.192083,54725.877014,28488.550006,47786.107395,49021.354201,44356.835706,0.000000,0.000000,0.000000,196.000000,0.000000,0.000000,0.000000,38.000000,195.000000,29.000000,0.000000,0.000000,0.000000,1646553507.049222,0.000000
161.000000,68984.412430,66817.164936,54646.684783,54733.789531,28494.696736,47792.187070,49032.842998,44358.221514,0.000000,0.000000,0.000000,196.000000,0.000000,0.000000,0.000000,38.000000,195.000000,33.000000,0.000000,0.000000,0.000000,1646553507.049238,0.000000
162.000000,68979.159770,66806.480802,54638.571100,54726.212290,28486.314832,47785.794471,49029.065553,44348.051470,0.000000,0.000000,0.000000,196.000000,0.000000,0.000000,0.000000,38.000000,195.000000,37.000000,0.000000,0.000000,0.000000,1646553507.057029,0.000000
163.000000,68979.584453,66808.201886,54636.291222,54725.541738,28487.141846,47786.487375,49030.429009,44347.872656,0.000000,0.000000,0.000000,196.000000,0.000000,0.000000,0.000000,38.000000,195.000000,41.000000,0.000000,0.000000,0.000000,1646553507.057044,0.000000
164.000000,68981.014965,66810.727633,54637.095885,54724.804130,28487.454771,47785.034512,49026.785675,44346.039813,0.000000,0.000000,0.000000,196.000000,0.000000,0.000000,0.000000,38.000000,195.000000,45.000000,0.000000,0.000000,0.000000,1646553507.064227,0.000000
165.000000,68980.076191,66810.749985,54639.688687,54728.089837,28491.165160,47795.651590,49036.687498,44368.615075,0.000000,0.000000,0.000000,196.000000,0.000000,0.000000,0.000000,38.000000,195.000000,49.000000,0.000000,0.000000,0.000000,1646553507.070700,0.000000
166.000000,68960.071380,66799.842334,54627.685801,54721.473720,28482.470331,47791.136538,49033.267681,44359.875543,0.000000,0.000000,0.000000,196.000000,0.000000,0.000000,0.000000,38.000000,195.000000,53.000000,0.000000,0.000000,0.000000,1646553507.070715,0.000000
167.000000,68976.857540,66816.695549,54643.399077,54737.589328,28498.317718,47801.887727,49037.447457,44372.370168,0.000000,0.000000,0.000000,196.000000,253.000000,240.000000,0.000000,38.000000,195.000000,57.000000,0.000000,0.000000,0.000000,1646553507.078683,0.000000
168.000000,68980.724392,66820.227125,54647.109466,54739.578633,28502.318681,47802.111244,49029.534939,44377.064035,0.000000,0.000000,0.000000,196.000000,30.000000,112.000000,0.000000,38.000000,195.000000,61.000000,0.000000,0.000000,0.000000,1646553507.078698,0.000000
169.000000,68969.012078,66805.653787,54637.855844,54727.642802,28493.556797,47793.349361,49038.073306,44365.061148,0.000000,0.000000,0.000000,196.000000,3.000000,32.000000,0.000000,38.000000,195.000000,65.000000,0.000000,0.000000,0.000000,1646553507.086658,0.000000
170.000000,68964.586433,66799.507058,54631.999687,54724.133578,28488.728820,47789.102529,49035.391097,44354.421717,0.000000,0.000000,0.000000,196.000000,0.000000,0.000000,0.000000,38.000000,195.000000,69.000000,0.000000,0.000000,0.000000,1646553507.086672,0.000000
171.000000,68976.008174,66811.688758,54638.504045,54732.604889,28494.853198,47793.908154,49030.764285,44360.121412,0.000000,0.000000,0.000000,196.000000,0.000000,0.000000,0.000000,38.000000,195.000000,73.000000,0.000000,0.000000,0.000000,1646553507.094446,0.000000
172.000000,68960.630174,66794.790840,54622.321382,54718.657400,28480.011640,47778.619561,49022.382381,44345.481020,0.000000,0.000000,0.000000,196.000000,0.000000,0.000000,0.000000,38.000000,195.000000,77.000000,0.000000,0.000000,0.000000,1646553507.094460,0.000000
173.000000,68981.126723,66816.382625,54645.343679,54736.359982,28501.737535,47797.260916,49047.416335,44359.719081,0.000000,0.000000,0.000000,196.000000,0.000000,0.000000,0.000000,38.000000,195.000000,81.000000,0.000000,0.000000,0.000000,1646553507.102613,0.000000
174.000000,68981.305537,66821.344712,54649.232882,54741.076200,28506.498457,47801.999486,49042.521303,44363.697691,0.000000,0.000000,0.000000,196.000000,0.000000,0.000000,0.000000,38.000000,195.000000,85.000000,0.000000,0.000000,0.000000,1646553507.102627,0.000000
175.000000,68968.699154,66808.939494,54639.979260,54729.118017,28494.808494,47795.718646,49034.094695,44359.920247,0.000000,0.000000,0.000000,196.000000,0.000000,0.000000,0.000000,38.000000,195.000000,89.000000,0.000000,0.000000,0.000000,1646553507.110720,0.000000
176.000000,68964.273508,66805.027938,54635.330097,54723.686543,28488.035916,47793.639933,49034.832303,44358.869715,0.000000,0.000000,0.000000,196.000000,0.000000,0.000000,0.000000,38.000000,195.000000,93.000000,0.000000,0.000000,0.000000,1646553507.110737,0.000000
177.000000,68969.883796,66812.247552,54638.235824,54728.112188,28492.483913,47796.344494,49035.279338,44362.244828,0.000000,0.000000,0.000000,196.000000,253.000000,224.000000,0.000000,38.000000,195.000000,97.000000,0.000000,0.000000,0.000000,1646553507.118667,0.000000
178.000000,68971.336659,66812.068738,54638.526397,54729.028610,28495.032012,47796.836233,49030.294899,44359.272046,0.000000,0.000000,0.000000,196.000000,30.000000,112.000000,0.000000,38.000000,195.000000,101.000000,0.000000,0.000000,0.000000,1646553507.118682,0.000000
179.000000,68966.732200,66803.910351,54634.793655,54724.267688,28491.835712,47791.583573,49025.288108,44355.494601,0.000000,0.000000,0.000000,196.000000,2.000000,224.000000,0.000000,38.000000,195.000000,105.000000,0.000000,0.000000,0.000000,1646553507.124785,0.000000
180.000000,68966.911014,66801.406956,54637.162940,54725.921717,28495.188474,47790.577744,49026.048067,44356.120450,0.000000,0.000000,0.000000,196.000000,0.000000,0.000000,0.000000,38.000000,195.000000,109.000000,0.000000,0.000000,0.000000,1646553507.131027,0.000000
181.000000,68961.121912,66805.407918,54634.793655,54725.362924,28492.506265,47785.593305,49026.785675,44345.302206,0.000000,0.000000,0.000000,196.000000,0.000000,0.000000,0.000000,38.000000,195.000000,113.000000,0.000000,0.000000,0.000000,1646553507.131037,0.000000
182.000000,68969.436761,66815.600314,54642.750876,54735.287098,28500.217617,47794.109320,49035.882835,44357.819183,0.000000,0.000000,0.000000,196.000000,0.000000,0.000000,0.000000,38.000000,195.000000,117.000000,0.000000,0.000000,0.000000,1646553507.138952,0.000000
183.000000,68970.196720,66813.745119,54644.181388,54736.270575,28502.363384,47796.590364,49038.900320,44367.273971,0.000000,0.000000,0.000000,196.000000,0.000000,0.000000,0.000000,38.000000,195.000000,121.000000,0.000000,0.000000,0.000000,1646553507.138967,0.000000
184.000000,68968.095656,66814.460375,54643.287318,54734.638898,28501.782239,47792.634105,49037.581567,44362.825973,0.000000,0.000000,0.000000,196.000000,0.000000,0.000000,0.000000,38.000000,195.000000,125.000000,0.000000,0.000000,0.000000,1646553507.146081,0.000000
185.000000,68962.395962,66811.398186,54639.599280,54729.877976,28493.914425,47787.984942,49038.363879,44353.482944,0.000000,0.000000,0.000000,196.000000,0.000000,0.000000,0.000000,38.000000,195.000000,129.000000,0.000000,0.000000,0.000000,1646553507.146097,0.000000
186.000000,68972.297784,66817.164936,54644.807237,54733.722476,28497.200131,47789.683675,49037.849788,44342.597645,0.000000,0.000000,0.000000,196.000000,0.000000,0.000000,0.000000,38.000000,195.000000,133.000000,0.000000,0.000000,0.000000,1646553507.153575,0.000000
187.000000,68968.028601,66810.392357,54638.705211,54730.213252,28491.120457,47786.554430,49029.378477,44352.030081,0.000000,0.000000,0.000000,196.000000,253.000000,192.000000,0.000000,38.000000,195.000000,137.000000,0.000000,0.000000,0.000000,1646553507.153591,0.000000
188.000000,68963.804121,66808.313645,54633.787827,54725.474683,28487.275957,47782.844041,49022.002402,44353.102965,0.000000,0.000000,0.000000,196.000000,30.000000,192.000000,0.000000,38.000000,195.000000,141.000000,0.000000,0.000000,0.000000,1646553507.161360,0.000000
189.000000,68965.882834,66815.667369,54639.040487,54730.213252,28492.260396,47788.722550,49031.211320,44363.138898,0.000000,0.000000,0.000000,196.000000,2.000000,224.000000,0.000000,38.000000,195.000000,145.000000,0.000000,0.000000,0.000000,1646553507.161374,0.000000
190.000000,68956.919784,66809.699453,54632.491426,54724.982944,28484.616099,47784.296904,49029.870216,44357.215686,0.000000,0.000000,0.000000,196.000000,0.000000,0.000000,0.000000,38.000000,195.000000,149.000000,0.000000,0.000000,0.000000,1646553507.169608,0.000000
191.000000,68973.929462,66822.283485,54651.803333,54740.070372,28499.614119,47799.138462,49043.325966,44361.127241,0.000000,0.000000,0.000000,196.000000,0.000000,0.000000,0.000000,38.000000,195.000000,153.000000,0.000000,0.000000,0.000000,1646553507.169625,0.000000
192.000000,68971.426066,66817.813136,54648.003536,54742.037325,28498.809457,47799.384332,49036.016945,44366.335197,0.000000,0.000000,0.000000,196.000000,0.000000,0.000000,0.000000,38.000000,195.000000,157.000000,0.000000,0.000000,0.000000,1646553507.177592,0.000000
193.000000,68962.708886,66808.984197,54641.990917,54738.550453,28495.434343,47794.712817,49029.266719,44361.171944,0.000000,0.000000,0.000000,196.000000,0.000000,0.000000,0.000000,38.000000,195.000000,161.000000,0.000000,0.000000,0.000000,1646553507.177609,0.000000
194.000000,68954.975182,66799.305892,54636.179463,54731.844930,28491.880416,47787.649666,49017.129721,44355.539305,0.000000,0.000000,0.000000,196.000000,0.000000,0.000000,0.000000,38.000000,195.000000,165.000000,0.000000,0.000000,0.000000,1646553507.184684,0.000000
195.000000,68966.039296,66809.878267,54642.281490,54736.583500,28497.133076,47793.125843,49022.650602,44361.149593,0.000000,0.000000,0.000000,196.000000,0.000000,0.000000,0.000000,38.000000,195.000000,169.000000,0.000000,0.000000,0.000000,1646553507.184701,0.000000
196.000000,68964.653488,66808.559514,54638.079362,54729.006258,28489.935814,47786.375616,49021.018925,44350.621921,0.000000,0.000000,0.000000,196.000000,0.000000,0.000000,0.000000,38.000000,195.000000,173.000000,0.000000,0.000000,0.000000,1646553507.192420,0.000000
197.000000,68966.531034,66809.051252,54644.382554,54733.186034,28494.875550,47794.221079,49033.938233,44355.941636,0.000000,0.000000,0.000000,196.000000,253.000000,192.000000,0.000000,38.000000,195.000000,177.000000,0.000000,0.000000,0.000000,1646553507.200842,0.000000
198.000000,68962.753589,66809.766508,54647.109466,54736.628203,28497.982442,47800.680733,49039.548521,44363.138898,0.000000,0.000000,0.000000,196.000000,30.000000,144.000000,0.000000,38.000000,195.000000,181.000000,0.000000,0.000000,0.000000,1646553507.200857,0.000000
199.000000,68956.182177,66807.754851,54642.057972,54732.113151,28493.467390,47792.902326,49025.444570,44354.555828,0.000000,0.000000,0.000000,196.000000,2.000000,240.000000,0.000000,38.000000,195.000000,185.000000,0.000000,0.000000,0.000000,1646553507.206980,0.000000
200.000000,68947.219127,66799.283540,54632.044391,54721.987810,28484.459637,47785.593305,49025.332812,44351.985377,0.000000,0.000000,0.000000,196.000000,0.000000,0.000000,0.000000,38.000000,195.000000,189.000000,0.000000,0.000000,0.000000,1646553507.206994,0.000000
201.000000,68956.472749,66802.301026,54637.766437,54728.827444,28490.181683,47791.270648,49030.585471,44358.668549,0.000000,0.000000,0.000000,196.000000,0.000000,0.000000,0.000000,38.000000,195.000000,193.000000,0.000000,0.000000,0.000000,1646553507.213927,0.000000
202.000000,68947.666162,66791.058098,54627.149359,54714.365866,28477.709410,47776.697311,49010.446550,44337.255578,0.000000,0.000000,0.000000,196.000000,0.000000,0.000000,0.000000,38.000000,195.000000,197.000000,0.000000,0.000000,0.000000,1646553507.213942,0.000000
203.000000,68943.821662,66793.293273,54622.433141,54710.186089,28472.724971,47772.942218,49011.653544,44336.786191,0.000000,0.000000,0.000000,196.000000,0.000000,0.000000,0.000000,38.000000,195.000000,201.000000,0.000000,0.000000,0.000000,1646553507.221894,0.000000
204.000000,68947.062665,66798.747098,54623.058989,54712.622429,28474.267241,47775.490317,49016.392114,44348.900837,0.000000,0.000000,0.000000,196.000000,0.000000,0.000000,0.000000,38.000000,195.000000,205.000000,0.000000,0.000000,0.000000,1646553507.221908,0.000000
205.000000,68961.524244,66816.047349,54637.274699,54724.714723,28488.326489,47785.928581,49025.377515,44356.634540,0.000000,0.000000,0.000000,196.000000,0.000000,0.000000,0.000000,38.000000,195.000000,209.000000,0.000000,0.000000,0.000000,1646553507.228974,0.000000
206.000000,68957.322116,66810.191191,54638.079362,54723.373619,28488.550006,47784.565125,49022.091809,44354.399366,0.000000,0.000000,0.000000,196.000000,0.000000,0.000000,0.000000,38.000000,195.000000,213.000000,0.000000,0.000000,0.000000,1646553507.228989,0.000000
207.000000,68944.827490,66789.582883,54626.434103,54708.934392,28475.518939,47767.175468,48997.996628,44334.439258,0.000000,0.000000,0.000000,196.000000,253.000000,128.000000,0.000000,38.000000,195.000000,217.000000,0.000000,0.000000,0.000000,1646553507.236457,0.000000
208.000000,68949.968392,66794.612026,54632.893757,54715.774025,28482.984422,47772.361073,49002.802253,44335.176865,0.000000,0.000000,0.000000,196.000000,30.000000,160.000000,0.000000,38.000000,195.000000,221.000000,0.000000,0.000000,0.000000,1646553507.236472,0.000000
209.000000,68962.440665,66814.929761,54643.108504,54729.945031,28495.702564,47783.224020,49022.605899,44333.768706,0.000000,0.000000,0.000000,196.000000,2.000000,224.000000,0.000000,38.000000,195.000000,225.000000,0.000000,0.000000,0.000000,1646553507.244300,0.000000
210.000000,68945.810967,66803.686834,54630.926803,54719.842043,28484.638451,47782.531116,49023.209396,44350.554866,0.000000,0.000000,0.000000,196.000000,0.000000,0.000000,0.000000,38.000000,195.000000,229.000000,0.000000,0.000000,0.000000,1646553507.244316,0.000000
211.000000,68950.124854,66803.977406,54633.720772,54721.317258,28485.018430,47786.196802,49019.588413,44355.159325,0.000000,0.000000,0.000000,196.000000,0.000000,0.000000,0.000000,38.000000,195.000000,233.000000,0.000000,0.000000,0.000000,1646553507.251635,0.000000
212.000000,68951.421255,66804.849125,54633.407847,54719.484415,28484.861968,47782.508765,49015.654506,44346.419793,0.000000,0.000000,0.000000,196.000000,0.000000,0.000000,0.000000,38.000000,195.000000,237.000000,0.000000,0.000000,0.000000,1646553507.259564,0.000000
213.000000,68945.699208,66795.617854,54627.238766,54711.549546,28478.178797,47781.413529,49024.304631,44352.231246,0.000000,0.000000,0.000000,196.000000,0.000000,0.000000,0.000000,38.000000,195.000000,241.000000,0.000000,0.000000,0.000000,1646553507.259581,0.000000
214.000000,68952.851767,66797.853029,54634.592490,54719.193842,28485.264300,47785.302733,49023.544672,44357.886238,0.000000,0.000000,0.000000,196.000000,0.000000,0.000000,0.000000,38.000000,195.000000,245.000000,0.000000,0.000000,0.000000,1646553507.267602,0.000000
215.000000,68955.936307,66799.954092,54637.967603,54723.865357,28489.086448,47787.627314,49019.163730,44355.360491,0.000000,0.000000,0.000000,196.000000,0.000000,0.000000,0.000000,38.000000,195.000000,249.000000,0.000000,0.000000,0.000000,1646553507.267617,0.000000
216.000000,68949.499005,66800.825811,54634.503083,54722.680714,28484.638451,47783.246372,49014.894547,44348.878485,0.000000,0.000000,0.000000,196.000000,0.000000,0.000000,0.000000,38.000000,195.000000,253.000000,0.000000,0.000000,0.000000,1646553507.275642,0.000000
217.000000,68951.264793,66803.418613,54634.816007,54723.418322,28486.247776,47781.413529,49016.548576,44346.285682,0.000000,0.000000,0.000000,196.000000,253.000000,160.000000,0.000000,38.000000,196.000000,1.000000,0.000000,0.000000,0.000000,1646553507.275659,0.000000
218.000000,68962.306555,66818.863668,54647.288280,54737.075238,28500.128210,47794.869279,49034.206454,44359.361453,0.000000,0.000000,0.000000,196.000000,30.000000,144.000000,0.000000,38.000000,196.000000,5.000000,0.000000,0.000000,0.000000,1646553507.282671,0.000000
219.000000,68957.098598,66817.746081,54644.896644,54736.851720,28498.518884,47790.555393,49025.265756,44349.929017,0.000000,0.000000,0.000000,196.000000,3.000000,0.000000,0.000000,38.000000,196.000000,9.000000,0.000000,0.000000,0.000000,1646553507.282685,0.000000
220.000000,68958.819682,66817.500212,54645.343679,54740.092723,28500.105858,47792.254125,49023.522320,44351.895970,0.000000,0.000000,0.000000,196.000000,0.000000,0.000000,0.000000,38.000000,196.000000,12.000000,0.000000,0.000000,0.000000,1646553507.288800,0.000000
221.000000,68952.427084,66808.872439,54635.195987,54731.889633,28491.455733,47788.096701,49027.702096,44351.426584,0.000000,0.000000,0.000000,196.000000,0.000000,0.000000,0.000000,38.000000,196.000000,16.000000,0.000000,0.000000,0.000000,1646553507.288810,0.000000
222.000000,68947.710865,66802.055156,54627.283469,54719.931450,28482.380925,47777.233753,49001.684666,44344.251674,0.000000,0.000000,0.000000,196.000000,0.000000,0.000000,0.000000,38.000000,196.000000,20.000000,0.000000,0.000000,0.000000,1646553507.296737,0.000000
223.000000,68961.479540,66815.108575,54642.326193,54733.633069,28498.720050,47794.086968,49018.962564,44361.641331,0.000000,0.000000,0.000000,196.000000,0.000000,0.000000,0.000000,38.000000,196.000000,24.000000,0.000000,0.000000,0.000000,1646553507.296752,0.000000
224.000000,68964.586433,66816.717901,54646.237748,54736.292927,28500.307024,47803.608811,49050.523228,44369.240924,0.000000,0.000000,0.000000,196.000000,0.000000,0.000000,0.000000,38.000000,196.000000,28.000000,0.000000,0.000000,0.000000,1646553507.304752,0.000000
225.000000,68960.339601,66810.928799,54638.481693,54731.330840,28491.813361,47797.104454,49039.302652,44362.155421,0.000000,0.000000,0.000000,196.000000,0.000000,0.000000,0.000000,38.000000,196.000000,32.000000,0.000000,0.000000,0.000000,1646553507.304767,0.000000
226.000000,68955.042238,66805.810250,54633.005516,54727.128712,28486.381887,47793.595230,49029.803160,44356.232209,0.000000,0.000000,0.000000,196.000000,0.000000,0.000000,0.000000,38.000000,196.000000,36.000000,0.000000,0.000000,0.000000,1646553507.310980,0.000000
227.000000,68952.471787,66805.385566,54629.608051,54724.647668,28484.571395,47788.789605,49019.454303,44350.219589,0.000000,0.000000,0.000000,196.000000,253.000000,208.000000,0.000000,38.000000,196.000000,40.000000,0.000000,0.000000,0.000000,1646553507.318319,0.000000
228.000000,68957.366819,66811.107613,54635.352449,54728.514520,28491.008698,47792.321180,49021.689477,44348.319691,0.000000,0.000000,0.000000,196.000000,30.000000,128.000000,0.000000,38.000000,196.000000,44.000000,0.000000,0.000000,0.000000,1646553507.318335,0.000000
229.000000,68951.756531,66814.281561,54633.117274,54729.766217,28490.159332,47793.148195,49028.797332,44351.761860,0.000000,0.000000,0.000000,196.000000,2.000000,240.000000,0.000000,38.000000,196.000000,48.000000,0.000000,0.000000,0.000000,1646553507.326445,0.000000
230.000000,68957.590337,66816.583790,54637.721734,54732.291965,28491.500436,47794.422244,49025.444570,44353.281778,0.000000,0.000000,0.000000,196.000000,0.000000,0.000000,0.000000,38.000000,196.000000,52.000000,0.000000,0.000000,0.000000,1646553507.326459,0.000000
231.000000,68964.206453,66818.930724,54641.923862,54733.476607,28494.808494,47799.607849,49028.640870,44367.385729,0.000000,0.000000,0.000000,196.000000,0.000000,0.000000,0.000000,38.000000,196.000000,56.000000,0.000000,0.000000,0.000000,1646553507.334449,0.000000
232.000000,68956.785674,66815.868535,54635.821835,54729.386238,28491.276919,47792.209422,49023.321155,44359.115584,0.000000,0.000000,0.000000,196.000000,0.000000,0.000000,0.000000,38.000000,196.000000,60.000000,0.000000,0.000000,0.000000,1646553507.334464,0.000000
233.000000,68954.014057,66813.946285,54632.424370,54728.894499,28487.879454,47785.146270,49013.151111,44350.845438,0.000000,0.000000,0.000000,196.000000,0.000000,0.000000,0.000000,38.000000,196.000000,64.000000,0.000000,0.000000,0.000000,1646553507.342494,0.000000
234.000000,68947.219127,66810.615875,54627.574042,54722.524252,28478.156445,47775.535020,48997.594297,44342.687052,0.000000,0.000000,0.000000,196.000000,0.000000,0.000000,0.000000,38.000000,196.000000,68.000000,0.000000,0.000000,0.000000,1646553507.342510,0.000000
235.000000,68948.292011,66814.393319,54625.741199,54720.445540,28475.921270,47779.558334,49013.151111,44346.129220,0.000000,0.000000,0.000000,196.000000,0.000000,0.000000,0.000000,38.000000,196.000000,72.000000,0.000000,0.000000,0.000000,1646553507.350413,0.000000
236.000000,68959.266717,66821.165898,54625.361219,54718.523290,28474.691924,47777.747843,49013.732256,44340.965967,0.000000,0.000000,0.000000,196.000000,0.000000,0.000000,0.000000,38.000000,196.000000,76.000000,0.000000,0.000000,0.000000,1646553507.350430,0.000000
237.000000,68963.580604,66819.020131,54628.512815,54718.880918,28477.977631,47783.983980,49021.108332,44334.528665,0.000000,0.000000,0.000000,196.000000,253.000000,224.000000,0.000000,38.000000,196.000000,80.000000,0.000000,0.000000,0.000000,1646553507.358446,0.000000
238.000000,68949.454302,66804.357386,54624.936536,54711.951877,28473.395523,47784.296904,49018.403771,44342.105906,0.000000,0.000000,0.000000,196.000000,30.000000,144.000000,0.000000,38.000000,196.000000,84.000000,0.000000,0.000000,0.000000,1646553507.358462,0.000000
239.000000,68949.946040,66803.552723,54624.109521,54714.656438,28474.311945,47791.695332,49028.395001,44363.697691,0.000000,0.000000,0.000000,196.000000,2.000000,224.000000,0.000000,38.000000,196.000000,88.000000,0.000000,0.000000,0.000000,1646553507.365532,0.000000
240.000000,68941.519432,66795.751965,54616.889908,54707.615639,28464.365418,47778.373692,49012.033524,44332.025270,0.000000,0.000000,0.000000,196.000000,0.000000,0.000000,0.000000,38.000000,196.000000,92.000000,0.000000,0.000000,0.000000,1646553507.365546,0.000000
241.000000,68948.739046,66808.045424,54631.731466,54723.641839,28478.268204,47796.813881,49035.793428,44356.254561,0.000000,0.000000,0.000000,196.000000,0.000000,0.000000,0.000000,38.000000,196.000000,96.000000,0.000000,0.000000,0.000000,1646553507.371741,0.000000
242.000000,68937.853746,66799.507058,54624.265984,54714.589383,28469.707485,47788.655494,49028.976146,44349.906665,0.000000,0.000000,0.000000,196.000000,0.000000,0.000000,0.000000,38.000000,196.000000,100.000000,0.000000,0.000000,0.000000,1646553507.378512,0.000000
243.000000,68942.994647,66803.440965,54627.171710,54717.718627,28473.753151,47796.411550,49031.747762,44374.761805,0.000000,0.000000,0.000000,196.000000,0.000000,0.000000,0.000000,38.000000,196.000000,104.000000,0.000000,0.000000,0.000000,1646553507.378527,0.000000
244.000000,68950.683647,66808.872439,54633.676068,54722.412494,28481.039820,47799.004352,49025.668088,44367.788061,0.000000,0.000000,0.000000,196.000000,0.000000,0.000000,0.000000,38.000000,196.000000,108.000000,0.000000,0.000000,0.000000,1646553507.386423,0.000000
245.000000,68940.960639,66802.613950,54624.333039,54715.751674,28473.641392,47793.304657,49019.007268,44358.020348,0.000000,0.000000,0.000000,196.000000,0.000000,0.000000,0.000000,38.000000,196.000000,112.000000,0.000000,0.000000,0.000000,1646553507.386434,0.000000
246.000000,68931.461147,66792.622720,54614.542975,54707.794453,28465.997096,47781.279419,49002.712846,44334.327499,0.000000,0.000000,0.000000,196.000000,0.000000,0.000000,0.000000,38.000000,196.000000,116.000000,0.000000,0.000000,0.000000,1646553507.393266,0.000000
247.000000,68949.342543,66801.317549,54627.864614,54717.293944,28475.094256,47788.767253,49011.385323,44333.880464,0.000000,0.000000,0.000000,196.000000,253.000000,224.000000,0.000000,38.000000,196.000000,120.000000,0.000000,0.000000,0.000000,1646553507.393281,0.000000
248.000000,68940.066569,66792.443906,54620.063856,54706.900383,28466.310020,47784.721587,49009.418369,44349.236113,0.000000,0.000000,0.000000,196.000000,30.000000,192.000000,0.000000,38.000000,196.000000,124.000000,0.000000,0.000000,0.000000,1646553507.401297,0.000000
249.000000,68938.457243,66794.343805,54615.906431,54703.100586,28463.158424,47779.111299,49006.825567,44349.571389,0.000000,0.000000,0.000000,196.000000,2.000000,240.000000,0.000000,38.000000,196.000000,128.000000,0.000000,0.000000,0.000000,1646553507.401314,0.000000
250.000000,68948.157900,66804.871476,54617.225184,54706.006313,28464.276011,47773.210439,48987.200735,44341.189485,0.000000,0.000000,0.000000,196.000000,0.000000,0.000000,0.000000,38.000000,196.000000,132.000000,0.000000,0.000000,0.000000,1646553507.409254,0.000000
251.000000,68955.802197,66812.739290,54623.662487,54714.790549,28472.993192,47781.972323,49004.948021,44348.744374,0.000000,0.000000,0.000000,196.000000,0.000000,0.000000,0.000000,38.000000,196.000000,136.000000,0.000000,0.000000,0.000000,1646553507.409269,0.000000
252.000000,68946.123892,66804.826773,54627.127007,54719.305601,28479.206977,47792.432939,49020.035448,44358.400328,0.000000,0.000000,0.000000,196.000000,0.000000,0.000000,0.000000,38.000000,196.000000,140.000000,0.000000,0.000000,0.000000,1646553507.417294,0.000000
253.000000,68941.742950,66801.384604,54631.485597,54723.574784,28483.364401,47800.613678,49022.516492,44363.742395,0.000000,0.000000,0.000000,196.000000,0.000000,0.000000,0.000000,38.000000,196.000000,144.000000,0.000000,0.000000,0.000000,1646553507.417311,0.000000
254.000000,68937.473767,66797.249531,54628.512815,54721.138444,28477.977631,47799.160814,49023.544672,44361.283703,0.000000,0.000000,0.000000,196.000000,0.000000,0.000000,0.000000,38.000000,196.000000,148.000000,0.000000,0.000000,0.000000,1646553507.425351,0.000000
255.000000,68933.361046,66797.942435,54619.817986,54714.097645,28469.215747,47789.840137,49008.278430,44354.175848,0.000000,0.000000,0.000000,196.000000,0.000000,0.000000,0.000000,38.000000,196.000000,152.000000,0.000000,0.000000,0.000000,1646553507.425366,0.000000
0.000000,68935.819737,66806.033767,54621.561423,54717.830386,28473.149654,47793.192898,49010.759474,44351.895970,0.000000,0.000000,0.000000,196.000000,0.000000,0.000000,0.000000,38.000000,196.000000,156.000000,0.000000,0.000000,0.000000,1646553507.432401,0.000000
1.000000,68947.442645,66814.482726,54629.295126,54724.267688,28481.240986,47799.183166,49019.521358,44355.606360,0.000000,0.000000,0.000000,196.000000,0.000000,0.000000,0.000000,38.000000,196.000000,160.000000,0.000000,0.000000,0.000000,1646553507.432417,0.000000
2.000000,68932.690493,66797.942435,54616.688742,54708.956743,28468.522843,47788.990770,49011.787654,44353.013558,0.000000,0.000000,0.000000,196.000000,0.000000,0.000000,0.000000,38.000000,196.000000,164.000000,0.000000,0.000000,0.000000,1646553507.440470,0.000000
3.000000,68925.023845,66792.801534,54608.999742,54704.017008,28461.236174,47784.878049,49010.603012,44353.326482,0.000000,0.000000,0.000000,196.000000,0.000000,0.000000,0.000000,38.000000,196.000000,168.000000,0.000000,0.000000,0.000000,1646553507.447613,0.000000
4.000000,68936.467938,66799.708223,54619.370952,54710.007275,28465.840634,47788.007294,49012.368800,44356.612188,0.000000,0.000000,0.000000,196.000000,0.000000,0.000000,0.000000,38.000000,196.000000,172.000000,0.000000,0.000000,0.000000,1646553507.447630,0.000000
5.000000,68938.345485,66794.924950,54620.130911,54705.872203,28464.901860,47781.167660,49003.696323,44348.900837,0.000000,0.000000,0.000000,196.000000,0.000000,0.000000,0.000000,38.000000,196.000000,176.000000,0.000000,0.000000,0.000000,1646553507.453822,0.000000
6.000000,68922.542801,66784.464334,54604.551745,54690.516554,28449.367398,47760.671110,48975.890753,44325.319746,0.000000,0.000000,0.000000,196.000000,0.000000,0.000000,0.000000,38.000000,196.000000,180.000000,0.000000,0.000000,0.000000,1646553507.453839,0.000000
7.000000,68928.845993,66791.572188,54615.951135,54696.238601,28459.559793,47768.315407,48988.743006,44330.348889,0.000000,0.000000,0.000000,196.000000,253.000000,176.000000,0.000000,38.000000,196.000000,184.000000,0.000000,0.000000,0.000000,1646553507.461390,0.000000
8.000000,68947.487348,66807.933665,54631.776170,54715.103473,28476.614174,47781.681750,48995.873212,44339.602511,0.000000,0.000000,0.000000,196.000000,30.000000,192.000000,0.000000,38.000000,196.000000,188.000000,0.000000,0.000000,0.000000,1646553507.461404,0.000000
9.000000,68942.458206,66805.854953,54626.791731,54716.846909,28471.719142,47781.458233,49006.289125,44336.383860,0.000000,0.000000,0.000000,196.000000,2.000000,224.000000,0.000000,38.000000,196.000000,192.000000,0.000000,0.000000,0.000000,1646553507.469508,0.000000
10.000000,68940.424197,66810.258247,54625.517681,54715.997543,28471.719142,47784.095738,49016.705038,44333.031098,0.000000,0.000000,0.000000,196.000000,0.000000,0.000000,0.000000,38.000000,196.000000,196.000000,0.000000,0.000000,0.000000,1646553507.469525,0.000000
11.000000,68947.777921,66815.913238,54631.485597,54718.277421,28478.871701,47785.123919,49006.043256,44335.646252,0.000000,0.000000,0.000000,196.000000,0.000000,0.000000,0.000000,38.000000,196.000000,200.000000,0.000000,0.000000,0.000000,1646553507.475943,0.000000
12.000000,68957.165653,66820.070663,54636.581795,54723.977116,28484.437285,47786.196802,48992.811023,44337.188522,0.000000,0.000000,0.000000,196.000000,0.000000,0.000000,0.000000,38.000000,196.000000,204.000000,0.000000,0.000000,0.000000,1646553507.475954,0.000000
13.000000,68952.918822,66814.706244,54630.412713,54720.736113,28478.648183,47783.380483,48990.911125,44341.949444,0.000000,0.000000,0.000000,196.000000,0.000000,0.000000,0.000000,38.000000,196.000000,208.000000,0.000000,0.000000,0.000000,1646553507.484233,0.000000
14.000000,68952.516491,66812.649883,54625.897661,54717.092778,28473.507282,47782.508765,49004.657448,44339.557807,0.000000,0.000000,0.000000,196.000000,0.000000,0.000000,0.000000,38.000000,196.000000,212.000000,0.000000,0.000000,0.000000,1646553507.484249,0.000000
15.000000,68938.792519,66798.389470,54610.340847,54702.385330,28457.503433,47771.623465,48998.466015,44334.126333,0.000000,0.000000,0.000000,196.000000,0.000000,0.000000,0.000000,38.000000,196.000000,216.000000,0.000000,0.000000,0.000000,1646553507.492238,0.000000
16.000000,68940.088921,66799.887037,54609.804405,54703.078235,28458.263392,47768.360110,48990.017055,44332.360546,0.000000,0.000000,0.000000,196.000000,0.000000,0.000000,0.000000,38.000000,196.000000,220.000000,0.000000,0.000000,0.000000,1646553507.492253,0.000000
17.000000,68963.915880,66825.748006,54635.285394,54727.486340,28484.549044,47790.443634,49013.441683,44350.867790,0.000000,0.000000,0.000000,196.000000,253.000000,208.000000,0.000000,38.000000,196.000000,224.000000,0.000000,0.000000,0.000000,1646553507.499215,0.000000
18.000000,68956.405694,66821.747043,54634.883062,54722.412494,28479.743419,47788.275515,49013.017000,44349.794906,0.000000,0.000000,0.000000,196.000000,30.000000,112.000000,0.000000,38.000000,196.000000,228.000000,0.000000,0.000000,0.000000,1646553507.507275,0.000000
19.000000,68942.033522,66807.754851,54624.668315,54711.191918,28467.785235,47781.637047,49010.759474,44349.347871,0.000000,0.000000,0.000000,196.000000,2.000000,240.000000,0.000000,38.000000,196.000000,232.000000,0.000000,0.000000,0.000000,1646553507.507291,0.000000
20.000000,68938.479595,66803.016281,54621.673181,54707.593287,28465.438302,47775.356206,49000.254154,44341.524761,0.000000,0.000000,0.000000,196.000000,0.000000,0.000000,0.000000,38.000000,196.000000,236.000000,0.000000,0.000000,0.000000,1646553507.515331,0.000000
21.000000,68951.845938,66813.633360,54633.385495,54721.071389,28479.251680,47788.275515,49002.064646,44349.727851,0.000000,0.000000,0.000000,196.000000,0.000000,0.000000,0.000000,38.000000,196.000000,240.000000,0.000000,0.000000,0.000000,1646553507.515346,0.000000
22.000000,68950.124854,66810.012378,54629.988030,54719.439712,28474.870738,47782.262895,48991.291105,44335.936825,0.000000,0.000000,0.000000,196.000000,0.000000,0.000000,0.000000,38.000000,196.000000,244.000000,0.000000,0.000000,0.000000,1646553507.523506,0.000000
23.000000,68949.409598,66808.917142,54629.764513,54720.713761,28474.781331,47783.425186,48990.754663,44339.155476,0.000000,0.000000,0.000000,196.000000,0.000000,0.000000,0.000000,38.000000,196.000000,248.000000,0.000000,0.000000,0.000000,1646553507.523523,0.000000
24.000000,68952.136511,66811.778165,54629.809216,54724.200633,28475.809512,47790.175413,49005.551518,44348.297339,0.000000,0.000000,0.000000,196.000000,0.000000,0.000000,0.000000,38.000000,196.000000,252.000000,0.000000,0.000000,0.000000,1646553507.529549,0.000000
25.000000,68952.427084,66812.895753,54623.371914,54719.149139,28469.953355,47785.414491,49001.572907,44344.117563,0.000000,0.000000,0.000000,196.000000,0.000000,0.000000,0.000000,38.000000,197.000000,0.000000,0.000000,0.000000,0.000000,1646553507.529566,0.000000
26.000000,68958.126778,66820.987084,54629.518644,54721.473720,28473.194358,47787.157927,49007.697285,44352.052433,0.000000,0.000000,0.000000,196.000000,0.000000,0.000000,0.000000,38.000000,197.000000,4.000000,0.000000,0.000000,0.000000,1646553507.536505,0.000000
27.000000,68947.934383,66814.952113,54624.713019,54714.567031,28468.589898,47781.413529,49012.189986,44349.683148,0.000000,0.000000,0.000000,196.000000,253.000000,224.000000,0.000000,38.000000,197.000000,8.000000,0.000000,0.000000,0.000000,1646553507.536521,0.000000
28.000000,68932.422272,66797.562456,54611.458434,54701.781833,28455.089445,47770.058843,48994.420349,44340.116601,0.000000,0.000000,0.000000,196.000000,30.000000,128.000000,0.000000,38.000000,197.000000,12.000000,0.000000,0.000000,0.000000,1646553507.544348,0.000000
29.000000,68930.500022,66799.328244,54607.077492,54696.886801,28450.552040,47765.767308,48985.703169,44332.584063,0.000000,0.000000,0.000000,196.000000,3.000000,48.000000,0.000000,38.000000,197.000000,16.000000,0.000000,0.000000,0.000000,1646553507.544365,0.000000
30.000000,68945.989781,66820.852974,54625.651792,54715.818729,28468.612250,47781.949971,49001.796425,44348.587912,0.000000,0.000000,0.000000,196.000000,0.000000,0.000000,0.000000,38.000000,197.000000,20.000000,0.000000,0.000000,0.000000,1646553507.551717,0.000000
31.000000,68943.955772,66821.344712,54625.048295,54717.092778,28470.668610,47781.637047,49008.792521,44349.034947,0.000000,0.000000,0.000000,196.000000,0.000000,0.000000,0.000000,38.000000,197.000000,24.000000,0.000000,0.000000,0.000000,1646553507.551732,0.000000
32.000000,68938.948982,66814.013340,54618.678047,54712.577726,28466.086503,47777.613733,49008.747817,44344.296377,0.000000,0.000000,0.000000,196.000000,0.000000,0.000000,0.000000,38.000000,197.000000,28.000000,0.000000,0.000000,0.000000,1646553507.558167,0.000000
33.000000,68937.898450,66808.783032,54616.174652,54710.186089,28464.208956,47777.837250,49008.501948,44348.118526,0.000000,0.000000,0.000000,196.000000,0.000000,0.000000,0.000000,38.000000,197.000000,32.000000,0.000000,0.000000,0.000000,1646553507.566081,0.000000
34.000000,68950.460130,66814.795651,54619.817986,54713.337685,28468.053456,47779.580686,49007.674933,44346.151572,0.000000,0.000000,0.000000,196.000000,0.000000,0.000000,0.000000,38.000000,197.000000,36.000000,0.000000,0.000000,0.000000,1646553507.566096,0.000000
35.000000,68942.346447,66804.759718,54610.027922,54703.480566,28458.553965,47767.086061,48997.571945,44328.761915,0.000000,0.000000,0.000000,196.000000,0.000000,0.000000,0.000000,38.000000,197.000000,40.000000,0.000000,0.000000,0.000000,1646553507.574152,0.000000
36.000000,68937.451415,66801.675177,54609.402074,54703.122938,28458.531613,47767.197820,48992.229878,44338.440220,0.000000,0.000000,0.000000,196.000000,0.000000,0.000000,0.000000,38.000000,197.000000,44.000000,0.000000,0.000000,0.000000,1646553507.574166,0.000000
37.000000,68946.503871,66811.375834,54620.287373,54713.963534,28466.600593,47775.713834,49003.361047,44345.615130,0.000000,0.000000,0.000000,196.000000,253.000000,224.000000,0.000000,38.000000,197.000000,48.000000,0.000000,0.000000,0.000000,1646553507.582175,0.000000
38.000000,68942.368799,66811.219372,54617.247536,54710.007275,28463.583107,47768.494221,48988.340674,44342.016499,0.000000,0.000000,0.000000,196.000000,30.000000,144.000000,0.000000,38.000000,197.000000,52.000000,0.000000,0.000000,0.000000,1646553507.582191,0.000000
39.000000,68939.641886,66809.766508,54613.023056,54705.514575,28461.057360,47763.353320,48980.137584,44338.395517,0.000000,0.000000,0.000000,196.000000,2.000000,240.000000,0.000000,38.000000,197.000000,56.000000,0.000000,0.000000,0.000000,1646553507.590097,0.000000
40.000000,68946.928554,66813.208677,54620.130911,54709.604944,28466.690000,47774.305674,49015.229823,44347.403270,0.000000,0.000000,0.000000,196.000000,0.000000,0.000000,0.000000,38.000000,197.000000,60.000000,0.000000,0.000000,0.000000,1646553507.590112,0.000000
41.000000,68956.986839,66823.579886,54623.930707,54717.025723,28471.562680,47775.132689,49002.355218,44342.687052,0.000000,0.000000,0.000000,196.000000,0.000000,0.000000,0.000000,38.000000,197.000000,64.000000,0.000000,0.000000,0.000000,1646553507.598182,0.000000
42.000000,68958.126778,66826.016227,54622.991934,54719.752636,28472.054419,47776.920828,48999.225974,44344.765764,0.000000,0.000000,0.000000,196.000000,0.000000,0.000000,0.000000,38.000000,197.000000,68.000000,0.000000,0.000000,0.000000,1646553507.598197,0.000000
43.000000,68955.869252,66822.551706,54624.087170,54719.350305,28469.416913,47775.713834,49001.014114,44331.578235,0.000000,0.000000,0.000000,196.000000,0.000000,0.000000,0.000000,38.000000,197.000000,72.000000,0.000000,0.000000,0.000000,1646553507.606154,0.000000
44.000000,68962.395962,66829.838375,54630.747990,54725.295869,28475.720105,47782.329951,49012.055875,44328.739563,0.000000,0.000000,0.000000,196.000000,0.000000,0.000000,0.000000,38.000000,197.000000,76.000000,0.000000,0.000000,0.000000,1646553507.606169,0.000000
45.000000,68961.926575,66833.705227,54632.424370,54728.201595,28478.491721,47786.845003,49005.640925,44353.192372,0.000000,0.000000,0.000000,196.000000,0.000000,0.000000,0.000000,38.000000,197.000000,80.000000,0.000000,0.000000,0.000000,1646553507.612376,0.000000
46.000000,68962.217148,66834.152262,54629.630402,54727.620450,28478.290555,47781.078253,48989.614724,44350.130183,0.000000,0.000000,0.000000,196.000000,0.000000,0.000000,0.000000,38.000000,197.000000,84.000000,0.000000,0.000000,0.000000,1646553507.612392,0.000000
47.000000,68967.603918,66838.823776,54636.090056,54730.615584,28482.447980,47783.425186,48998.264849,44345.682185,0.000000,0.000000,0.000000,196.000000,253.000000,240.000000,0.000000,38.000000,197.000000,88.000000,0.000000,0.000000,0.000000,1646553507.618347,0.000000
48.000000,68966.843959,66836.655657,54632.223205,54727.776912,28478.491721,47780.452404,48997.035503,44343.916398,0.000000,0.000000,0.000000,196.000000,30.000000,224.000000,0.000000,38.000000,197.000000,92.000000,0.000000,0.000000,0.000000,1646553507.626419,0.000000
49.000000,68954.729313,66818.394282,54621.717885,54715.885784,28466.913517,47769.365939,48985.546706,44333.634595,0.000000,0.000000,0.000000,196.000000,3.000000,0.000000,0.000000,38.000000,197.000000,96.000000,0.000000,0.000000,0.000000,1646553507.626436,0.000000
50.000000,68953.187043,66822.596410,54628.691629,54722.859528,28474.714276,47778.954837,48995.582640,44341.994148,0.000000,0.000000,0.000000,196.000000,0.000000,0.000000,0.000000,38.000000,197.000000,100.000000,0.000000,0.000000,0.000000,1646553507.633597,0.000000
51.000000,68955.422217,66827.133814,54629.809216,54723.954764,28477.754113,47781.569991,49000.097692,44346.375089,0.000000,0.000000,0.000000,196.000000,0.000000,0.000000,0.000000,38.000000,197.000000,104.000000,0.000000,0.000000,0.000000,1646553507.633613,0.000000
52.000000,68958.640869,66827.580849,54629.786864,54721.227851,28475.496587,47781.905267,48997.057855,44345.279854,0.000000,0.000000,0.000000,196.000000,0.000000,0.000000,0.000000,38.000000,197.000000,108.000000,0.000000,0.000000,0.000000,1646553507.641047,0.000000
53.000000,68955.221052,66825.971523,54629.652754,54720.624354,28475.027201,47783.268724,48994.934439,44342.374127,0.000000,0.000000,0.000000,196.000000,0.000000,0.000000,0.000000,38.000000,197.000000,112.000000,0.000000,0.000000,0.000000,1646553507.641063,0.000000
54.000000,68955.668086,66823.512831,54631.463245,54720.803168,28476.547119,47785.973285,49004.255116,44347.872656,0.000000,0.000000,0.000000,196.000000,0.000000,0.000000,0.000000,38.000000,197.000000,116.000000,0.000000,0.000000,0.000000,1646553507.649086,0.000000
55.000000,68961.613651,66826.910296,54637.632327,54724.960592,28482.202111,47789.437805,49007.496119,44351.650101,0.000000,0.000000,0.000000,196.000000,0.000000,0.000000,0.000000,38.000000,197.000000,120.000000,0.000000,0.000000,0.000000,1646553507.649103,0.000000
56.000000,68955.153996,66826.262096,54636.067705,54723.910060,28484.012602,47788.811957,49003.651619,44358.020348,0.000000,0.000000,0.000000,196.000000,0.000000,0.000000,0.000000,38.000000,197.000000,124.000000,0.000000,0.000000,0.000000,1646553507.657029,0.000000
57.000000,68948.739046,66824.541011,54631.709115,54720.132616,28482.447980,47781.949971,48994.330942,44350.308996,0.000000,0.000000,0.000000,196.000000,253.000000,208.000000,0.000000,38.000000,197.000000,128.000000,0.000000,0.000000,0.000000,1646553507.657046,0.000000
58.000000,68947.040313,66821.814099,54630.949155,54720.378485,28480.548081,47779.021892,48994.286238,44341.234188,0.000000,0.000000,0.000000,196.000000,30.000000,144.000000,0.000000,38.000000,197.000000,132.000000,0.000000,0.000000,0.000000,1646553507.665110,0.000000
59.000000,68949.320191,66820.718863,54632.670240,54721.496072,28482.045648,47777.993712,48991.849898,44335.422735,0.000000,0.000000,0.000000,196.000000,2.000000,240.000000,0.000000,38.000000,197.000000,136.000000,0.000000,0.000000,0.000000,1646553507.665126,0.000000
60.000000,68960.920746,66829.436043,54639.912205,54726.972249,28488.885282,47786.509727,49007.227899,44345.212799,0.000000,0.000000,0.000000,196.000000,0.000000,0.000000,0.000000,38.000000,197.000000,140.000000,0.000000,0.000000,0.000000,1646553507.673124,0.000000
61.000000,68954.975182,66824.049273,54630.211548,54720.579650,28481.285689,47782.285247,49005.260945,44346.710366,0.000000,0.000000,0.000000,196.000000,0.000000,0.000000,0.000000,38.000000,197.000000,144.000000,0.000000,0.000000,0.000000,1646553507.673141,0.000000
62.000000,68958.417351,66828.251401,54633.988992,54723.686543,28482.559738,47782.575820,49003.025771,44349.347871,0.000000,0.000000,0.000000,196.000000,0.000000,0.000000,0.000000,38.000000,197.000000,148.000000,0.000000,0.000000,0.000000,1646553507.680137,0.000000
63.000000,68953.455264,66822.015264,54630.412713,54719.596174,28476.301250,47778.708968,48997.661352,44347.760898,0.000000,0.000000,0.000000,196.000000,0.000000,0.000000,0.000000,38.000000,197.000000,152.000000,0.000000,0.000000,0.000000,1646553507.680153,0.000000
64.000000,68948.493177,66820.137718,54626.456455,54717.942145,28473.015544,47778.999541,49001.751721,44345.704537,0.000000,0.000000,0.000000,196.000000,0.000000,0.000000,0.000000,38.000000,197.000000,156.000000,0.000000,0.000000,0.000000,1646553507.687991,0.000000
65.000000,68948.180252,66824.920991,54625.562385,54720.803168,28475.116608,47776.317331,48985.144375,44340.965967,0.000000,0.000000,0.000000,196.000000,0.000000,0.000000,0.000000,38.000000,197.000000,160.000000,0.000000,0.000000,0.000000,1646553507.694318,0.000000
66.000000,68949.722522,66827.267924,54624.556556,54719.909098,28476.301250,47776.026759,48988.050102,44343.648177,0.000000,0.000000,0.000000,196.000000,0.000000,0.000000,0.000000,38.000000,197.000000,164.000000,0.000000,0.000000,0.000000,1646553507.694332,0.000000
67.000000,68958.104427,66833.638171,54631.418542,54725.251165,28482.984422,47785.436843,49005.618573,44349.414927,0.000000,0.000000,0.000000,196.000000,253.000000,208.000000,0.000000,38.000000,197.000000,168.000000,0.000000,0.000000,0.000000,1646553507.701388,0.000000
68.000000,68956.495101,66831.492404,54628.870443,54724.535909,28479.117570,47783.045206,49004.031599,44343.983453,0.000000,0.000000,0.000000,196.000000,30.000000,160.000000,0.000000,38.000000,197.000000,172.000000,0.000000,0.000000,0.000000,1646553507.701404,0.000000
69.000000,68960.987802,66831.402997,54630.144492,54726.592270,28478.424666,47778.641913,48997.057855,44328.717211,0.000000,0.000000,0.000000,196.000000,2.000000,240.000000,0.000000,38.000000,197.000000,176.000000,0.000000,0.000000,0.000000,1646553507.709297,0.000000
70.000000,68963.781770,66838.220279,54634.681897,54731.509654,28483.654974,47784.341608,48995.649695,44343.268197,0.000000,0.000000,0.000000,196.000000,0.000000,0.000000,0.000000,38.000000,197.000000,180.000000,0.000000,0.000000,0.000000,1646553507.709313,0.000000
71.000000,68960.853691,66835.806291,54632.223205,54730.704991,28483.319698,47784.162794,48986.060797,44353.237075,0.000000,0.000000,0.000000,196.000000,0.000000,0.000000,0.000000,38.000000,197.000000,184.000000,0.000000,0.000000,0.000000,1646553507.715886,0.000000
72.000000,68966.329869,66834.621648,54632.938460,54730.280308,28485.286651,47789.594268,49007.071436,44356.858058,0.000000,0.000000,0.000000,196.000000,0.000000,0.000000,0.000000,38.000000,197.000000,188.000000,0.000000,0.000000,0.000000,1646553507.715902,0.000000
73.000000,68959.222014,66829.033712,54626.702324,54723.463026,28480.302212,47787.783776,49012.033524,44355.494601,0.000000,0.000000,0.000000,196.000000,0.000000,0.000000,0.000000,38.000000,197.000000,192.000000,0.000000,0.000000,0.000000,1646553507.723935,0.000000
74.000000,68957.053895,66831.470052,54626.054123,54721.853700,28476.323602,47782.084081,49000.611782,44351.538342,0.000000,0.000000,0.000000,196.000000,0.000000,0.000000,0.000000,38.000000,197.000000,196.000000,0.000000,0.000000,0.000000,1646553507.723951,0.000000
75.000000,68959.758456,66829.748968,54626.076475,54717.539813,28472.993192,47781.368826,48996.052026,44341.904741,0.000000,0.000000,0.000000,196.000000,0.000000,0.000000,0.000000,38.000000,197.000000,200.000000,0.000000,0.000000,0.000000,1646553507.731934,0.000000
76.000000,68958.909089,66832.498232,54629.697458,54719.618525,28476.278898,47789.504861,49010.267736,44356.813354,0.000000,0.000000,0.000000,196.000000,0.000000,0.000000,0.000000,38.000000,197.000000,204.000000,0.000000,0.000000,0.000000,1646553507.731950,0.000000
77.000000,68959.557290,66833.191137,54630.703286,54720.490243,28478.894052,47790.801262,49009.284259,44358.892066,0.000000,0.000000,0.000000,196.000000,253.000000,224.000000,0.000000,38.000000,197.000000,208.000000,0.000000,0.000000,0.000000,1646553507.739948,0.000000
78.000000,68964.139398,66833.526413,54631.887928,54721.563127,28479.877529,47790.644800,49006.780864,44361.529572,0.000000,0.000000,0.000000,196.000000,30.000000,160.000000,0.000000,38.000000,197.000000,212.000000,0.000000,0.000000,0.000000,1646553507.739965,0.000000
79.000000,68962.418313,66826.753834,54634.726600,54723.395970,28482.023297,47794.936334,49013.709904,44364.815279,0.000000,0.000000,0.000000,196.000000,2.000000,224.000000,0.000000,38.000000,197.000000,216.000000,0.000000,0.000000,0.000000,1646553507.746979,0.000000
80.000000,68958.327944,66832.073549,54633.854882,54725.161758,28481.665669,47790.242468,49005.529166,44354.824049,0.000000,0.000000,0.000000,196.000000,0.000000,0.000000,0.000000,38.000000,197.000000,220.000000,0.000000,0.000000,0.000000,1646553507.755005,0.000000
81.000000,68957.232709,66834.353427,54630.658583,54721.093741,28478.089390,47781.368826,48990.106462,44338.507275,0.000000,0.000000,0.000000,196.000000,0.000000,0.000000,0.000000,38.000000,197.000000,224.000000,0.000000,0.000000,0.000000,1646553507.755021,0.000000
82.000000,68961.188967,66834.688703,54636.626498,54728.738037,28482.582090,47786.599134,48987.357198,44350.241941,0.000000,0.000000,0.000000,196.000000,0.000000,0.000000,0.000000,38.000000,197.000000,228.000000,0.000000,0.000000,0.000000,1646553507.762993,0.000000
83.000000,68959.803159,66833.928744,54635.061876,54726.681677,28480.972765,47788.521384,48998.667180,44353.974683,0.000000,0.000000,0.000000,196.000000,0.000000,0.000000,0.000000,38.000000,197.000000,232.000000,0.000000,0.000000,0.000000,1646553507.763008,0.000000
84.000000,68955.310459,66829.301933,54631.977335,54722.323087,28478.759942,47783.872221,48993.235706,44346.844476,0.000000,0.000000,0.000000,196.000000,0.000000,0.000000,0.000000,38.000000,197.000000,236.000000,0.000000,0.000000,0.000000,1646553507.770199,0.000000
85.000000,68947.040313,66816.472032,54618.365123,54706.989790,28467.673477,47775.669131,49000.790596,44332.852284,0.000000,0.000000,0.000000,196.000000,0.000000,0.000000,0.000000,38.000000,197.000000,240.000000,0.000000,0.000000,0.000000,1646553507.770214,0.000000
86.000000,68949.007267,66822.417596,54622.790768,54707.146252,28468.478139,47776.227924,49002.355218,44336.182694,0.000000,0.000000,0.000000,196.000000,0.000000,0.000000,0.000000,38.000000,197.000000,244.000000,0.000000,0.000000,0.000000,1646553507.776381,0.000000
87.000000,68966.285165,66835.381607,54643.779057,54723.731246,28483.230291,47789.393102,49010.737122,44355.092270,0.000000,0.000000,0.000000,196.000000,253.000000,192.000000,0.000000,38.000000,197.000000,248.000000,0.000000,0.000000,0.000000,1646553507.776398,0.000000
88.000000,68961.457188,66827.267924,54644.784885,54726.659325,28482.380925,47790.108358,49011.430026,44353.482944,0.000000,0.000000,0.000000,196.000000,30.000000,192.000000,0.000000,38.000000,197.000000,251.000000,0.000000,0.000000,0.000000,1646553507.784217,0.000000
89.000000,68963.312383,66832.073549,54648.517626,54733.588366,28487.365364,47791.114186,49012.637021,44356.656892,0.000000,0.000000,0.000000,196.000000,2.000000,224.000000,0.000000,38.000000,197.000000,255.000000,0.000000,0.000000,0.000000,1646553507.784232,0.000000
90.000000,68954.081113,66827.558497,54638.727562,54725.564089,28481.240986,47784.453366,49011.318268,44355.628712,0.000000,0.000000,0.000000,196.000000,0.000000,0.000000,0.000000,38.000000,198.000000,3.000000,0.000000,0.000000,0.000000,1646553507.792245,0.000000
91.000000,68943.575793,66813.521601,54624.176577,54709.224964,28469.439264,47772.405776,49003.718675,44346.844476,0.000000,0.000000,0.000000,196.000000,0.000000,0.000000,0.000000,38.000000,198.000000,7.000000,0.000000,0.000000,0.000000,1646553507.792262,0.000000
92.000000,68957.880909,66823.423424,54634.480731,54719.439712,28479.341087,47781.882916,49015.878024,44354.980511,0.000000,0.000000,0.000000,196.000000,0.000000,0.000000,0.000000,38.000000,198.000000,11.000000,0.000000,0.000000,0.000000,1646553507.798838,0.000000
93.000000,68961.434837,66832.520584,54635.665373,54726.145235,28481.308041,47782.151137,49014.983954,44353.438241,0.000000,0.000000,0.000000,196.000000,0.000000,0.000000,0.000000,38.000000,198.000000,15.000000,0.000000,0.000000,0.000000,1646553507.798853,0.000000
94.000000,68966.285165,66843.607049,54632.334963,54728.514520,28478.871701,47774.909171,49012.100579,44347.403270,0.000000,0.000000,0.000000,196.000000,0.000000,0.000000,0.000000,38.000000,198.000000,19.000000,0.000000,0.000000,0.000000,1646553507.805850,0.000000
95.000000,68962.463017,66836.208622,54629.764513,54722.747770,28475.876567,47767.868372,49003.428102,44341.591816,0.000000,0.000000,0.000000,196.000000,0.000000,0.000000,0.000000,38.000000,198.000000,23.000000,0.000000,0.000000,0.000000,1646553507.813879,0.000000
96.000000,68946.056836,66812.851049,54630.993859,54718.702104,28478.715238,47774.864468,49004.478634,44350.241941,0.000000,0.000000,0.000000,196.000000,0.000000,0.000000,0.000000,38.000000,198.000000,27.000000,0.000000,0.000000,0.000000,1646553507.813895,0.000000
97.000000,68958.350296,66825.502136,54639.040487,54727.709857,28487.946509,47783.626352,49016.101541,44356.902761,0.000000,0.000000,0.000000,196.000000,253.000000,224.000000,0.000000,38.000000,198.000000,31.000000,0.000000,0.000000,0.000000,1646553507.821758,0.000000
98.000000,68957.679743,66828.050235,54633.519606,54721.853700,28482.671497,47778.887782,49018.426122,44353.929979,0.000000,0.000000,0.000000,196.000000,30.000000,208.000000,0.000000,38.000000,198.000000,35.000000,0.000000,0.000000,0.000000,1646553507.821774,0.000000
99.000000,68955.221052,66821.098843,54634.436027,54718.970325,28481.308041,47781.033549,49018.448474,44354.935808,0.000000,0.000000,0.000000,196.000000,3.000000,0.000000,0.000000,38.000000,198.000000,39.000000,0.000000,0.000000,0.000000,1646553507.829897,0.000000
100.000000,68964.765246,66832.252363,54640.828626,54728.492168,28487.164198,47787.023817,49017.420294,44364.927037,0.000000,0.000000,0.000000,196.000000,0.000000,0.000000,0.000000,38.000000,198.000000,43.000000,0.000000,0.000000,0.000000,1646553507.829912,0.000000
101.000000,68962.150092,66824.295142,54639.465170,54725.139406,28485.800741,47788.968419,49033.781771,44365.686997,0.000000,0.000000,0.000000,196.000000,0.000000,0.000000,0.000000,38.000000,198.000000,47.000000,0.000000,0.000000,0.000000,1646553507.837752,0.000000
102.000000,68964.698191,66820.137718,54639.129894,54723.015991,28486.493645,47784.632180,49031.144265,44354.756994,0.000000,0.000000,0.000000,196.000000,0.000000,0.000000,0.000000,38.000000,198.000000,51.000000,0.000000,0.000000,0.000000,1646553507.837767,0.000000
103.000000,68959.020848,66818.327226,54635.955946,54723.261860,28485.845445,47785.436843,49037.134533,44361.373110,0.000000,0.000000,0.000000,196.000000,0.000000,0.000000,0.000000,38.000000,198.000000,55.000000,0.000000,0.000000,0.000000,1646553507.845891,0.000000
104.000000,68949.431950,66812.404014,54629.652754,54720.020857,28479.765770,47781.748805,49033.044163,44355.382842,0.000000,0.000000,0.000000,196.000000,0.000000,0.000000,0.000000,38.000000,198.000000,59.000000,0.000000,0.000000,0.000000,1646553507.845908,0.000000
105.000000,68957.478578,66810.437061,54632.111446,54721.183148,28479.832826,47777.859602,49022.583547,44339.177828,0.000000,0.000000,0.000000,196.000000,0.000000,0.000000,0.000000,38.000000,198.000000,63.000000,0.000000,0.000000,0.000000,1646553507.852093,0.000000
106.000000,68952.941174,66801.116383,54626.747027,54716.757502,28474.803683,47777.144346,49021.711829,44346.553903,0.000000,0.000000,0.000000,196.000000,0.000000,0.000000,0.000000,38.000000,198.000000,67.000000,0.000000,0.000000,0.000000,1646553507.852108,0.000000
107.000000,68945.386284,66789.024089,54617.940440,54710.253145,28467.628773,47773.456308,49008.904279,44354.779345,0.000000,0.000000,0.000000,196.000000,253.000000,192.000000,0.000000,38.000000,198.000000,71.000000,0.000000,0.000000,0.000000,1646553507.859101,0.000000
108.000000,68952.851767,66799.954092,54625.249460,54721.317258,28477.217672,47781.435881,49025.511625,44352.857095,0.000000,0.000000,0.000000,196.000000,30.000000,176.000000,0.000000,38.000000,198.000000,75.000000,0.000000,0.000000,0.000000,1646553507.859116,0.000000
109.000000,68961.345430,66812.694587,54637.140588,54731.196729,28486.560701,47789.303695,49038.118009,44354.935808,0.000000,0.000000,0.000000,196.000000,2.000000,240.000000,0.000000,38.000000,198.000000,79.000000,0.000000,0.000000,0.000000,1646553507.866181,0.000000
110.000000,68946.459168,66800.356424,54620.466187,54718.545642,28473.462578,47773.746881,49015.430989,44338.887255,0.000000,0.000000,0.000000,196.000000,0.000000,0.000000,0.000000,38.000000,198.000000,83.000000,0.000000,0.000000,0.000000,1646553507.874025,0.000000
111.000000,68953.321153,66808.403052,54623.975411,54723.351267,28479.519901,47778.150174,49015.207471,44345.860999,0.000000,0.000000,0.000000,196.000000,0.000000,0.000000,0.000000,38.000000,198.000000,87.000000,0.000000,0.000000,0.000000,1646553507.874036,0.000000
112.000000,68956.986839,66814.907410,54628.781036,54726.659325,28485.085486,47787.336741,49028.283242,44353.482944,0.000000,0.000000,0.000000,196.000000,0.000000,0.000000,0.000000,38.000000,198.000000,91.000000,0.000000,0.000000,0.000000,1646553507.880757,0.000000
113.000000,68951.175386,66812.761642,54622.567251,54723.664191,28482.202111,47785.727416,49028.238538,44347.850305,0.000000,0.000000,0.000000,196.000000,0.000000,0.000000,0.000000,38.000000,198.000000,95.000000,0.000000,0.000000,0.000000,1646553507.880772,0.000000
114.000000,68957.947964,66820.517697,54627.506987,54730.570880,28488.080619,47791.918849,49032.060687,44353.326482,0.000000,0.000000,0.000000,196.000000,0.000000,0.000000,0.000000,38.000000,198.000000,99.000000,0.000000,0.000000,0.000000,1646553507.888495,0.000000
115.000000,68956.338639,66821.478822,54627.909318,54732.426075,28489.757000,47792.410587,49034.765248,44357.081575,0.000000,0.000000,0.000000,196.000000,0.000000,0.000000,0.000000,38.000000,198.000000,103.000000,0.000000,0.000000,0.000000,1646553507.888505,0.000000
116.000000,68945.498043,66811.398186,54617.292239,54720.154967,28478.290555,47782.084081,49026.338640,44348.140877,0.000000,0.000000,0.000000,196.000000,0.000000,0.000000,0.000000,38.000000,198.000000,107.000000,0.000000,0.000000,0.000000,1646553507.896820,0.000000
117.000000,68946.213299,66814.080395,54618.678047,54720.758464,28478.826997,47780.117128,49018.783750,44345.972758,0.000000,0.000000,0.000000,196.000000,253.000000,240.000000,0.000000,38.000000,198.000000,111.000000,0.000000,0.000000,0.000000,1646553507.896836,0.000000
118.000000,68947.196775,66812.605180,54623.438969,54722.948935,28481.017468,47783.849869,49026.986841,44348.498505,0.000000,0.000000,0.000000,196.000000,30.000000,144.000000,0.000000,38.000000,198.000000,115.000000,0.000000,0.000000,0.000000,1646553507.904840,0.000000
119.000000,68943.218165,66803.172744,54619.102731,54718.143310,28475.585994,47778.664265,49022.047105,44346.509200,0.000000,0.000000,0.000000,196.000000,3.000000,0.000000,0.000000,38.000000,198.000000,119.000000,0.000000,0.000000,0.000000,1646553507.904855,0.000000
120.000000,68927.750758,66788.822924,54605.915201,54708.353246,28463.918384,47768.784793,49014.559271,44336.786191,0.000000,0.000000,0.000000,196.000000,0.000000,0.000000,0.000000,38.000000,198.000000,123.000000,0.000000,0.000000,0.000000,1646553507.912818,0.000000
121.000000,68946.369761,66810.839392,54621.762588,54723.485377,28479.586956,47780.385349,49016.325058,44345.033985,0.000000,0.000000,0.000000,196.000000,0.000000,0.000000,0.000000,38.000000,198.000000,127.000000,0.000000,0.000000,0.000000,1646553507.912835,0.000000
122.000000,68949.230784,66813.566305,54626.188234,54724.312392,28481.598613,47781.279419,49016.772093,44340.585988,0.000000,0.000000,0.000000,196.000000,0.000000,0.000000,0.000000,38.000000,198.000000,131.000000,0.000000,0.000000,0.000000,1646553507.920823,0.000000
123.000000,68949.297839,66812.851049,54625.763550,54723.619488,28482.693849,47782.464061,49018.671992,44344.296377,0.000000,0.000000,0.000000,196.000000,0.000000,0.000000,0.000000,38.000000,198.000000,135.000000,0.000000,0.000000,0.000000,1646553507.920838,0.000000
124.000000,68943.866365,66806.212581,54621.673181,54718.545642,28479.609308,47781.882916,49020.638945,44350.420755,0.000000,0.000000,0.000000,196.000000,0.000000,0.000000,0.000000,38.000000,198.000000,139.000000,0.000000,0.000000,0.000000,1646553507.927766,0.000000
125.000000,68936.333828,66797.651863,54614.140643,54711.169566,28472.300288,47770.729395,48999.404788,44337.546150,0.000000,0.000000,0.000000,196.000000,0.000000,0.000000,0.000000,38.000000,198.000000,143.000000,0.000000,0.000000,0.000000,1646553507.927782,0.000000
126.000000,68938.904278,66800.088203,54622.231975,54717.919793,28480.212805,47780.519459,49022.360030,44345.950406,0.000000,0.000000,0.000000,196.000000,0.000000,0.000000,0.000000,38.000000,198.000000,147.000000,0.000000,0.000000,0.000000,1646553507.935036,0.000000
127.000000,68937.496118,66800.512886,54622.880175,54713.963534,28479.899881,47778.194878,49026.919785,44340.004842,0.000000,0.000000,0.000000,196.000000,253.000000,240.000000,0.000000,38.000000,198.000000,151.000000,0.000000,0.000000,0.000000,1646553507.941273,0.000000
128.000000,68940.446549,66804.893828,54621.404960,54715.349342,28479.095218,47776.160869,49015.922727,44341.234188,0.000000,0.000000,0.000000,196.000000,30.000000,192.000000,0.000000,38.000000,198.000000,155.000000,0.000000,0.000000,0.000000,1646553507.941289,0.000000
129.000000,68927.259019,66791.661595,54608.083321,54706.319238,28467.807587,47769.835325,49017.956736,44336.450915,0.000000,0.000000,0.000000,196.000000,2.000000,224.000000,0.000000,38.000000,198.000000,159.000000,0.000000,0.000000,0.000000,1646553507.949114,0.000000
130.000000,68921.693435,66783.279691,54601.042521,54696.506822,28460.073884,47764.448555,49015.520396,44339.401345,0.000000,0.000000,0.000000,196.000000,0.000000,0.000000,0.000000,38.000000,198.000000,163.000000,0.000000,0.000000,0.000000,1646553507.949128,0.000000
131.000000,68933.361046,66794.232046,54614.632382,54707.861508,28472.322640,47776.429090,49021.264794,44350.130183,0.000000,0.000000,0.000000,196.000000,0.000000,0.000000,0.000000,38.000000,198.000000,167.000000,0.000000,0.000000,0.000000,1646553507.956234,0.000000
132.000000,68936.914973,66797.540104,54616.197004,54710.566069,28474.110779,47779.737148,49024.483445,44344.966930,0.000000,0.000000,0.000000,196.000000,0.000000,0.000000,0.000000,38.000000,198.000000,171.000000,0.000000,0.000000,0.000000,1646553507.956249,0.000000
133.000000,68937.250249,66802.390433,54620.376780,54713.024761,28476.971802,47783.559297,49026.495102,44343.089383,0.000000,0.000000,0.000000,196.000000,0.000000,0.000000,0.000000,38.000000,198.000000,175.000000,0.000000,0.000000,0.000000,1646553507.963677,0.000000
134.000000,68931.930534,66800.289369,54615.727617,54711.616601,28472.747323,47779.893610,49015.565099,44341.748278,0.000000,0.000000,0.000000,196.000000,0.000000,0.000000,0.000000,38.000000,198.000000,179.000000,0.000000,0.000000,0.000000,1646553507.963691,0.000000
135.000000,68935.998551,66809.565343,54621.807292,54719.015028,28480.078695,47787.672018,49030.183140,44339.021366,0.000000,0.000000,0.000000,196.000000,0.000000,0.000000,0.000000,38.000000,198.000000,183.000000,0.000000,0.000000,0.000000,1646553507.971684,0.000000
136.000000,68927.706054,66801.183438,54614.721789,54710.051979,28471.965012,47774.462137,49019.633117,44306.812502,0.000000,0.000000,0.000000,196.000000,0.000000,0.000000,0.000000,38.000000,198.000000,187.000000,0.000000,0.000000,0.000000,1646553507.971699,0.000000
137.000000,68924.979141,66799.462354,54614.051236,54712.510671,28473.060247,47783.715759,49024.237576,44352.454764,0.000000,0.000000,0.000000,196.000000,254.000000,0.000000,0.000000,38.000000,198.000000,191.000000,0.000000,0.000000,0.000000,1646553507.979725,0.000000
138.000000,68929.695359,66805.072642,54614.654733,54716.131653,28476.010677,47786.263858,49022.091809,44368.838593,0.000000,0.000000,0.000000,196.000000,30.000000,208.000000,0.000000,38.000000,198.000000,195.000000,0.000000,0.000000,0.000000,1646553507.979742,0.000000
139.000000,68928.264848,66800.624645,54613.604202,54713.516499,28473.596689,47781.055901,49021.689477,44356.791002,0.000000,0.000000,0.000000,196.000000,2.000000,160.000000,0.000000,38.000000,198.000000,199.000000,0.000000,0.000000,0.000000,1646553507.987702,0.000000
140.000000,68916.418423,66790.074621,54604.730559,54701.759482,28464.097198,47771.377596,49019.901338,44344.721060,0.000000,0.000000,0.000000,196.000000,0.000000,0.000000,0.000000,38.000000,198.000000,203.000000,0.000000,0.000000,0.000000,1646553507.987716,0.000000
141.000000,68913.780917,66786.207770,54602.987123,54695.255124,28462.778445,47765.700253,49009.574832,44332.874636,0.000000,0.000000,0.000000,196.000000,0.000000,0.000000,0.000000,38.000000,198.000000,207.000000,0.000000,0.000000,0.000000,1646553507.994621,0.000000
142.000000,68931.952886,66806.771375,54618.074550,54713.762368,28479.743419,47786.330913,49021.533015,44354.466421,0.000000,0.000000,0.000000,196.000000,0.000000,0.000000,0.000000,38.000000,198.000000,211.000000,0.000000,0.000000,0.000000,1646553508.002554,0.000000
143.000000,68924.867383,66799.864686,54612.441911,54709.895517,28472.456750,47782.642875,49019.655468,44351.448935,0.000000,0.000000,0.000000,196.000000,0.000000,0.000000,0.000000,38.000000,198.000000,215.000000,0.000000,0.000000,0.000000,1646553508.002566,0.000000
144.000000,68916.418423,66790.767526,54605.334056,54704.352284,28464.678343,47774.596247,49019.968393,44343.044680,0.000000,0.000000,0.000000,196.000000,0.000000,0.000000,0.000000,38.000000,198.000000,219.000000,0.000000,0.000000,0.000000,1646553508.010914,0.000000
145.000000,68926.163784,66798.545933,54609.714998,54710.834290,28469.148692,47776.987884,49016.593279,44346.486848,0.000000,0.000000,0.000000,196.000000,0.000000,0.000000,0.000000,38.000000,198.000000,223.000000,0.000000,0.000000,0.000000,1646553508.010931,0.000000
146.000000,68924.889734,66798.747098,54609.357370,54711.504842,28470.623907,47777.099642,49011.988820,44348.766726,0.000000,0.000000,0.000000,196.000000,0.000000,0.000000,0.000000,38.000000,198.000000,227.000000,0.000000,0.000000,0.000000,1646553508.017072,0.000000
147.000000,68926.253191,66803.753889,54613.268925,54714.321162,28474.401352,47781.391177,49017.912032,44352.633578,0.000000,0.000000,0.000000,196.000000,254.000000,16.000000,0.000000,38.000000,198.000000,231.000000,0.000000,0.000000,0.000000,1646553508.017087,0.000000
148.000000,68919.726481,66799.819982,54606.675161,54709.716703,28469.014581,47773.322198,49010.625364,44345.101040,0.000000,0.000000,0.000000,196.000000,30.000000,176.000000,0.000000,38.000000,198.000000,235.000000,0.000000,0.000000,0.000000,1646553508.023998,0.000000
149.000000,68918.832412,66793.650901,54606.608105,54705.961610,28467.114683,47774.149212,49018.671992,44342.307072,0.000000,0.000000,0.000000,196.000000,2.000000,160.000000,0.000000,38.000000,198.000000,239.000000,0.000000,0.000000,0.000000,1646553508.024015,0.000000
150.000000,68915.211429,66788.889979,54602.383626,54702.027703,28463.024314,47769.745918,49004.970372,44332.159380,0.000000,0.000000,0.000000,196.000000,0.000000,0.000000,0.000000,38.000000,198.000000,243.000000,0.000000,0.000000,0.000000,1646553508.031936,0.000000
151.000000,68913.155069,66788.062964,54604.909373,54701.893592,28463.337238,47769.745918,48997.728407,44332.986395,0.000000,0.000000,0.000000,196.000000,0.000000,0.000000,0.000000,38.000000,198.000000,247.000000,0.000000,0.000000,0.000000,1646553508.031951,0.000000
152.000000,68912.909199,66787.593578,54604.864669,54701.915944,28463.583107,47774.372730,49013.933422,44341.278892,0.000000,0.000000,0.000000,196.000000,0.000000,0.000000,0.000000,38.000000,198.000000,251.000000,0.000000,0.000000,0.000000,1646553508.038530,0.000000
153.000000,68914.026787,66791.862761,54608.843280,54704.844022,28466.868814,47779.893610,49023.611727,44345.212799,0.000000,0.000000,0.000000,196.000000,0.000000,0.000000,0.000000,38.000000,198.000000,255.000000,0.000000,0.000000,0.000000,1646553508.038545,0.000000
