%OpenBCI Raw EEG Data
%Number of channels = 8
%Sample Rate = 256 Hz
%Board = OpenBCI_GUI$BoardCytonSerial
%Channels = Fp1, Fp2, F3, F4, Fz, Pz, O1, O2
%Data recorded at AIMS Lab (http://aimsl.uiu.ac.bd) by Rana Depto (mail@ranadepto.com)
%Brainwaves were obtained via the Ultracortex Mark IV Headset using the OpenBCI Cyton Board
%Recording Application = ConcentrateToday (https://concentrate.today)
%Data type = RAW data with noise
%Day No = 2
%Subject ID = 7
%Session ID = 7
%Record starting timestamp (UTC+6) = 2022-03-16T09:35:54.881009
%Record ending timestamp (UTC+6)   = 2022-03-16T09:36:59.939044
%Recorded durations = ~65 seconds
Sample Index, EXG Channel 0, EXG Channel 1, EXG Channel 2, EXG Channel 3, EXG Channel 4, EXG Channel 5, EXG Channel 6, EXG Channel 7, Accel Channel 0, Accel Channel 1, Accel Channel 2, Other, Other, Other, Other, Other, Other, Other, Analog Channel 0, Analog Channel 1, Analog Channel 2, Timestamp, Timestamp (Formatted)
221.000000,36647.629636,36568.549164,19825.282076,19756.885738,15676.597139,68465.807255,62069.967338,15493.178724,0.206000,0.958000,0.156000,192.000000,0.000000,0.000000,0.000000,0.000000,0.000000,0.000000,0.000000,0.000000,0.000000,1647401754.885440,0.000000
222.000000,36659.699578,36580.507348,19834.468643,19768.285128,15687.147163,68473.898586,62069.587358,15476.079640,0.206000,0.958000,0.156000,192.000000,0.000000,0.000000,0.000000,0.000000,0.000000,0.000000,0.000000,0.000000,0.000000,1647401754.885447,0.000000
223.000000,36653.731662,36574.897060,19824.544468,19758.360953,15677.804134,68468.601223,62070.123800,15479.052422,0.206000,0.954000,0.162000,192.000000,6.000000,112.000000,29.000000,208.000000,5.000000,16.000000,0.000000,0.000000,0.000000,1647401754.893393,0.000000
224.000000,36642.064052,36561.329551,19813.055672,19743.854671,15664.527197,68452.686781,62068.469771,15493.357538,0.206000,0.954000,0.162000,192.000000,0.000000,0.000000,0.000000,0.000000,0.000000,0.000000,0.000000,0.000000,0.000000,1647401754.893399,0.000000
225.000000,36640.454726,36556.412167,19811.625160,19739.898412,15660.816808,68444.349580,62070.570835,15507.059158,0.206000,0.954000,0.162000,192.000000,0.000000,0.000000,0.000000,0.000000,0.000000,0.000000,0.000000,0.000000,0.000000,1647401754.901419,0.000000
226.000000,36648.367244,36564.302333,19820.588210,19749.196738,15669.489285,68445.914202,62068.849751,15507.506193,0.206000,0.954000,0.162000,192.000000,0.000000,0.000000,0.000000,0.000000,0.000000,0.000000,0.000000,0.000000,0.000000,1647401754.901427,0.000000
227.000000,36666.494509,36582.831929,19835.318009,19766.049953,15685.180209,68461.515720,62071.688422,15503.415823,0.206000,0.954000,0.162000,192.000000,0.000000,0.000000,0.000000,0.000000,0.000000,0.000000,0.000000,0.000000,0.000000,1647401754.907940,0.000000
228.000000,36661.845346,36579.590926,19831.115881,19760.976107,15680.374584,68467.103656,62080.539713,15523.063007,0.206000,0.954000,0.162000,192.000000,0.000000,0.000000,0.000000,0.000000,0.000000,0.000000,0.000000,0.000000,0.000000,1647401754.907945,0.000000
229.000000,36654.089290,36574.740598,19828.791300,19754.672915,15676.351270,68462.365086,62082.886646,15540.698533,0.206000,0.954000,0.162000,192.000000,0.000000,0.000000,0.000000,0.000000,0.000000,0.000000,0.000000,0.000000,0.000000,1647401754.915977,0.000000
230.000000,36662.292381,36580.887327,19837.843756,19762.205453,15686.811887,68466.321345,62080.383251,15542.151397,0.206000,0.954000,0.162000,192.000000,0.000000,0.000000,0.000000,0.000000,0.000000,0.000000,0.000000,0.000000,0.000000,1647401754.915981,0.000000
231.000000,36652.971703,36568.415054,19827.696064,19755.231709,15679.413459,68459.995801,62071.733126,15537.122254,0.206000,0.954000,0.162000,192.000000,0.000000,0.000000,0.000000,0.000000,0.000000,0.000000,0.000000,0.000000,0.000000,1647401754.923116,0.000000
232.000000,36659.878392,36573.265382,19833.149890,19762.719543,15686.767183,68464.756723,62075.197646,15544.699495,0.206000,0.954000,0.162000,192.000000,0.000000,0.000000,0.000000,0.000000,0.000000,0.000000,0.000000,0.000000,0.000000,1647401754.923124,0.000000
233.000000,36655.273933,36565.956362,19826.623181,19756.572814,15680.218122,68461.515720,62073.856541,15549.929804,0.206000,0.954000,0.162000,192.000000,0.000000,0.000000,0.000000,0.000000,0.000000,0.000000,0.000000,0.000000,0.000000,1647401754.931060,0.000000
234.000000,36654.156346,36568.817385,19824.432710,19755.075247,15678.318224,68453.200871,62081.389079,15570.851036,0.202000,0.952000,0.162000,192.000000,6.000000,80.000000,29.000000,192.000000,5.000000,16.000000,0.000000,0.000000,0.000000,1647401754.937556,0.000000
235.000000,36666.874488,36582.004915,19838.424902,19766.944023,15690.209352,68460.733409,62077.343414,15564.346679,0.202000,0.952000,0.162000,192.000000,0.000000,0.000000,0.000000,0.000000,0.000000,0.000000,0.000000,0.000000,0.000000,1647401754.937568,0.000000
236.000000,36657.285590,36570.963153,19830.892364,19756.595165,15680.307529,68457.984144,62069.967338,15558.937557,0.202000,0.952000,0.162000,192.000000,0.000000,0.000000,0.000000,0.000000,0.000000,0.000000,0.000000,0.000000,0.000000,1647401754.945559,0.000000
237.000000,36657.218535,36572.863051,19827.696064,19754.874081,15678.877017,68462.834473,62079.511533,15574.986109,0.202000,0.952000,0.162000,192.000000,0.000000,0.000000,0.000000,0.000000,0.000000,0.000000,0.000000,0.000000,0.000000,1647401754.945566,0.000000
238.000000,36659.677227,36576.461682,19827.852527,19756.550462,15679.949901,68466.924842,62083.758364,15588.575970,0.202000,0.952000,0.162000,192.000000,0.000000,0.000000,0.000000,0.000000,0.000000,0.000000,0.000000,0.000000,0.000000,1647401754.953639,0.000000
239.000000,36656.771500,36572.438368,19827.249030,19753.868253,15677.267692,68455.771322,62075.667033,15591.079365,0.202000,0.952000,0.162000,192.000000,0.000000,0.000000,0.000000,0.000000,0.000000,0.000000,0.000000,0.000000,0.000000,1647401754.953645,0.000000
240.000000,36661.018331,36574.561784,19833.149890,19755.768151,15682.430945,68454.586679,62071.755477,15593.135726,0.202000,0.952000,0.162000,192.000000,0.000000,0.000000,0.000000,0.000000,0.000000,0.000000,0.000000,0.000000,0.000000,1647401754.960261,0.000000
241.000000,36661.487718,36576.595792,19835.697989,19759.187968,15686.051927,68453.983182,62072.917768,15596.153211,0.202000,0.952000,0.162000,192.000000,0.000000,0.000000,0.000000,0.000000,0.000000,0.000000,0.000000,0.000000,0.000000,1647401754.960268,0.000000
242.000000,36660.079558,36578.696856,19833.775739,19762.585433,15686.521314,68458.632345,62081.433783,15600.534153,0.202000,0.952000,0.162000,192.000000,0.000000,0.000000,0.000000,0.000000,0.000000,0.000000,0.000000,0.000000,0.000000,1647401754.968183,0.000000
243.000000,36659.274895,36577.400455,19829.193631,19760.618479,15683.995567,68458.744104,62086.954664,15617.409720,0.202000,0.952000,0.162000,192.000000,0.000000,0.000000,0.000000,0.000000,0.000000,0.000000,0.000000,0.000000,0.000000,1647401754.968190,0.000000
244.000000,36655.363340,36571.052560,19822.421053,19756.058723,15679.167590,68454.519624,62088.809858,15639.984982,0.206000,0.946000,0.162000,192.000000,6.000000,112.000000,29.000000,144.000000,5.000000,16.000000,0.000000,0.000000,0.000000,1647401754.976355,0.000000
245.000000,36663.097043,36577.378103,19832.322876,19762.943061,15687.236570,68461.739238,62083.736012,15628.362075,0.206000,0.946000,0.162000,192.000000,0.000000,0.000000,0.000000,0.000000,0.000000,0.000000,0.000000,0.000000,0.000000,1647401754.976362,0.000000
246.000000,36664.214631,36579.032133,19833.619277,19761.601956,15686.096631,68465.539034,62087.491105,15625.031665,0.206000,0.946000,0.162000,192.000000,0.000000,0.000000,0.000000,0.000000,0.000000,0.000000,0.000000,0.000000,0.000000,1647401754.983419,0.000000
247.000000,36663.521727,36577.422807,19826.623181,19759.702058,15683.213256,68463.929708,62092.095565,15634.106473,0.206000,0.946000,0.162000,192.000000,0.000000,0.000000,0.000000,0.000000,0.000000,0.000000,0.000000,0.000000,0.000000,1647401754.983425,0.000000
248.000000,36667.030950,36580.440292,19826.645532,19760.841997,15685.783706,68462.007458,62091.760289,15637.906270,0.206000,0.946000,0.162000,192.000000,0.000000,0.000000,0.000000,0.000000,0.000000,0.000000,0.000000,0.000000,0.000000,1647401754.989780,0.000000
249.000000,36670.540174,36583.100150,19832.322876,19763.546558,15688.220047,68462.901528,62084.786544,15635.246412,0.206000,0.946000,0.162000,192.000000,0.000000,0.000000,0.000000,0.000000,0.000000,0.000000,0.000000,0.000000,0.000000,1647401754.997807,0.000000
250.000000,36668.260296,36582.206080,19833.999256,19763.278337,15687.683605,68464.019115,62092.341434,15647.316354,0.206000,0.946000,0.162000,192.000000,0.000000,0.000000,0.000000,0.000000,0.000000,0.000000,0.000000,0.000000,0.000000,1647401754.997813,0.000000
251.000000,36661.018331,36577.422807,19827.092567,19758.338601,15682.632110,68461.292203,62100.052786,15666.829427,0.206000,0.946000,0.162000,192.000000,0.000000,0.000000,0.000000,0.000000,0.000000,0.000000,0.000000,0.000000,0.000000,1647401755.005908,0.000000
252.000000,36660.660703,36576.573441,19828.366617,19759.456189,15683.168552,68457.201833,62085.747669,15658.447523,0.206000,0.946000,0.162000,192.000000,0.000000,0.000000,0.000000,0.000000,0.000000,0.000000,0.000000,0.000000,0.000000,1647401755.005914,0.000000
253.000000,36673.244735,36587.190519,19837.709646,19771.235558,15694.880866,68460.889871,62080.763230,15649.640936,0.206000,0.946000,0.162000,192.000000,0.000000,0.000000,0.000000,0.000000,0.000000,0.000000,0.000000,0.000000,0.000000,1647401755.013121,0.000000
254.000000,36670.786043,36583.949516,19832.568745,19769.134494,15691.103422,68459.213490,62084.898303,15669.533988,0.214000,0.954000,0.160000,192.000000,6.000000,176.000000,29.000000,208.000000,5.000000,0.000000,0.000000,0.000000,0.000000,1647401755.013129,0.000000
255.000000,36662.314732,36576.998124,19828.478375,19765.267642,15688.264750,68447.545880,62074.817666,15667.499979,0.214000,0.954000,0.160000,192.000000,0.000000,0.000000,0.000000,0.000000,0.000000,0.000000,0.000000,0.000000,0.000000,1647401755.020537,0.000000
0.000000,36669.847270,36582.675467,19838.134329,19770.117971,15696.736061,68455.279583,62077.969262,15661.487360,0.214000,0.954000,0.160000,192.000000,0.000000,0.000000,0.000000,0.000000,0.000000,0.000000,0.000000,0.000000,0.000000,1647401755.020543,0.000000
1.000000,36663.477023,36575.500557,19832.166413,19762.876006,15689.695262,68453.022057,62088.765155,15679.279349,0.214000,0.954000,0.160000,192.000000,0.000000,0.000000,0.000000,0.000000,0.000000,0.000000,0.000000,0.000000,0.000000,1647401755.028650,0.000000
2.000000,36659.409006,36574.450025,19830.601791,19762.540729,15688.488267,68446.160072,62086.306463,15686.588369,0.214000,0.954000,0.160000,192.000000,0.000000,0.000000,0.000000,0.000000,0.000000,0.000000,0.000000,0.000000,0.000000,1647401755.028657,0.000000
3.000000,36654.022235,36572.237202,19827.584306,19760.663183,15686.208390,68449.781054,62086.395870,15696.311378,0.214000,0.954000,0.160000,192.000000,0.000000,0.000000,0.000000,0.000000,0.000000,0.000000,0.000000,0.000000,0.000000,1647401755.036540,0.000000
4.000000,36663.745244,36585.178862,19839.587192,19772.487256,15698.524201,68463.974412,62087.021719,15694.679701,0.214000,0.954000,0.160000,192.000000,0.000000,0.000000,0.000000,0.000000,0.000000,0.000000,0.000000,0.000000,0.000000,1647401755.036546,0.000000
5.000000,36666.494509,36586.765836,19836.346190,19769.916805,15696.423137,68463.549729,62092.341434,15702.279294,0.214000,0.954000,0.160000,192.000000,0.000000,0.000000,0.000000,0.000000,0.000000,0.000000,0.000000,0.000000,0.000000,1647401755.043111,0.000000
6.000000,36663.052340,36583.390723,19832.680503,19767.100485,15693.763279,68458.811159,62092.497896,15704.358006,0.214000,0.954000,0.160000,192.000000,0.000000,0.000000,0.000000,0.000000,0.000000,0.000000,0.000000,0.000000,0.000000,1647401755.043119,0.000000
7.000000,36663.611134,36586.967002,19830.512384,19769.849750,15695.350253,68455.771322,62095.694196,15709.834183,0.214000,0.954000,0.160000,192.000000,0.000000,0.000000,0.000000,0.000000,0.000000,0.000000,0.000000,0.000000,0.000000,1647401755.050182,0.000000
8.000000,36663.186450,36582.898984,19831.160585,19768.374535,15694.143259,68451.278621,62097.638797,15715.198602,0.218000,0.954000,0.154000,192.000000,6.000000,208.000000,29.000000,208.000000,4.000000,208.000000,0.000000,0.000000,0.000000,1647401755.058285,0.000000
9.000000,36664.952238,36585.156510,19836.435597,19772.062572,15697.317207,68453.849072,62090.195667,15710.169460,0.218000,0.954000,0.154000,192.000000,0.000000,0.000000,0.000000,0.000000,0.000000,0.000000,0.000000,0.000000,0.000000,1647401755.058290,0.000000
10.000000,36668.081482,36590.319763,19839.922469,19771.257910,15698.255980,68454.318458,62086.619387,15713.142242,0.218000,0.954000,0.154000,192.000000,0.000000,0.000000,0.000000,0.000000,0.000000,0.000000,0.000000,0.000000,0.000000,1647401755.065307,0.000000
11.000000,36659.341950,36582.451949,19831.562916,19763.278337,15691.192829,68442.673199,62086.552332,15732.007114,0.218000,0.954000,0.154000,192.000000,0.000000,0.000000,0.000000,0.000000,0.000000,0.000000,0.000000,0.000000,0.000000,1647401755.065314,0.000000
12.000000,36657.285590,36582.898984,19831.987599,19766.273471,15693.293893,68445.958906,62082.774887,15734.644620,0.218000,0.954000,0.154000,192.000000,0.000000,0.000000,0.000000,0.000000,0.000000,0.000000,0.000000,0.000000,0.000000,1647401755.072752,0.000000
13.000000,36654.826898,36579.345057,19830.601791,19764.842959,15691.192829,68447.992915,62081.165562,15734.152881,0.218000,0.954000,0.154000,192.000000,0.000000,0.000000,0.000000,0.000000,0.000000,0.000000,0.000000,0.000000,0.000000,1647401755.072756,0.000000
14.000000,36652.077633,36571.499595,19823.404530,19757.511587,15684.129677,68449.401075,62086.909960,15752.011925,0.218000,0.954000,0.154000,192.000000,0.000000,0.000000,0.000000,0.000000,0.000000,0.000000,0.000000,0.000000,0.000000,1647401755.080741,0.000000
15.000000,36656.704444,36576.215813,19826.846698,19760.864349,15688.354157,68454.519624,62080.807934,15754.023582,0.218000,0.954000,0.154000,192.000000,0.000000,0.000000,0.000000,0.000000,0.000000,0.000000,0.000000,0.000000,0.000000,1647401755.080745,0.000000
16.000000,36662.784119,36581.826101,19837.866108,19766.049953,15695.193791,68458.028848,62076.985786,15754.917652,0.218000,0.954000,0.154000,192.000000,0.000000,0.000000,0.000000,0.000000,0.000000,0.000000,0.000000,0.000000,0.000000,1647401755.088890,0.000000
17.000000,36670.227250,36591.996144,19846.270364,19775.705907,15703.374529,68464.421447,62075.108239,15741.484254,0.218000,0.954000,0.154000,192.000000,0.000000,0.000000,0.000000,0.000000,0.000000,0.000000,0.000000,0.000000,0.000000,1647401755.088896,0.000000
18.000000,36656.123299,36580.037961,19830.266515,19760.350258,15687.974177,68456.374819,62081.523190,15745.216995,0.214000,0.956000,0.154000,192.000000,6.000000,176.000000,29.000000,224.000000,4.000000,208.000000,0.000000,0.000000,0.000000,1647401755.095488,0.000000
19.000000,36651.563543,36574.382970,19825.416187,19757.511587,15684.599064,68453.759665,62088.407527,15765.199454,0.214000,0.956000,0.154000,192.000000,0.000000,0.000000,0.000000,0.000000,0.000000,0.000000,0.000000,0.000000,0.000000,1647401755.095493,0.000000
20.000000,36654.983360,36574.472377,19832.456986,19762.876006,15688.175343,68448.372894,62080.249140,15755.767018,0.214000,0.956000,0.154000,192.000000,0.000000,0.000000,0.000000,0.000000,0.000000,0.000000,0.000000,0.000000,0.000000,1647401755.103419,0.000000
21.000000,36645.640331,36564.101167,19821.705797,19753.242404,15676.306567,68438.426368,62083.445440,15768.619271,0.214000,0.956000,0.154000,192.000000,0.000000,0.000000,0.000000,0.000000,0.000000,0.000000,0.000000,0.000000,0.000000,1647401755.103423,0.000000
22.000000,36643.293398,36562.223621,19819.023588,19751.700133,15674.920759,68435.766510,62076.851675,15781.091545,0.214000,0.956000,0.154000,192.000000,0.000000,0.000000,0.000000,0.000000,0.000000,0.000000,0.000000,0.000000,0.000000,1647401755.110498,0.000000
23.000000,36638.823049,36555.920429,19815.939047,19745.821624,15670.517465,68429.150394,62062.725373,15784.153734,0.214000,0.956000,0.154000,192.000000,0.000000,0.000000,0.000000,0.000000,0.000000,0.000000,0.000000,0.000000,0.000000,1647401755.118488,0.000000
24.000000,36653.374035,36569.532641,19827.405492,19756.550462,15681.179247,68436.593525,62050.454265,15777.112934,0.214000,0.956000,0.154000,192.000000,0.000000,0.000000,0.000000,0.000000,0.000000,0.000000,0.000000,0.000000,0.000000,1647401755.118492,0.000000
25.000000,36654.424567,36569.130310,19827.293733,19755.723447,15680.933378,68443.902545,62056.221015,15771.212074,0.214000,0.956000,0.154000,192.000000,0.000000,0.000000,0.000000,0.000000,0.000000,0.000000,0.000000,0.000000,0.000000,1647401755.125075,0.000000
26.000000,36661.241849,36577.199289,19834.334533,19763.099523,15688.555323,68452.038580,62073.945948,15772.866103,0.214000,0.956000,0.154000,192.000000,0.000000,0.000000,0.000000,0.000000,0.000000,0.000000,0.000000,0.000000,0.000000,1647401755.125080,0.000000
27.000000,36658.134956,36572.281906,19828.254858,19757.779808,15683.928512,68442.695551,62078.036318,15781.158600,0.214000,0.956000,0.154000,192.000000,0.000000,0.000000,0.000000,0.000000,0.000000,0.000000,0.000000,0.000000,0.000000,1647401755.132999,0.000000
28.000000,36659.409006,36572.371313,19830.892364,19760.909052,15686.364852,68441.019170,62069.140323,15781.739745,0.210000,0.958000,0.150000,192.000000,6.000000,144.000000,29.000000,240.000000,4.000000,176.000000,0.000000,0.000000,0.000000,1647401755.133003,0.000000
29.000000,36665.153404,36579.546223,19839.587192,19771.302613,15695.014977,68455.190176,62068.268605,15779.191646,0.210000,0.958000,0.150000,192.000000,0.000000,0.000000,0.000000,0.000000,0.000000,0.000000,0.000000,0.000000,0.000000,1647401755.141050,0.000000
30.000000,36661.510070,36576.416978,19836.010913,19769.469770,15693.204486,68451.904470,62068.894454,15788.624083,0.210000,0.958000,0.150000,192.000000,0.000000,0.000000,0.000000,0.000000,0.000000,0.000000,0.000000,0.000000,0.000000,1647401755.141055,0.000000
31.000000,36662.091215,36575.299391,19839.676599,19769.179197,15694.478535,68449.579889,62057.137437,15781.538580,0.210000,0.958000,0.150000,192.000000,0.000000,0.000000,0.000000,0.000000,0.000000,0.000000,0.000000,0.000000,0.000000,1647401755.148069,0.000000
32.000000,36659.498413,36574.762949,19838.000219,19764.507683,15691.908084,68452.798540,62054.991669,15772.396716,0.210000,0.958000,0.150000,192.000000,0.000000,0.000000,0.000000,0.000000,0.000000,0.000000,0.000000,0.000000,0.000000,1647401755.148073,0.000000
33.000000,36659.744282,36576.148757,19837.195556,19764.261814,15692.310416,68453.759665,62064.334698,15777.291748,0.210000,0.958000,0.150000,192.000000,0.000000,0.000000,0.000000,0.000000,0.000000,0.000000,0.000000,0.000000,0.000000,1647401755.155602,0.000000
34.000000,36656.883258,36573.086568,19833.574573,19758.025677,15687.482439,68448.149377,62066.748687,15787.886475,0.210000,0.958000,0.150000,192.000000,0.000000,0.000000,0.000000,0.000000,0.000000,0.000000,0.000000,0.000000,0.000000,1647401755.155606,0.000000
35.000000,36646.959084,36563.497670,19823.449233,19746.156901,15676.351270,68435.766510,62067.799219,15809.142984,0.210000,0.958000,0.150000,192.000000,0.000000,0.000000,0.000000,0.000000,0.000000,0.000000,0.000000,0.000000,0.000000,1647401755.163715,0.000000
36.000000,36650.088328,36568.616220,19828.187803,19752.996534,15682.050965,68438.225202,62060.512550,15812.831022,0.210000,0.958000,0.150000,192.000000,0.000000,0.000000,0.000000,0.000000,0.000000,0.000000,0.000000,0.000000,0.000000,1647401755.163719,0.000000
37.000000,36660.258372,36577.042827,19834.334533,19763.926538,15690.768145,68453.312630,62056.757457,15801.588094,0.210000,0.958000,0.150000,192.000000,0.000000,0.000000,0.000000,0.000000,0.000000,0.000000,0.000000,0.000000,0.000000,1647401755.170813,0.000000
38.000000,36646.646159,36563.855298,19816.676654,19750.627250,15675.814828,68440.303915,62060.266681,15814.820327,0.214000,0.958000,0.152000,192.000000,6.000000,176.000000,29.000000,240.000000,4.000000,192.000000,0.000000,0.000000,0.000000,1647401755.170817,0.000000
39.000000,36651.228267,36569.219717,19820.588210,19757.176311,15682.118020,68442.539089,62059.462018,15812.495746,0.214000,0.958000,0.152000,192.000000,0.000000,0.000000,0.000000,0.000000,0.000000,0.000000,0.000000,0.000000,0.000000,1647401755.177272,0.000000
40.000000,36653.083462,36571.499595,19824.879745,19757.288069,15683.816753,68448.149377,62069.408544,15822.665789,0.214000,0.958000,0.152000,192.000000,0.000000,0.000000,0.000000,0.000000,0.000000,0.000000,0.000000,0.000000,0.000000,1647401755.185361,0.000000
41.000000,36649.708348,36571.253725,19822.085777,19751.454264,15677.871189,68444.371932,62073.945948,15835.071008,0.214000,0.958000,0.152000,192.000000,0.000000,0.000000,0.000000,0.000000,0.000000,0.000000,0.000000,0.000000,0.000000,1647401755.185365,0.000000
42.000000,36644.545096,36568.772682,19818.576553,19748.012095,15673.400840,68440.438025,62072.180161,15846.246880,0.214000,0.958000,0.152000,192.000000,0.000000,0.000000,0.000000,0.000000,0.000000,0.000000,0.000000,0.000000,0.000000,1647401755.193461,0.000000
43.000000,36648.501354,36572.304257,19824.298599,19754.717619,15678.765259,68438.091092,62063.686498,15829.170147,0.214000,0.958000,0.152000,192.000000,0.000000,0.000000,0.000000,0.000000,0.000000,0.000000,0.000000,0.000000,0.000000,1647401755.193470,0.000000
44.000000,36649.685997,36573.980638,19825.527945,19758.517415,15681.022785,68444.930726,62063.664146,15819.536545,0.214000,0.958000,0.152000,192.000000,0.000000,0.000000,0.000000,0.000000,0.000000,0.000000,0.000000,0.000000,0.000000,1647401755.200515,0.000000
45.000000,36645.461517,36566.604563,19818.263628,19749.621421,15672.439715,68441.935592,62064.424105,15824.006894,0.214000,0.958000,0.152000,192.000000,0.000000,0.000000,0.000000,0.000000,0.000000,0.000000,0.000000,0.000000,0.000000,1647401755.200520,0.000000
46.000000,36646.154421,36566.313990,19819.068291,19750.135511,15673.467895,68437.085263,62054.097599,15809.768833,0.214000,0.958000,0.152000,192.000000,0.000000,0.000000,0.000000,0.000000,0.000000,0.000000,0.000000,0.000000,0.000000,1647401755.207886,0.000000
47.000000,36641.639369,36564.861127,19818.084814,19751.253098,15672.059735,68440.147452,62067.352184,15822.017589,0.214000,0.958000,0.152000,192.000000,0.000000,0.000000,0.000000,0.000000,0.000000,0.000000,0.000000,0.000000,0.000000,1647401755.207891,0.000000
48.000000,36643.561619,36569.197365,19823.158660,19757.221014,15676.775953,68440.147452,62070.369669,15828.186670,0.216000,0.956000,0.150000,192.000000,6.000000,192.000000,29.000000,224.000000,4.000000,176.000000,0.000000,0.000000,0.000000,1647401755.216006,0.000000
49.000000,36645.662683,36573.287734,19824.790338,19761.847825,15680.039308,68447.501176,62070.816704,15828.611353,0.216000,0.956000,0.150000,192.000000,0.000000,0.000000,0.000000,0.000000,0.000000,0.000000,0.000000,0.000000,0.000000,1647401755.216011,0.000000
50.000000,36642.533439,36568.057426,19817.794242,19753.845901,15671.992680,68439.096920,62070.257911,15836.836795,0.216000,0.956000,0.150000,192.000000,0.000000,0.000000,0.000000,0.000000,0.000000,0.000000,0.000000,0.000000,0.000000,1647401755.223974,0.000000
51.000000,36642.421680,36565.576382,19820.230582,19753.242404,15673.959634,68434.626571,62060.512550,15833.171109,0.216000,0.956000,0.150000,192.000000,0.000000,0.000000,0.000000,0.000000,0.000000,0.000000,0.000000,0.000000,0.000000,1647401755.223979,0.000000
52.000000,36649.998921,36572.281906,19828.187803,19760.104389,15681.983910,68440.795653,62061.518378,15832.478205,0.216000,0.956000,0.150000,192.000000,0.000000,0.000000,0.000000,0.000000,0.000000,0.000000,0.000000,0.000000,0.000000,1647401755.230581,0.000000
53.000000,36650.758880,36571.387836,19827.964285,19758.785636,15683.123849,68441.041522,62060.624309,15830.846528,0.216000,0.956000,0.150000,192.000000,0.000000,0.000000,0.000000,0.000000,0.000000,0.000000,0.000000,0.000000,0.000000,1647401755.230600,0.000000
54.000000,36651.205915,36573.399493,19828.500727,19758.472712,15684.040270,68441.667371,62052.220053,15818.754234,0.216000,0.956000,0.150000,192.000000,0.000000,0.000000,0.000000,0.000000,0.000000,0.000000,0.000000,0.000000,0.000000,1647401755.237569,0.000000
55.000000,36654.201049,36575.567612,19827.807823,19758.718581,15683.794401,68445.131891,62056.913919,15823.962191,0.216000,0.956000,0.150000,192.000000,0.000000,0.000000,0.000000,0.000000,0.000000,0.000000,0.000000,0.000000,0.000000,1647401755.245665,0.000000
56.000000,36654.648084,36578.428635,19828.478375,19763.255985,15685.806058,68452.753836,62064.245291,15826.644400,0.216000,0.956000,0.150000,192.000000,0.000000,0.000000,0.000000,0.000000,0.000000,0.000000,0.000000,0.000000,0.000000,1647401755.245669,0.000000
57.000000,36659.386654,36584.217737,19838.290791,19770.922634,15695.149087,68464.577909,62066.525169,15814.820327,0.216000,0.956000,0.150000,192.000000,0.000000,0.000000,0.000000,0.000000,0.000000,0.000000,0.000000,0.000000,0.000000,1647401755.253675,0.000000
58.000000,36658.112604,36580.909679,19836.882631,19767.838093,15693.249189,68466.835435,62069.475599,15808.070100,0.220000,0.960000,0.152000,192.000000,6.000000,224.000000,30.000000,0.000000,4.000000,192.000000,0.000000,0.000000,0.000000,1647401755.253679,0.000000
59.000000,36645.372110,36567.096301,19819.828250,19754.136473,15678.206465,68448.529357,62072.448381,15825.057426,0.220000,0.960000,0.152000,192.000000,0.000000,0.000000,0.000000,0.000000,0.000000,0.000000,0.000000,0.000000,0.000000,1647401755.260212,0.000000
60.000000,36644.142764,36563.810595,19815.179088,19750.068456,15675.121924,68440.058045,62073.476562,15834.445159,0.220000,0.960000,0.152000,192.000000,0.000000,0.000000,0.000000,0.000000,0.000000,0.000000,0.000000,0.000000,0.000000,1647401755.260217,0.000000
61.000000,36639.046566,36556.769795,19806.528962,19741.127758,15666.695317,68433.173708,62076.561102,15858.026249,0.220000,0.960000,0.152000,192.000000,0.000000,0.000000,0.000000,0.000000,0.000000,0.000000,0.000000,0.000000,0.000000,1647401755.268292,0.000000
62.000000,36650.110680,36569.890269,19820.699968,19754.091770,15679.435811,68442.404979,62067.754515,15852.997107,0.220000,0.960000,0.152000,192.000000,0.000000,0.000000,0.000000,0.000000,0.000000,0.000000,0.000000,0.000000,0.000000,1647401755.268310,0.000000
63.000000,36650.289494,36571.231374,19821.571686,19754.449398,15678.988776,68441.846185,62058.925576,15837.842624,0.220000,0.960000,0.152000,192.000000,0.000000,0.000000,0.000000,0.000000,0.000000,0.000000,0.000000,0.000000,0.000000,1647401755.276335,0.000000
64.000000,36643.248694,36567.230411,19816.073157,19749.777883,15672.663232,68434.693627,62064.692326,15846.962136,0.220000,0.960000,0.152000,192.000000,0.000000,0.000000,0.000000,0.000000,0.000000,0.000000,0.000000,0.000000,0.000000,1647401755.276339,0.000000
65.000000,36640.566485,36563.855298,19810.664035,19746.827453,15668.483456,68436.682932,62075.443515,15874.410078,0.220000,0.960000,0.152000,192.000000,0.000000,0.000000,0.000000,0.000000,0.000000,0.000000,0.000000,0.000000,0.000000,1647401755.282912,0.000000
66.000000,36636.766688,36561.396606,19806.685425,19743.832319,15664.348383,68431.184403,62067.128666,15877.762840,0.220000,0.960000,0.152000,192.000000,0.000000,0.000000,0.000000,0.000000,0.000000,0.000000,0.000000,0.000000,0.000000,1647401755.282916,0.000000
67.000000,36646.154421,36567.096301,19815.246143,19746.603936,15667.924663,68430.267981,62067.508646,15883.507238,0.220000,0.960000,0.152000,192.000000,0.000000,0.000000,0.000000,0.000000,0.000000,0.000000,0.000000,0.000000,0.000000,1647401755.290957,0.000000
68.000000,36649.909514,36570.717284,19818.643608,19750.806064,15670.986852,68431.676141,62064.424105,15878.791020,0.226000,0.960000,0.154000,192.000000,7.000000,16.000000,30.000000,0.000000,4.000000,208.000000,0.000000,0.000000,0.000000,1647401755.290961,0.000000
69.000000,36646.020311,36566.850432,19812.675692,19747.118026,15667.298814,68434.783034,62070.660242,15885.474191,0.226000,0.960000,0.154000,192.000000,0.000000,0.000000,0.000000,0.000000,0.000000,0.000000,0.000000,0.000000,0.000000,1647401755.298050,0.000000
70.000000,36647.584933,36569.622048,19814.329721,19751.029581,15670.651575,68438.739292,62067.866274,15883.998976,0.226000,0.960000,0.154000,192.000000,0.000000,0.000000,0.000000,0.000000,0.000000,0.000000,0.000000,0.000000,0.000000,1647401755.306038,0.000000
71.000000,36643.025177,36563.363560,19804.226733,19742.312401,15663.521369,68435.520641,62074.728259,15904.182601,0.226000,0.960000,0.154000,192.000000,0.000000,0.000000,0.000000,0.000000,0.000000,0.000000,0.000000,0.000000,0.000000,1647401755.306043,0.000000
72.000000,36645.707386,36568.437406,19807.221867,19743.541747,15666.874131,68432.458452,62070.660242,15912.542154,0.226000,0.960000,0.154000,192.000000,0.000000,0.000000,0.000000,0.000000,0.000000,0.000000,0.000000,0.000000,0.000000,1647401755.312591,0.000000
73.000000,36651.943523,36575.634667,19818.420090,19754.672915,15676.507732,68441.175633,62062.278338,15892.827915,0.226000,0.960000,0.154000,192.000000,0.000000,0.000000,0.000000,0.000000,0.000000,0.000000,0.000000,0.000000,0.000000,1647401755.312596,0.000000
74.000000,36652.859944,36572.237202,19818.420090,19752.415389,15673.222026,68446.294182,62070.548483,15902.014482,0.226000,0.960000,0.154000,192.000000,0.000000,0.000000,0.000000,0.000000,0.000000,0.000000,0.000000,0.000000,0.000000,1647401755.320600,0.000000
75.000000,36655.542154,36575.478205,19822.912791,19755.365819,15676.060698,68446.875327,62076.806972,15912.028064,0.226000,0.960000,0.154000,192.000000,0.000000,0.000000,0.000000,0.000000,0.000000,0.000000,0.000000,0.000000,0.000000,1647401755.320606,0.000000
76.000000,36642.846363,36564.727016,19810.686387,19746.335715,15666.315337,68438.716941,62078.148076,15917.861869,0.226000,0.960000,0.154000,192.000000,0.000000,0.000000,0.000000,0.000000,0.000000,0.000000,0.000000,0.000000,0.000000,1647401755.328569,0.000000
77.000000,36645.081537,36566.984542,19816.900172,19752.303630,15672.886750,68438.895755,62080.986748,15932.055227,0.226000,0.960000,0.154000,192.000000,0.000000,0.000000,0.000000,0.000000,0.000000,0.000000,0.000000,0.000000,0.000000,1647401755.328573,0.000000
78.000000,36657.732625,36582.049618,19830.333570,19767.011078,15686.387204,68449.401075,62077.857504,15921.460500,0.226000,0.960000,0.154000,192.000000,0.000000,0.000000,0.000000,0.000000,0.000000,0.000000,0.000000,0.000000,0.000000,1647401755.335940,0.000000
79.000000,36650.289494,36579.166243,19823.605695,19761.445494,15680.776916,68449.244612,62077.745745,15927.204898,0.224000,0.954000,0.146000,192.000000,7.000000,0.000000,29.000000,208.000000,4.000000,144.000000,0.000000,0.000000,0.000000,1647401755.335945,0.000000
80.000000,36647.920209,36580.619106,19822.219887,19760.976107,15680.374584,68454.676086,62075.354108,15936.860852,0.224000,0.954000,0.146000,192.000000,0.000000,0.000000,0.000000,0.000000,0.000000,0.000000,0.000000,0.000000,0.000000,1647401755.343221,0.000000
81.000000,36640.275912,36574.181804,19810.731090,19752.191872,15669.556340,68451.300973,62073.007175,15958.452637,0.224000,0.954000,0.146000,192.000000,0.000000,0.000000,0.000000,0.000000,0.000000,0.000000,0.000000,0.000000,0.000000,1647401755.343225,0.000000
82.000000,36647.987264,36580.283830,19818.040111,19759.187968,15676.977119,68458.006496,62072.649547,15956.172759,0.224000,0.954000,0.146000,192.000000,0.000000,0.000000,0.000000,0.000000,0.000000,0.000000,0.000000,0.000000,0.000000,1647401755.351265,0.000000
83.000000,36655.251581,36587.592851,19830.065349,19765.245290,15686.096631,68466.008421,62073.565969,15949.243718,0.224000,0.954000,0.146000,192.000000,0.000000,0.000000,0.000000,0.000000,0.000000,0.000000,0.000000,0.000000,0.000000,1647401755.351270,0.000000
84.000000,36659.319599,36591.772627,19834.133367,19768.575700,15691.215180,68460.956926,62071.397849,15946.449750,0.224000,0.954000,0.146000,192.000000,0.000000,0.000000,0.000000,0.000000,0.000000,0.000000,0.000000,0.000000,0.000000,1647401755.358166,0.000000
85.000000,36655.743319,36583.100150,19828.746596,19767.793389,15689.114116,68463.817950,62071.263739,15946.069771,0.224000,0.954000,0.146000,192.000000,0.000000,0.000000,0.000000,0.000000,0.000000,0.000000,0.000000,0.000000,0.000000,1647401755.365343,0.000000
86.000000,36653.083462,36577.914545,19828.299562,19767.882796,15688.868247,68466.991897,62076.248178,15962.207730,0.224000,0.954000,0.146000,192.000000,0.000000,0.000000,0.000000,0.000000,0.000000,0.000000,0.000000,0.000000,0.000000,1647401755.365352,0.000000
87.000000,36663.767596,36588.106941,19835.809748,19775.862369,15695.663177,68473.742124,62078.058669,15961.850102,0.224000,0.954000,0.146000,192.000000,0.000000,0.000000,0.000000,0.000000,0.000000,0.000000,0.000000,0.000000,0.000000,1647401755.372871,0.000000
88.000000,36647.562581,36571.767816,19813.547410,19757.332773,15675.367793,68461.247499,62086.172353,15989.320396,0.224000,0.954000,0.146000,192.000000,0.000000,0.000000,0.000000,0.000000,0.000000,0.000000,0.000000,0.000000,0.000000,1647401755.372876,0.000000
89.000000,36644.098061,36567.632743,19811.088718,19754.047066,15670.338651,68457.134778,62091.514419,16011.180402,0.234000,0.946000,0.150000,192.000000,7.000000,80.000000,29.000000,144.000000,4.000000,176.000000,0.000000,0.000000,0.000000,1647401755.380963,0.000000
90.000000,36642.980473,36567.185708,19813.010968,19754.404694,15669.913968,68451.591546,62085.278283,16017.662408,0.234000,0.946000,0.150000,192.000000,0.000000,0.000000,0.000000,0.000000,0.000000,0.000000,0.000000,0.000000,0.000000,1647401755.380968,0.000000
91.000000,36644.567447,36570.806691,19813.994445,19753.935308,15670.562168,68447.232955,62076.874027,16017.617705,0.234000,0.946000,0.150000,192.000000,0.000000,0.000000,0.000000,0.000000,0.000000,0.000000,0.000000,0.000000,0.000000,1647401755.388876,0.000000
92.000000,36633.950369,36558.535583,19803.109146,19742.111235,15661.688526,68437.979333,62079.466829,16034.605030,0.234000,0.946000,0.150000,192.000000,0.000000,0.000000,0.000000,0.000000,0.000000,0.000000,0.000000,0.000000,0.000000,1647401755.388882,0.000000
93.000000,36639.627712,36562.670656,19807.981826,19748.190909,15669.824561,68450.295144,62077.835152,16029.687647,0.234000,0.946000,0.150000,192.000000,0.000000,0.000000,0.000000,0.000000,0.000000,0.000000,0.000000,0.000000,0.000000,1647401755.395592,0.000000
94.000000,36648.657816,36574.002990,19821.035245,19758.226843,15682.006262,68465.136703,62077.566931,16023.786786,0.234000,0.946000,0.150000,192.000000,0.000000,0.000000,0.000000,0.000000,0.000000,0.000000,0.000000,0.000000,0.000000,1647401755.395598,0.000000
95.000000,36652.010578,36579.099188,19826.310256,19763.837131,15687.996529,68473.429200,62075.912902,16013.370873,0.234000,0.946000,0.150000,192.000000,0.000000,0.000000,0.000000,0.000000,0.000000,0.000000,0.000000,0.000000,0.000000,1647401755.403501,0.000000
96.000000,36652.457613,36576.372275,19826.243201,19763.501854,15688.152991,68469.607052,62078.662166,16026.267830,0.234000,0.946000,0.150000,192.000000,0.000000,0.000000,0.000000,0.000000,0.000000,0.000000,0.000000,0.000000,0.000000,1647401755.403506,0.000000
97.000000,36653.798718,36575.299391,19826.869050,19766.273471,15689.650558,68466.209586,62079.824457,16033.822719,0.234000,0.946000,0.150000,192.000000,0.000000,0.000000,0.000000,0.000000,0.000000,0.000000,0.000000,0.000000,0.000000,1647401755.411551,0.000000
98.000000,36648.993093,36573.444196,19825.684407,19768.553349,15688.890599,68460.420485,62074.907073,16032.034580,0.234000,0.946000,0.150000,192.000000,0.000000,0.000000,0.000000,0.000000,0.000000,0.000000,0.000000,0.000000,0.000000,1647401755.411555,0.000000
99.000000,36653.709311,36578.048656,19826.801995,19771.079096,15689.516448,68461.381610,62075.309405,16037.130777,0.228000,0.946000,0.150000,192.000000,7.000000,32.000000,29.000000,144.000000,4.000000,176.000000,0.000000,0.000000,0.000000,1647401755.417773,0.000000
100.000000,36656.168003,36577.623973,19829.640666,19770.050915,15689.762317,68457.581813,62076.896379,16038.069551,0.228000,0.946000,0.150000,192.000000,0.000000,0.000000,0.000000,0.000000,0.000000,0.000000,0.000000,0.000000,0.000000,1647401755.417777,0.000000
101.000000,36656.950314,36576.640496,19827.025512,19764.842959,15686.655424,68454.407865,62077.857504,16034.895603,0.228000,0.946000,0.150000,192.000000,0.000000,0.000000,0.000000,0.000000,0.000000,0.000000,0.000000,0.000000,0.000000,1647401755.425445,0.000000
102.000000,36656.972665,36574.315914,19823.650399,19760.797293,15683.995567,68458.162958,62088.362824,16049.826568,0.228000,0.946000,0.150000,192.000000,0.000000,0.000000,0.000000,0.000000,0.000000,0.000000,0.000000,0.000000,0.000000,1647401755.433444,0.000000
103.000000,36658.313770,36574.070045,19824.633875,19761.266680,15684.867285,68457.827682,62093.436670,16069.741973,0.228000,0.946000,0.150000,192.000000,0.000000,0.000000,0.000000,0.000000,0.000000,0.000000,0.000000,0.000000,0.000000,1647401755.433455,0.000000
104.000000,36665.421625,36579.970906,19834.178070,19768.508645,15693.718576,68457.872386,62077.432820,16050.519472,0.228000,0.946000,0.150000,192.000000,0.000000,0.000000,0.000000,0.000000,0.000000,0.000000,0.000000,0.000000,0.000000,1647401755.441356,0.000000
105.000000,36671.121320,36580.060313,19839.989524,19771.593186,15696.177268,68461.761589,62070.973166,16036.281411,0.228000,0.946000,0.150000,192.000000,0.000000,0.000000,0.000000,0.000000,0.000000,0.000000,0.000000,0.000000,0.000000,1647401755.441371,0.000000
106.000000,36668.439110,36577.579269,19834.781567,19767.435761,15691.684567,68461.538072,62080.293844,16052.665240,0.228000,0.946000,0.150000,192.000000,0.000000,0.000000,0.000000,0.000000,0.000000,0.000000,0.000000,0.000000,0.000000,1647401755.448082,0.000000
107.000000,36662.448843,36573.488900,19828.232506,19764.217110,15687.236570,68459.124083,62084.339510,16062.388249,0.228000,0.946000,0.150000,192.000000,0.000000,0.000000,0.000000,0.000000,0.000000,0.000000,0.000000,0.000000,0.000000,1647401755.448106,0.000000
108.000000,36668.729683,36582.049618,19833.462815,19773.336622,15693.852686,68464.354392,62077.164600,16044.596260,0.228000,0.946000,0.150000,192.000000,0.000000,0.000000,0.000000,0.000000,0.000000,0.000000,0.000000,0.000000,0.000000,1647401755.456007,0.000000
109.000000,36670.249602,36583.301316,19829.685370,19771.257910,15689.941131,68469.160017,62074.884722,16036.504929,0.230000,0.948000,0.152000,192.000000,7.000000,48.000000,29.000000,160.000000,4.000000,192.000000,0.000000,0.000000,0.000000,1647401755.456022,0.000000
110.000000,36664.102872,36574.539432,19823.382178,19765.289994,15683.302663,68461.471017,62075.041184,16051.279432,0.230000,0.948000,0.152000,192.000000,0.000000,0.000000,0.000000,0.000000,0.000000,0.000000,0.000000,0.000000,0.000000,1647401755.463956,0.000000
111.000000,36672.797701,36584.061275,19837.106149,19776.175293,15695.529067,68464.175578,62072.336623,16053.089923,0.230000,0.948000,0.152000,192.000000,0.000000,0.000000,0.000000,0.000000,0.000000,0.000000,0.000000,0.000000,0.000000,1647401755.463967,0.000000
112.000000,36672.350666,36581.401417,19834.043960,19774.454209,15693.025672,68468.064781,62078.595111,16063.707002,0.230000,0.948000,0.152000,192.000000,0.000000,0.000000,0.000000,0.000000,0.000000,0.000000,0.000000,0.000000,0.000000,1647401755.471415,0.000000
113.000000,36665.354570,36576.305220,19827.025512,19769.246253,15688.018881,68459.146435,62074.057707,16064.645775,0.230000,0.948000,0.152000,192.000000,0.000000,0.000000,0.000000,0.000000,0.000000,0.000000,0.000000,0.000000,0.000000,1647401755.471431,0.000000
114.000000,36663.544078,36575.344095,19824.969152,19766.899320,15686.856590,68456.218357,62081.210265,16077.788601,0.230000,0.948000,0.152000,192.000000,0.000000,0.000000,0.000000,0.000000,0.000000,0.000000,0.000000,0.000000,0.000000,1647401755.478512,0.000000
115.000000,36675.055227,36587.078761,19837.039094,19777.203474,15696.311378,68468.333002,62080.383251,16075.598130,0.230000,0.948000,0.152000,192.000000,0.000000,0.000000,0.000000,0.000000,0.000000,0.000000,0.000000,0.000000,0.000000,1647401755.478523,0.000000
116.000000,36664.862831,36576.171109,19829.193631,19765.625270,15684.532009,68465.784903,62083.803068,16085.634063,0.230000,0.948000,0.152000,192.000000,0.000000,0.000000,0.000000,0.000000,0.000000,0.000000,0.000000,0.000000,0.000000,1647401755.485707,0.000000
117.000000,36653.128165,36565.978714,19821.258762,19756.617517,15677.088878,68456.330115,62081.858466,16095.021796,0.230000,0.948000,0.152000,192.000000,0.000000,0.000000,0.000000,0.000000,0.000000,0.000000,0.000000,0.000000,0.000000,1647401755.493813,0.000000
118.000000,36663.141747,36577.109882,19833.418111,19768.173369,15690.008186,68462.163921,62076.605806,16081.700156,0.230000,0.948000,0.152000,192.000000,0.000000,0.000000,0.000000,0.000000,0.000000,0.000000,0.000000,0.000000,0.000000,1647401755.493829,0.000000
119.000000,36667.030950,36579.121539,19832.412283,19770.185026,15691.215180,68466.366049,62082.193742,16092.004310,0.224000,0.952000,0.154000,192.000000,7.000000,0.000000,29.000000,192.000000,4.000000,208.000000,0.000000,0.000000,0.000000,1647401755.500641,0.000000
120.000000,36657.397349,36568.370350,19820.364692,19758.606822,15679.614625,68459.794636,62082.618425,16117.708816,0.224000,0.952000,0.154000,192.000000,0.000000,0.000000,0.000000,0.000000,0.000000,0.000000,0.000000,0.000000,0.000000,1647401755.500651,0.000000
121.000000,36653.441090,36567.409225,19818.062463,19756.014020,15678.117058,68453.469092,62075.890550,16126.269534,0.224000,0.952000,0.154000,192.000000,0.000000,0.000000,0.000000,0.000000,0.000000,0.000000,0.000000,0.000000,0.000000,1647401755.508245,0.000000
122.000000,36655.653913,36569.912621,19817.034282,19757.243366,15676.932416,68451.993877,62069.587358,16122.045055,0.224000,0.952000,0.154000,192.000000,0.000000,0.000000,0.000000,0.000000,0.000000,0.000000,0.000000,0.000000,0.000000,1647401755.508256,0.000000
123.000000,36665.756901,36579.501519,19820.230582,19761.601956,15679.033480,68448.439950,62065.496989,16120.055749,0.224000,0.952000,0.154000,192.000000,0.000000,0.000000,0.000000,0.000000,0.000000,0.000000,0.000000,0.000000,0.000000,1647401755.516104,0.000000
124.000000,36667.656799,36577.378103,19817.347207,19757.846863,15675.457200,68444.081359,62067.620405,16129.085854,0.224000,0.952000,0.154000,192.000000,0.000000,0.000000,0.000000,0.000000,0.000000,0.000000,0.000000,0.000000,0.000000,1647401755.516115,0.000000
125.000000,36661.800642,36571.700760,19818.576553,19756.997497,15676.977119,68440.795653,62065.519341,16129.734055,0.224000,0.952000,0.154000,192.000000,0.000000,0.000000,0.000000,0.000000,0.000000,0.000000,0.000000,0.000000,0.000000,1647401755.523347,0.000000
126.000000,36665.667494,36576.081702,19826.645532,19763.591261,15685.359023,68447.277659,62064.066477,16124.414340,0.224000,0.952000,0.154000,192.000000,0.000000,0.000000,0.000000,0.000000,0.000000,0.000000,0.000000,0.000000,0.000000,1647401755.523363,0.000000
127.000000,36663.275857,36573.399493,19823.628047,19762.160750,15682.207427,68445.824795,62066.726335,16135.813729,0.224000,0.952000,0.154000,192.000000,0.000000,0.000000,0.000000,0.000000,0.000000,0.000000,0.000000,0.000000,0.000000,1647401755.531095,0.000000
128.000000,36663.007636,36573.086568,19819.761195,19761.601956,15679.100535,68442.181461,62067.016908,16139.166491,0.224000,0.952000,0.154000,192.000000,0.000000,0.000000,0.000000,0.000000,0.000000,0.000000,0.000000,0.000000,0.000000,1647401755.531111,0.000000
129.000000,36655.944485,36568.884441,19813.681521,19757.288069,15673.892578,68435.967676,62071.487256,16153.918642,0.222000,0.952000,0.150000,192.000000,6.000000,240.000000,29.000000,192.000000,4.000000,176.000000,0.000000,0.000000,0.000000,1647401755.538757,0.000000
130.000000,36646.892029,36560.033150,19802.170372,19744.882851,15662.627299,68429.239801,62073.633024,16171.643576,0.222000,0.952000,0.150000,192.000000,0.000000,0.000000,0.000000,0.000000,0.000000,0.000000,0.000000,0.000000,0.000000,1647401755.538768,0.000000
131.000000,36655.855078,36566.023417,19809.077061,19752.437741,15669.243416,68438.091092,62074.594149,16169.386049,0.222000,0.952000,0.150000,192.000000,0.000000,0.000000,0.000000,0.000000,0.000000,0.000000,0.000000,0.000000,0.000000,1647401755.546154,0.000000
132.000000,36656.480927,36566.649266,19809.322930,19754.382343,15670.025727,68442.136758,62071.420201,16159.730096,0.222000,0.952000,0.150000,192.000000,0.000000,0.000000,0.000000,0.000000,0.000000,0.000000,0.000000,0.000000,0.000000,1647401755.553142,0.000000
133.000000,36654.625732,36563.564725,19809.792317,19749.889642,15668.572863,68443.366104,62073.454210,16166.100343,0.222000,0.952000,0.150000,192.000000,0.000000,0.000000,0.000000,0.000000,0.000000,0.000000,0.000000,0.000000,0.000000,1647401755.553158,0.000000
134.000000,36655.340988,36563.229449,19810.440518,19749.107331,15670.673927,68450.965697,62075.130591,16162.434657,0.222000,0.952000,0.150000,192.000000,0.000000,0.000000,0.000000,0.000000,0.000000,0.000000,0.000000,0.000000,0.000000,1647401755.560457,0.000000
135.000000,36655.229229,36563.140042,19809.501744,19750.090808,15670.271596,68456.754799,62080.517361,16170.347174,0.222000,0.952000,0.150000,192.000000,0.000000,0.000000,0.000000,0.000000,0.000000,0.000000,0.000000,0.000000,0.000000,1647401755.560467,0.000000
136.000000,36653.731662,36560.211964,19807.803012,19745.128720,15664.527197,68446.160072,62078.796277,16179.891369,0.222000,0.952000,0.150000,192.000000,0.000000,0.000000,0.000000,0.000000,0.000000,0.000000,0.000000,0.000000,0.000000,1647401755.568559,0.000000
137.000000,36657.307942,36563.296504,19810.932256,19749.241441,15667.388221,68444.036656,62078.863332,16178.349099,0.222000,0.952000,0.150000,192.000000,0.000000,0.000000,0.000000,0.000000,0.000000,0.000000,0.000000,0.000000,0.000000,1647401755.568571,0.000000
138.000000,36657.665570,36564.592906,19813.100375,19752.884776,15671.165666,68448.261136,62077.566931,16175.018689,0.222000,0.952000,0.150000,192.000000,0.000000,0.000000,0.000000,0.000000,0.000000,0.000000,0.000000,0.000000,0.000000,1647401755.576407,0.000000
139.000000,36659.029026,36568.146833,19815.380253,19755.879910,15673.467895,68456.821854,62072.984823,16164.870997,0.222000,0.954000,0.148000,192.000000,6.000000,240.000000,29.000000,208.000000,4.000000,160.000000,0.000000,0.000000,0.000000,1647401755.576417,0.000000
140.000000,36662.582953,36571.812519,19819.716492,19759.612651,15677.155933,68459.906394,62072.984823,16158.098418,0.222000,0.954000,0.148000,192.000000,0.000000,0.000000,0.000000,0.000000,0.000000,0.000000,0.000000,0.000000,0.000000,1647401755.583368,0.000000
141.000000,36658.134956,36564.414092,19814.150907,19751.767189,15670.539817,68452.776188,62076.404640,16167.441448,0.222000,0.954000,0.148000,192.000000,0.000000,0.000000,0.000000,0.000000,0.000000,0.000000,0.000000,0.000000,0.000000,1647401755.583384,0.000000
142.000000,36661.063035,36566.671618,19820.543506,19755.231709,15676.217160,68458.431179,62076.806972,16171.017727,0.222000,0.954000,0.148000,192.000000,0.000000,0.000000,0.000000,0.000000,0.000000,0.000000,0.000000,0.000000,0.000000,1647401755.591132,0.000000
143.000000,36657.330293,36564.615257,19813.346244,19747.453302,15670.338651,68450.809234,62076.359937,16175.465724,0.222000,0.954000,0.148000,192.000000,0.000000,0.000000,0.000000,0.000000,0.000000,0.000000,0.000000,0.000000,0.000000,1647401755.591148,0.000000
144.000000,36650.892991,36560.480185,19806.104279,19744.547575,15664.773067,68443.857842,62074.951777,16188.720308,0.222000,0.954000,0.148000,192.000000,0.000000,0.000000,0.000000,0.000000,0.000000,0.000000,0.000000,0.000000,0.000000,1647401755.599239,0.000000
145.000000,36641.192334,36551.539487,19796.336567,19737.059741,15655.228872,68437.599354,62080.025623,16207.875753,0.222000,0.954000,0.148000,192.000000,0.000000,0.000000,0.000000,0.000000,0.000000,0.000000,0.000000,0.000000,0.000000,1647401755.599251,0.000000
146.000000,36648.546058,36555.898077,19802.013910,19741.954773,15661.062677,68444.751912,62085.032414,16220.593896,0.222000,0.954000,0.148000,192.000000,0.000000,0.000000,0.000000,0.000000,0.000000,0.000000,0.000000,0.000000,0.000000,1647401755.606209,0.000000
147.000000,36649.462479,36557.999141,19803.153849,19743.608802,15662.314375,68444.282525,62081.590245,16219.073977,0.222000,0.954000,0.148000,192.000000,0.000000,0.000000,0.000000,0.000000,0.000000,0.000000,0.000000,0.000000,0.000000,1647401755.613049,0.000000
148.000000,36649.574238,36557.820327,19802.349186,19741.686552,15660.436828,68434.090130,62072.157809,16211.563791,0.222000,0.954000,0.148000,192.000000,0.000000,0.000000,0.000000,0.000000,0.000000,0.000000,0.000000,0.000000,0.000000,1647401755.613079,0.000000
149.000000,36656.168003,36563.296504,19808.674730,19743.653505,15664.907177,68431.631438,62070.682594,16206.445242,0.216000,0.958000,0.148000,192.000000,6.000000,192.000000,29.000000,240.000000,4.000000,160.000000,0.000000,0.000000,0.000000,1647401755.620712,0.000000
150.000000,36642.555790,36546.085661,19795.174276,19725.190964,15648.188072,68414.219429,62072.113105,16228.953448,0.216000,0.958000,0.148000,192.000000,0.000000,0.000000,0.000000,0.000000,0.000000,0.000000,0.000000,0.000000,0.000000,1647401755.620733,0.000000
151.000000,36641.728776,36548.678464,19794.324910,19727.850822,15649.015087,68406.977464,62071.241387,16249.338239,0.216000,0.958000,0.148000,192.000000,0.000000,0.000000,0.000000,0.000000,0.000000,0.000000,0.000000,0.000000,0.000000,1647401755.628950,0.000000
152.000000,36646.824973,36556.255705,19802.885628,19738.534956,15659.341593,68417.639246,62065.742858,16248.287707,0.216000,0.958000,0.148000,192.000000,0.000000,0.000000,0.000000,0.000000,0.000000,0.000000,0.000000,0.000000,0.000000,1647401755.628962,0.000000
153.000000,36653.374035,36560.591943,19811.267532,19746.246308,15667.455276,68426.334074,62061.093695,16236.240117,0.216000,0.958000,0.148000,192.000000,0.000000,0.000000,0.000000,0.000000,0.000000,0.000000,0.000000,0.000000,0.000000,1647401755.635315,0.000000
154.000000,36649.395424,36557.462699,19806.730128,19741.239517,15662.783761,68430.826775,62063.977070,16235.547213,0.216000,0.958000,0.148000,192.000000,0.000000,0.000000,0.000000,0.000000,0.000000,0.000000,0.000000,0.000000,0.000000,1647401755.635326,0.000000
155.000000,36639.694767,36548.074966,19794.459020,19732.187060,15651.987869,68428.412787,62063.932367,16245.851367,0.216000,0.958000,0.148000,192.000000,0.000000,0.000000,0.000000,0.000000,0.000000,0.000000,0.000000,0.000000,0.000000,1647401755.643389,0.000000
156.000000,36641.415851,36547.337359,19795.554256,19730.130700,15649.886805,68430.826775,62068.626233,16261.139960,0.216000,0.958000,0.148000,192.000000,0.000000,0.000000,0.000000,0.000000,0.000000,0.000000,0.000000,0.000000,0.000000,1647401755.643406,0.000000
157.000000,36632.698671,36540.698891,19787.909959,19723.648694,15641.996639,68425.082377,62070.816704,16275.042745,0.216000,0.958000,0.148000,192.000000,0.000000,0.000000,0.000000,0.000000,0.000000,0.000000,0.000000,0.000000,0.000000,1647401755.651691,0.000000
158.000000,36636.029081,36546.689158,19791.575645,19731.918839,15648.992735,68429.508022,62072.023698,16281.055365,0.216000,0.958000,0.148000,192.000000,0.000000,0.000000,0.000000,0.000000,0.000000,0.000000,0.000000,0.000000,0.000000,1647401755.651707,0.000000
159.000000,36640.231209,36549.885458,19792.357956,19736.433892,15652.166683,68430.223278,62073.878893,16284.810458,0.224000,0.952000,0.154000,192.000000,7.000000,0.000000,29.000000,192.000000,4.000000,208.000000,0.000000,0.000000,0.000000,1647401755.658702,0.000000
160.000000,36639.292436,36550.712472,19790.927445,19734.869270,15649.640936,68423.517754,62075.667033,16299.227333,0.224000,0.952000,0.154000,192.000000,0.000000,0.000000,0.000000,0.000000,0.000000,0.000000,0.000000,0.000000,0.000000,1647401755.658713,0.000000
161.000000,36635.716156,36550.153679,19791.642701,19731.538860,15647.629279,68417.639246,62075.130591,16316.885211,0.224000,0.952000,0.154000,192.000000,0.000000,0.000000,0.000000,0.000000,0.000000,0.000000,0.000000,0.000000,0.000000,1647401755.665295,0.000000
162.000000,36640.946465,36555.227525,19795.956587,19737.238555,15651.496130,68416.588714,62072.358974,16316.639342,0.224000,0.952000,0.154000,192.000000,0.000000,0.000000,0.000000,0.000000,0.000000,0.000000,0.000000,0.000000,0.000000,1647401755.665310,0.000000
163.000000,36633.637444,36545.348054,19786.345337,19728.767243,15642.823654,68415.247609,62074.795315,16333.492557,0.224000,0.952000,0.154000,192.000000,0.000000,0.000000,0.000000,0.000000,0.000000,0.000000,0.000000,0.000000,0.000000,1647401755.673253,0.000000
164.000000,36634.464459,36545.392757,19785.697137,19729.191927,15642.868357,68411.380757,62071.107277,16344.556671,0.224000,0.952000,0.154000,192.000000,0.000000,0.000000,0.000000,0.000000,0.000000,0.000000,0.000000,0.000000,0.000000,1647401755.680983,0.000000
165.000000,36642.466383,36551.450080,19789.765154,19734.623401,15647.472816,68414.197077,62072.783658,16343.237918,0.224000,0.952000,0.154000,192.000000,0.000000,0.000000,0.000000,0.000000,0.000000,0.000000,0.000000,0.000000,0.000000,1647401755.680994,0.000000
166.000000,36647.048491,36555.294580,19794.391965,19736.679761,15651.049096,68415.337016,62070.593187,16337.560575,0.224000,0.952000,0.154000,192.000000,0.000000,0.000000,0.000000,0.000000,0.000000,0.000000,0.000000,0.000000,0.000000,1647401755.688361,0.000000
167.000000,36639.717119,36550.556010,19793.386137,19731.404749,15647.338706,68406.686891,62067.173370,16346.121293,0.224000,0.952000,0.154000,192.000000,0.000000,0.000000,0.000000,0.000000,0.000000,0.000000,0.000000,0.000000,0.000000,1647401755.688372,0.000000
168.000000,36635.850267,36545.683330,19796.895361,19729.728368,15648.880976,68407.379795,62061.138399,16339.259307,0.224000,0.952000,0.154000,192.000000,0.000000,0.000000,0.000000,0.000000,0.000000,0.000000,0.000000,0.000000,0.000000,1647401755.695647,0.000000
169.000000,36643.628674,36552.254743,19803.511477,19734.981028,15655.944128,68416.074624,62065.407582,16338.544051,0.220000,0.944000,0.156000,192.000000,6.000000,224.000000,29.000000,128.000000,4.000000,224.000000,0.000000,0.000000,0.000000,1647401755.695659,0.000000
170.000000,36644.232171,36554.355807,19797.521209,19732.634095,15651.384372,68417.326321,62066.413410,16344.891947,0.220000,0.944000,0.156000,192.000000,0.000000,0.000000,0.000000,0.000000,0.000000,0.000000,0.000000,0.000000,0.000000,1647401755.703955,0.000000
171.000000,36642.153459,36550.757176,19791.553294,19729.214278,15645.818787,68414.800574,62072.537788,16366.975470,0.220000,0.944000,0.156000,192.000000,0.000000,0.000000,0.000000,0.000000,0.000000,0.000000,0.000000,0.000000,0.000000,1647401755.703989,0.000000
172.000000,36644.545096,36558.200307,19796.560084,19738.289087,15652.099628,68417.125156,62075.354108,16368.987127,0.220000,0.944000,0.156000,192.000000,0.000000,0.000000,0.000000,0.000000,0.000000,0.000000,0.000000,0.000000,0.000000,1647401755.711739,0.000000
173.000000,36638.733642,36555.205173,19793.855523,19742.312401,15653.999526,68422.221353,62079.131553,16374.195084,0.220000,0.944000,0.156000,192.000000,0.000000,0.000000,0.000000,0.000000,0.000000,0.000000,0.000000,0.000000,0.000000,1647401755.711756,0.000000
174.000000,36636.476116,36552.165336,19793.788468,19743.809967,15654.893596,68425.350598,62070.257911,16369.635328,0.220000,0.944000,0.156000,192.000000,0.000000,0.000000,0.000000,0.000000,0.000000,0.000000,0.000000,0.000000,0.000000,1647401755.718194,0.000000
175.000000,36633.682148,36547.180897,19787.753497,19735.651581,15646.176415,68421.573153,62073.789486,16389.282511,0.220000,0.944000,0.156000,192.000000,0.000000,0.000000,0.000000,0.000000,0.000000,0.000000,0.000000,0.000000,0.000000,1647401755.718205,0.000000
176.000000,36634.375052,36547.583228,19786.792372,19731.717674,15642.041343,68415.001740,62075.219998,16406.649817,0.220000,0.944000,0.156000,192.000000,0.000000,0.000000,0.000000,0.000000,0.000000,0.000000,0.000000,0.000000,0.000000,1647401755.726351,0.000000
177.000000,36634.643273,36545.593923,19785.048936,19727.001456,15638.934450,68413.682987,62072.358974,16411.231924,0.220000,0.944000,0.156000,192.000000,0.000000,0.000000,0.000000,0.000000,0.000000,0.000000,0.000000,0.000000,0.000000,1647401755.726366,0.000000
178.000000,36640.275912,36549.103147,19791.463887,19733.528165,15646.735209,68423.227182,62073.431858,16409.287323,0.220000,0.944000,0.156000,192.000000,0.000000,0.000000,0.000000,0.000000,0.000000,0.000000,0.000000,0.000000,0.000000,1647401755.733468,0.000000
179.000000,36644.366282,36552.835888,19793.944930,19737.752645,15651.429075,68420.366159,62069.699117,16399.899590,0.220000,0.944000,0.156000,192.000000,0.000000,0.000000,0.000000,0.000000,0.000000,0.000000,0.000000,0.000000,0.000000,1647401755.741312,0.000000
180.000000,36645.863848,36557.485051,19795.755422,19738.333790,15652.859587,68422.623685,62068.313309,16400.257218,0.218000,0.940000,0.158000,192.000000,6.000000,208.000000,29.000000,96.000000,4.000000,240.000000,0.000000,0.000000,0.000000,1647401755.741323,0.000000
181.000000,36640.454726,36556.859202,19794.280206,19737.439720,15651.496130,68418.354502,62063.932367,16403.073538,0.218000,0.940000,0.158000,192.000000,0.000000,0.000000,0.000000,0.000000,0.000000,0.000000,0.000000,0.000000,0.000000,1647401755.748044,0.000000
182.000000,36636.409061,36555.898077,19794.771945,19736.992685,15650.311488,68414.420595,62062.546559,16410.136689,0.218000,0.940000,0.158000,192.000000,0.000000,0.000000,0.000000,0.000000,0.000000,0.000000,0.000000,0.000000,0.000000,1647401755.748056,0.000000
183.000000,36632.966892,36551.941818,19792.067384,19735.897450,15648.366886,68414.264132,62064.602919,16426.431111,0.218000,0.940000,0.158000,192.000000,0.000000,0.000000,0.000000,0.000000,0.000000,0.000000,0.000000,0.000000,0.000000,1647401755.755977,0.000000
184.000000,36633.033947,36551.181859,19791.441535,19735.338656,15648.031610,68413.839449,62062.233634,16429.806224,0.218000,0.940000,0.158000,192.000000,0.000000,0.000000,0.000000,0.000000,0.000000,0.000000,0.000000,0.000000,0.000000,1647401755.755993,0.000000
185.000000,36643.807488,36558.692045,19802.483297,19747.676819,15657.262880,68425.104728,62060.601957,16421.133747,0.218000,0.940000,0.158000,192.000000,0.000000,0.000000,0.000000,0.000000,0.000000,0.000000,0.000000,0.000000,0.000000,1647401755.764158,0.000000
186.000000,36645.550924,36559.429653,19802.304483,19746.894508,15655.742962,68432.279638,62065.340527,16418.026855,0.218000,0.940000,0.158000,192.000000,0.000000,0.000000,0.000000,0.000000,0.000000,0.000000,0.000000,0.000000,0.000000,1647401755.764173,0.000000
187.000000,36630.798773,36548.946684,19790.502762,19733.684627,15642.622488,68417.527487,62075.108239,16437.204651,0.218000,0.940000,0.158000,192.000000,0.000000,0.000000,0.000000,0.000000,0.000000,0.000000,0.000000,0.000000,0.000000,1647401755.770736,0.000000
188.000000,36634.062127,36552.679426,19797.565913,19739.719598,15650.087971,68417.348673,62075.979957,16437.428169,0.218000,0.940000,0.158000,192.000000,0.000000,0.000000,0.000000,0.000000,0.000000,0.000000,0.000000,0.000000,0.000000,1647401755.770747,0.000000
189.000000,36644.254523,36561.150737,19804.673768,19748.459130,15660.570939,68425.663522,62077.321062,16433.650724,0.218000,0.940000,0.158000,192.000000,0.000000,0.000000,0.000000,0.000000,0.000000,0.000000,0.000000,0.000000,0.000000,1647401755.778455,0.000000
190.000000,36641.706424,36556.680388,19799.242294,19744.100540,15656.234700,68425.305894,62087.759326,16454.929585,0.226000,0.946000,0.152000,192.000000,7.000000,16.000000,29.000000,144.000000,4.000000,192.000000,0.000000,0.000000,0.000000,1647401755.778466,0.000000
191.000000,36633.436279,36548.857277,19789.273416,19731.650619,15645.483511,68406.306911,62084.898303,16474.040326,0.226000,0.946000,0.152000,192.000000,0.000000,0.000000,0.000000,0.000000,0.000000,0.000000,0.000000,0.000000,0.000000,1647401755.786619,0.000000
192.000000,36644.701558,36561.843641,19803.511477,19741.686552,15657.486398,68406.418670,62077.030489,16469.547626,0.226000,0.946000,0.152000,192.000000,0.000000,0.000000,0.000000,0.000000,0.000000,0.000000,0.000000,0.000000,0.000000,1647401755.786636,0.000000
193.000000,36642.935770,36562.134214,19798.951721,19742.670029,15656.055886,68405.211676,62076.404640,16469.681736,0.226000,0.946000,0.152000,192.000000,0.000000,0.000000,0.000000,0.000000,0.000000,0.000000,0.000000,0.000000,0.000000,1647401755.793962,0.000000
194.000000,36640.298264,36559.139080,19799.130535,19744.033485,15655.854721,68405.792821,62074.549445,16478.264806,0.226000,0.946000,0.152000,192.000000,0.000000,0.000000,0.000000,0.000000,0.000000,0.000000,0.000000,0.000000,0.000000,1647401755.800209,0.000000
195.000000,36647.115546,36565.419920,19808.853544,19749.889642,15663.767238,68409.905542,62068.402716,16474.465010,0.226000,0.946000,0.152000,192.000000,0.000000,0.000000,0.000000,0.000000,0.000000,0.000000,0.000000,0.000000,0.000000,1647401755.800221,0.000000
196.000000,36642.868715,36561.284847,19803.086794,19744.994610,15659.073372,68405.859876,62071.375498,16496.839106,0.226000,0.946000,0.152000,192.000000,0.000000,0.000000,0.000000,0.000000,0.000000,0.000000,0.000000,0.000000,0.000000,1647401755.808274,0.000000
197.000000,36636.789040,36554.176993,19800.985730,19740.457206,15655.854721,68406.373967,62066.234597,16505.668045,0.226000,0.946000,0.152000,192.000000,0.000000,0.000000,0.000000,0.000000,0.000000,0.000000,0.000000,0.000000,0.000000,1647401755.808285,0.000000
198.000000,36630.999938,36550.712472,19793.207323,19734.154014,15649.484473,68404.965807,62061.853655,16514.184059,0.226000,0.946000,0.152000,192.000000,0.000000,0.000000,0.000000,0.000000,0.000000,0.000000,0.000000,0.000000,0.000000,1647401755.816186,0.000000
199.000000,36639.583008,36560.480185,19799.577570,19745.285183,15658.380468,68416.454603,62051.169521,16490.625321,0.226000,0.946000,0.152000,192.000000,0.000000,0.000000,0.000000,0.000000,0.000000,0.000000,0.000000,0.000000,0.000000,1647401755.816197,0.000000
200.000000,36642.309921,36563.587077,19802.148021,19750.336677,15660.772104,68429.865650,62051.325983,16480.611739,0.232000,0.948000,0.158000,192.000000,7.000000,64.000000,29.000000,160.000000,4.000000,240.000000,0.000000,0.000000,0.000000,1647401755.823468,0.000000
201.000000,36642.086404,36560.435481,19800.650454,19745.732218,15656.458218,68427.339903,62060.087867,16495.632112,0.232000,0.948000,0.158000,192.000000,0.000000,0.000000,0.000000,0.000000,0.000000,0.000000,0.000000,0.000000,0.000000,1647401755.823484,0.000000
202.000000,36633.480982,36550.600714,19793.676709,19735.226898,15647.383409,68419.785013,62074.460038,16518.229725,0.232000,0.948000,0.158000,192.000000,0.000000,0.000000,0.000000,0.000000,0.000000,0.000000,0.000000,0.000000,0.000000,1647401755.831052,0.000000
203.000000,36635.090308,36554.333455,19796.336567,19737.797348,15649.707991,68410.441984,62070.839056,16521.493080,0.232000,0.948000,0.158000,192.000000,0.000000,0.000000,0.000000,0.000000,0.000000,0.000000,0.000000,0.000000,0.000000,1647401755.831068,0.000000
204.000000,36644.299226,36562.871821,19804.964340,19747.006267,15659.475703,68412.252475,62056.422181,16496.995568,0.232000,0.948000,0.158000,192.000000,0.000000,0.000000,0.000000,0.000000,0.000000,0.000000,0.000000,0.000000,0.000000,1647401755.838832,0.000000
205.000000,36640.521782,36559.094376,19801.142192,19741.731255,15655.608851,68408.676196,62063.239463,16514.944019,0.232000,0.948000,0.158000,192.000000,0.000000,0.000000,0.000000,0.000000,0.000000,0.000000,0.000000,0.000000,0.000000,1647401755.838843,0.000000
206.000000,36645.997959,36564.659961,19807.378329,19747.900337,15661.509712,68409.994949,62060.534902,16513.312341,0.232000,0.948000,0.158000,192.000000,0.000000,0.000000,0.000000,0.000000,0.000000,0.000000,0.000000,0.000000,0.000000,1647401755.846921,0.000000
207.000000,36629.502371,36546.085661,19787.842904,19729.594258,15642.935412,68398.215580,62070.928463,16538.860385,0.232000,0.948000,0.158000,192.000000,0.000000,0.000000,0.000000,0.000000,0.000000,0.000000,0.000000,0.000000,0.000000,1647401755.846938,0.000000
208.000000,36625.568464,36541.324740,19785.406564,19726.889697,15639.761465,68386.615024,62068.469771,16557.032354,0.232000,0.948000,0.158000,192.000000,0.000000,0.000000,0.000000,0.000000,0.000000,0.000000,0.000000,0.000000,0.000000,1647401755.853397,0.000000
209.000000,36633.480982,36548.052615,19793.229674,19736.322133,15648.679811,68389.677213,62062.144227,16555.490083,0.232000,0.948000,0.158000,192.000000,0.000000,0.000000,0.000000,0.000000,0.000000,0.000000,0.000000,0.000000,0.000000,1647401755.860623,0.000000
210.000000,36630.754069,36544.185763,19789.005195,19734.377531,15645.461159,68385.452734,62065.072306,16563.112028,0.230000,0.948000,0.150000,192.000000,7.000000,48.000000,29.000000,160.000000,4.000000,176.000000,0.000000,0.000000,0.000000,1647401755.860635,0.000000
211.000000,36630.329386,36545.459812,19790.882741,19739.652543,15649.328011,68387.710260,62067.978033,16571.449229,0.230000,0.948000,0.150000,192.000000,0.000000,0.000000,0.000000,0.000000,0.000000,0.000000,0.000000,0.000000,0.000000,1647401755.868544,0.000000
212.000000,36633.793906,36550.667769,19798.102355,19748.034447,15657.486398,68397.299158,62069.520303,16576.768944,0.230000,0.948000,0.150000,192.000000,0.000000,0.000000,0.000000,0.000000,0.000000,0.000000,0.000000,0.000000,0.000000,1647401755.868555,0.000000
213.000000,36646.221476,36562.961228,19811.267532,19759.076209,15670.383354,68413.794746,62066.212245,16568.968185,0.230000,0.948000,0.150000,192.000000,0.000000,0.000000,0.000000,0.000000,0.000000,0.000000,0.000000,0.000000,0.000000,1647401755.875599,0.000000
214.000000,36647.651988,36562.044807,19809.412337,19755.879910,15667.589386,68420.768490,62060.177274,16557.144112,0.230000,0.948000,0.150000,192.000000,0.000000,0.000000,0.000000,0.000000,0.000000,0.000000,0.000000,0.000000,0.000000,1647401755.875629,0.000000
215.000000,36638.644235,36552.366501,19800.225771,19741.708904,15653.463084,68414.822926,62062.032469,16568.632909,0.230000,0.948000,0.150000,192.000000,0.000000,0.000000,0.000000,0.000000,0.000000,0.000000,0.000000,0.000000,0.000000,1647401755.883384,0.000000
216.000000,36633.816258,36546.242123,19793.095564,19732.231764,15643.963593,68406.463373,62062.032469,16582.133363,0.230000,0.948000,0.150000,192.000000,0.000000,0.000000,0.000000,0.000000,0.000000,0.000000,0.000000,0.000000,0.000000,1647401755.883401,0.000000
217.000000,36638.018386,36550.332493,19797.632968,19734.243421,15649.126845,68406.530429,62051.840073,16573.818514,0.230000,0.948000,0.150000,192.000000,0.000000,0.000000,0.000000,0.000000,0.000000,0.000000,0.000000,0.000000,0.000000,1647401755.891227,0.000000
218.000000,36632.206933,36543.917542,19790.905093,19727.001456,15643.047171,68402.887094,62051.147169,16570.197531,0.230000,0.948000,0.150000,192.000000,0.000000,0.000000,0.000000,0.000000,0.000000,0.000000,0.000000,0.000000,0.000000,1647401755.891239,0.000000
219.000000,36632.855133,36546.957379,19791.665052,19732.298819,15645.908194,68399.869609,62053.337640,16582.222770,0.230000,0.948000,0.150000,192.000000,0.000000,0.000000,0.000000,0.000000,0.000000,0.000000,0.000000,0.000000,0.000000,1647401755.899075,0.000000
220.000000,36637.325482,36552.835888,19797.610616,19736.947982,15652.099628,68398.260283,62051.214224,16594.583284,0.230000,0.948000,0.152000,192.000000,7.000000,48.000000,29.000000,160.000000,4.000000,192.000000,0.000000,0.000000,0.000000,1647401755.899084,0.000000
221.000000,36643.360453,36558.446176,19805.903114,19745.106369,15661.062677,68404.496420,62051.124817,16593.197476,0.230000,0.948000,0.152000,192.000000,0.000000,0.000000,0.000000,0.000000,0.000000,0.000000,0.000000,0.000000,0.000000,1647401755.905759,0.000000
222.000000,36640.007691,36555.808670,19800.873971,19745.084017,15659.296889,68410.173763,62053.069419,16597.801935,0.230000,0.948000,0.152000,192.000000,0.000000,0.000000,0.000000,0.000000,0.000000,0.000000,0.000000,0.000000,0.000000,1647401755.905775,0.000000
223.000000,36639.784174,36556.970961,19804.606712,19749.733180,15663.387258,68414.241781,62050.588375,16603.188706,0.230000,0.948000,0.152000,192.000000,0.000000,0.000000,0.000000,0.000000,0.000000,0.000000,0.000000,0.000000,0.000000,1647401755.912678,0.000000
224.000000,36645.036834,36560.815461,19812.228657,19755.701096,15669.332822,68422.713092,62050.275451,16599.545371,0.230000,0.948000,0.152000,192.000000,0.000000,0.000000,0.000000,0.000000,0.000000,0.000000,0.000000,0.000000,0.000000,1647401755.912690,0.000000
225.000000,36643.427508,36558.915563,19810.775794,19756.259889,15667.745849,68425.216487,62051.705963,16602.160526,0.230000,0.948000,0.152000,192.000000,0.000000,0.000000,0.000000,0.000000,0.000000,0.000000,0.000000,0.000000,0.000000,1647401755.920754,0.000000
226.000000,36636.923151,36556.456871,19801.253951,19752.527148,15662.224968,68423.517754,62058.925576,16621.852412,0.230000,0.948000,0.152000,192.000000,0.000000,0.000000,0.000000,0.000000,0.000000,0.000000,0.000000,0.000000,0.000000,1647401755.928568,0.000000
227.000000,36633.749203,36553.841717,19796.582436,19748.749703,15658.358116,68415.806403,62054.276413,16621.785357,0.230000,0.948000,0.152000,192.000000,0.000000,0.000000,0.000000,0.000000,0.000000,0.000000,0.000000,0.000000,0.000000,1647401755.928574,0.000000
228.000000,36630.910531,36550.377196,19789.720451,19741.820662,15649.484473,68404.183496,62052.577681,16626.702741,0.230000,0.948000,0.152000,192.000000,0.000000,0.000000,0.000000,0.000000,0.000000,0.000000,0.000000,0.000000,0.000000,1647401755.935186,0.000000
229.000000,36630.128220,36548.879629,19792.447363,19740.703075,15648.702162,68403.915275,62054.835207,16638.236241,0.230000,0.948000,0.152000,192.000000,0.000000,0.000000,0.000000,0.000000,0.000000,0.000000,0.000000,0.000000,0.000000,1647401755.935192,0.000000
230.000000,36635.246770,36554.847545,19799.041128,19742.267697,15652.278441,68408.787955,62051.124817,16634.347038,0.228000,0.950000,0.152000,192.000000,7.000000,32.000000,29.000000,176.000000,4.000000,192.000000,0.000000,0.000000,0.000000,1647401755.943231,0.000000
231.000000,36634.576217,36554.445214,19799.197590,19738.445549,15650.110322,68407.938589,62053.225881,16642.974811,0.228000,0.950000,0.152000,192.000000,0.000000,0.000000,0.000000,0.000000,0.000000,0.000000,0.000000,0.000000,0.000000,1647401755.943238,0.000000
232.000000,36636.498468,36557.999141,19801.253951,19740.501909,15653.440732,68411.224295,62053.248233,16649.657983,0.228000,0.950000,0.152000,192.000000,0.000000,0.000000,0.000000,0.000000,0.000000,0.000000,0.000000,0.000000,0.000000,1647401755.951207,0.000000
233.000000,36632.363395,36551.740653,19795.531904,19734.601049,15648.635107,68408.050347,62052.957660,16650.239128,0.228000,0.950000,0.152000,192.000000,0.000000,0.000000,0.000000,0.000000,0.000000,0.000000,0.000000,0.000000,0.000000,1647401755.951213,0.000000
234.000000,36636.632578,36553.305275,19799.488163,19741.351276,15655.675907,68407.111574,62053.538806,16652.139026,0.228000,0.950000,0.152000,192.000000,0.000000,0.000000,0.000000,0.000000,0.000000,0.000000,0.000000,0.000000,0.000000,1647401755.958396,0.000000
235.000000,36640.164154,36553.841717,19797.342395,19740.926592,15656.011183,68406.865705,62056.064553,16660.275061,0.228000,0.950000,0.152000,192.000000,0.000000,0.000000,0.000000,0.000000,0.000000,0.000000,0.000000,0.000000,0.000000,1647401755.958406,0.000000
236.000000,36636.207895,36549.326664,19795.062518,19736.724465,15652.993697,68394.952225,62048.889643,16668.187579,0.228000,0.950000,0.152000,192.000000,0.000000,0.000000,0.000000,0.000000,0.000000,0.000000,0.000000,0.000000,0.000000,1647401755.965774,0.000000
237.000000,36629.614130,36547.180897,19792.782640,19733.416406,15648.657459,68397.142696,62051.862425,16662.800808,0.228000,0.950000,0.152000,192.000000,0.000000,0.000000,0.000000,0.000000,0.000000,0.000000,0.000000,0.000000,0.000000,1647401755.965779,0.000000
238.000000,36628.496543,36548.030263,19794.481372,19737.104444,15650.155026,68407.491554,62052.376515,16664.991279,0.228000,0.950000,0.152000,192.000000,0.000000,0.000000,0.000000,0.000000,0.000000,0.000000,0.000000,0.000000,0.000000,1647401755.974108,0.000000
239.000000,36632.832781,36549.773699,19796.224808,19738.602011,15650.490302,68418.957999,62052.264756,16663.672526,0.228000,0.950000,0.152000,192.000000,0.000000,0.000000,0.000000,0.000000,0.000000,0.000000,0.000000,0.000000,0.000000,1647401755.974116,0.000000
240.000000,36626.864866,36547.605580,19790.458058,19731.605915,15643.047171,68413.794746,62054.097599,16680.682204,0.228000,0.946000,0.150000,192.000000,7.000000,32.000000,29.000000,144.000000,4.000000,176.000000,0.000000,0.000000,0.000000,1647401755.981166,0.000000
241.000000,36619.689956,36542.218809,19783.931349,19728.364912,15638.129787,68410.889019,62051.840073,16685.487829,0.228000,0.946000,0.150000,192.000000,0.000000,0.000000,0.000000,0.000000,0.000000,0.000000,0.000000,0.000000,0.000000,1647401755.988171,0.000000
242.000000,36621.522799,36541.481202,19785.227750,19730.242459,15638.643877,68407.513905,62055.639870,16699.345910,0.228000,0.946000,0.150000,192.000000,0.000000,0.000000,0.000000,0.000000,0.000000,0.000000,0.000000,0.000000,0.000000,1647401755.988182,0.000000
243.000000,36633.637444,36551.003045,19796.224808,19739.652543,15648.545700,68412.721862,62050.118989,16684.034966,0.228000,0.946000,0.150000,192.000000,0.000000,0.000000,0.000000,0.000000,0.000000,0.000000,0.000000,0.000000,0.000000,1647401755.995602,0.000000
244.000000,36630.731717,36548.365539,19790.033375,19731.851784,15642.711895,68405.815173,62057.562120,16697.155440,0.228000,0.946000,0.150000,192.000000,0.000000,0.000000,0.000000,0.000000,0.000000,0.000000,0.000000,0.000000,0.000000,1647401755.995612,0.000000
245.000000,36618.326499,36538.083737,19779.997442,19720.005360,15633.033589,68398.483801,62059.394963,16717.316713,0.228000,0.946000,0.150000,192.000000,0.000000,0.000000,0.000000,0.000000,0.000000,0.000000,0.000000,0.000000,0.000000,1647401756.003605,0.000000
246.000000,36617.275967,36539.871876,19777.181122,19723.335770,15633.122996,68402.752984,62063.820608,16730.638353,0.228000,0.946000,0.150000,192.000000,0.000000,0.000000,0.000000,0.000000,0.000000,0.000000,0.000000,0.000000,0.000000,1647401756.003613,0.000000
247.000000,36630.776421,36553.037054,19790.949797,19737.685590,15646.399933,68410.196115,62050.901300,16713.472213,0.228000,0.946000,0.150000,192.000000,0.000000,0.000000,0.000000,0.000000,0.000000,0.000000,0.000000,0.000000,0.000000,1647401756.010649,0.000000
248.000000,36625.009671,36544.342225,19784.065459,19730.801252,15640.834348,68404.898751,62057.226844,16732.940582,0.228000,0.946000,0.150000,192.000000,0.000000,0.000000,0.000000,0.000000,0.000000,0.000000,0.000000,0.000000,0.000000,1647401756.010657,0.000000
249.000000,36627.982453,36549.304312,19789.139305,19738.020866,15647.986907,68402.618873,62047.079152,16728.067902,0.228000,0.946000,0.150000,192.000000,0.000000,0.000000,0.000000,0.000000,0.000000,0.000000,0.000000,0.000000,0.000000,1647401756.018300,0.000000
250.000000,36625.434354,36545.325702,19784.713660,19731.740025,15641.929584,68399.690795,62044.732218,16730.459539,0.230000,0.952000,0.156000,192.000000,7.000000,48.000000,29.000000,192.000000,4.000000,224.000000,0.000000,0.000000,0.000000,1647401756.018312,0.000000
251.000000,36621.455743,36543.068176,19783.819590,19728.096691,15640.655534,68396.718013,62047.950870,16749.369115,0.230000,0.952000,0.156000,192.000000,0.000000,0.000000,0.000000,0.000000,0.000000,0.000000,0.000000,0.000000,0.000000,1647401756.026192,0.000000
252.000000,36624.920264,36546.733862,19784.601901,19733.103482,15644.343572,68405.524600,62044.620460,16749.570280,0.230000,0.952000,0.156000,192.000000,0.000000,0.000000,0.000000,0.000000,0.000000,0.000000,0.000000,0.000000,0.000000,1647401756.026201,0.000000
253.000000,36624.495581,36547.493821,19785.272453,19732.388226,15643.851834,68409.704376,62048.934346,16756.834597,0.230000,0.952000,0.156000,192.000000,0.000000,0.000000,0.000000,0.000000,0.000000,0.000000,0.000000,0.000000,0.000000,1647401756.034178,0.000000
254.000000,36627.066031,36550.153679,19791.642701,19734.154014,15648.411590,68410.844315,62053.158826,16753.258318,0.230000,0.952000,0.156000,192.000000,0.000000,0.000000,0.000000,0.000000,0.000000,0.000000,0.000000,0.000000,0.000000,1647401756.034183,0.000000
255.000000,36631.290511,36554.691083,19792.760288,19733.841089,15649.037439,68412.788917,62054.119951,16752.945394,0.230000,0.952000,0.156000,192.000000,0.000000,0.000000,0.000000,0.000000,0.000000,0.000000,0.000000,0.000000,0.000000,1647401756.040333,0.000000
0.000000,36633.860962,36553.729958,19792.849695,19731.203584,15647.584575,68413.839449,62059.037335,16765.797647,0.230000,0.952000,0.156000,192.000000,0.000000,0.000000,0.000000,0.000000,0.000000,0.000000,0.000000,0.000000,0.000000,1647401756.047819,0.000000
1.000000,36639.962988,36558.043844,19797.498858,19736.657409,15651.764351,68411.939551,62064.155884,16778.314624,0.230000,0.952000,0.156000,192.000000,0.000000,0.000000,0.000000,0.000000,0.000000,0.000000,0.000000,0.000000,0.000000,1647401756.047831,0.000000
2.000000,36636.252598,36554.802842,19796.202456,19736.165671,15649.260956,68403.512943,62056.600995,16780.750964,0.230000,0.952000,0.156000,192.000000,0.000000,0.000000,0.000000,0.000000,0.000000,0.000000,0.000000,0.000000,0.000000,1647401756.055772,0.000000
3.000000,36635.917322,36555.026359,19794.414317,19734.981028,15647.897500,68399.646091,62047.079152,16771.318528,0.230000,0.952000,0.156000,192.000000,0.000000,0.000000,0.000000,0.000000,0.000000,0.000000,0.000000,0.000000,0.000000,1647401756.055777,0.000000
4.000000,36640.499430,36558.893211,19797.007119,19736.992685,15650.847930,68398.014414,62045.782750,16772.860798,0.230000,0.954000,0.154000,192.000000,7.000000,48.000000,29.000000,208.000000,4.000000,208.000000,0.000000,0.000000,0.000000,1647401756.063783,0.000000
5.000000,36637.146668,36552.500612,19789.720451,19731.449453,15645.394104,68389.945434,62052.532977,16797.671234,0.230000,0.954000,0.154000,192.000000,0.000000,0.000000,0.000000,0.000000,0.000000,0.000000,0.000000,0.000000,0.000000,1647401756.063788,0.000000
6.000000,36639.001863,36557.015664,19795.241331,19737.953810,15650.982040,68390.012490,62048.643774,16803.393281,0.230000,0.954000,0.154000,192.000000,0.000000,0.000000,0.000000,0.000000,0.000000,0.000000,0.000000,0.000000,0.000000,1647401756.070675,0.000000
7.000000,36643.963950,36564.972885,19804.047919,19747.520357,15658.603985,68404.608179,62049.336678,16799.571133,0.230000,0.954000,0.154000,192.000000,0.000000,0.000000,0.000000,0.000000,0.000000,0.000000,0.000000,0.000000,0.000000,1647401756.070682,0.000000
8.000000,36644.545096,36564.414092,19801.589227,19745.933383,15656.681735,68405.144621,62046.408599,16794.765508,0.230000,0.954000,0.154000,192.000000,0.000000,0.000000,0.000000,0.000000,0.000000,0.000000,0.000000,0.000000,0.000000,1647401756.078627,0.000000
9.000000,36649.194258,36570.292600,19806.461907,19751.811892,15662.962575,68413.079490,62046.900338,16797.291255,0.230000,0.954000,0.154000,192.000000,0.000000,0.000000,0.000000,0.000000,0.000000,0.000000,0.000000,0.000000,0.000000,1647401756.078637,0.000000
10.000000,36650.334197,36574.517080,19806.573666,19754.583508,15664.549549,68415.068795,62056.958623,16814.077415,0.230000,0.954000,0.154000,192.000000,0.000000,0.000000,0.000000,0.000000,0.000000,0.000000,0.000000,0.000000,0.000000,1647401756.086565,0.000000
11.000000,36646.981436,36573.734769,19804.852582,19754.762322,15663.096686,68413.973560,62056.489236,16821.788767,0.230000,0.954000,0.154000,192.000000,0.000000,0.000000,0.000000,0.000000,0.000000,0.000000,0.000000,0.000000,0.000000,1647401756.086583,0.000000
12.000000,36643.181639,36567.923316,19800.583398,19746.358066,15657.128770,68406.575132,62050.141341,16816.849031,0.230000,0.954000,0.154000,192.000000,0.000000,0.000000,0.000000,0.000000,0.000000,0.000000,0.000000,0.000000,0.000000,1647401756.093622,0.000000
13.000000,36640.968816,36562.827118,19798.996425,19739.652543,15654.111285,68402.037728,62054.723448,16818.167784,0.230000,0.954000,0.154000,192.000000,0.000000,0.000000,0.000000,0.000000,0.000000,0.000000,0.000000,0.000000,0.000000,1647401756.093631,0.000000
14.000000,36645.640331,36568.437406,19802.215076,19742.401808,15656.212348,68400.182533,62055.706925,16819.486537,0.230000,0.954000,0.154000,192.000000,0.000000,0.000000,0.000000,0.000000,0.000000,0.000000,0.000000,0.000000,0.000000,1647401756.100135,0.000000
15.000000,36656.547982,36576.059350,19806.841887,19745.843976,15659.319241,68401.456583,62056.891567,16825.789729,0.224000,0.950000,0.152000,192.000000,7.000000,0.000000,29.000000,176.000000,4.000000,192.000000,0.000000,0.000000,0.000000,1647401756.108283,0.000000
16.000000,36659.163136,36571.097263,19807.624198,19744.257002,15659.721572,68408.340920,62058.433838,16831.176499,0.224000,0.950000,0.152000,192.000000,0.000000,0.000000,0.000000,0.000000,0.000000,0.000000,0.000000,0.000000,0.000000,1647401756.108294,0.000000
17.000000,36646.534401,36555.808670,19797.811782,19733.684627,15649.775046,68405.457545,62059.596128,16849.192005,0.224000,0.950000,0.152000,192.000000,0.000000,0.000000,0.000000,0.000000,0.000000,0.000000,0.000000,0.000000,0.000000,1647401756.116329,0.000000
18.000000,36640.633540,36551.740653,19792.112087,19729.929534,15644.857662,68401.009548,62051.996535,16861.574872,0.224000,0.950000,0.152000,192.000000,0.000000,0.000000,0.000000,0.000000,0.000000,0.000000,0.000000,0.000000,0.000000,1647401756.116341,0.000000
19.000000,36639.560656,36553.394682,19792.201494,19732.812909,15647.763389,68399.601388,62055.684573,16881.467924,0.224000,0.950000,0.152000,192.000000,0.000000,0.000000,0.000000,0.000000,0.000000,0.000000,0.000000,0.000000,0.000000,1647401756.122975,0.000000
20.000000,36647.272008,36561.821289,19800.650454,19741.954773,15657.151122,68402.730632,62055.416352,16878.338680,0.224000,0.950000,0.152000,192.000000,0.000000,0.000000,0.000000,0.000000,0.000000,0.000000,0.000000,0.000000,0.000000,1647401756.122992,0.000000
21.000000,36647.249657,36561.307199,19796.582436,19737.774996,15653.083104,68396.852123,62053.963489,16881.892607,0.224000,0.950000,0.152000,192.000000,0.000000,0.000000,0.000000,0.000000,0.000000,0.000000,0.000000,0.000000,0.000000,1647401756.130885,0.000000
22.000000,36646.892029,36561.955400,19799.488163,19739.339619,15655.608851,68397.545027,62051.258928,16880.752668,0.224000,0.950000,0.152000,192.000000,0.000000,0.000000,0.000000,0.000000,0.000000,0.000000,0.000000,0.000000,0.000000,1647401756.130910,0.000000
23.000000,36655.810375,36572.237202,19808.808840,19750.113159,15664.281328,68411.045481,62061.138399,16878.338680,0.224000,0.950000,0.152000,192.000000,0.000000,0.000000,0.000000,0.000000,0.000000,0.000000,0.000000,0.000000,0.000000,1647401756.138718,0.000000
24.000000,36656.168003,36571.365484,19806.819535,19751.007229,15661.979099,68412.721862,62069.207379,16894.655454,0.224000,0.950000,0.152000,192.000000,0.000000,0.000000,0.000000,0.000000,0.000000,0.000000,0.000000,0.000000,0.000000,1647401756.138730,0.000000
25.000000,36659.900744,36574.450025,19811.044015,19756.952793,15666.427096,68419.874420,62063.954719,16892.420279,0.230000,0.948000,0.146000,192.000000,7.000000,48.000000,29.000000,160.000000,4.000000,144.000000,0.000000,0.000000,0.000000,1647401756.145990,0.000000
26.000000,36656.592686,36570.359656,19806.908942,19751.923651,15661.621471,68415.739347,62061.160751,16900.668073,0.230000,0.948000,0.146000,192.000000,0.000000,0.000000,0.000000,0.000000,0.000000,0.000000,0.000000,0.000000,0.000000,1647401756.146006,0.000000
27.000000,36662.292381,36576.193461,19814.776756,19756.461055,15668.550511,68416.521658,62054.857559,16880.797372,0.230000,0.948000,0.146000,192.000000,0.000000,0.000000,0.000000,0.000000,0.000000,0.000000,0.000000,0.000000,0.000000,1647401756.153449,0.000000
28.000000,36663.678189,36576.238164,19815.849640,19754.561157,15668.930491,68414.085318,62058.903224,16877.042279,0.230000,0.948000,0.146000,192.000000,0.000000,0.000000,0.000000,0.000000,0.000000,0.000000,0.000000,0.000000,0.000000,1647401756.153465,0.000000
29.000000,36659.721930,36571.924278,19816.810765,19752.035409,15667.969366,68412.073661,62059.171445,16880.551503,0.230000,0.948000,0.146000,192.000000,0.000000,0.000000,0.000000,0.000000,0.000000,0.000000,0.000000,0.000000,0.000000,1647401756.160589,0.000000
30.000000,36656.547982,36569.733807,19812.318064,19745.866328,15663.968404,68405.055214,62051.415390,16881.110296,0.230000,0.948000,0.146000,192.000000,0.000000,0.000000,0.000000,0.000000,0.000000,0.000000,0.000000,0.000000,0.000000,1647401756.160605,0.000000
31.000000,36661.912401,36573.801824,19812.161602,19746.380418,15665.778895,68408.452679,62050.454265,16876.259968,0.230000,0.948000,0.146000,192.000000,0.000000,0.000000,0.000000,0.000000,0.000000,0.000000,0.000000,0.000000,0.000000,1647401756.168588,0.000000
32.000000,36659.297247,36569.197365,19807.244218,19743.541747,15662.828465,68412.185420,62057.495064,16888.598131,0.230000,0.948000,0.146000,192.000000,0.000000,0.000000,0.000000,0.000000,0.000000,0.000000,0.000000,0.000000,0.000000,1647401756.175914,0.000000
33.000000,36658.023197,36569.242068,19809.367634,19744.569927,15663.007279,68414.353539,62060.087867,16898.276436,0.230000,0.948000,0.146000,192.000000,0.000000,0.000000,0.000000,0.000000,0.000000,0.000000,0.000000,0.000000,0.000000,1647401756.175930,0.000000
34.000000,36657.084424,36567.498632,19809.524096,19744.771093,15663.543721,68410.196115,62061.540730,16914.257933,0.230000,0.948000,0.146000,192.000000,0.000000,0.000000,0.000000,0.000000,0.000000,0.000000,0.000000,0.000000,0.000000,1647401756.183703,0.000000
35.000000,36660.839517,36568.884441,19806.461907,19744.838148,15662.582596,68410.710205,62064.312346,16926.372579,0.226000,0.944000,0.144000,192.000000,7.000000,16.000000,29.000000,128.000000,4.000000,128.000000,0.000000,0.000000,0.000000,1647401756.183715,0.000000
36.000000,36660.057206,36566.761025,19806.596018,19746.291011,15662.515540,68407.983292,62058.903224,16922.930410,0.226000,0.944000,0.144000,192.000000,0.000000,0.000000,0.000000,0.000000,0.000000,0.000000,0.000000,0.000000,0.000000,1647401756.190459,0.000000
37.000000,36665.376921,36568.660923,19812.116899,19749.017924,15665.622433,68413.168897,62051.527149,16915.397872,0.226000,0.944000,0.144000,192.000000,0.000000,0.000000,0.000000,0.000000,0.000000,0.000000,0.000000,0.000000,0.000000,1647401756.190470,0.000000
38.000000,36665.958067,36571.231374,19812.496878,19747.967392,15665.153046,68411.157240,62048.308497,16919.957628,0.226000,0.944000,0.144000,192.000000,0.000000,0.000000,0.000000,0.000000,0.000000,0.000000,0.000000,0.000000,0.000000,1647401756.198495,0.000000
39.000000,36664.996942,36576.416978,19815.871992,19752.884776,15669.444581,68413.168897,62051.325983,16937.503748,0.226000,0.944000,0.144000,192.000000,0.000000,0.000000,0.000000,0.000000,0.000000,0.000000,0.000000,0.000000,0.000000,1647401756.198505,0.000000
40.000000,36668.796738,36574.293563,19815.290846,19753.041238,15670.539817,68415.068795,62046.252137,16939.157777,0.226000,0.944000,0.144000,192.000000,0.000000,0.000000,0.000000,0.000000,0.000000,0.000000,0.000000,0.000000,0.000000,1647401756.206552,0.000000
41.000000,36670.584878,36573.399493,19810.932256,19750.582546,15667.030593,68410.263170,62044.128721,16948.478454,0.226000,0.944000,0.144000,192.000000,0.000000,0.000000,0.000000,0.000000,0.000000,0.000000,0.000000,0.000000,0.000000,1647401756.206568,0.000000
42.000000,36669.757863,36572.147795,19816.296675,19751.387209,15668.706974,68405.077565,62040.038352,16947.718495,0.226000,0.944000,0.144000,192.000000,0.000000,0.000000,0.000000,0.000000,0.000000,0.000000,0.000000,0.000000,0.000000,1647401756.213599,0.000000
43.000000,36665.131052,36564.704664,19814.508535,19745.843976,15664.303680,68398.752022,62037.914936,16952.591175,0.226000,0.944000,0.144000,192.000000,0.000000,0.000000,0.000000,0.000000,0.000000,0.000000,0.000000,0.000000,0.000000,1647401756.213632,0.000000
44.000000,36665.935715,36564.838775,19811.245181,19740.747779,15661.330898,68393.834638,62031.768207,16962.649460,0.226000,0.944000,0.144000,192.000000,0.000000,0.000000,0.000000,0.000000,0.000000,0.000000,0.000000,0.000000,0.000000,1647401756.221070,0.000000
45.000000,36671.680113,36572.125443,19815.268495,19751.767189,15670.249244,68403.937626,62037.825529,16967.499789,0.232000,0.950000,0.150000,192.000000,7.000000,64.000000,29.000000,176.000000,4.000000,176.000000,0.000000,0.000000,0.000000,1647401756.221085,0.000000
46.000000,36675.457558,36575.142929,19816.117861,19757.019848,15674.406668,68416.409900,62040.820663,16958.134408,0.232000,0.950000,0.150000,192.000000,0.000000,0.000000,0.000000,0.000000,0.000000,0.000000,0.000000,0.000000,0.000000,1647401756.228327,0.000000
47.000000,36671.255430,36572.773644,19814.664997,19755.902261,15673.490247,68416.186382,62045.536881,16961.911853,0.232000,0.950000,0.150000,192.000000,0.000000,0.000000,0.000000,0.000000,0.000000,0.000000,0.000000,0.000000,0.000000,1647401756.236112,0.000000
48.000000,36671.031913,36574.092397,19809.054710,19755.544633,15670.942148,68414.957036,62046.028620,16965.398725,0.232000,0.950000,0.150000,192.000000,0.000000,0.000000,0.000000,0.000000,0.000000,0.000000,0.000000,0.000000,0.000000,1647401756.236128,0.000000
49.000000,36669.087311,36570.069083,19806.640721,19749.800235,15666.494151,68408.653844,62051.080114,16980.262635,0.232000,0.950000,0.150000,192.000000,0.000000,0.000000,0.000000,0.000000,0.000000,0.000000,0.000000,0.000000,0.000000,1647401756.243130,0.000000
50.000000,36660.392482,36561.709531,19802.818573,19743.318229,15660.168607,68400.920141,62056.332774,16998.725176,0.232000,0.950000,0.150000,192.000000,0.000000,0.000000,0.000000,0.000000,0.000000,0.000000,0.000000,0.000000,0.000000,1647401756.243143,0.000000
51.000000,36667.969724,36569.197365,19812.005140,19753.532976,15668.148180,68407.737423,62052.935309,16997.674644,0.232000,0.950000,0.150000,192.000000,0.000000,0.000000,0.000000,0.000000,0.000000,0.000000,0.000000,0.000000,0.000000,1647401756.250697,0.000000
52.000000,36675.479910,36576.104054,19821.705797,19759.255023,15676.194808,68422.131946,62050.051934,16992.846667,0.232000,0.950000,0.150000,192.000000,0.000000,0.000000,0.000000,0.000000,0.000000,0.000000,0.000000,0.000000,0.000000,1647401756.250708,0.000000
53.000000,36666.963895,36567.230411,19809.188820,19745.598107,15664.370735,68417.415728,62049.806064,16996.288836,0.232000,0.950000,0.150000,192.000000,0.000000,0.000000,0.000000,0.000000,0.000000,0.000000,0.000000,0.000000,0.000000,1647401756.258890,0.000000
54.000000,36672.797701,36573.623010,19815.648474,19750.314325,15670.495113,68412.341882,62049.761361,16999.328673,0.232000,0.950000,0.150000,192.000000,0.000000,0.000000,0.000000,0.000000,0.000000,0.000000,0.000000,0.000000,0.000000,1647401756.258901,0.000000
55.000000,36690.969669,36589.828025,19832.568745,19767.167540,15688.085936,68425.775281,62039.524262,16962.291832,0.230000,0.952000,0.156000,192.000000,7.000000,48.000000,29.000000,192.000000,4.000000,224.000000,0.000000,0.000000,0.000000,1647401756.266680,0.000000
56.000000,36681.447826,36579.233298,19819.828250,19754.315287,15675.524256,68418.913295,62040.954774,16953.999335,0.230000,0.952000,0.156000,192.000000,0.000000,0.000000,0.000000,0.000000,0.000000,0.000000,0.000000,0.000000,0.000000,1647401756.266689,0.000000
57.000000,36677.491567,36573.421845,19814.039149,19747.386247,15668.796381,68411.559571,62040.328925,16953.418190,0.230000,0.952000,0.156000,192.000000,0.000000,0.000000,0.000000,0.000000,0.000000,0.000000,0.000000,0.000000,0.000000,1647401756.273417,0.000000
58.000000,36675.278744,36570.449063,19810.596980,19744.033485,15664.013107,68413.794746,62045.447474,16964.325841,0.230000,0.952000,0.156000,192.000000,0.000000,0.000000,0.000000,0.000000,0.000000,0.000000,0.000000,0.000000,0.000000,1647401756.273433,0.000000
59.000000,36666.650971,36561.329551,19801.589227,19733.483462,15653.463084,68400.540161,62045.291012,16977.960405,0.230000,0.952000,0.156000,192.000000,0.000000,0.000000,0.000000,0.000000,0.000000,0.000000,0.000000,0.000000,0.000000,1647401756.281268,0.000000
60.000000,36673.021218,36570.180842,19810.149945,19743.541747,15661.934395,68409.547914,62043.100541,16972.081896,0.230000,0.952000,0.156000,192.000000,0.000000,0.000000,0.000000,0.000000,0.000000,0.000000,0.000000,0.000000,0.000000,1647401756.281279,0.000000
61.000000,36664.281686,36563.497670,19801.946855,19732.969371,15652.501959,68409.346749,62048.353201,16985.224722,0.230000,0.952000,0.156000,192.000000,0.000000,0.000000,0.000000,0.000000,0.000000,0.000000,0.000000,0.000000,0.000000,1647401756.288357,0.000000
62.000000,36658.067901,36554.288751,19798.147058,19726.509717,15647.562223,68404.675234,62045.670992,16998.546362,0.230000,0.952000,0.156000,192.000000,0.000000,0.000000,0.000000,0.000000,0.000000,0.000000,0.000000,0.000000,0.000000,1647401756.295642,0.000000
63.000000,36662.091215,36557.261533,19802.215076,19733.706979,15653.127808,68414.174725,62045.313364,17007.352949,0.230000,0.952000,0.156000,192.000000,0.000000,0.000000,0.000000,0.000000,0.000000,0.000000,0.000000,0.000000,0.000000,1647401756.295660,0.000000
64.000000,36668.193241,36564.570554,19804.964340,19739.518433,15657.106418,68420.209696,62054.499931,17023.110929,0.230000,0.952000,0.156000,192.000000,0.000000,0.000000,0.000000,0.000000,0.000000,0.000000,0.000000,0.000000,0.000000,1647401756.304407,0.000000
65.000000,36670.406064,36564.861127,19806.953646,19739.071398,15658.939261,68423.070720,62059.484370,17044.166272,0.234000,0.944000,0.154000,192.000000,7.000000,80.000000,29.000000,128.000000,4.000000,208.000000,0.000000,0.000000,0.000000,1647401756.304426,0.000000
66.000000,36680.196128,36576.036999,19820.699968,19750.314325,15672.059735,68430.625609,62047.302669,17029.056493,0.234000,0.944000,0.154000,192.000000,0.000000,0.000000,0.000000,0.000000,0.000000,0.000000,0.000000,0.000000,0.000000,1647401756.311182,0.000000
67.000000,36679.793797,36577.311048,19813.435651,19748.168558,15667.388221,68426.132909,62041.133587,17019.936981,0.234000,0.944000,0.154000,192.000000,0.000000,0.000000,0.000000,0.000000,0.000000,0.000000,0.000000,0.000000,0.000000,1647401756.311193,0.000000
68.000000,36673.714122,36574.897060,19805.009044,19741.910069,15660.369773,68415.024092,62038.585489,17025.949600,0.234000,0.944000,0.154000,192.000000,0.000000,0.000000,0.000000,0.000000,0.000000,0.000000,0.000000,0.000000,0.000000,1647401756.318847,0.000000
69.000000,36680.218480,36579.970906,19817.704835,19752.303630,15671.344479,68421.841374,62033.645753,17013.097347,0.234000,0.944000,0.154000,192.000000,0.000000,0.000000,0.000000,0.000000,0.000000,0.000000,0.000000,0.000000,0.000000,1647401756.318857,0.000000
70.000000,36671.791872,36567.275115,19815.357901,19747.050970,15668.326994,68422.556629,62036.149148,17009.319903,0.234000,0.944000,0.154000,192.000000,0.000000,0.000000,0.000000,0.000000,0.000000,0.000000,0.000000,0.000000,0.000000,1647401756.325567,0.000000
71.000000,36665.019293,36558.759100,19806.797183,19738.624363,15659.788628,68415.515830,62043.793445,17027.201298,0.234000,0.944000,0.154000,192.000000,0.000000,0.000000,0.000000,0.000000,0.000000,0.000000,0.000000,0.000000,0.000000,1647401756.325575,0.000000
72.000000,36659.833689,36550.444251,19798.124707,19727.157918,15648.009258,68405.032862,62042.295878,17039.025371,0.234000,0.944000,0.154000,192.000000,0.000000,0.000000,0.000000,0.000000,0.000000,0.000000,0.000000,0.000000,0.000000,1647401756.333978,0.000000
73.000000,36660.973628,36552.187687,19798.951721,19727.604953,15648.813921,68402.730632,62040.016000,17045.328563,0.234000,0.944000,0.154000,192.000000,0.000000,0.000000,0.000000,0.000000,0.000000,0.000000,0.000000,0.000000,0.000000,1647401756.333994,0.000000
74.000000,36671.680113,36561.374254,19809.457041,19736.232726,15658.358116,68414.532353,62035.053913,17037.125473,0.234000,0.944000,0.154000,192.000000,0.000000,0.000000,0.000000,0.000000,0.000000,0.000000,0.000000,0.000000,0.000000,1647401756.341817,0.000000
75.000000,36677.446863,36566.850432,19816.475489,19741.239517,15665.242453,68426.624647,62032.930497,17027.067188,0.234000,0.952000,0.150000,192.000000,7.000000,80.000000,29.000000,192.000000,4.000000,176.000000,0.000000,0.000000,0.000000,1647401756.341828,0.000000
76.000000,36673.647067,36561.284847,19811.155774,19736.858575,15661.017974,68425.551763,62035.568003,17035.918478,0.234000,0.952000,0.150000,192.000000,0.000000,0.000000,0.000000,0.000000,0.000000,0.000000,0.000000,0.000000,0.000000,1647401756.348833,0.000000
77.000000,36677.156291,36567.096301,19815.894343,19742.714732,15666.538854,68429.105691,62034.428064,17030.978743,0.234000,0.952000,0.150000,192.000000,0.000000,0.000000,0.000000,0.000000,0.000000,0.000000,0.000000,0.000000,0.000000,1647401756.355351,0.000000
78.000000,36674.988171,36566.224583,19810.440518,19741.977124,15665.018936,68425.350598,62041.647678,17047.027295,0.234000,0.952000,0.150000,192.000000,0.000000,0.000000,0.000000,0.000000,0.000000,0.000000,0.000000,0.000000,0.000000,1647401756.355367,0.000000
79.000000,36677.044532,36568.370350,19815.402605,19748.637944,15671.724459,68417.594542,62037.825529,17051.005906,0.234000,0.952000,0.150000,192.000000,0.000000,0.000000,0.000000,0.000000,0.000000,0.000000,0.000000,0.000000,0.000000,1647401756.363266,0.000000
80.000000,36671.054264,36561.776586,19808.630026,19742.424159,15666.382392,68403.021205,62038.719599,17067.389735,0.234000,0.952000,0.150000,192.000000,0.000000,0.000000,0.000000,0.000000,0.000000,0.000000,0.000000,0.000000,0.000000,1647401756.363277,0.000000
81.000000,36671.233078,36562.827118,19808.607675,19743.228822,15666.963538,68394.549894,62036.685590,17069.423743,0.234000,0.952000,0.150000,192.000000,0.000000,0.000000,0.000000,0.000000,0.000000,0.000000,0.000000,0.000000,0.000000,1647401756.371470,0.000000
82.000000,36669.355532,36562.335379,19805.970169,19742.424159,15664.594253,68394.304024,62040.753608,17074.452886,0.234000,0.952000,0.150000,192.000000,0.000000,0.000000,0.000000,0.000000,0.000000,0.000000,0.000000,0.000000,0.000000,1647401756.371486,0.000000
83.000000,36671.121320,36562.000103,19806.148983,19739.406674,15662.716706,68388.358460,62039.211337,17083.371232,0.234000,0.952000,0.150000,192.000000,0.000000,0.000000,0.000000,0.000000,0.000000,0.000000,0.000000,0.000000,0.000000,1647401756.378654,0.000000
84.000000,36677.335105,36566.001065,19809.054710,19742.401808,15665.220102,68393.097030,62033.668105,17080.241988,0.234000,0.952000,0.150000,192.000000,0.000000,0.000000,0.000000,0.000000,0.000000,0.000000,0.000000,0.000000,0.000000,1647401756.378665,0.000000
85.000000,36679.123244,36568.347999,19811.513401,19742.222994,15664.281328,68395.645129,62032.662276,17086.858104,0.232000,0.950000,0.154000,192.000000,7.000000,64.000000,29.000000,176.000000,4.000000,208.000000,0.000000,0.000000,0.000000,1647401756.385764,0.000000
86.000000,36688.019238,36576.215813,19821.236410,19746.872156,15670.562168,68403.222371,62029.510680,17074.475238,0.232000,0.950000,0.154000,192.000000,0.000000,0.000000,0.000000,0.000000,0.000000,0.000000,0.000000,0.000000,0.000000,1647401756.385785,0.000000
87.000000,36683.370076,36570.225545,19814.128556,19741.775959,15664.236625,68410.397281,62032.483462,17074.810514,0.232000,0.950000,0.154000,192.000000,0.000000,0.000000,0.000000,0.000000,0.000000,0.000000,0.000000,0.000000,0.000000,1647401756.394051,0.000000
88.000000,36680.307887,36569.823214,19810.731090,19739.965467,15661.219139,68414.130022,62033.131663,17077.492723,0.232000,0.950000,0.154000,192.000000,0.000000,0.000000,0.000000,0.000000,0.000000,0.000000,0.000000,0.000000,0.000000,1647401756.394068,0.000000
89.000000,36679.056189,36568.996199,19804.494954,19736.456244,15657.195825,68411.917199,62037.803178,17091.395508,0.232000,0.950000,0.154000,192.000000,0.000000,0.000000,0.000000,0.000000,0.000000,0.000000,0.000000,0.000000,0.000000,1647401756.401079,0.000000
90.000000,36674.719951,36566.246935,19799.823439,19736.679761,15656.793494,68412.006606,62043.011134,17102.750194,0.232000,0.950000,0.154000,192.000000,0.000000,0.000000,0.000000,0.000000,0.000000,0.000000,0.000000,0.000000,0.000000,1647401756.401090,0.000000
91.000000,36671.009561,36563.810595,19799.644625,19737.618534,15658.425171,68409.503211,62044.843977,17110.349788,0.232000,0.950000,0.154000,192.000000,0.000000,0.000000,0.000000,0.000000,0.000000,0.000000,0.000000,0.000000,0.000000,1647401756.407464,0.000000
92.000000,36672.730645,36566.157528,19801.075137,19737.372665,15661.017974,68406.441022,62044.754570,17118.307009,0.232000,0.950000,0.154000,192.000000,0.000000,0.000000,0.000000,0.000000,0.000000,0.000000,0.000000,0.000000,0.000000,1647401756.407476,0.000000
93.000000,36669.243773,36563.855298,19799.868143,19735.271601,15658.536930,68401.769507,62043.905204,17120.475128,0.232000,0.950000,0.154000,192.000000,0.000000,0.000000,0.000000,0.000000,0.000000,0.000000,0.000000,0.000000,0.000000,1647401756.415583,0.000000
94.000000,36674.518785,36566.626914,19806.461907,19741.932421,15663.230796,68406.306911,62040.373628,17112.741424,0.232000,0.950000,0.154000,192.000000,0.000000,0.000000,0.000000,0.000000,0.000000,0.000000,0.000000,0.000000,0.000000,1647401756.423525,0.000000
95.000000,36674.384674,36567.409225,19803.690291,19739.697247,15661.040325,68413.839449,62045.827454,17127.515927,0.232000,0.950000,0.150000,192.000000,7.000000,64.000000,29.000000,176.000000,4.000000,176.000000,0.000000,0.000000,0.000000,1647401756.423536,0.000000
96.000000,36665.242811,36559.429653,19795.688366,19733.148185,15655.474741,68402.618873,62047.637945,17150.962907,0.232000,0.950000,0.150000,192.000000,0.000000,0.000000,0.000000,0.000000,0.000000,0.000000,0.000000,0.000000,0.000000,1647401756.430607,0.000000
97.000000,36662.247677,36557.283885,19796.850657,19731.628267,15654.245395,68395.689833,62043.972259,17159.255404,0.232000,0.950000,0.150000,192.000000,0.000000,0.000000,0.000000,0.000000,0.000000,0.000000,0.000000,0.000000,0.000000,1647401756.430618,0.000000
98.000000,36664.214631,36555.965132,19800.538695,19731.717674,15654.603023,68400.473106,62045.223957,17164.172788,0.232000,0.950000,0.150000,192.000000,0.000000,0.000000,0.000000,0.000000,0.000000,0.000000,0.000000,0.000000,0.000000,1647401756.438099,0.000000
99.000000,36658.872564,36549.952513,19796.023643,19726.286200,15649.015087,68396.382737,62047.637945,17181.920073,0.232000,0.950000,0.150000,192.000000,0.000000,0.000000,0.000000,0.000000,0.000000,0.000000,0.000000,0.000000,0.000000,1647401756.438108,0.000000
100.000000,36661.420663,36555.383987,19800.203419,19731.136528,15653.753657,68395.041632,62044.218128,17182.210646,0.232000,0.950000,0.150000,192.000000,0.000000,0.000000,0.000000,0.000000,0.000000,0.000000,0.000000,0.000000,0.000000,1647401756.446201,0.000000
101.000000,36657.889087,36555.138118,19797.185933,19731.315342,15652.166683,68397.254455,62049.537843,17190.190219,0.232000,0.950000,0.150000,192.000000,0.000000,0.000000,0.000000,0.000000,0.000000,0.000000,0.000000,0.000000,0.000000,1647401756.446218,0.000000
102.000000,36664.058168,36560.949571,19802.259779,19737.886755,15657.106418,68397.321510,62052.488274,17198.169791,0.232000,0.950000,0.150000,192.000000,0.000000,0.000000,0.000000,0.000000,0.000000,0.000000,0.000000,0.000000,0.000000,1647401756.454352,0.000000
103.000000,36675.278744,36566.939839,19808.093585,19748.146206,15666.471799,68405.166972,62052.041239,17189.564370,0.232000,0.950000,0.150000,192.000000,0.000000,0.000000,0.000000,0.000000,0.000000,0.000000,0.000000,0.000000,0.000000,1647401756.454369,0.000000
104.000000,36673.937639,36563.721188,19797.990596,19743.988781,15659.162779,68407.692719,62055.572814,17201.969588,0.232000,0.950000,0.150000,192.000000,0.000000,0.000000,0.000000,0.000000,0.000000,0.000000,0.000000,0.000000,0.000000,1647401756.460838,0.000000
105.000000,36667.768558,36557.976789,19797.476506,19739.786653,15653.150159,68401.389527,62052.041239,17224.947181,0.234000,0.956000,0.140000,192.000000,7.000000,80.000000,29.000000,224.000000,4.000000,96.000000,0.000000,0.000000,0.000000,1647401756.460850,0.000000
106.000000,36671.188375,36562.402435,19803.220904,19744.771093,15657.307584,68402.574170,62042.228823,17218.956914,0.234000,0.956000,0.140000,192.000000,0.000000,0.000000,0.000000,0.000000,0.000000,0.000000,0.000000,0.000000,0.000000,1647401756.470332,0.000000
107.000000,36673.758826,36566.425749,19805.277265,19745.933383,15658.715744,68397.746193,62032.930497,17208.161021,0.234000,0.956000,0.140000,192.000000,0.000000,0.000000,0.000000,0.000000,0.000000,0.000000,0.000000,0.000000,0.000000,1647401756.470356,0.000000
108.000000,36682.431302,36574.628839,19808.160640,19746.425122,15658.961613,68404.049385,62034.651582,17193.118297,0.234000,0.956000,0.140000,192.000000,0.000000,0.000000,0.000000,0.000000,0.000000,0.000000,0.000000,0.000000,0.000000,1647401756.476231,0.000000
109.000000,36678.206823,36568.973848,19802.013910,19739.563136,15652.166683,68402.149487,62042.184119,17195.331120,0.234000,0.956000,0.140000,192.000000,0.000000,0.000000,0.000000,0.000000,0.000000,0.000000,0.000000,0.000000,0.000000,1647401756.484127,0.000000
110.000000,36671.925982,36561.977751,19796.694195,19731.695322,15645.952898,68392.717051,62045.045143,17197.745108,0.234000,0.956000,0.140000,192.000000,0.000000,0.000000,0.000000,0.000000,0.000000,0.000000,0.000000,0.000000,0.000000,1647401756.484143,0.000000
111.000000,36667.656799,36555.763967,19793.050861,19726.844993,15642.555433,68381.876455,62049.135512,17211.156155,0.234000,0.956000,0.140000,192.000000,0.000000,0.000000,0.000000,0.000000,0.000000,0.000000,0.000000,0.000000,0.000000,1647401756.490329,0.000000
112.000000,36672.752997,36562.849470,19800.404584,19734.802214,15650.333840,68381.429420,62042.921727,17205.076481,0.234000,0.956000,0.140000,192.000000,0.000000,0.000000,0.000000,0.000000,0.000000,0.000000,0.000000,0.000000,0.000000,1647401756.490339,0.000000
113.000000,36682.744227,36572.930106,19813.010968,19745.665162,15661.397953,68389.945434,62034.495119,17178.008518,0.234000,0.956000,0.140000,192.000000,0.000000,0.000000,0.000000,0.000000,0.000000,0.000000,0.000000,0.000000,0.000000,1647401756.498448,0.000000
114.000000,36673.781177,36561.687179,19799.376404,19731.628267,15647.741037,68383.999870,62043.234651,17193.699443,0.234000,0.956000,0.140000,192.000000,0.000000,0.000000,0.000000,0.000000,0.000000,0.000000,0.000000,0.000000,0.000000,1647401756.498459,0.000000
115.000000,36668.103834,36556.032187,19790.860390,19725.660351,15640.499072,68376.914367,62047.101503,17215.492393,0.234000,0.956000,0.140000,192.000000,0.000000,0.000000,0.000000,0.000000,0.000000,0.000000,0.000000,0.000000,0.000000,1647401756.506504,0.000000
116.000000,36681.291363,36570.069083,19800.717509,19738.512604,15650.691468,68382.882283,62036.819701,17203.802431,0.232000,0.954000,0.138000,192.000000,7.000000,64.000000,29.000000,208.000000,4.000000,80.000000,0.000000,0.000000,0.000000,1647401756.506519,0.000000
117.000000,36681.850157,36567.297467,19797.923541,19737.462072,15648.053962,68386.905597,62038.674896,17199.533248,0.232000,0.954000,0.138000,192.000000,0.000000,0.000000,0.000000,0.000000,0.000000,0.000000,0.000000,0.000000,0.000000,1647401756.513731,0.000000
118.000000,36670.227250,36556.367464,19790.882741,19729.616610,15641.750770,68380.870626,62040.306573,17212.497260,0.232000,0.954000,0.138000,192.000000,0.000000,0.000000,0.000000,0.000000,0.000000,0.000000,0.000000,0.000000,0.000000,1647401756.513747,0.000000
119.000000,36668.886145,36554.936952,19789.765154,19728.722540,15641.281383,68378.434286,62040.798311,17221.728530,0.232000,0.954000,0.138000,192.000000,0.000000,0.000000,0.000000,0.000000,0.000000,0.000000,0.000000,0.000000,0.000000,1647401756.521144,0.000000
120.000000,36670.383712,36556.702740,19790.234541,19729.124871,15641.482549,68373.628661,62038.116102,17231.362132,0.232000,0.954000,0.138000,192.000000,0.000000,0.000000,0.000000,0.000000,0.000000,0.000000,0.000000,0.000000,0.000000,1647401756.521158,0.000000
121.000000,36680.039666,36565.531679,19795.889532,19735.763339,15645.729380,68372.958109,62039.278393,17232.904402,0.232000,0.954000,0.138000,192.000000,0.000000,0.000000,0.000000,0.000000,0.000000,0.000000,0.000000,0.000000,0.000000,1647401756.529131,0.000000
122.000000,36680.866680,36567.520984,19795.844829,19737.998514,15647.048133,68379.753039,62045.358067,17229.730455,0.232000,0.954000,0.138000,192.000000,0.000000,0.000000,0.000000,0.000000,0.000000,0.000000,0.000000,0.000000,0.000000,1647401756.529143,0.000000
123.000000,36673.870584,36565.464624,19789.027547,19733.103482,15641.951936,68384.916292,62050.186044,17234.603135,0.232000,0.954000,0.138000,192.000000,0.000000,0.000000,0.000000,0.000000,0.000000,0.000000,0.000000,0.000000,0.000000,1647401756.536169,0.000000
124.000000,36675.166985,36565.978714,19789.832209,19730.734197,15642.063694,68388.894902,62051.325983,17246.337801,0.232000,0.954000,0.138000,192.000000,0.000000,0.000000,0.000000,0.000000,0.000000,0.000000,0.000000,0.000000,0.000000,1647401756.542772,0.000000
125.000000,36675.792834,36563.475318,19788.424049,19726.979104,15641.683715,68388.358460,62055.058724,17265.046211,0.232000,0.954000,0.138000,192.000000,0.000000,0.000000,0.000000,0.000000,0.000000,0.000000,0.000000,0.000000,0.000000,1647401756.542784,0.000000
126.000000,36673.714122,36555.674560,19784.870122,19721.569982,15637.012200,68383.664594,62049.873120,17275.283310,0.230000,0.952000,0.142000,192.000000,7.000000,48.000000,29.000000,192.000000,4.000000,112.000000,0.000000,0.000000,0.000000,1647401756.550677,0.000000
127.000000,36673.200032,36552.388853,19788.200532,19720.273581,15637.302773,68384.804533,62046.945041,17277.205560,0.230000,0.952000,0.142000,192.000000,0.000000,0.000000,0.000000,0.000000,0.000000,0.000000,0.000000,0.000000,0.000000,1647401756.550689,0.000000
128.000000,36676.061055,36552.657074,19795.286035,19726.800290,15643.047171,68388.939606,62047.459131,17280.111287,0.230000,0.952000,0.142000,192.000000,0.000000,0.000000,0.000000,0.000000,0.000000,0.000000,0.000000,0.000000,0.000000,1647401756.559021,0.000000
129.000000,36678.855023,36556.613333,19800.851619,19732.075302,15649.328011,68391.934740,62040.954774,17278.211388,0.230000,0.952000,0.142000,192.000000,0.000000,0.000000,0.000000,0.000000,0.000000,0.000000,0.000000,0.000000,0.000000,1647401756.559056,0.000000
130.000000,36678.296230,36556.367464,19801.544523,19732.589392,15651.496130,68388.693737,62041.357105,17288.157915,0.230000,0.952000,0.142000,192.000000,0.000000,0.000000,0.000000,0.000000,0.000000,0.000000,0.000000,0.000000,0.000000,1647401756.565963,0.000000
131.000000,36684.107683,36562.715359,19808.428861,19740.926592,15660.168607,68390.258359,62037.490253,17284.291063,0.230000,0.952000,0.142000,192.000000,0.000000,0.000000,0.000000,0.000000,0.000000,0.000000,0.000000,0.000000,0.000000,1647401756.565975,0.000000
132.000000,36684.420608,36564.235278,19808.630026,19744.502872,15662.739058,68403.021205,62033.958678,17268.309566,0.230000,0.952000,0.142000,192.000000,0.000000,0.000000,0.000000,0.000000,0.000000,0.000000,0.000000,0.000000,0.000000,1647401756.573315,0.000000
133.000000,36681.693695,36561.351903,19806.394852,19740.591316,15658.738096,68408.810307,62044.911032,17282.637034,0.230000,0.952000,0.142000,192.000000,0.000000,0.000000,0.000000,0.000000,0.000000,0.000000,0.000000,0.000000,0.000000,1647401756.573327,0.000000
134.000000,36684.510015,36565.866955,19808.652378,19741.306572,15657.866378,68405.479897,62045.156901,17294.237589,0.230000,0.952000,0.142000,192.000000,0.000000,0.000000,0.000000,0.000000,0.000000,0.000000,0.000000,0.000000,0.000000,1647401756.581354,0.000000
135.000000,36676.150462,36562.737711,19797.901189,19734.109310,15648.970383,68396.650958,62042.452340,17303.781784,0.230000,0.952000,0.142000,192.000000,0.000000,0.000000,0.000000,0.000000,0.000000,0.000000,0.000000,0.000000,0.000000,1647401756.581370,0.000000
136.000000,36675.144634,36565.017589,19800.985730,19737.506776,15651.719648,68394.371080,62043.614631,17309.101499,0.236000,0.954000,0.144000,192.000000,7.000000,96.000000,29.000000,208.000000,4.000000,128.000000,0.000000,0.000000,0.000000,1647401756.589364,0.000000
137.000000,36678.564451,36565.799900,19805.411375,19740.144281,15655.117113,68395.578074,62038.607840,17296.204543,0.236000,0.954000,0.144000,192.000000,0.000000,0.000000,0.000000,0.000000,0.000000,0.000000,0.000000,0.000000,0.000000,1647401756.589374,0.000000
138.000000,36681.134901,36567.856260,19805.970169,19742.155938,15655.877072,68403.691757,62039.993649,17297.590351,0.236000,0.954000,0.144000,192.000000,0.000000,0.000000,0.000000,0.000000,0.000000,0.000000,0.000000,0.000000,0.000000,1647401756.595353,0.000000
139.000000,36685.292326,36569.107958,19804.897285,19742.826491,15655.810017,68406.597484,62041.692381,17300.272560,0.236000,0.954000,0.144000,192.000000,0.000000,0.000000,0.000000,0.000000,0.000000,0.000000,0.000000,0.000000,0.000000,1647401756.602818,0.000000
140.000000,36678.385637,36561.307199,19800.225771,19735.271601,15649.506825,68396.874475,62043.659335,17314.823546,0.236000,0.954000,0.144000,192.000000,0.000000,0.000000,0.000000,0.000000,0.000000,0.000000,0.000000,0.000000,0.000000,1647401756.602827,0.000000
141.000000,36675.748131,36560.882516,19800.046957,19736.970334,15651.607889,68394.080507,62041.424160,17309.325017,0.236000,0.954000,0.144000,192.000000,0.000000,0.000000,0.000000,0.000000,0.000000,0.000000,0.000000,0.000000,0.000000,1647401756.611011,0.000000
142.000000,36681.514881,36566.850432,19807.087756,19743.653505,15659.051020,68395.019280,62043.391114,17310.554363,0.236000,0.954000,0.144000,192.000000,0.000000,0.000000,0.000000,0.000000,0.000000,0.000000,0.000000,0.000000,0.000000,1647401756.611022,0.000000
143.000000,36688.913308,36571.834871,19814.508535,19749.353200,15666.248282,68397.008586,62042.944079,17307.916857,0.236000,0.954000,0.144000,192.000000,0.000000,0.000000,0.000000,0.000000,0.000000,0.000000,0.000000,0.000000,0.000000,1647401756.619223,0.000000
144.000000,36685.046456,36563.989408,19808.630026,19739.585488,15659.140427,68390.392469,62047.459131,17321.953752,0.236000,0.954000,0.144000,192.000000,0.000000,0.000000,0.000000,0.000000,0.000000,0.000000,0.000000,0.000000,0.000000,1647401756.619234,0.000000
145.000000,36680.062017,36558.893211,19801.052785,19732.857613,15652.501959,68387.486742,62048.509663,17333.710770,0.236000,0.954000,0.144000,192.000000,0.000000,0.000000,0.000000,0.000000,0.000000,0.000000,0.000000,0.000000,0.000000,1647401756.626072,0.000000
146.000000,36675.703427,36556.747443,19796.090698,19729.996589,15648.076314,68382.926987,62044.575756,17340.572755,0.236000,0.960000,0.146000,192.000000,7.000000,96.000000,30.000000,0.000000,4.000000,144.000000,0.000000,0.000000,0.000000,1647401756.626088,0.000000
147.000000,36676.508090,36559.250839,19796.403622,19729.974238,15647.517520,68382.882283,62044.218128,17343.813758,0.236000,0.960000,0.146000,192.000000,0.000000,0.000000,0.000000,0.000000,0.000000,0.000000,0.000000,0.000000,0.000000,1647401756.633824,0.000000
148.000000,36679.279706,36563.631781,19802.662111,19734.221069,15650.311488,68385.050402,62048.286146,17336.638848,0.236000,0.960000,0.146000,192.000000,0.000000,0.000000,0.000000,0.000000,0.000000,0.000000,0.000000,0.000000,0.000000,1647401756.633840,0.000000
149.000000,36682.431302,36565.419920,19806.908942,19734.824566,15652.613718,68390.034841,62045.067495,17317.863383,0.236000,0.960000,0.146000,192.000000,0.000000,0.000000,0.000000,0.000000,0.000000,0.000000,0.000000,0.000000,0.000000,1647401756.641863,0.000000
150.000000,36672.194203,36554.959304,19793.900227,19722.642865,15641.951936,68380.177722,62049.984878,17333.643715,0.236000,0.960000,0.146000,192.000000,0.000000,0.000000,0.000000,0.000000,0.000000,0.000000,0.000000,0.000000,0.000000,1647401756.641887,0.000000
151.000000,36682.699523,36563.788243,19803.824401,19732.052950,15651.652593,68377.182588,62045.514529,17327.586392,0.236000,0.960000,0.146000,192.000000,0.000000,0.000000,0.000000,0.000000,0.000000,0.000000,0.000000,0.000000,0.000000,1647401756.648742,0.000000
152.000000,36692.243718,36571.320781,19815.737881,19744.882851,15664.415439,68387.352632,62038.227861,17301.390147,0.236000,0.960000,0.146000,192.000000,0.000000,0.000000,0.000000,0.000000,0.000000,0.000000,0.000000,0.000000,0.000000,1647401756.648753,0.000000
153.000000,36687.259279,36569.376179,19810.999311,19739.898412,15660.839160,68386.257396,62042.206471,17308.989740,0.236000,0.960000,0.146000,192.000000,0.000000,0.000000,0.000000,0.000000,0.000000,0.000000,0.000000,0.000000,0.000000,1647401756.655339,0.000000
154.000000,36683.146558,36565.039940,19805.858410,19735.673933,15656.033535,68380.937681,62043.391114,17325.485328,0.236000,0.960000,0.146000,192.000000,0.000000,0.000000,0.000000,0.000000,0.000000,0.000000,0.000000,0.000000,0.000000,1647401756.655356,0.000000
155.000000,36683.012448,36562.424786,19806.014872,19739.563136,15658.268709,68383.463428,62047.459131,17342.629116,0.236000,0.960000,0.146000,192.000000,0.000000,0.000000,0.000000,0.000000,0.000000,0.000000,0.000000,0.000000,0.000000,1647401756.663146,0.000000
156.000000,36683.303020,36562.625952,19805.120803,19741.932421,15657.888729,68389.453696,62051.929480,17351.636869,0.234000,0.952000,0.148000,192.000000,7.000000,80.000000,29.000000,192.000000,4.000000,160.000000,0.000000,0.000000,0.000000,1647401756.671477,0.000000
157.000000,36681.760750,36564.101167,19804.070271,19741.150110,15655.921776,68393.611120,62052.622384,17352.463883,0.234000,0.952000,0.148000,192.000000,0.000000,0.000000,0.000000,0.000000,0.000000,0.000000,0.000000,0.000000,0.000000,1647401756.671488,0.000000
158.000000,36673.937639,36559.809632,19796.381270,19732.410578,15647.875148,68385.117458,62053.002364,17364.734991,0.234000,0.952000,0.148000,192.000000,0.000000,0.000000,0.000000,0.000000,0.000000,0.000000,0.000000,0.000000,0.000000,1647401756.678119,0.000000
159.000000,36680.844329,36563.788243,19802.393890,19734.824566,15650.982040,68384.558664,62046.341544,17369.898244,0.234000,0.952000,0.148000,192.000000,0.000000,0.000000,0.000000,0.000000,0.000000,0.000000,0.000000,0.000000,0.000000,1647401756.678131,0.000000
160.000000,36679.816148,36561.620124,19798.124707,19730.398921,15646.981078,68379.238949,62047.056800,17386.192666,0.234000,0.952000,0.148000,192.000000,0.000000,0.000000,0.000000,0.000000,0.000000,0.000000,0.000000,0.000000,0.000000,1647401756.685928,0.000000
161.000000,36681.581936,36563.408263,19798.392927,19730.242459,15646.981078,68372.131094,62044.307535,17386.416183,0.234000,0.952000,0.148000,192.000000,0.000000,0.000000,0.000000,0.000000,0.000000,0.000000,0.000000,0.000000,0.000000,1647401756.685939,0.000000
162.000000,36689.740323,36573.623010,19805.411375,19737.551479,15655.295927,68380.356536,62039.032524,17371.909901,0.234000,0.952000,0.148000,192.000000,0.000000,0.000000,0.000000,0.000000,0.000000,0.000000,0.000000,0.000000,0.000000,1647401756.694083,0.000000
163.000000,36681.961916,36559.876688,19799.242294,19728.856650,15648.053962,68377.048478,62041.580622,17380.872951,0.234000,0.952000,0.148000,192.000000,0.000000,0.000000,0.000000,0.000000,0.000000,0.000000,0.000000,0.000000,0.000000,1647401756.694098,0.000000
