%OpenBCI Raw EEG Data
%Number of channels = 8
%Sample Rate = 256 Hz
%Board = OpenBCI_GUI$BoardCytonSerial
%Channels = Fp1, Fp2, F3, F4, Fz, Pz, O1, O2
%Data recorded at AIMS Lab (http://aimsl.uiu.ac.bd) by Rana Depto (mail@ranadepto.com)
%Brainwaves were obtained via the Ultracortex Mark IV Headset using the OpenBCI Cyton Board
%Recording Application = ConcentrateToday (https://concentrate.today)
%Data type = RAW data with noise
%Day No = 2
%Subject ID = 8
%Session ID = 7
%Record starting timestamp (UTC+6) = 2022-03-16T12:21:37.470316
%Record ending timestamp (UTC+6)   = 2022-03-16T12:22:03.327996
%Recorded durations = ~25 seconds
Sample Index, EXG Channel 0, EXG Channel 1, EXG Channel 2, EXG Channel 3, EXG Channel 4, EXG Channel 5, EXG Channel 6, EXG Channel 7, Accel Channel 0, Accel Channel 1, Accel Channel 2, Other, Other, Other, Other, Other, Other, Other, Analog Channel 0, Analog Channel 1, Analog Channel 2, Timestamp, Timestamp (Formatted)
219.000000,43125.880435,30256.684751,11644.342440,27525.234523,23238.996951,41412.261595,32958.496566,35135.779993,0.002000,0.938000,0.278000,192.000000,0.000000,0.000000,0.000000,0.000000,0.000000,0.000000,0.000000,0.000000,0.000000,1647411697.473146,0.000000
220.000000,43119.934871,30253.488452,11629.500881,27517.456116,23230.860916,41397.710609,32943.766766,35120.938435,0.002000,0.938000,0.278000,192.000000,0.000000,0.000000,0.000000,0.000000,0.000000,0.000000,0.000000,0.000000,0.000000,1647411697.473157,0.000000
221.000000,43122.393563,30251.745016,11623.085931,27508.738936,23225.787070,41393.150853,32934.982530,35104.867530,0.002000,0.938000,0.278000,192.000000,0.000000,0.000000,0.000000,0.000000,0.000000,0.000000,0.000000,0.000000,0.000000,1647411697.479601,0.000000
222.000000,43116.246833,30244.435995,11628.003314,27511.063517,23228.379873,41401.197481,32943.029158,35106.968594,0.002000,0.938000,0.278000,192.000000,0.000000,0.000000,0.000000,0.000000,0.000000,0.000000,0.000000,0.000000,0.000000,1647411697.479607,0.000000
223.000000,43113.922252,30236.769347,11633.658306,27508.582474,23232.224373,41403.432656,32948.862964,35108.242644,0.002000,0.938000,0.278000,192.000000,0.000000,0.000000,29.000000,80.000000,8.000000,240.000000,0.000000,0.000000,0.000000,1647411697.487490,0.000000
224.000000,43118.124380,30240.703254,11636.653440,27509.364785,23228.737501,41407.143045,32955.389673,35107.102705,0.002000,0.938000,0.278000,192.000000,0.000000,0.000000,0.000000,0.000000,0.000000,0.000000,0.000000,0.000000,0.000000,1647411697.487494,0.000000
225.000000,43110.860063,30232.164887,11630.841986,27503.508628,23224.311855,41400.728095,32953.355664,35104.599310,0.002000,0.938000,0.278000,192.000000,0.000000,0.000000,0.000000,0.000000,0.000000,0.000000,0.000000,0.000000,0.000000,1647411697.495631,0.000000
226.000000,43102.433455,30224.140611,11622.951820,27493.048011,23218.299236,41392.815577,32949.108833,35098.653745,0.002000,0.938000,0.278000,192.000000,0.000000,0.000000,0.000000,0.000000,0.000000,0.000000,0.000000,0.000000,0.000000,1647411697.495636,0.000000
227.000000,43104.065133,30226.040509,11623.376503,27493.159770,23217.271056,41398.090589,32955.322618,35104.398144,0.002000,0.938000,0.278000,192.000000,0.000000,0.000000,0.000000,0.000000,0.000000,0.000000,0.000000,0.000000,0.000000,1647411697.502108,0.000000
228.000000,43100.064170,30220.430222,11623.197689,27488.242386,23215.281751,41400.102246,32956.931944,35108.130885,0.002000,0.938000,0.278000,192.000000,0.000000,0.000000,0.000000,0.000000,0.000000,0.000000,0.000000,0.000000,0.000000,1647411697.502112,0.000000
229.000000,43100.488854,30224.341777,11626.617506,27494.836151,23218.522754,41396.168339,32957.557792,35114.054097,0.002000,0.938000,0.278000,192.000000,0.000000,0.000000,0.000000,0.000000,0.000000,0.000000,0.000000,0.000000,0.000000,1647411697.510199,0.000000
230.000000,43108.066095,30230.153230,11628.718570,27506.682576,23220.534411,41395.073103,32955.210859,35112.824751,0.002000,0.938000,0.278000,192.000000,0.000000,0.000000,0.000000,0.000000,0.000000,0.000000,0.000000,0.000000,0.000000,1647411697.510204,0.000000
231.000000,43112.245871,30230.264989,11630.864338,27505.900264,23229.564515,41387.518214,32947.723025,35107.169760,0.002000,0.938000,0.278000,192.000000,0.000000,0.000000,0.000000,0.000000,0.000000,0.000000,0.000000,0.000000,0.000000,1647411697.517287,0.000000
232.000000,43112.648202,30234.355358,11636.385219,27508.716584,23233.252553,41388.926374,32943.543249,35104.465199,0.002000,0.938000,0.278000,192.000000,0.000000,0.000000,0.000000,0.000000,0.000000,0.000000,0.000000,0.000000,0.000000,1647411697.517291,0.000000
233.000000,43114.972784,30243.385463,11643.046039,27514.192762,23237.991123,41393.553185,32948.460632,35116.512789,-0.002000,0.942000,0.286000,192.000000,255.000000,240.000000,29.000000,112.000000,8.000000,240.000000,0.000000,0.000000,0.000000,1647411697.525246,0.000000
234.000000,43106.590880,30237.328140,11639.447408,27512.270512,23236.739425,41386.221813,32944.347911,35116.512789,-0.002000,0.942000,0.286000,192.000000,0.000000,0.000000,0.000000,0.000000,0.000000,0.000000,0.000000,0.000000,0.000000,1647411697.531873,0.000000
235.000000,43117.140903,30245.777100,11644.565957,27518.976035,23234.884230,41396.369504,32947.544211,35112.824751,-0.002000,0.942000,0.286000,192.000000,0.000000,0.000000,0.000000,0.000000,0.000000,0.000000,0.000000,0.000000,0.000000,1647411697.531883,0.000000
236.000000,43118.660822,30248.392254,11647.561091,27524.295750,23242.617934,41402.337420,32950.360531,35117.563321,-0.002000,0.942000,0.286000,192.000000,0.000000,0.000000,0.000000,0.000000,0.000000,0.000000,0.000000,0.000000,0.000000,1647411697.539769,0.000000
237.000000,43123.734668,30253.555507,11648.119885,27526.888553,23242.930858,41406.338383,32956.909592,35124.291196,-0.002000,0.942000,0.286000,192.000000,0.000000,0.000000,0.000000,0.000000,0.000000,0.000000,0.000000,0.000000,0.000000,1647411697.539773,0.000000
238.000000,43114.078714,30241.642027,11634.351210,27514.058651,23239.086358,41394.626068,32955.814356,35117.719784,-0.002000,0.942000,0.286000,192.000000,0.000000,0.000000,0.000000,0.000000,0.000000,0.000000,0.000000,0.000000,0.000000,1647411697.547901,0.000000
239.000000,43109.563662,30239.697425,11632.384256,27507.598997,23234.057216,41389.060484,32955.769653,35115.797533,-0.002000,0.942000,0.286000,192.000000,0.000000,0.000000,0.000000,0.000000,0.000000,0.000000,0.000000,0.000000,0.000000,1647411697.547905,0.000000
240.000000,43105.115665,30239.898591,11630.573765,27509.476544,23229.229239,41392.972039,32960.932906,35121.251359,-0.002000,0.942000,0.286000,192.000000,0.000000,0.000000,0.000000,0.000000,0.000000,0.000000,0.000000,0.000000,0.000000,1647411697.554991,0.000000
241.000000,43117.006793,30249.085158,11643.940108,27518.529000,23238.460510,41400.102246,32967.906650,35129.208580,-0.002000,0.942000,0.286000,192.000000,0.000000,0.000000,0.000000,0.000000,0.000000,0.000000,0.000000,0.000000,0.000000,1647411697.554995,0.000000
242.000000,43126.014546,30255.477757,11645.795303,27522.507611,23241.701513,41403.365601,32969.583031,35130.527333,-0.002000,0.942000,0.286000,192.000000,0.000000,0.000000,0.000000,0.000000,0.000000,0.000000,0.000000,0.000000,0.000000,1647411697.562585,0.000000
243.000000,43118.236139,30250.269800,11641.235547,27517.143192,23241.254478,41399.543452,32964.889165,35132.449583,-0.002000,0.942000,0.286000,192.000000,0.000000,0.000000,0.000000,0.000000,0.000000,0.000000,0.000000,0.000000,0.000000,1647411697.562589,0.000000
244.000000,43115.576281,30258.517594,11641.950803,27517.098488,23240.740388,41396.905946,32963.212784,35130.482630,-0.002000,0.942000,0.286000,192.000000,0.000000,0.000000,29.000000,64.000000,8.000000,192.000000,0.000000,0.000000,0.000000,1647411697.570391,0.000000
245.000000,43105.719162,30252.683789,11632.652477,27507.755459,23231.933800,41385.886536,32951.388711,35114.925815,-0.002000,0.942000,0.286000,192.000000,0.000000,0.000000,0.000000,0.000000,0.000000,0.000000,0.000000,0.000000,0.000000,1647411697.570395,0.000000
246.000000,43111.105932,30247.051149,11633.770065,27506.459058,23230.302123,41384.366618,32946.985417,35111.304833,-0.002000,0.942000,0.286000,192.000000,0.000000,0.000000,0.000000,0.000000,0.000000,0.000000,0.000000,0.000000,0.000000,1647411697.578373,0.000000
247.000000,43111.307098,30240.680902,11637.100474,27507.375480,23229.631571,41382.332609,32944.906705,35113.674118,-0.002000,0.942000,0.286000,192.000000,0.000000,0.000000,0.000000,0.000000,0.000000,0.000000,0.000000,0.000000,0.000000,1647411697.578376,0.000000
248.000000,43111.396505,30238.177507,11635.491149,27505.229712,23225.764719,41379.717455,32940.481060,35109.740211,-0.002000,0.942000,0.286000,192.000000,0.000000,0.000000,0.000000,0.000000,0.000000,0.000000,0.000000,0.000000,0.000000,1647411697.584671,0.000000
249.000000,43124.651089,30250.001580,11644.498902,27516.718509,23230.123309,41384.880708,32947.723025,35111.662461,-0.002000,0.942000,0.286000,192.000000,0.000000,0.000000,0.000000,0.000000,0.000000,0.000000,0.000000,0.000000,0.000000,1647411697.592240,0.000000
250.000000,43126.036897,30257.735283,11649.840969,27518.596055,23233.945457,41389.976906,32952.685112,35113.674118,-0.002000,0.942000,0.286000,192.000000,0.000000,0.000000,0.000000,0.000000,0.000000,0.000000,0.000000,0.000000,0.000000,1647411697.592243,0.000000
251.000000,43133.569435,30264.530213,11659.966309,27524.787489,23245.724827,41400.884557,32962.922211,35125.609949,-0.002000,0.942000,0.286000,192.000000,0.000000,0.000000,0.000000,0.000000,0.000000,0.000000,0.000000,0.000000,0.000000,1647411697.600076,0.000000
252.000000,43129.032031,30253.779024,11650.556225,27520.563009,23241.142719,41398.492920,32960.642333,35131.443755,-0.002000,0.942000,0.286000,192.000000,0.000000,0.000000,0.000000,0.000000,0.000000,0.000000,0.000000,0.000000,0.000000,1647411697.600080,0.000000
253.000000,43117.654993,30243.184297,11638.374524,27509.208323,23234.660713,41389.798092,32953.690941,35123.821810,-0.002000,0.942000,0.286000,192.000000,0.000000,0.000000,0.000000,0.000000,0.000000,0.000000,0.000000,0.000000,0.000000,1647411697.607302,0.000000
254.000000,43111.351801,30237.685768,11631.691352,27504.067421,23229.698626,41383.740769,32947.857135,35118.546798,-0.006000,0.938000,0.282000,192.000000,255.000000,208.000000,29.000000,80.000000,8.000000,208.000000,0.000000,0.000000,0.000000,1647411697.607306,0.000000
255.000000,43113.698734,30243.005484,11634.708838,27509.476544,23228.335169,41389.216946,32954.093272,35120.714917,-0.006000,0.938000,0.282000,192.000000,0.000000,0.000000,0.000000,0.000000,0.000000,0.000000,0.000000,0.000000,0.000000,1647411697.614857,0.000000
0.000000,43108.200205,30240.144460,11634.664134,27509.610654,23231.106786,41388.099359,32951.276952,35119.262054,-0.006000,0.938000,0.282000,192.000000,0.000000,0.000000,0.000000,0.000000,0.000000,0.000000,0.000000,0.000000,0.000000,1647411697.614861,0.000000
1.000000,43107.373191,30237.551658,11630.372599,27504.626215,23229.028073,41384.008990,32952.305132,35118.189170,-0.006000,0.938000,0.282000,192.000000,0.000000,0.000000,0.000000,0.000000,0.000000,0.000000,0.000000,0.000000,0.000000,1647411697.622721,0.000000
2.000000,43112.268223,30244.324236,11629.746751,27502.860427,23224.825945,41389.082836,32962.274010,35125.744060,-0.006000,0.938000,0.282000,192.000000,0.000000,0.000000,0.000000,0.000000,0.000000,0.000000,0.000000,0.000000,0.000000,1647411697.622724,0.000000
3.000000,43109.228386,30244.748920,11631.400780,27505.117953,23227.597562,41388.211118,32964.419778,35128.269807,-0.006000,0.938000,0.282000,192.000000,0.000000,0.000000,0.000000,0.000000,0.000000,0.000000,0.000000,0.000000,0.000000,1647411697.630668,0.000000
4.000000,43110.345973,30241.440861,11627.735094,27508.694233,23229.676274,41386.467682,32958.205993,35122.815981,-0.006000,0.938000,0.282000,192.000000,0.000000,0.000000,0.000000,0.000000,0.000000,0.000000,0.000000,0.000000,0.000000,1647411697.630672,0.000000
5.000000,43110.100104,30238.803356,11630.864338,27501.608730,23237.119405,41383.606658,32954.026217,35120.044365,-0.006000,0.938000,0.282000,192.000000,0.000000,0.000000,0.000000,0.000000,0.000000,0.000000,0.000000,0.000000,0.000000,1647411697.637292,0.000000
6.000000,43112.961127,30249.711007,11635.893480,27507.800163,23234.750120,41391.697990,32957.736606,35120.223179,-0.006000,0.938000,0.282000,192.000000,0.000000,0.000000,0.000000,0.000000,0.000000,0.000000,0.000000,0.000000,0.000000,1647411697.637295,0.000000
7.000000,43116.000964,30251.432091,11636.564033,27508.984805,23234.437196,41389.574574,32956.037874,35117.853894,-0.006000,0.938000,0.282000,192.000000,0.000000,0.000000,0.000000,0.000000,0.000000,0.000000,0.000000,0.000000,0.000000,1647411697.644295,0.000000
8.000000,43122.952357,30250.381559,11638.799207,27510.325910,23232.492594,41392.301487,32960.776444,35118.367984,-0.014000,0.938000,0.282000,192.000000,255.000000,144.000000,29.000000,80.000000,8.000000,208.000000,0.000000,0.000000,0.000000,1647411697.652520,0.000000
9.000000,43125.992194,30252.706141,11641.168492,27512.203456,23234.325437,41397.665906,32967.124339,35125.073507,-0.014000,0.938000,0.282000,192.000000,0.000000,0.000000,0.000000,0.000000,0.000000,0.000000,0.000000,0.000000,0.000000,1647411697.652524,0.000000
10.000000,43128.115610,30252.214402,11636.988716,27509.565951,23235.063044,41393.329667,32959.524746,35117.898597,-0.014000,0.938000,0.282000,192.000000,0.000000,0.000000,0.000000,0.000000,0.000000,0.000000,0.000000,0.000000,0.000000,1647411697.660424,0.000000
11.000000,43134.619967,30257.645876,11640.810864,27510.705890,23238.058178,41393.083798,32957.334275,35117.339804,-0.014000,0.938000,0.282000,192.000000,0.000000,0.000000,0.000000,0.000000,0.000000,0.000000,0.000000,0.000000,0.000000,1647411697.660427,0.000000
12.000000,43129.434363,30250.873298,11633.188919,27503.508628,23230.458585,41388.211118,32953.154499,35119.597330,-0.014000,0.938000,0.282000,192.000000,0.000000,0.000000,0.000000,0.000000,0.000000,0.000000,0.000000,0.000000,0.000000,1647411697.666970,0.000000
13.000000,43130.171970,30254.516632,11635.647611,27502.122820,23224.065986,41388.054656,32951.969856,35122.771278,-0.014000,0.938000,0.282000,192.000000,0.000000,0.000000,0.000000,0.000000,0.000000,0.000000,0.000000,0.000000,0.000000,1647411697.666973,0.000000
14.000000,43130.350784,30257.064731,11633.323030,27503.106296,23224.267152,41388.769911,32954.540307,35121.877208,-0.014000,0.938000,0.282000,192.000000,0.000000,0.000000,0.000000,0.000000,0.000000,0.000000,0.000000,0.000000,0.000000,1647411697.675002,0.000000
15.000000,43138.106839,30262.563260,11639.536815,27510.728241,23234.303085,41391.921507,32957.714255,35121.184304,-0.014000,0.938000,0.282000,192.000000,0.000000,0.000000,0.000000,0.000000,0.000000,0.000000,0.000000,0.000000,0.000000,1647411697.675006,0.000000
16.000000,43129.680232,30254.717798,11633.188919,27506.347299,23234.951286,41389.395760,32958.518917,35126.861647,-0.014000,0.938000,0.282000,192.000000,0.000000,0.000000,0.000000,0.000000,0.000000,0.000000,0.000000,0.000000,0.000000,1647411697.683019,0.000000
17.000000,43128.786162,30249.643952,11628.226832,27499.909997,23228.737501,41383.539603,32951.992208,35118.479743,-0.014000,0.938000,0.282000,192.000000,0.000000,0.000000,0.000000,0.000000,0.000000,0.000000,0.000000,0.000000,0.000000,1647411697.683022,0.000000
18.000000,43133.435325,30253.376693,11634.395913,27501.385212,23228.513983,41386.020647,32953.020388,35113.383545,-0.008000,0.934000,0.288000,192.000000,255.000000,192.000000,29.000000,48.000000,9.000000,0.000000,0.000000,0.000000,0.000000,1647411697.690113,0.000000
19.000000,43130.909578,30254.561335,11637.011068,27503.799201,23230.033902,41386.467682,32949.220592,35108.667327,-0.008000,0.934000,0.288000,192.000000,0.000000,0.000000,0.000000,0.000000,0.000000,0.000000,0.000000,0.000000,0.000000,1647411697.690116,0.000000
20.000000,43139.403241,30261.222155,11639.916794,27504.894436,23232.425539,41388.367580,32950.896973,35113.092972,-0.008000,0.934000,0.288000,192.000000,0.000000,0.000000,0.000000,0.000000,0.000000,0.000000,0.000000,0.000000,0.000000,1647411697.697542,0.000000
21.000000,43137.145714,30256.304771,11634.172396,27503.463924,23231.710283,41383.785472,32948.572391,35110.656632,-0.008000,0.934000,0.288000,192.000000,0.000000,0.000000,0.000000,0.000000,0.000000,0.000000,0.000000,0.000000,0.000000,1647411697.697572,0.000000
22.000000,43126.819208,30243.318408,11630.618469,27493.405639,23229.452757,41373.928353,32941.978626,35104.800475,-0.008000,0.934000,0.288000,192.000000,0.000000,0.000000,0.000000,0.000000,0.000000,0.000000,0.000000,0.000000,0.000000,1647411697.704697,0.000000
23.000000,43135.938720,30250.627428,11632.719533,27494.120895,23222.814288,41375.716493,32940.525763,35101.470065,-0.008000,0.934000,0.288000,192.000000,0.000000,0.000000,0.000000,0.000000,0.000000,0.000000,0.000000,0.000000,0.000000,1647411697.712697,0.000000
24.000000,43130.373136,30247.006446,11624.516442,27491.505741,23218.500402,41367.960437,32929.953388,35090.383600,-0.008000,0.934000,0.288000,192.000000,0.000000,0.000000,0.000000,0.000000,0.000000,0.000000,0.000000,0.000000,0.000000,1647411697.712700,0.000000
25.000000,43132.675366,30253.868431,11624.203518,27495.596110,23219.394472,41368.452176,32925.036004,35085.220347,-0.008000,0.934000,0.288000,192.000000,0.000000,0.000000,0.000000,0.000000,0.000000,0.000000,0.000000,0.000000,0.000000,1647411697.719680,0.000000
26.000000,43127.042726,30245.017141,11612.401797,27488.354145,23216.824021,41356.337530,32916.028251,35081.822882,-0.008000,0.934000,0.288000,192.000000,0.000000,0.000000,0.000000,0.000000,0.000000,0.000000,0.000000,0.000000,0.000000,1647411697.719683,0.000000
27.000000,43142.040746,30259.881051,11627.131596,27500.200570,23220.824983,41372.475490,32929.551057,35092.886995,-0.008000,0.934000,0.288000,192.000000,0.000000,0.000000,0.000000,0.000000,0.000000,0.000000,0.000000,0.000000,0.000000,1647411697.727192,0.000000
28.000000,43143.985348,30262.876184,11633.703009,27507.196666,23230.637399,41375.962362,32936.971836,35102.386487,-0.008000,0.944000,0.288000,192.000000,255.000000,192.000000,29.000000,128.000000,9.000000,0.000000,0.000000,0.000000,0.000000,1647411697.727196,0.000000
29.000000,43135.536389,30255.768330,11625.790492,27499.865293,23222.523716,41372.162565,32933.730833,35098.452580,-0.008000,0.944000,0.288000,192.000000,0.000000,0.000000,0.000000,0.000000,0.000000,0.000000,0.000000,0.000000,0.000000,1647411697.735303,0.000000
30.000000,43134.061174,30250.761539,11629.255012,27496.736049,23224.691835,41377.303466,32946.001940,35108.510865,-0.008000,0.944000,0.288000,192.000000,0.000000,0.000000,0.000000,0.000000,0.000000,0.000000,0.000000,0.000000,0.000000,1647411697.735307,0.000000
31.000000,43126.618043,30248.079330,11619.532003,27487.080096,23219.416823,41366.217001,32936.591856,35100.933623,-0.008000,0.944000,0.288000,192.000000,0.000000,0.000000,0.000000,0.000000,0.000000,0.000000,0.000000,0.000000,0.000000,1647411697.742448,0.000000
32.000000,43129.501418,30251.521498,11615.955724,27487.817703,23209.112669,41367.625161,32934.155516,35097.782027,-0.008000,0.944000,0.288000,192.000000,0.000000,0.000000,0.000000,0.000000,0.000000,0.000000,0.000000,0.000000,0.000000,1647411697.742451,0.000000
33.000000,43134.530560,30249.241620,11616.603925,27491.706907,23209.224428,41372.587248,32937.485926,35102.453542,-0.008000,0.944000,0.288000,192.000000,0.000000,0.000000,0.000000,0.000000,0.000000,0.000000,0.000000,0.000000,0.000000,1647411697.749868,0.000000
34.000000,43135.536389,30249.442786,11621.476605,27486.901282,23208.687986,41373.369559,32940.257542,35106.879187,-0.008000,0.944000,0.288000,192.000000,0.000000,0.000000,0.000000,0.000000,0.000000,0.000000,0.000000,0.000000,0.000000,1647411697.749872,0.000000
35.000000,43139.470296,30256.841213,11622.236564,27494.947910,23216.801669,41375.068292,32941.978626,35106.432153,-0.008000,0.944000,0.288000,192.000000,0.000000,0.000000,0.000000,0.000000,0.000000,0.000000,0.000000,0.000000,0.000000,1647411697.757944,0.000000
36.000000,43141.727822,30259.545774,11625.678733,27505.609692,23223.775413,41376.230583,32946.046644,35113.115324,-0.008000,0.944000,0.288000,192.000000,0.000000,0.000000,0.000000,0.000000,0.000000,0.000000,0.000000,0.000000,0.000000,1647411697.757979,0.000000
37.000000,43132.563607,30252.281457,11614.368750,27496.311366,23215.997006,41362.394853,32937.351815,35105.783952,-0.008000,0.944000,0.288000,192.000000,0.000000,0.000000,0.000000,0.000000,0.000000,0.000000,0.000000,0.000000,0.000000,1647411697.764932,0.000000
38.000000,43125.969842,30247.274667,11605.785681,27486.677764,23206.899846,41354.035300,32927.852324,35091.858815,-0.014000,0.944000,0.292000,192.000000,255.000000,144.000000,29.000000,128.000000,9.000000,32.000000,0.000000,0.000000,0.000000,1647411697.764936,0.000000
39.000000,43127.266243,30244.234829,11607.372654,27487.191854,23201.624835,41358.505649,32928.545228,35090.405952,-0.014000,0.944000,0.292000,192.000000,0.000000,0.000000,0.000000,0.000000,0.000000,0.000000,0.000000,0.000000,0.000000,1647411697.771970,0.000000
40.000000,43129.724935,30251.968533,11614.502861,27493.830322,23209.380890,41363.244219,32929.886333,35095.368039,-0.014000,0.944000,0.292000,192.000000,0.000000,0.000000,0.000000,0.000000,0.000000,0.000000,0.000000,0.000000,0.000000,1647411697.779539,0.000000
41.000000,43122.192397,30249.576896,11615.598096,27488.085924,23212.443079,41354.437632,32926.041833,35095.546853,-0.014000,0.944000,0.292000,192.000000,0.000000,0.000000,0.000000,0.000000,0.000000,0.000000,0.000000,0.000000,0.000000,1647411697.779544,0.000000
42.000000,43119.174912,30243.877202,11610.121919,27484.263776,23205.871666,41353.051824,32921.683243,35090.540062,-0.014000,0.944000,0.292000,192.000000,0.000000,0.000000,0.000000,0.000000,0.000000,0.000000,0.000000,0.000000,0.000000,1647411697.787472,0.000000
43.000000,43135.670499,30256.125958,11623.868242,27498.188913,23210.520829,41372.162565,32937.307112,35102.811170,-0.014000,0.944000,0.292000,192.000000,0.000000,0.000000,0.000000,0.000000,0.000000,0.000000,0.000000,0.000000,0.000000,1647411697.787511,0.000000
44.000000,43134.754078,30257.623524,11623.912945,27499.977052,23216.265227,41373.190745,32938.044719,35101.134789,-0.014000,0.944000,0.292000,192.000000,0.000000,0.000000,0.000000,0.000000,0.000000,0.000000,0.000000,0.000000,0.000000,1647411697.795600,0.000000
45.000000,43135.916368,30258.450539,11621.208384,27497.473657,23218.634512,41367.602809,32933.172039,35098.966670,-0.014000,0.944000,0.292000,192.000000,0.000000,0.000000,0.000000,0.000000,0.000000,0.000000,0.000000,0.000000,0.000000,1647411697.795604,0.000000
46.000000,43132.742421,30255.500109,11609.138442,27490.701078,23210.409070,41360.539658,32927.941731,35094.898652,-0.014000,0.944000,0.292000,192.000000,0.000000,0.000000,0.000000,0.000000,0.000000,0.000000,0.000000,0.000000,0.000000,1647411697.802199,0.000000
47.000000,43134.195284,30257.020027,11614.234640,27496.244311,23211.459602,41366.261705,32931.674472,35100.620699,-0.014000,0.944000,0.292000,192.000000,0.000000,0.000000,0.000000,0.000000,0.000000,0.000000,0.000000,0.000000,0.000000,1647411697.802202,0.000000
48.000000,43135.871665,30253.331989,11619.152024,27499.082982,23212.510134,41369.592115,32932.702653,35102.833522,-0.008000,0.946000,0.284000,192.000000,255.000000,192.000000,29.000000,144.000000,8.000000,224.000000,0.000000,0.000000,0.000000,1647411697.810098,0.000000
49.000000,43141.683119,30256.818862,11624.292925,27503.665090,23218.478050,41373.235449,32938.178830,35105.895711,-0.008000,0.946000,0.284000,192.000000,0.000000,0.000000,0.000000,0.000000,0.000000,0.000000,0.000000,0.000000,0.000000,1647411697.810102,0.000000
50.000000,43145.639377,30261.870356,11628.562108,27508.649529,23223.060158,41380.075083,32945.085519,35113.227083,-0.008000,0.946000,0.284000,192.000000,0.000000,0.000000,0.000000,0.000000,0.000000,0.000000,0.000000,0.000000,0.000000,1647411697.818176,0.000000
51.000000,43140.006738,30253.711969,11623.287096,27500.960529,23221.137908,41372.699007,32944.146746,35115.439906,-0.008000,0.946000,0.284000,192.000000,0.000000,0.000000,0.000000,0.000000,0.000000,0.000000,0.000000,0.000000,0.000000,1647411697.818180,0.000000
52.000000,43137.548046,30250.918001,11618.168547,27490.745782,23208.732689,41365.948780,32933.082632,35101.537121,-0.008000,0.946000,0.284000,192.000000,0.000000,0.000000,0.000000,0.000000,0.000000,0.000000,0.000000,0.000000,0.000000,1647411697.825338,0.000000
53.000000,43147.427517,30263.904365,11626.997486,27495.462000,23212.778355,41368.340417,32937.776499,35104.755772,-0.008000,0.946000,0.284000,192.000000,0.000000,0.000000,0.000000,0.000000,0.000000,0.000000,0.000000,0.000000,0.000000,1647411697.825341,0.000000
54.000000,43147.539276,30263.367923,11623.890594,27500.357032,23216.689910,41370.307370,32938.067071,35108.019126,-0.008000,0.946000,0.284000,192.000000,0.000000,0.000000,0.000000,0.000000,0.000000,0.000000,0.000000,0.000000,0.000000,1647411697.831803,0.000000
55.000000,43144.700604,30259.791644,11625.052884,27502.256930,23222.546068,41366.261705,32936.547153,35108.019126,-0.008000,0.946000,0.284000,192.000000,0.000000,0.000000,0.000000,0.000000,0.000000,0.000000,0.000000,0.000000,0.000000,1647411697.839820,0.000000
56.000000,43149.953264,30266.251298,11629.702047,27509.923578,23223.149565,41371.581420,32940.414004,35111.885978,-0.008000,0.946000,0.284000,192.000000,0.000000,0.000000,0.000000,0.000000,0.000000,0.000000,0.000000,0.000000,0.000000,1647411697.839824,0.000000
57.000000,43138.106839,30258.137615,11613.765253,27496.691346,23216.198172,41359.913809,32931.965045,35105.001641,-0.008000,0.946000,0.284000,192.000000,0.000000,0.000000,0.000000,0.000000,0.000000,0.000000,0.000000,0.000000,0.000000,1647411697.847876,0.000000
58.000000,43133.748249,30247.341722,11610.010160,27488.331793,23210.587884,41354.929370,32928.120545,35099.883091,-0.010000,0.950000,0.282000,192.000000,255.000000,176.000000,29.000000,176.000000,8.000000,208.000000,0.000000,0.000000,0.000000,1647411697.847880,0.000000
59.000000,43144.164162,30252.907306,11620.761349,27499.462962,23211.616065,41365.032359,32934.535496,35106.275690,-0.010000,0.950000,0.282000,192.000000,0.000000,0.000000,0.000000,0.000000,0.000000,0.000000,0.000000,0.000000,0.000000,1647411697.855077,0.000000
60.000000,43128.406182,30239.764481,11608.177317,27488.711773,23213.940646,41351.464850,32921.079745,35100.531292,-0.010000,0.950000,0.282000,192.000000,0.000000,0.000000,0.000000,0.000000,0.000000,0.000000,0.000000,0.000000,0.000000,1647411697.855082,0.000000
61.000000,43127.333299,30243.899553,11605.428053,27487.661241,23208.285655,41349.855524,32914.687147,35088.126074,-0.010000,0.950000,0.282000,192.000000,0.000000,0.000000,0.000000,0.000000,0.000000,0.000000,0.000000,0.000000,0.000000,1647411697.862471,0.000000
62.000000,43143.739479,30261.400969,11620.113149,27500.558198,23214.700605,41367.491051,32934.110812,35108.756734,-0.010000,0.950000,0.282000,192.000000,0.000000,0.000000,0.000000,0.000000,0.000000,0.000000,0.000000,0.000000,0.000000,1647411697.862475,0.000000
63.000000,43137.480991,30257.534117,11618.772044,27496.199607,23218.589809,41365.769966,32934.714310,35116.691603,-0.010000,0.950000,0.282000,192.000000,0.000000,0.000000,0.000000,0.000000,0.000000,0.000000,0.000000,0.000000,0.000000,1647411697.870527,0.000000
64.000000,43130.641357,30252.102644,11618.682637,27494.657337,23214.253570,41362.394853,32929.953388,35108.801437,-0.010000,0.950000,0.282000,192.000000,0.000000,0.000000,0.000000,0.000000,0.000000,0.000000,0.000000,0.000000,0.000000,1647411697.870531,0.000000
65.000000,43146.488744,30267.905327,11631.870166,27506.861390,23218.902733,41379.181013,32939.251714,35112.534179,-0.010000,0.950000,0.282000,192.000000,0.000000,0.000000,0.000000,0.000000,0.000000,0.000000,0.000000,0.000000,0.000000,1647411697.877522,0.000000
66.000000,43153.529543,30271.213385,11636.742847,27508.247198,23228.402225,41387.004124,32949.220592,35124.045327,-0.010000,0.950000,0.282000,192.000000,0.000000,0.000000,0.000000,0.000000,0.000000,0.000000,0.000000,0.000000,0.000000,1647411697.877525,0.000000
67.000000,43132.787124,30250.001580,11622.974172,27492.399811,23218.410995,41369.770929,32935.407214,35112.757696,-0.010000,0.950000,0.282000,192.000000,0.000000,0.000000,0.000000,0.000000,0.000000,0.000000,0.000000,0.000000,0.000000,1647411697.885107,0.000000
68.000000,43136.184589,30249.800414,11620.090797,27495.730221,23214.275922,41370.150908,32937.776499,35104.554606,-0.006000,0.946000,0.280000,192.000000,255.000000,208.000000,29.000000,144.000000,8.000000,192.000000,0.000000,0.000000,0.000000,1647411697.885111,0.000000
69.000000,43132.071868,30244.793623,11613.787605,27490.164636,23210.811402,41358.907981,32929.886333,35099.145484,-0.006000,0.946000,0.280000,192.000000,0.000000,0.000000,0.000000,0.000000,0.000000,0.000000,0.000000,0.000000,0.000000,1647411697.892028,0.000000
70.000000,43133.792953,30252.840251,11617.006256,27491.662203,23211.303140,41360.539658,32931.026272,35101.201844,-0.006000,0.946000,0.280000,192.000000,0.000000,0.000000,0.000000,0.000000,0.000000,0.000000,0.000000,0.000000,0.000000,1647411697.900198,0.000000
71.000000,43138.397412,30258.204670,11612.826480,27495.417296,23213.940646,41351.151925,32922.130277,35097.580862,-0.006000,0.946000,0.280000,192.000000,0.000000,0.000000,0.000000,0.000000,0.000000,0.000000,0.000000,0.000000,0.000000,1647411697.900202,0.000000
72.000000,43162.179668,30278.544757,11626.438692,27504.246235,23215.482916,41358.282132,32921.973815,35094.004583,-0.006000,0.946000,0.280000,192.000000,0.000000,0.000000,0.000000,0.000000,0.000000,0.000000,0.000000,0.000000,0.000000,1647411697.907310,0.000000
73.000000,43151.339072,30269.246431,11633.524195,27508.805991,23224.893001,41366.440519,32927.092365,35100.955975,-0.006000,0.946000,0.280000,192.000000,0.000000,0.000000,0.000000,0.000000,0.000000,0.000000,0.000000,0.000000,0.000000,1647411697.907313,0.000000
74.000000,43136.721031,30259.702237,11633.524195,27513.835134,23227.284637,41364.384158,32921.772649,35097.469103,-0.006000,0.946000,0.280000,192.000000,0.000000,0.000000,0.000000,0.000000,0.000000,0.000000,0.000000,0.000000,0.000000,1647411697.914801,0.000000
75.000000,43142.174857,30257.511766,11633.434788,27512.248160,23230.771510,41362.037225,32918.933978,35097.312641,-0.006000,0.946000,0.280000,192.000000,0.000000,0.000000,0.000000,0.000000,0.000000,0.000000,0.000000,0.000000,0.000000,1647411697.914805,0.000000
76.000000,43143.717127,30258.964629,11644.901233,27517.500820,23234.995989,41374.688312,32931.741528,35114.165856,-0.006000,0.946000,0.280000,192.000000,0.000000,0.000000,0.000000,0.000000,0.000000,0.000000,0.000000,0.000000,0.000000,1647411697.922739,0.000000
77.000000,43141.951339,30259.255202,11646.711725,27514.729204,23236.493556,41377.728150,32938.625865,35120.044365,-0.006000,0.946000,0.280000,192.000000,0.000000,0.000000,0.000000,0.000000,0.000000,0.000000,0.000000,0.000000,0.000000,1647411697.922742,0.000000
78.000000,43138.755040,30250.493318,11644.968289,27509.141267,23234.213678,41378.219888,32940.682225,35117.697432,-0.006000,0.946000,0.280000,192.000000,0.000000,0.000000,0.000000,0.000000,0.000000,0.000000,0.000000,0.000000,0.000000,1647411697.930748,0.000000
79.000000,43148.276883,30251.521498,11643.113094,27509.320081,23231.799690,41385.104225,32947.678321,35122.503057,-0.010000,0.950000,0.278000,192.000000,255.000000,176.000000,29.000000,176.000000,8.000000,176.000000,0.000000,0.000000,0.000000,1647411697.930752,0.000000
80.000000,43138.196246,30247.587591,11626.192823,27495.640814,23229.989198,41370.910868,32937.530629,35116.803362,-0.010000,0.950000,0.278000,192.000000,0.000000,0.000000,0.000000,0.000000,0.000000,0.000000,0.000000,0.000000,0.000000,1647411697.937422,0.000000
81.000000,43136.877493,30256.103606,11628.025666,27490.745782,23219.819155,41370.977923,32933.462612,35114.836408,-0.010000,0.950000,0.278000,192.000000,0.000000,0.000000,0.000000,0.000000,0.000000,0.000000,0.000000,0.000000,0.000000,1647411697.937425,0.000000
82.000000,43144.432383,30262.160929,11639.290945,27501.698137,23222.613123,41378.130481,32939.162307,35116.199865,-0.010000,0.950000,0.278000,192.000000,0.000000,0.000000,0.000000,0.000000,0.000000,0.000000,0.000000,0.000000,0.000000,1647411697.945300,0.000000
83.000000,43137.637453,30249.085158,11625.119939,27498.144209,23222.836640,41367.334588,32928.053490,35104.107571,-0.010000,0.950000,0.278000,192.000000,0.000000,0.000000,0.000000,0.000000,0.000000,0.000000,0.000000,0.000000,0.000000,1647411697.945304,0.000000
84.000000,43137.458639,30248.526364,11623.868242,27497.898340,23218.701567,41367.826327,32923.761955,35100.039554,-0.010000,0.950000,0.278000,192.000000,0.000000,0.000000,0.000000,0.000000,0.000000,0.000000,0.000000,0.000000,0.000000,1647411697.952398,0.000000
85.000000,43139.805572,30254.002542,11632.250146,27502.659262,23224.334207,41366.664036,32918.710461,35096.932661,-0.010000,0.950000,0.278000,192.000000,0.000000,0.000000,0.000000,0.000000,0.000000,0.000000,0.000000,0.000000,0.000000,1647411697.960746,0.000000
86.000000,43140.386717,30254.963667,11630.886690,27501.519323,23224.602428,41364.987655,32917.615225,35094.988059,-0.010000,0.950000,0.278000,192.000000,0.000000,0.000000,0.000000,0.000000,0.000000,0.000000,0.000000,0.000000,0.000000,1647411697.960767,0.000000
87.000000,43145.974653,30255.589516,11639.469759,27503.508628,23227.485803,41366.060539,32918.397536,35093.579899,-0.010000,0.950000,0.278000,192.000000,0.000000,0.000000,0.000000,0.000000,0.000000,0.000000,0.000000,0.000000,0.000000,1647411697.967643,0.000000
88.000000,43145.952302,30258.763463,11642.576652,27507.151962,23233.274905,41368.005141,32921.213856,35094.205748,-0.010000,0.950000,0.278000,192.000000,0.000000,0.000000,0.000000,0.000000,0.000000,0.000000,0.000000,0.000000,0.000000,1647411697.967659,0.000000
89.000000,43149.863857,30261.780949,11637.234585,27508.537770,23228.625742,41368.608638,32918.889274,35092.931699,-0.010000,0.948000,0.284000,192.000000,255.000000,176.000000,29.000000,160.000000,8.000000,224.000000,0.000000,0.000000,0.000000,1647411697.975407,0.000000
90.000000,43155.094165,30269.939336,11640.743809,27512.516381,23233.029036,41376.789376,32927.986434,35107.393278,-0.010000,0.948000,0.284000,192.000000,0.000000,0.000000,0.000000,0.000000,0.000000,0.000000,0.000000,0.000000,0.000000,1647411697.975424,0.000000
91.000000,43148.969787,30262.563260,11639.045076,27508.426012,23232.090262,41375.291809,32928.969911,35116.781010,-0.010000,0.948000,0.284000,192.000000,0.000000,0.000000,0.000000,0.000000,0.000000,0.000000,0.000000,0.000000,0.000000,1647411697.983442,0.000000
92.000000,43147.114592,30258.785815,11635.491149,27508.493067,23225.004759,41383.718417,32935.362510,35119.574978,-0.010000,0.948000,0.284000,192.000000,0.000000,0.000000,0.000000,0.000000,0.000000,0.000000,0.000000,0.000000,0.000000,1647411697.983459,0.000000
93.000000,43147.271055,30254.494280,11638.843911,27507.375480,23224.647132,41384.947763,32940.749281,35125.162914,-0.010000,0.948000,0.284000,192.000000,0.000000,0.000000,0.000000,0.000000,0.000000,0.000000,0.000000,0.000000,0.000000,1647411697.990111,0.000000
94.000000,43133.792953,30246.827632,11626.617506,27502.122820,23221.406129,41376.118824,32935.474269,35115.909292,-0.010000,0.948000,0.284000,192.000000,0.000000,0.000000,0.000000,0.000000,0.000000,0.000000,0.000000,0.000000,0.000000,1647411697.990128,0.000000
95.000000,43129.680232,30246.894687,11620.984867,27494.836151,23218.410995,41369.748577,32928.612283,35106.767429,-0.010000,0.948000,0.284000,192.000000,0.000000,0.000000,0.000000,0.000000,0.000000,0.000000,0.000000,0.000000,0.000000,1647411697.998079,0.000000
96.000000,43149.126249,30264.329048,11639.872091,27508.850695,23221.629646,41385.573612,32941.375129,35118.122115,-0.010000,0.948000,0.284000,192.000000,0.000000,0.000000,0.000000,0.000000,0.000000,0.000000,0.000000,0.000000,0.000000,1647411697.998096,0.000000
97.000000,43154.222447,30267.301830,11645.281213,27512.985767,23225.205925,41386.914717,32943.319731,35119.910254,-0.010000,0.948000,0.284000,192.000000,0.000000,0.000000,0.000000,0.000000,0.000000,0.000000,0.000000,0.000000,0.000000,1647411698.005727,0.000000
98.000000,43155.854125,30269.492301,11649.416286,27520.764175,23232.537297,41386.758254,32940.793984,35118.189170,-0.010000,0.948000,0.284000,192.000000,0.000000,0.000000,0.000000,0.000000,0.000000,0.000000,0.000000,0.000000,0.000000,1647411698.005736,0.000000
99.000000,43155.228276,30267.123016,11647.426980,27518.752518,23232.984332,41379.560993,32932.568542,35108.890844,-0.012000,0.946000,0.278000,192.000000,255.000000,160.000000,29.000000,144.000000,8.000000,176.000000,0.000000,0.000000,0.000000,1647411698.013220,0.000000
100.000000,43158.178706,30268.665286,11649.572748,27516.919675,23230.168012,41382.801996,32931.585065,35107.236815,-0.012000,0.946000,0.278000,192.000000,0.000000,0.000000,0.000000,0.000000,0.000000,0.000000,0.000000,0.000000,0.000000,1647411698.013238,0.000000
101.000000,43157.038767,30265.245469,11645.191806,27514.483334,23228.737501,41378.398702,32930.981568,35108.086182,-0.012000,0.946000,0.278000,192.000000,0.000000,0.000000,0.000000,0.000000,0.000000,0.000000,0.000000,0.000000,0.000000,1647411698.019816,0.000000
102.000000,43149.528581,30261.848004,11632.987754,27508.828343,23223.216620,41370.128557,32921.683243,35103.369964,-0.012000,0.946000,0.278000,192.000000,0.000000,0.000000,0.000000,0.000000,0.000000,0.000000,0.000000,0.000000,0.000000,1647411698.027684,0.000000
103.000000,43141.191380,30252.817899,11620.738998,27505.676747,23217.181649,41368.832155,32916.810562,35096.440923,-0.012000,0.946000,0.278000,192.000000,0.000000,0.000000,0.000000,0.000000,0.000000,0.000000,0.000000,0.000000,0.000000,1647411698.027700,0.000000
104.000000,43145.773488,30262.943240,11631.244317,27511.890532,23221.137908,41376.521155,32923.136106,35097.871434,-0.012000,0.946000,0.278000,192.000000,0.000000,0.000000,0.000000,0.000000,0.000000,0.000000,0.000000,0.000000,0.000000,1647411698.035568,0.000000
105.000000,43146.287578,30266.296001,11635.669963,27507.375480,23226.859954,41375.045940,32920.632711,35096.843254,-0.012000,0.946000,0.278000,192.000000,0.000000,0.000000,0.000000,0.000000,0.000000,0.000000,0.000000,0.000000,0.000000,1647411698.035584,0.000000
106.000000,43143.895941,30259.881051,11633.591251,27509.364785,23227.061120,41380.075083,32923.605493,35102.632356,-0.012000,0.946000,0.278000,192.000000,0.000000,0.000000,0.000000,0.000000,0.000000,0.000000,0.000000,0.000000,0.000000,1647411698.042625,0.000000
107.000000,43146.488744,30253.756673,11634.351210,27510.012985,23224.043634,41380.343304,32926.332405,35105.918062,-0.012000,0.946000,0.278000,192.000000,0.000000,0.000000,0.000000,0.000000,0.000000,0.000000,0.000000,0.000000,0.000000,1647411698.042649,0.000000
108.000000,43145.505267,30255.500109,11630.260841,27508.470715,23224.267152,41376.610562,32929.461650,35103.101743,-0.012000,0.946000,0.278000,192.000000,0.000000,0.000000,0.000000,0.000000,0.000000,0.000000,0.000000,0.000000,0.000000,1647411698.050378,0.000000
109.000000,43146.935778,30257.243545,11629.165605,27502.793372,23220.310893,41376.834080,32931.518010,35103.816998,-0.012000,0.948000,0.280000,192.000000,255.000000,160.000000,29.000000,160.000000,8.000000,192.000000,0.000000,0.000000,0.000000,1647411698.050394,0.000000
110.000000,43153.596598,30259.411664,11633.613602,27500.222921,23220.199134,41375.515327,32932.143859,35106.543911,-0.012000,0.948000,0.280000,192.000000,0.000000,0.000000,0.000000,0.000000,0.000000,0.000000,0.000000,0.000000,0.000000,1647411698.058128,0.000000
111.000000,43130.864874,30242.424338,11615.754559,27485.113142,23210.342015,41356.583399,32916.162362,35093.892824,-0.012000,0.948000,0.280000,192.000000,0.000000,0.000000,0.000000,0.000000,0.000000,0.000000,0.000000,0.000000,0.000000,1647411698.058144,0.000000
112.000000,43131.624834,30249.889821,11616.447463,27485.247253,23200.462544,41362.104280,32914.083649,35095.077466,-0.012000,0.948000,0.280000,192.000000,0.000000,0.000000,0.000000,0.000000,0.000000,0.000000,0.000000,0.000000,0.000000,1647411698.066280,0.000000
113.000000,43136.698680,30246.805280,11621.118977,27491.841017,23203.547085,41365.322931,32917.749335,35091.903519,-0.012000,0.948000,0.280000,192.000000,0.000000,0.000000,0.000000,0.000000,0.000000,0.000000,0.000000,0.000000,0.000000,1647411698.066296,0.000000
114.000000,43138.598578,30243.497222,11621.878937,27492.802142,23203.144753,41366.217001,32920.006862,35091.300022,-0.012000,0.948000,0.280000,192.000000,0.000000,0.000000,0.000000,0.000000,0.000000,0.000000,0.000000,0.000000,0.000000,1647411698.073005,0.000000
115.000000,43146.734613,30254.695446,11628.271535,27500.334680,23207.950378,41374.218926,32925.885370,35106.521560,-0.012000,0.948000,0.280000,192.000000,0.000000,0.000000,0.000000,0.000000,0.000000,0.000000,0.000000,0.000000,0.000000,1647411698.073022,0.000000
116.000000,43147.181648,30258.338780,11630.506710,27500.491142,23215.751137,41373.995408,32927.181772,35115.194036,-0.012000,0.948000,0.280000,192.000000,0.000000,0.000000,0.000000,0.000000,0.000000,0.000000,0.000000,0.000000,0.000000,1647411698.080056,0.000000
117.000000,43131.915406,30247.587591,11617.050960,27483.503817,23200.730765,41369.636818,32925.415984,35108.220292,-0.012000,0.948000,0.280000,192.000000,0.000000,0.000000,0.000000,0.000000,0.000000,0.000000,0.000000,0.000000,0.000000,1647411698.087909,0.000000
118.000000,43134.910540,30258.651705,11624.874070,27491.349279,23201.423669,41380.209193,32939.162307,35117.183342,-0.012000,0.948000,0.280000,192.000000,0.000000,0.000000,0.000000,0.000000,0.000000,0.000000,0.000000,0.000000,0.000000,1647411698.087924,0.000000
119.000000,43127.087429,30249.129861,11616.648628,27486.275433,23199.903750,41371.916696,32932.367376,35112.891807,-0.012000,0.944000,0.286000,192.000000,255.000000,160.000000,29.000000,128.000000,8.000000,240.000000,0.000000,0.000000,0.000000,1647411698.096044,0.000000
120.000000,43132.585959,30247.833460,11622.482434,27492.466866,23200.060213,41374.107167,32929.975740,35105.672193,-0.012000,0.944000,0.286000,192.000000,0.000000,0.000000,0.000000,0.000000,0.000000,0.000000,0.000000,0.000000,0.000000,1647411698.096061,0.000000
121.000000,43143.851238,30256.349475,11628.360942,27499.977052,23207.324530,41383.204327,32937.150650,35109.919025,-0.012000,0.944000,0.286000,192.000000,0.000000,0.000000,0.000000,0.000000,0.000000,0.000000,0.000000,0.000000,0.000000,1647411698.102647,0.000000
122.000000,43139.470296,30255.589516,11625.790492,27493.651509,23207.324530,41383.718417,32938.402347,35116.803362,-0.012000,0.944000,0.286000,192.000000,0.000000,0.000000,0.000000,0.000000,0.000000,0.000000,0.000000,0.000000,0.000000,1647411698.102663,0.000000
123.000000,43138.553874,30253.130824,11627.802149,27501.631081,23209.939684,41386.780606,32938.983493,35118.323281,-0.012000,0.944000,0.286000,192.000000,0.000000,0.000000,0.000000,0.000000,0.000000,0.000000,0.000000,0.000000,0.000000,1647411698.110360,0.000000
124.000000,43137.525694,30246.559411,11626.796320,27499.887645,23209.067966,41382.109092,32932.099155,35112.042440,-0.012000,0.944000,0.286000,192.000000,0.000000,0.000000,0.000000,0.000000,0.000000,0.000000,0.000000,0.000000,0.000000,1647411698.110377,0.000000
125.000000,43131.110743,30243.452518,11616.134538,27492.243349,23204.061175,41370.955571,32916.922321,35094.429266,-0.012000,0.944000,0.286000,192.000000,0.000000,0.000000,0.000000,0.000000,0.000000,0.000000,0.000000,0.000000,0.000000,1647411698.117960,0.000000
126.000000,43141.012566,30258.875222,11630.260841,27497.786581,23207.637454,41377.638743,32917.659929,35095.993888,-0.012000,0.944000,0.286000,192.000000,0.000000,0.000000,0.000000,0.000000,0.000000,0.000000,0.000000,0.000000,0.000000,1647411698.117976,0.000000
127.000000,43151.741404,30269.693466,11640.095608,27506.973148,23216.913428,41388.680504,32929.036966,35117.585673,-0.012000,0.944000,0.286000,192.000000,0.000000,0.000000,0.000000,0.000000,0.000000,0.000000,0.000000,0.000000,0.000000,1647411698.125941,0.000000
128.000000,43152.590770,30269.715818,11642.330783,27511.465849,23229.072777,41390.021609,32935.586028,35123.710051,-0.012000,0.944000,0.286000,192.000000,0.000000,0.000000,0.000000,0.000000,0.000000,0.000000,0.000000,0.000000,0.000000,1647411698.125958,0.000000
129.000000,43142.934816,30255.768330,11634.798245,27503.553331,23229.452757,41377.236411,32922.309091,35107.549740,-0.012000,0.944000,0.284000,192.000000,255.000000,160.000000,29.000000,128.000000,8.000000,224.000000,0.000000,0.000000,0.000000,1647411698.133906,0.000000
130.000000,43143.337148,30259.925754,11632.250146,27504.492105,23225.094166,41375.403568,32915.134181,35094.943356,-0.012000,0.944000,0.284000,192.000000,0.000000,0.000000,0.000000,0.000000,0.000000,0.000000,0.000000,0.000000,0.000000,1647411698.133923,0.000000
131.000000,43142.152505,30266.139539,11635.178224,27507.844866,23227.396396,41379.024551,32914.776553,35098.206711,-0.012000,0.944000,0.284000,192.000000,0.000000,0.000000,0.000000,0.000000,0.000000,0.000000,0.000000,0.000000,0.000000,1647411698.139972,0.000000
132.000000,43145.885247,30268.933507,11636.988716,27512.181105,23224.200097,41387.451158,32924.700728,35111.215426,-0.012000,0.944000,0.284000,192.000000,0.000000,0.000000,0.000000,0.000000,0.000000,0.000000,0.000000,0.000000,0.000000,1647411698.147540,0.000000
133.000000,43143.806534,30259.031684,11636.072294,27511.599959,23224.557725,41386.959420,32925.728908,35113.450600,-0.012000,0.944000,0.284000,192.000000,0.000000,0.000000,0.000000,0.000000,0.000000,0.000000,0.000000,0.000000,0.000000,1647411698.147557,0.000000
134.000000,43148.187476,30257.400007,11642.263727,27515.623273,23225.742367,41393.061446,32936.144821,35118.837371,-0.012000,0.944000,0.284000,192.000000,0.000000,0.000000,0.000000,0.000000,0.000000,0.000000,0.000000,0.000000,0.000000,1647411698.155455,0.000000
135.000000,43148.008662,30261.646838,11641.034382,27513.365747,23227.396396,41393.441426,32940.883391,35117.496266,-0.012000,0.944000,0.284000,192.000000,0.000000,0.000000,0.000000,0.000000,0.000000,0.000000,0.000000,0.000000,0.000000,1647411698.155467,0.000000
136.000000,43148.276883,30262.607963,11643.537777,27517.053785,23227.798727,41392.949688,32940.749281,35120.022013,-0.012000,0.944000,0.284000,192.000000,0.000000,0.000000,0.000000,0.000000,0.000000,0.000000,0.000000,0.000000,0.000000,1647411698.163613,0.000000
137.000000,43148.165124,30265.781911,11647.471684,27524.452212,23230.123309,41397.174167,32940.972798,35123.598292,-0.012000,0.944000,0.284000,192.000000,0.000000,0.000000,0.000000,0.000000,0.000000,0.000000,0.000000,0.000000,0.000000,1647411698.163630,0.000000
138.000000,43143.471258,30258.852870,11635.558204,27516.919675,23228.357521,41385.126577,32930.713347,35111.081315,-0.012000,0.944000,0.284000,192.000000,0.000000,0.000000,0.000000,0.000000,0.000000,0.000000,0.000000,0.000000,0.000000,1647411698.170070,0.000000
139.000000,43145.482915,30263.680847,11635.155873,27519.110145,23231.017379,41386.400626,32928.612283,35110.924853,-0.014000,0.936000,0.284000,192.000000,255.000000,144.000000,29.000000,64.000000,8.000000,224.000000,0.000000,0.000000,0.000000,1647411698.170087,0.000000
140.000000,43140.744345,30262.227984,11632.205442,27512.672843,23228.782204,41380.879746,32917.995205,35105.068696,-0.014000,0.936000,0.284000,192.000000,0.000000,0.000000,0.000000,0.000000,0.000000,0.000000,0.000000,0.000000,0.000000,1647411698.178256,0.000000
141.000000,43139.179723,30256.751806,11627.109245,27505.609692,23223.618951,41374.844775,32911.289681,35099.927795,-0.014000,0.936000,0.284000,192.000000,0.000000,0.000000,0.000000,0.000000,0.000000,0.000000,0.000000,0.000000,0.000000,1647411698.178273,0.000000
142.000000,43141.303139,30250.180393,11628.785626,27506.593169,23222.121384,41377.750501,32915.692975,35100.620699,-0.014000,0.936000,0.284000,192.000000,0.000000,0.000000,0.000000,0.000000,0.000000,0.000000,0.000000,0.000000,0.000000,1647411698.186254,0.000000
143.000000,43152.881343,30258.070559,11642.151969,27516.606750,23226.614085,41385.618315,32922.353795,35106.812132,-0.014000,0.936000,0.284000,192.000000,0.000000,0.000000,0.000000,0.000000,0.000000,0.000000,0.000000,0.000000,0.000000,1647411698.186272,0.000000
144.000000,43149.282712,30263.569088,11640.229719,27514.818611,23226.681140,41380.969153,32917.168190,35102.766466,-0.014000,0.936000,0.284000,192.000000,0.000000,0.000000,0.000000,0.000000,0.000000,0.000000,0.000000,0.000000,0.000000,1647411698.192629,0.000000
145.000000,43145.438212,30269.045266,11641.794341,27519.244256,23230.816213,41387.249993,32923.180809,35106.275690,-0.014000,0.936000,0.284000,192.000000,0.000000,0.000000,0.000000,0.000000,0.000000,0.000000,0.000000,0.000000,0.000000,1647411698.192646,0.000000
146.000000,43137.391584,30258.137615,11632.585422,27509.208323,23228.581039,41377.616391,32915.804734,35100.397182,-0.014000,0.936000,0.284000,192.000000,0.000000,0.000000,0.000000,0.000000,0.000000,0.000000,0.000000,0.000000,0.000000,1647411698.199774,0.000000
147.000000,43145.974653,30266.139539,11635.289983,27507.151962,23223.373082,41381.706760,32918.777516,35099.458408,-0.014000,0.936000,0.284000,192.000000,0.000000,0.000000,0.000000,0.000000,0.000000,0.000000,0.000000,0.000000,0.000000,1647411698.207746,0.000000
148.000000,43148.053366,30265.133711,11643.940108,27510.392965,23229.206887,41384.545432,32925.438336,35100.978327,-0.014000,0.936000,0.284000,192.000000,0.000000,0.000000,0.000000,0.000000,0.000000,0.000000,0.000000,0.000000,0.000000,1647411698.207764,0.000000
149.000000,43147.539276,30256.841213,11644.945937,27514.706852,23231.754986,41383.405493,32928.902856,35101.760638,-0.014000,0.940000,0.282000,192.000000,255.000000,144.000000,29.000000,96.000000,8.000000,208.000000,0.000000,0.000000,0.000000,1647411698.215825,0.000000
150.000000,43157.754023,30266.899498,11649.751562,27521.434727,23238.192289,41388.635801,32935.809545,35109.583749,-0.014000,0.940000,0.282000,192.000000,0.000000,0.000000,0.000000,0.000000,0.000000,0.000000,0.000000,0.000000,0.000000,1647411698.215860,0.000000
151.000000,43150.065023,30256.707103,11632.987754,27508.336605,23232.045559,41374.621257,32920.431545,35095.189225,-0.014000,0.940000,0.282000,192.000000,0.000000,0.000000,0.000000,0.000000,0.000000,0.000000,0.000000,0.000000,0.000000,1647411698.222475,0.000000
152.000000,43139.380889,30250.493318,11630.841986,27510.057689,23222.479012,41380.142138,32923.180809,35098.005545,-0.014000,0.940000,0.282000,192.000000,0.000000,0.000000,0.000000,0.000000,0.000000,0.000000,0.000000,0.000000,0.000000,1647411698.222491,0.000000
153.000000,43140.789049,30261.758597,11638.463931,27515.846791,23227.262286,41384.657190,32929.908684,35106.923891,-0.014000,0.940000,0.282000,192.000000,0.000000,0.000000,0.000000,0.000000,0.000000,0.000000,0.000000,0.000000,0.000000,1647411698.230499,0.000000
154.000000,43143.940645,30266.385408,11642.666059,27519.713643,23229.944495,41389.507519,32936.010711,35111.260129,-0.014000,0.940000,0.282000,192.000000,0.000000,0.000000,0.000000,0.000000,0.000000,0.000000,0.000000,0.000000,0.000000,1647411698.230516,0.000000
155.000000,43134.642319,30247.118204,11631.467835,27505.453230,23228.290466,41380.320952,32928.768746,35107.996775,-0.014000,0.940000,0.282000,192.000000,0.000000,0.000000,0.000000,0.000000,0.000000,0.000000,0.000000,0.000000,0.000000,1647411698.238509,0.000000
156.000000,43134.530560,30249.778062,11629.344419,27504.559160,23224.602428,41375.828251,32926.108888,35107.996775,-0.014000,0.940000,0.282000,192.000000,0.000000,0.000000,0.000000,0.000000,0.000000,0.000000,0.000000,0.000000,0.000000,1647411698.238527,0.000000
157.000000,43137.838618,30249.420434,11629.277364,27500.334680,23214.432384,41374.531850,32918.486943,35104.174626,-0.014000,0.940000,0.282000,192.000000,0.000000,0.000000,0.000000,0.000000,0.000000,0.000000,0.000000,0.000000,0.000000,1647411698.245525,0.000000
158.000000,43147.695738,30257.400007,11638.240413,27507.263721,23218.388643,41382.980810,32923.381975,35113.763525,-0.014000,0.940000,0.282000,192.000000,0.000000,0.000000,0.000000,0.000000,0.000000,0.000000,0.000000,0.000000,0.000000,1647411698.245543,0.000000
159.000000,43148.790973,30254.382521,11634.842948,27507.375480,23218.031015,41379.605696,32919.291606,35104.219330,-0.010000,0.946000,0.276000,192.000000,255.000000,176.000000,29.000000,144.000000,8.000000,160.000000,0.000000,0.000000,0.000000,1647411698.253148,0.000000
160.000000,43153.440136,30264.798434,11639.536815,27515.779736,23221.026149,41386.177109,32920.677414,35101.984155,-0.010000,0.946000,0.276000,192.000000,0.000000,0.000000,0.000000,0.000000,0.000000,0.000000,0.000000,0.000000,0.000000,1647411698.253165,0.000000
161.000000,43161.218543,30278.745923,11646.555262,27521.367672,23232.514946,41391.206252,32926.399461,35117.205693,-0.010000,0.946000,0.276000,192.000000,0.000000,0.000000,0.000000,0.000000,0.000000,0.000000,0.000000,0.000000,0.000000,1647411698.260242,0.000000
162.000000,43162.961979,30275.035533,11643.426018,27518.193724,23231.151489,41385.953592,32924.365452,35116.781010,-0.010000,0.946000,0.276000,192.000000,0.000000,0.000000,0.000000,0.000000,0.000000,0.000000,0.000000,0.000000,0.000000,1647411698.260259,0.000000
163.000000,43156.122345,30272.420379,11647.158759,27522.820535,23236.493556,41384.433673,32923.314920,35115.283443,-0.010000,0.946000,0.276000,192.000000,0.000000,0.000000,0.000000,0.000000,0.000000,0.000000,0.000000,0.000000,0.000000,1647411698.267953,0.000000
164.000000,43147.025185,30265.603097,11641.369658,27520.630064,23234.616010,41379.225716,32923.963120,35118.770316,-0.010000,0.946000,0.276000,192.000000,0.000000,0.000000,0.000000,0.000000,0.000000,0.000000,0.000000,0.000000,0.000000,1647411698.274983,0.000000
165.000000,43150.176781,30270.475777,11642.174320,27519.445422,23233.520774,41380.700932,32929.506353,35123.441830,-0.010000,0.946000,0.276000,192.000000,0.000000,0.000000,0.000000,0.000000,0.000000,0.000000,0.000000,0.000000,0.000000,1647411698.274999,0.000000
166.000000,43149.863857,30270.073446,11642.040210,27518.596055,23235.934762,41379.091606,32927.897027,35121.161952,-0.010000,0.946000,0.276000,192.000000,0.000000,0.000000,0.000000,0.000000,0.000000,0.000000,0.000000,0.000000,0.000000,1647411698.282788,0.000000
167.000000,43159.698625,30281.539891,11647.896367,27525.994483,23232.157318,41389.999257,32935.496621,35127.018109,-0.010000,0.946000,0.276000,192.000000,0.000000,0.000000,0.000000,0.000000,0.000000,0.000000,0.000000,0.000000,0.000000,1647411698.282805,0.000000
168.000000,43159.832735,30284.691487,11654.311318,27535.628085,23241.880326,41389.574574,32937.821202,35131.823734,-0.010000,0.946000,0.276000,192.000000,0.000000,0.000000,0.000000,0.000000,0.000000,0.000000,0.000000,0.000000,0.000000,1647411698.290731,0.000000
169.000000,43147.203999,30270.676943,11636.720495,27523.044052,23235.286562,41373.257801,32924.052527,35118.077411,-0.010000,0.944000,0.274000,192.000000,255.000000,176.000000,29.000000,128.000000,8.000000,144.000000,0.000000,0.000000,0.000000,1647411698.290749,0.000000
170.000000,43145.058232,30264.261992,11629.836158,27513.097526,23227.619914,41365.121766,32915.603568,35111.796571,-0.010000,0.944000,0.274000,192.000000,0.000000,0.000000,0.000000,0.000000,0.000000,0.000000,0.000000,0.000000,0.000000,1647411698.297845,0.000000
171.000000,43132.921235,30254.226059,11622.035399,27504.849733,23220.780280,41355.264646,32906.037021,35102.721763,-0.010000,0.944000,0.274000,192.000000,0.000000,0.000000,0.000000,0.000000,0.000000,0.000000,0.000000,0.000000,0.000000,1647411698.297880,0.000000
172.000000,43135.067002,30253.309638,11624.829367,27504.559160,23210.632588,41359.936161,32912.071992,35101.335955,-0.010000,0.944000,0.274000,192.000000,0.000000,0.000000,0.000000,0.000000,0.000000,0.000000,0.000000,0.000000,0.000000,1647411698.305361,0.000000
173.000000,43139.000909,30253.600210,11622.884765,27497.205436,23208.240951,41356.784565,32913.770725,35103.928757,-0.010000,0.944000,0.274000,192.000000,0.000000,0.000000,0.000000,0.000000,0.000000,0.000000,0.000000,0.000000,0.000000,1647411698.305377,0.000000
174.000000,43141.303139,30256.729455,11617.743864,27493.383288,23207.011605,41350.928408,32905.813504,35096.440923,-0.010000,0.944000,0.274000,192.000000,0.000000,0.000000,0.000000,0.000000,0.000000,0.000000,0.000000,0.000000,0.000000,1647411698.313483,0.000000
175.000000,43142.219560,30262.004466,11622.728303,27508.202494,23212.353672,41356.739862,32903.958309,35089.198958,-0.010000,0.944000,0.274000,192.000000,0.000000,0.000000,0.000000,0.000000,0.000000,0.000000,0.000000,0.000000,0.000000,1647411698.313500,0.000000
176.000000,43144.767659,30265.625449,11629.702047,27510.862352,23223.753062,41360.383196,32906.886388,35088.930737,-0.010000,0.944000,0.274000,192.000000,0.000000,0.000000,0.000000,0.000000,0.000000,0.000000,0.000000,0.000000,0.000000,1647411698.321344,0.000000
177.000000,43146.332281,30263.479681,11630.841986,27507.509590,23223.998931,41360.472603,32906.439353,35096.172702,-0.010000,0.944000,0.274000,192.000000,0.000000,0.000000,0.000000,0.000000,0.000000,0.000000,0.000000,0.000000,0.000000,1647411698.321360,0.000000
178.000000,43140.744345,30255.365998,11627.511576,27501.005232,23220.646169,41354.616446,32904.472399,35092.954051,-0.010000,0.944000,0.274000,192.000000,0.000000,0.000000,0.000000,0.000000,0.000000,0.000000,0.000000,0.000000,0.000000,1647411698.327379,0.000000
179.000000,43138.598578,30252.706141,11628.338591,27500.155866,23216.175820,41355.286998,32905.589987,35094.071638,-0.010000,0.944000,0.274000,192.000000,0.000000,0.000000,0.000000,0.000000,0.000000,0.000000,0.000000,0.000000,0.000000,1647411698.335115,0.000000
180.000000,43142.688947,30256.975324,11630.864338,27502.458096,23216.578152,41359.757347,32906.662870,35099.212539,-0.014000,0.944000,0.276000,192.000000,255.000000,144.000000,29.000000,128.000000,8.000000,160.000000,0.000000,0.000000,0.000000,1647411698.335132,0.000000
181.000000,43139.962034,30253.935487,11630.730227,27505.296767,23218.723919,41360.070272,32909.814466,35102.185321,-0.014000,0.944000,0.276000,192.000000,0.000000,0.000000,0.000000,0.000000,0.000000,0.000000,0.000000,0.000000,0.000000,1647411698.343133,0.000000
182.000000,43134.038822,30249.196917,11626.796320,27501.653433,23212.308969,41359.690292,32908.942748,35100.575996,-0.014000,0.944000,0.276000,192.000000,0.000000,0.000000,0.000000,0.000000,0.000000,0.000000,0.000000,0.000000,0.000000,1647411698.343150,0.000000
183.000000,43139.067964,30252.527327,11627.310410,27503.843904,23212.934817,41366.060539,32914.597740,35109.628452,-0.014000,0.944000,0.276000,192.000000,0.000000,0.000000,0.000000,0.000000,0.000000,0.000000,0.000000,0.000000,0.000000,1647411698.351089,0.000000
184.000000,43140.185552,30254.695446,11626.304582,27503.709794,23214.968826,41364.719434,32913.457801,35109.471990,-0.014000,0.944000,0.276000,192.000000,0.000000,0.000000,0.000000,0.000000,0.000000,0.000000,0.000000,0.000000,0.000000,1647411698.351105,0.000000
185.000000,43143.717127,30259.769292,11625.052884,27504.201532,23215.549972,41362.819536,32911.982585,35104.778123,-0.014000,0.944000,0.276000,192.000000,0.000000,0.000000,0.000000,0.000000,0.000000,0.000000,0.000000,0.000000,0.000000,1647411698.357687,0.000000
186.000000,43149.506229,30263.345571,11631.937222,27510.370613,23220.534411,41369.033321,32916.452934,35108.577920,-0.014000,0.944000,0.276000,192.000000,0.000000,0.000000,0.000000,0.000000,0.000000,0.000000,0.000000,0.000000,0.000000,1647411698.357704,0.000000
187.000000,43146.488744,30263.837309,11631.512538,27508.649529,23220.288541,41369.905039,32919.939806,35109.650804,-0.014000,0.944000,0.276000,192.000000,0.000000,0.000000,0.000000,0.000000,0.000000,0.000000,0.000000,0.000000,0.000000,1647411698.365728,0.000000
188.000000,43142.018395,30260.395141,11627.712742,27508.873047,23219.059195,41366.753443,32915.603568,35104.264033,-0.014000,0.944000,0.276000,192.000000,0.000000,0.000000,0.000000,0.000000,0.000000,0.000000,0.000000,0.000000,0.000000,1647411698.365745,0.000000
189.000000,43143.739479,30263.904365,11629.411474,27513.633968,23217.338111,41366.909905,32912.787248,35100.888920,-0.014000,0.944000,0.276000,192.000000,0.000000,0.000000,0.000000,0.000000,0.000000,0.000000,0.000000,0.000000,0.000000,1647411698.373647,0.000000
190.000000,43144.521790,30270.520481,11631.311373,27520.205381,23223.998931,41369.458004,32908.160437,35099.860740,-0.016000,0.950000,0.280000,192.000000,255.000000,128.000000,29.000000,176.000000,8.000000,192.000000,0.000000,0.000000,0.000000,1647411698.373663,0.000000
191.000000,43152.814287,30282.992754,11633.680658,27525.569800,23226.189402,41375.381216,32911.624958,35109.203769,-0.016000,0.950000,0.280000,192.000000,0.000000,0.000000,0.000000,0.000000,0.000000,0.000000,0.000000,0.000000,0.000000,1647411698.380740,0.000000
192.000000,43147.360462,30268.687638,11637.189881,27521.568837,23223.149565,41380.432711,32912.429620,35115.842237,-0.016000,0.950000,0.280000,192.000000,0.000000,0.000000,0.000000,0.000000,0.000000,0.000000,0.000000,0.000000,0.000000,1647411698.380757,0.000000
193.000000,43135.759906,30254.784853,11632.674829,27514.639797,23225.652960,41376.968190,32910.306205,35113.204731,-0.016000,0.950000,0.280000,192.000000,0.000000,0.000000,0.000000,0.000000,0.000000,0.000000,0.000000,0.000000,0.000000,1647411698.387271,0.000000
194.000000,43138.263302,30262.451501,11634.395913,27513.723375,23226.524678,41375.560030,32909.613301,35108.779086,-0.016000,0.950000,0.280000,192.000000,0.000000,0.000000,0.000000,0.000000,0.000000,0.000000,0.000000,0.000000,0.000000,1647411698.395360,0.000000
195.000000,43134.195284,30255.231888,11630.104378,27505.341471,23221.897867,41365.546449,32903.354812,35103.906405,-0.016000,0.950000,0.280000,192.000000,0.000000,0.000000,0.000000,0.000000,0.000000,0.000000,0.000000,0.000000,0.000000,1647411698.395376,0.000000
196.000000,43143.381851,30267.815920,11629.165605,27510.996462,23217.338111,41364.428862,32908.093382,35108.577920,-0.016000,0.950000,0.280000,192.000000,0.000000,0.000000,0.000000,0.000000,0.000000,0.000000,0.000000,0.000000,0.000000,1647411698.403399,0.000000
197.000000,43155.541200,30270.408722,11642.196672,27517.769041,23218.031015,41372.587248,32915.581216,35112.534179,-0.016000,0.950000,0.280000,192.000000,0.000000,0.000000,0.000000,0.000000,0.000000,0.000000,0.000000,0.000000,0.000000,1647411698.403415,0.000000
198.000000,43158.759851,30267.748865,11649.572748,27526.463869,23223.574248,41382.757292,32926.846495,35121.541932,-0.016000,0.950000,0.280000,192.000000,0.000000,0.000000,0.000000,0.000000,0.000000,0.000000,0.000000,0.000000,0.000000,1647411698.410370,0.000000
199.000000,43160.637398,30272.196862,11648.723382,27527.290884,23228.826908,41382.779644,32931.115679,35124.179438,-0.016000,0.950000,0.280000,192.000000,0.000000,0.000000,0.000000,0.000000,0.000000,0.000000,0.000000,0.000000,0.000000,1647411698.410386,0.000000
200.000000,43153.194267,30264.373751,11640.743809,27510.504724,23225.228277,41371.246144,32923.516086,35110.790743,-0.016000,0.954000,0.276000,192.000000,255.000000,128.000000,29.000000,208.000000,8.000000,160.000000,0.000000,0.000000,0.000000,1647411698.417943,0.000000
201.000000,43152.277845,30260.305734,11638.687448,27505.564988,23221.003797,41370.262667,32921.862056,35111.327185,-0.016000,0.954000,0.276000,192.000000,0.000000,0.000000,0.000000,0.000000,0.000000,0.000000,0.000000,0.000000,0.000000,1647411698.417960,0.000000
202.000000,43145.572322,30256.014199,11635.491149,27503.843904,23215.639379,41364.004179,32911.937882,35106.275690,-0.016000,0.954000,0.276000,192.000000,0.000000,0.000000,0.000000,0.000000,0.000000,0.000000,0.000000,0.000000,0.000000,1647411698.425946,0.000000
203.000000,43136.452810,30245.575934,11630.193785,27499.909997,23214.208867,41353.990597,32900.784361,35097.580862,-0.016000,0.954000,0.276000,192.000000,0.000000,0.000000,0.000000,0.000000,0.000000,0.000000,0.000000,0.000000,0.000000,1647411698.425962,0.000000
204.000000,43138.375060,30251.588553,11629.590288,27503.218055,23214.030053,41357.388062,32900.672603,35095.926833,-0.016000,0.954000,0.276000,192.000000,0.000000,0.000000,0.000000,0.000000,0.000000,0.000000,0.000000,0.000000,0.000000,1647411698.433045,0.000000
205.000000,43148.165124,30263.434978,11636.452274,27509.342433,23221.316722,41365.591152,32910.194446,35101.514769,-0.016000,0.954000,0.276000,192.000000,0.000000,0.000000,0.000000,0.000000,0.000000,0.000000,0.000000,0.000000,0.000000,1647411698.433062,0.000000
206.000000,43154.200095,30272.487434,11640.408533,27512.449326,23226.882306,41368.899211,32910.105039,35103.325260,-0.016000,0.954000,0.276000,192.000000,0.000000,0.000000,0.000000,0.000000,0.000000,0.000000,0.000000,0.000000,0.000000,1647411698.440530,0.000000
207.000000,43137.480991,30254.226059,11623.041227,27499.261796,23215.751137,41353.945894,32895.621108,35093.490493,-0.016000,0.954000,0.276000,192.000000,0.000000,0.000000,0.000000,0.000000,0.000000,0.000000,0.000000,0.000000,0.000000,1647411698.440546,0.000000
208.000000,43138.643281,30255.969495,11621.767178,27505.006195,23211.638416,41358.416242,32894.458818,35094.764542,-0.016000,0.954000,0.276000,192.000000,0.000000,0.000000,0.000000,0.000000,0.000000,0.000000,0.000000,0.000000,0.000000,1647411698.447530,0.000000
209.000000,43139.827924,30257.131786,11626.617506,27505.229712,23217.360463,41360.919638,32901.611376,35103.727591,-0.016000,0.954000,0.276000,192.000000,0.000000,0.000000,0.000000,0.000000,0.000000,0.000000,0.000000,0.000000,0.000000,1647411698.455624,0.000000
210.000000,43144.924121,30254.896612,11629.612640,27509.878875,23218.902733,41359.287960,32898.705649,35103.973461,-0.018000,0.956000,0.274000,192.000000,255.000000,112.000000,29.000000,224.000000,8.000000,144.000000,0.000000,0.000000,0.000000,1647411698.455641,0.000000
211.000000,43146.980482,30255.187184,11630.953745,27507.733108,23221.093204,41355.823440,32898.057449,35104.353440,-0.018000,0.956000,0.274000,192.000000,0.000000,0.000000,0.000000,0.000000,0.000000,0.000000,0.000000,0.000000,0.000000,1647411698.462614,0.000000
212.000000,43153.462488,30264.038475,11636.854605,27510.102392,23214.633550,41362.461908,32909.658004,35110.142542,-0.018000,0.956000,0.274000,192.000000,0.000000,0.000000,0.000000,0.000000,0.000000,0.000000,0.000000,0.000000,0.000000,1647411698.462630,0.000000
213.000000,43144.074755,30256.304771,11630.752579,27503.307462,23212.756003,41356.471641,32908.182789,35111.751868,-0.018000,0.956000,0.274000,192.000000,0.000000,0.000000,0.000000,0.000000,0.000000,0.000000,0.000000,0.000000,0.000000,1647411698.470097,0.000000
214.000000,43142.688947,30255.298943,11626.773969,27500.580549,23214.186515,41351.464850,32902.080763,35104.845179,-0.018000,0.956000,0.274000,192.000000,0.000000,0.000000,0.000000,0.000000,0.000000,0.000000,0.000000,0.000000,0.000000,1647411698.470132,0.000000
215.000000,43137.570398,30255.477757,11621.431902,27504.737974,23211.951341,41352.470678,32900.538492,35100.464237,-0.018000,0.956000,0.274000,192.000000,0.000000,0.000000,0.000000,0.000000,0.000000,0.000000,0.000000,0.000000,0.000000,1647411698.478105,0.000000
216.000000,43146.198171,30263.412626,11634.395913,27513.455154,23218.455698,41360.986693,32904.405344,35102.945280,-0.018000,0.956000,0.274000,192.000000,0.000000,0.000000,0.000000,0.000000,0.000000,0.000000,0.000000,0.000000,0.000000,1647411698.478117,0.000000
217.000000,43138.956206,30254.024894,11631.311373,27506.392003,23214.700605,41357.276303,32900.672603,35102.230025,-0.018000,0.956000,0.274000,192.000000,0.000000,0.000000,0.000000,0.000000,0.000000,0.000000,0.000000,0.000000,0.000000,1647411698.486265,0.000000
218.000000,43134.172932,30251.745016,11625.924602,27498.926520,23209.224428,41358.393891,32899.175036,35105.828655,-0.018000,0.956000,0.274000,192.000000,0.000000,0.000000,0.000000,0.000000,0.000000,0.000000,0.000000,0.000000,0.000000,1647411698.486281,0.000000
219.000000,43139.604406,30257.355303,11630.394951,27508.604826,23213.180687,41366.239353,32907.825161,35111.461295,-0.018000,0.956000,0.274000,192.000000,0.000000,0.000000,0.000000,0.000000,0.000000,0.000000,0.000000,0.000000,0.000000,1647411698.492695,0.000000
220.000000,43137.212770,30253.466100,11626.952783,27509.722413,23214.030053,41360.740824,32903.690088,35102.431190,-0.018000,0.952000,0.274000,192.000000,255.000000,112.000000,29.000000,192.000000,8.000000,144.000000,0.000000,0.000000,0.000000,1647411698.492707,0.000000
221.000000,43141.727822,30257.087083,11631.244317,27508.582474,23219.975617,41357.544524,32900.404382,35095.345687,-0.018000,0.952000,0.274000,192.000000,0.000000,0.000000,0.000000,0.000000,0.000000,0.000000,0.000000,0.000000,0.000000,1647411698.500822,0.000000
222.000000,43151.473183,30260.283382,11635.357038,27507.710756,23214.588847,41357.946856,32899.845588,35095.502150,-0.018000,0.952000,0.274000,192.000000,0.000000,0.000000,0.000000,0.000000,0.000000,0.000000,0.000000,0.000000,0.000000,1647411698.500838,0.000000
223.000000,43162.850221,30273.985001,11640.520291,27516.852619,23220.847335,41360.874934,32904.092420,35102.811170,-0.018000,0.952000,0.274000,192.000000,0.000000,0.000000,0.000000,0.000000,0.000000,0.000000,0.000000,0.000000,0.000000,1647411698.507722,0.000000
224.000000,43150.623816,30266.966554,11632.741884,27517.098488,23227.105823,41360.986693,32902.684260,35103.548778,-0.018000,0.952000,0.274000,192.000000,0.000000,0.000000,0.000000,0.000000,0.000000,0.000000,0.000000,0.000000,0.000000,1647411698.507740,0.000000
225.000000,43148.589808,30257.981152,11637.681620,27523.871067,23230.011550,41374.218926,32911.513199,35109.919025,-0.018000,0.952000,0.274000,192.000000,0.000000,0.000000,0.000000,0.000000,0.000000,0.000000,0.000000,0.000000,0.000000,1647411698.515985,0.000000
226.000000,43150.288540,30257.869394,11636.742847,27518.327834,23230.302123,41371.290847,32909.725059,35109.650804,-0.018000,0.952000,0.274000,192.000000,0.000000,0.000000,0.000000,0.000000,0.000000,0.000000,0.000000,0.000000,0.000000,1647411698.522544,0.000000
227.000000,43143.225389,30252.549678,11634.954707,27517.903151,23225.563553,41372.251972,32911.602606,35114.523484,-0.018000,0.952000,0.274000,192.000000,0.000000,0.000000,0.000000,0.000000,0.000000,0.000000,0.000000,0.000000,0.000000,1647411698.522561,0.000000
228.000000,43137.078659,30248.369902,11628.249184,27513.231637,23226.658789,41365.993484,32910.373260,35108.846141,-0.018000,0.952000,0.274000,192.000000,0.000000,0.000000,0.000000,0.000000,0.000000,0.000000,0.000000,0.000000,0.000000,1647411698.530415,0.000000
229.000000,43143.270092,30262.943240,11636.541681,27524.228695,23232.023207,41376.610562,32920.833876,35110.388411,-0.018000,0.952000,0.274000,192.000000,0.000000,0.000000,0.000000,0.000000,0.000000,0.000000,0.000000,0.000000,0.000000,1647411698.530431,0.000000
230.000000,43145.572322,30265.625449,11639.402704,27530.353073,23237.544088,41378.644571,32922.465554,35113.048269,-0.010000,0.958000,0.268000,192.000000,255.000000,176.000000,29.000000,240.000000,8.000000,96.000000,0.000000,0.000000,0.000000,1647411698.538516,0.000000
231.000000,43138.531523,30251.566202,11632.875995,27522.395852,23233.721940,41372.341379,32915.469458,35111.573054,-0.010000,0.958000,0.268000,192.000000,0.000000,0.000000,0.000000,0.000000,0.000000,0.000000,0.000000,0.000000,0.000000,1647411698.538533,0.000000
232.000000,43145.214694,30259.299905,11635.558204,27528.274361,23232.045559,41382.287905,32920.118620,35116.557493,-0.010000,0.958000,0.268000,192.000000,0.000000,0.000000,0.000000,0.000000,0.000000,0.000000,0.000000,0.000000,0.000000,1647411698.545689,0.000000
233.000000,43158.916314,30282.098685,11644.230681,27540.679579,23241.187422,41395.341324,32926.064184,35124.045327,-0.010000,0.958000,0.268000,192.000000,0.000000,0.000000,0.000000,0.000000,0.000000,0.000000,0.000000,0.000000,0.000000,1647411698.545706,0.000000
234.000000,43164.638360,30291.933452,11646.912890,27543.004160,23250.888080,41393.687295,32928.478173,35127.465144,-0.010000,0.958000,0.268000,192.000000,0.000000,0.000000,0.000000,0.000000,0.000000,0.000000,0.000000,0.000000,0.000000,1647411698.553106,0.000000
235.000000,43164.548953,30287.083124,11639.760332,27536.030416,23248.854071,41388.836967,32923.359623,35122.972443,-0.010000,0.958000,0.268000,192.000000,0.000000,0.000000,0.000000,0.000000,0.000000,0.000000,0.000000,0.000000,0.000000,1647411698.553141,0.000000
236.000000,43154.915351,30287.105475,11638.709800,27534.734015,23251.268059,41386.937068,32918.576350,35117.317452,-0.010000,0.958000,0.268000,192.000000,0.000000,0.000000,0.000000,0.000000,0.000000,0.000000,0.000000,0.000000,0.000000,1647411698.561101,0.000000
237.000000,43151.093203,30276.488397,11633.613602,27534.398739,23251.692742,41384.947763,32913.435449,35115.238740,-0.010000,0.958000,0.268000,192.000000,0.000000,0.000000,0.000000,0.000000,0.000000,0.000000,0.000000,0.000000,0.000000,1647411698.561118,0.000000
238.000000,43155.854125,30269.738170,11630.260841,27530.576590,23245.724827,41384.970115,32908.093382,35111.103667,-0.010000,0.958000,0.268000,192.000000,0.000000,0.000000,0.000000,0.000000,0.000000,0.000000,0.000000,0.000000,0.000000,1647411698.569179,0.000000
239.000000,43172.752043,30283.663307,11649.103361,27543.115919,23256.408960,41403.253842,32922.309091,35121.877208,-0.010000,0.958000,0.268000,192.000000,0.000000,0.000000,0.000000,0.000000,0.000000,0.000000,0.000000,0.000000,0.000000,1647411698.569196,0.000000
240.000000,43180.575154,30295.353269,11657.574672,27552.123672,23263.896795,41410.160531,32929.931036,35127.509848,-0.008000,0.956000,0.266000,192.000000,255.000000,192.000000,29.000000,224.000000,8.000000,80.000000,0.000000,0.000000,0.000000,1647411698.575180,0.000000
241.000000,43162.693758,30289.385353,11643.403666,27540.724282,23259.649963,41395.788359,32923.985472,35119.843199,-0.008000,0.956000,0.266000,192.000000,0.000000,0.000000,0.000000,0.000000,0.000000,0.000000,0.000000,0.000000,0.000000,1647411698.582750,0.000000
242.000000,43157.597561,30280.064676,11635.379390,27532.811765,23247.445911,41384.768949,32917.883446,35108.667327,-0.008000,0.956000,0.266000,192.000000,0.000000,0.000000,0.000000,0.000000,0.000000,0.000000,0.000000,0.000000,0.000000,1647411698.582767,0.000000
243.000000,43157.821078,30281.137560,11634.261803,27535.292808,23241.343885,41383.450196,32912.519027,35105.001641,-0.008000,0.956000,0.266000,192.000000,0.000000,0.000000,0.000000,0.000000,0.000000,0.000000,0.000000,0.000000,0.000000,1647411698.590560,0.000000
244.000000,43164.034863,30288.088952,11638.061600,27542.043035,23243.713170,41385.953592,32916.587045,35111.751868,-0.008000,0.956000,0.266000,192.000000,0.000000,0.000000,0.000000,0.000000,0.000000,0.000000,0.000000,0.000000,0.000000,1647411698.590572,0.000000
245.000000,43160.927971,30281.897519,11634.306506,27538.444404,23242.260306,41382.869051,32914.687147,35115.171685,-0.008000,0.956000,0.266000,192.000000,0.000000,0.000000,0.000000,0.000000,0.000000,0.000000,0.000000,0.000000,0.000000,1647411698.597839,0.000000
246.000000,43157.798726,30279.684696,11631.110207,27533.392910,23241.947382,41380.119786,32907.400478,35114.367022,-0.008000,0.956000,0.266000,192.000000,0.000000,0.000000,0.000000,0.000000,0.000000,0.000000,0.000000,0.000000,0.000000,1647411698.597855,0.000000
247.000000,43160.570343,30281.539891,11633.568899,27532.297675,23237.678199,41383.830176,32911.379088,35118.032708,-0.008000,0.956000,0.266000,192.000000,0.000000,0.000000,0.000000,0.000000,0.000000,0.000000,0.000000,0.000000,0.000000,1647411698.605407,0.000000
248.000000,43162.760814,30283.395086,11630.663172,27528.900210,23234.928934,41382.220850,32909.680356,35119.865551,-0.008000,0.956000,0.266000,192.000000,0.000000,0.000000,0.000000,0.000000,0.000000,0.000000,0.000000,0.000000,0.000000,1647411698.605425,0.000000
249.000000,43158.893962,30279.416475,11628.048018,27524.899247,23236.761777,41372.274324,32901.745486,35111.885978,-0.008000,0.956000,0.266000,192.000000,0.000000,0.000000,0.000000,0.000000,0.000000,0.000000,0.000000,0.000000,0.000000,1647411698.613353,0.000000
250.000000,43161.397357,30284.870301,11630.707876,27528.609637,23234.146623,41371.044978,32895.174074,35099.614871,-0.010000,0.956000,0.258000,192.000000,255.000000,176.000000,29.000000,224.000000,8.000000,16.000000,0.000000,0.000000,0.000000,1647411698.613370,0.000000
251.000000,43163.185497,30281.115208,11630.014971,27529.391948,23237.007646,41370.955571,32898.660946,35103.034687,-0.010000,0.956000,0.258000,192.000000,0.000000,0.000000,0.000000,0.000000,0.000000,0.000000,0.000000,0.000000,0.000000,1647411698.621456,0.000000
252.000000,43163.364311,30280.914042,11627.623335,27526.642683,23232.850222,41372.564897,32900.180864,35101.805341,-0.010000,0.956000,0.258000,192.000000,0.000000,0.000000,0.000000,0.000000,0.000000,0.000000,0.000000,0.000000,0.000000,1647411698.621473,0.000000
253.000000,43165.308912,30279.505882,11633.054809,27533.079986,23234.571306,41378.421054,32903.757143,35100.374830,-0.010000,0.956000,0.258000,192.000000,0.000000,0.000000,0.000000,0.000000,0.000000,0.000000,0.000000,0.000000,0.000000,1647411698.628062,0.000000
254.000000,43164.951285,30272.599193,11633.032457,27535.449271,23239.399283,41372.341379,32901.611376,35092.439961,-0.010000,0.956000,0.258000,192.000000,0.000000,0.000000,0.000000,0.000000,0.000000,0.000000,0.000000,0.000000,0.000000,1647411698.628079,0.000000
255.000000,43149.997967,30261.423321,11618.079140,27519.132497,23228.692797,41357.745690,32887.105094,35076.838443,-0.010000,0.956000,0.258000,192.000000,0.000000,0.000000,0.000000,0.000000,0.000000,0.000000,0.000000,0.000000,0.000000,1647411698.635054,0.000000
0.000000,43153.417784,30265.625449,11624.762312,27521.658244,23226.368216,41367.356940,32895.866978,35076.346705,-0.010000,0.956000,0.258000,192.000000,0.000000,0.000000,0.000000,0.000000,0.000000,0.000000,0.000000,0.000000,0.000000,1647411698.643029,0.000000
1.000000,43152.858991,30263.658495,11625.432864,27522.842887,23229.296294,41368.586286,32898.817408,35076.458463,-0.010000,0.956000,0.258000,192.000000,0.000000,0.000000,0.000000,0.000000,0.000000,0.000000,0.000000,0.000000,0.000000,1647411698.643066,0.000000
2.000000,43157.731671,30265.737208,11625.879899,27526.307407,23229.586867,41371.134385,32898.906815,35077.374885,-0.010000,0.956000,0.258000,192.000000,0.000000,0.000000,0.000000,0.000000,0.000000,0.000000,0.000000,0.000000,0.000000,1647411698.651180,0.000000
3.000000,43154.021281,30265.401931,11624.091759,27524.608675,23233.029036,41369.994446,32900.180864,35082.359324,-0.010000,0.956000,0.258000,192.000000,0.000000,0.000000,0.000000,0.000000,0.000000,0.000000,0.000000,0.000000,0.000000,1647411698.651196,0.000000
4.000000,43159.743328,30275.683734,11627.131596,27526.128593,23230.413882,41378.242240,32903.757143,35085.846196,-0.010000,0.954000,0.262000,192.000000,255.000000,176.000000,29.000000,208.000000,8.000000,48.000000,0.000000,0.000000,0.000000,1647411698.657761,0.000000
5.000000,43159.363348,30269.000562,11631.087855,27528.699044,23232.470242,41381.237373,32903.131295,35090.562414,-0.010000,0.954000,0.262000,192.000000,0.000000,0.000000,0.000000,0.000000,0.000000,0.000000,0.000000,0.000000,0.000000,1647411698.657778,0.000000
6.000000,43154.356558,30265.334876,11630.596117,27532.118861,23230.860916,41380.723283,32901.074934,35090.741228,-0.010000,0.954000,0.262000,192.000000,0.000000,0.000000,0.000000,0.000000,0.000000,0.000000,0.000000,0.000000,0.000000,1647411698.665656,0.000000
7.000000,43162.157316,30275.370809,11634.485320,27534.242276,23231.039730,41385.908888,32903.958309,35093.803417,-0.010000,0.954000,0.262000,192.000000,0.000000,0.000000,0.000000,0.000000,0.000000,0.000000,0.000000,0.000000,0.000000,1647411698.665672,0.000000
8.000000,43172.103843,30284.289156,11641.906100,27538.019721,23239.108710,41392.055618,32910.350908,35098.474932,-0.010000,0.954000,0.262000,192.000000,0.000000,0.000000,0.000000,0.000000,0.000000,0.000000,0.000000,0.000000,0.000000,1647411698.673761,0.000000
9.000000,43161.687930,30272.062751,11636.116998,27534.175221,23241.634457,41385.506557,32907.869864,35098.139655,-0.010000,0.954000,0.262000,192.000000,0.000000,0.000000,0.000000,0.000000,0.000000,0.000000,0.000000,0.000000,0.000000,1647411698.673778,0.000000
10.000000,43144.499438,30260.529251,11621.566012,27517.478468,23232.738463,41373.816594,32897.543359,35089.087199,-0.010000,0.954000,0.262000,192.000000,0.000000,0.000000,0.000000,0.000000,0.000000,0.000000,0.000000,0.000000,0.000000,1647411698.680596,0.000000
11.000000,43143.471258,30257.332952,11616.134538,27507.040203,23218.500402,41370.597943,32892.380106,35086.472045,-0.010000,0.954000,0.262000,192.000000,0.000000,0.000000,0.000000,0.000000,0.000000,0.000000,0.000000,0.000000,0.000000,1647411698.680613,0.000000
12.000000,43149.997967,30259.746940,11625.097588,27520.160677,23223.328379,41376.521155,32895.419943,35093.490493,-0.010000,0.954000,0.262000,192.000000,0.000000,0.000000,0.000000,0.000000,0.000000,0.000000,0.000000,0.000000,0.000000,1647411698.688255,0.000000
13.000000,43148.321587,30256.908269,11625.276402,27524.161640,23230.927972,41379.829214,32901.343155,35096.686792,-0.010000,0.954000,0.262000,192.000000,0.000000,0.000000,0.000000,0.000000,0.000000,0.000000,0.000000,0.000000,0.000000,1647411698.688272,0.000000
14.000000,43146.712261,30254.248411,11619.956686,27523.804012,23228.961018,41379.560993,32901.387859,35095.278632,-0.010000,0.950000,0.262000,192.000000,255.000000,176.000000,29.000000,176.000000,8.000000,48.000000,0.000000,0.000000,0.000000,1647411698.695338,0.000000
15.000000,43149.260360,30250.761539,11619.710817,27523.334625,23224.937704,41377.839908,32898.638594,35083.186338,-0.010000,0.950000,0.262000,192.000000,0.000000,0.000000,0.000000,0.000000,0.000000,0.000000,0.000000,0.000000,0.000000,1647411698.703438,0.000000
16.000000,43155.429441,30256.908269,11627.578631,27525.636855,23228.379873,41383.606658,32908.205141,35088.193129,-0.010000,0.950000,0.262000,192.000000,0.000000,0.000000,0.000000,0.000000,0.000000,0.000000,0.000000,0.000000,0.000000,1647411698.703455,0.000000
17.000000,43153.551895,30264.105530,11625.634030,27525.011006,23226.122347,41383.539603,32910.373260,35094.138693,-0.010000,0.950000,0.262000,192.000000,0.000000,0.000000,0.000000,0.000000,0.000000,0.000000,0.000000,0.000000,0.000000,1647411698.709976,0.000000
18.000000,43162.246723,30277.695391,11630.931393,27532.297675,23229.519812,41393.106150,32918.218722,35099.033725,-0.010000,0.950000,0.262000,192.000000,0.000000,0.000000,0.000000,0.000000,0.000000,0.000000,0.000000,0.000000,0.000000,1647411698.709992,0.000000
19.000000,43152.635473,30263.390274,11625.723437,27521.881762,23230.905620,41386.020647,32910.395612,35091.635298,-0.010000,0.950000,0.262000,192.000000,0.000000,0.000000,0.000000,0.000000,0.000000,0.000000,0.000000,0.000000,0.000000,1647411698.717924,0.000000
20.000000,43146.689909,30254.829556,11621.633067,27513.678672,23228.178707,41378.510461,32903.287757,35086.181472,-0.010000,0.950000,0.262000,192.000000,0.000000,0.000000,0.000000,0.000000,0.000000,0.000000,0.000000,0.000000,0.000000,1647411698.717940,0.000000
21.000000,43141.504305,30250.426263,11623.689428,27514.818611,23221.026149,41378.286943,32902.416039,35087.097894,-0.010000,0.950000,0.262000,192.000000,0.000000,0.000000,0.000000,0.000000,0.000000,0.000000,0.000000,0.000000,0.000000,1647411698.726014,0.000000
22.000000,43139.894979,30245.866507,11621.320143,27515.533866,23219.953265,41379.985676,32902.103114,35089.534234,-0.010000,0.950000,0.262000,192.000000,0.000000,0.000000,0.000000,0.000000,0.000000,0.000000,0.000000,0.000000,0.000000,1647411698.726049,0.000000
23.000000,43140.073793,30242.379635,11618.727341,27513.253988,23222.479012,41376.498804,32895.285832,35087.232004,-0.010000,0.950000,0.262000,192.000000,0.000000,0.000000,0.000000,0.000000,0.000000,0.000000,0.000000,0.000000,0.000000,1647411698.733036,0.000000
24.000000,43150.556761,30257.176489,11626.930431,27524.273398,23222.411957,41392.122673,32905.254710,35093.915176,-0.010000,0.950000,0.262000,192.000000,0.000000,0.000000,0.000000,0.000000,0.000000,0.000000,0.000000,0.000000,0.000000,1647411698.733053,0.000000
25.000000,43158.625741,30274.320277,11639.916794,27536.522154,23232.403187,41406.405438,32916.095306,35104.375792,-0.008000,0.948000,0.260000,192.000000,255.000000,192.000000,29.000000,160.000000,8.000000,32.000000,0.000000,0.000000,0.000000,1647411698.740661,0.000000
26.000000,43157.374043,30273.448559,11638.709800,27537.773852,23235.197155,41405.690182,32915.044774,35105.627490,-0.008000,0.948000,0.260000,192.000000,0.000000,0.000000,0.000000,0.000000,0.000000,0.000000,0.000000,0.000000,0.000000,1647411698.740678,0.000000
27.000000,43152.814287,30266.050132,11632.116035,27533.415262,23233.923105,41399.118769,32908.451010,35101.090086,-0.008000,0.948000,0.260000,192.000000,0.000000,0.000000,0.000000,0.000000,0.000000,0.000000,0.000000,0.000000,0.000000,1647411698.748673,0.000000
28.000000,43145.862895,30261.043341,11626.170471,27522.060576,23229.340998,41389.820443,32899.867940,35092.775237,-0.008000,0.948000,0.260000,192.000000,0.000000,0.000000,0.000000,0.000000,0.000000,0.000000,0.000000,0.000000,0.000000,1647411698.748689,0.000000
29.000000,43153.417784,30270.498129,11634.619431,27525.525096,23224.378911,41396.481263,32906.081725,35097.066772,-0.008000,0.948000,0.260000,192.000000,0.000000,0.000000,0.000000,0.000000,0.000000,0.000000,0.000000,0.000000,0.000000,1647411698.755767,0.000000
30.000000,43148.969787,30254.963667,11633.099512,27525.972131,23227.105823,41391.519176,32909.121562,35100.263071,-0.008000,0.948000,0.260000,192.000000,0.000000,0.000000,0.000000,0.000000,0.000000,0.000000,0.000000,0.000000,0.000000,1647411698.755785,0.000000
31.000000,43146.645206,30248.347550,11630.752579,27529.906038,23224.893001,41389.619278,32908.316899,35098.832559,-0.008000,0.948000,0.260000,192.000000,0.000000,0.000000,0.000000,0.000000,0.000000,0.000000,0.000000,0.000000,0.000000,1647411698.762812,0.000000
32.000000,43155.518848,30257.847042,11637.703972,27540.232544,23227.418748,41393.888461,32911.848475,35101.470065,-0.008000,0.948000,0.260000,192.000000,0.000000,0.000000,0.000000,0.000000,0.000000,0.000000,0.000000,0.000000,0.000000,1647411698.770071,0.000000
33.000000,43155.809421,30262.116225,11637.055771,27537.259762,23232.425539,41388.814615,32909.993280,35102.900577,-0.008000,0.948000,0.260000,192.000000,0.000000,0.000000,0.000000,0.000000,0.000000,0.000000,0.000000,0.000000,0.000000,1647411698.770088,0.000000
34.000000,43138.330357,30257.668228,11621.208384,27520.406547,23225.049463,41374.822423,32897.252786,35091.456484,-0.008000,0.948000,0.260000,192.000000,0.000000,0.000000,0.000000,0.000000,0.000000,0.000000,0.000000,0.000000,0.000000,1647411698.778244,0.000000
35.000000,43141.660767,30264.932545,11623.980000,27520.719471,23222.993102,41375.805900,32896.604585,35085.376809,-0.012000,0.946000,0.268000,192.000000,255.000000,160.000000,29.000000,144.000000,8.000000,96.000000,0.000000,0.000000,0.000000,1647411698.778261,0.000000
36.000000,43143.985348,30258.629353,11617.967381,27523.111108,23220.266190,41377.236411,32898.079800,35084.259222,-0.012000,0.946000,0.268000,192.000000,0.000000,0.000000,0.000000,0.000000,0.000000,0.000000,0.000000,0.000000,0.000000,1647411698.786349,0.000000
37.000000,43145.706433,30250.694484,11625.902251,27526.888553,23221.584943,41387.697028,32904.740620,35092.998754,-0.012000,0.946000,0.268000,192.000000,0.000000,0.000000,0.000000,0.000000,0.000000,0.000000,0.000000,0.000000,0.000000,1647411698.786366,0.000000
38.000000,43133.189456,30240.569143,11622.527137,27519.624236,23221.920219,41382.667885,32899.175036,35089.802455,-0.012000,0.946000,0.268000,192.000000,0.000000,0.000000,0.000000,0.000000,0.000000,0.000000,0.000000,0.000000,0.000000,1647411698.792844,0.000000
39.000000,43141.146677,30248.034626,11629.031495,27525.480393,23222.836640,41389.932202,32905.321766,35094.362211,-0.012000,0.946000,0.268000,192.000000,0.000000,0.000000,0.000000,0.000000,0.000000,0.000000,0.000000,0.000000,0.000000,1647411698.792859,0.000000
40.000000,43150.445002,30255.947144,11633.881823,27529.280189,23227.239934,41395.475435,32914.351870,35099.301946,-0.012000,0.946000,0.268000,192.000000,0.000000,0.000000,0.000000,0.000000,0.000000,0.000000,0.000000,0.000000,0.000000,1647411698.800864,0.000000
41.000000,43146.868723,30253.264934,11630.462006,27524.966303,23227.530507,41391.407417,32912.586083,35101.045382,-0.012000,0.946000,0.268000,192.000000,0.000000,0.000000,0.000000,0.000000,0.000000,0.000000,0.000000,0.000000,0.000000,1647411698.800881,0.000000
42.000000,43139.984386,30250.023931,11622.594192,27519.579532,23221.584943,41385.014818,32905.724097,35094.876301,-0.012000,0.946000,0.268000,192.000000,0.000000,0.000000,0.000000,0.000000,0.000000,0.000000,0.000000,0.000000,0.000000,1647411698.808831,0.000000
43.000000,43143.337148,30256.796510,11627.265707,27522.217038,23223.238972,41383.696065,32901.946652,35091.188263,-0.012000,0.946000,0.268000,192.000000,0.000000,0.000000,0.000000,0.000000,0.000000,0.000000,0.000000,0.000000,0.000000,1647411698.808866,0.000000
44.000000,43147.069889,30256.528289,11628.159777,27521.322968,23221.987274,41379.315123,32896.246957,35083.991001,-0.012000,0.946000,0.268000,192.000000,0.000000,0.000000,0.000000,0.000000,0.000000,0.000000,0.000000,0.000000,0.000000,1647411698.815944,0.000000
45.000000,43151.696700,30256.751806,11628.137425,27519.981863,23220.355597,41378.622219,32896.179902,35082.895766,-0.016000,0.950000,0.264000,192.000000,255.000000,128.000000,29.000000,176.000000,8.000000,64.000000,0.000000,0.000000,0.000000,1647411698.815962,0.000000
46.000000,43154.714186,30261.557431,11633.770065,27527.156773,23219.126251,41381.639705,32898.258614,35085.153292,-0.016000,0.950000,0.264000,192.000000,0.000000,0.000000,0.000000,0.000000,0.000000,0.000000,0.000000,0.000000,0.000000,1647411698.822539,0.000000
47.000000,43148.813325,30260.439844,11630.640820,27528.967265,23220.310893,41379.560993,32895.643460,35082.158158,-0.016000,0.950000,0.264000,192.000000,0.000000,0.000000,0.000000,0.000000,0.000000,0.000000,0.000000,0.000000,0.000000,1647411698.830595,0.000000
48.000000,43148.545104,30257.690580,11631.691352,27527.089718,23222.970751,41379.471586,32894.704687,35079.967687,-0.016000,0.950000,0.264000,192.000000,0.000000,0.000000,0.000000,0.000000,0.000000,0.000000,0.000000,0.000000,0.000000,1647411698.830612,0.000000
49.000000,43148.321587,30254.047245,11627.623335,27524.519268,23221.383777,41377.862260,32892.804789,35077.352533,-0.016000,0.950000,0.264000,192.000000,0.000000,0.000000,0.000000,0.000000,0.000000,0.000000,0.000000,0.000000,0.000000,1647411698.838472,0.000000
50.000000,43148.165124,30252.504975,11625.745788,27518.819573,23219.282713,41378.868089,32893.475341,35078.313658,-0.016000,0.950000,0.264000,192.000000,0.000000,0.000000,0.000000,0.000000,0.000000,0.000000,0.000000,0.000000,0.000000,1647411698.838488,0.000000
51.000000,43151.629645,30259.031684,11628.584460,27526.128593,23217.606332,41387.585269,32900.829065,35086.181472,-0.016000,0.950000,0.264000,192.000000,0.000000,0.000000,0.000000,0.000000,0.000000,0.000000,0.000000,0.000000,0.000000,1647411698.845147,0.000000
52.000000,43147.338110,30257.735283,11633.948879,27527.872029,23224.200097,41391.832100,32902.572501,35092.507016,-0.016000,0.950000,0.264000,192.000000,0.000000,0.000000,0.000000,0.000000,0.000000,0.000000,0.000000,0.000000,0.000000,1647411698.845164,0.000000
53.000000,43141.414898,30253.197879,11627.779797,27516.539695,23223.753062,41381.639705,32893.028306,35090.137731,-0.016000,0.950000,0.264000,192.000000,0.000000,0.000000,0.000000,0.000000,0.000000,0.000000,0.000000,0.000000,0.000000,1647411698.853178,0.000000
54.000000,43140.632587,30252.415568,11623.711780,27518.551352,23213.135983,41380.946801,32892.670678,35089.243661,-0.016000,0.950000,0.264000,192.000000,0.000000,0.000000,0.000000,0.000000,0.000000,0.000000,0.000000,0.000000,0.000000,1647411698.853194,0.000000
55.000000,43128.495589,30239.272742,11609.205497,27507.755459,23205.312873,41368.519231,32883.148835,35084.505091,-0.014000,0.948000,0.270000,192.000000,255.000000,144.000000,29.000000,160.000000,8.000000,112.000000,0.000000,0.000000,0.000000,1647411698.861084,0.000000
56.000000,43127.892092,30237.797527,11609.138442,27502.949834,23196.349823,41368.563934,32881.986544,35080.817053,-0.014000,0.948000,0.270000,192.000000,0.000000,0.000000,0.000000,0.000000,0.000000,0.000000,0.000000,0.000000,0.000000,1647411698.861100,0.000000
57.000000,43130.104915,30245.374768,11613.429977,27507.531942,23201.021338,41375.157699,32890.435504,35092.797588,-0.014000,0.948000,0.270000,192.000000,0.000000,0.000000,0.000000,0.000000,0.000000,0.000000,0.000000,0.000000,0.000000,1647411698.868100,0.000000
58.000000,43134.754078,30253.555507,11615.620448,27515.958549,23204.776431,41381.237373,32894.414114,35093.334030,-0.014000,0.948000,0.270000,192.000000,0.000000,0.000000,0.000000,0.000000,0.000000,0.000000,0.000000,0.000000,0.000000,1647411698.868116,0.000000
59.000000,43149.059194,30265.781911,11631.266669,27530.263666,23211.258437,41400.996316,32913.636615,35108.868493,-0.014000,0.948000,0.270000,192.000000,0.000000,0.000000,0.000000,0.000000,0.000000,0.000000,0.000000,0.000000,0.000000,1647411698.875790,0.000000
60.000000,43134.955243,30254.047245,11623.600021,27520.875933,23220.467355,41386.333571,32901.857245,35104.398144,-0.014000,0.948000,0.270000,192.000000,0.000000,0.000000,0.000000,0.000000,0.000000,0.000000,0.000000,0.000000,0.000000,1647411698.875806,0.000000
61.000000,43126.685098,30247.229963,11612.222983,27513.969244,23211.459602,41377.728150,32887.708591,35090.584766,-0.014000,0.948000,0.270000,192.000000,0.000000,0.000000,0.000000,0.000000,0.000000,0.000000,0.000000,0.000000,0.000000,1647411698.882850,0.000000
62.000000,43132.295386,30254.337818,11621.342495,27522.842887,23212.711300,41388.479339,32893.810617,35096.843254,-0.014000,0.948000,0.270000,192.000000,0.000000,0.000000,0.000000,0.000000,0.000000,0.000000,0.000000,0.000000,0.000000,1647411698.890764,0.000000
63.000000,43136.139886,30255.678923,11633.479492,27528.319064,23222.277847,41390.401589,32897.208082,35098.027897,-0.014000,0.948000,0.270000,192.000000,0.000000,0.000000,0.000000,0.000000,0.000000,0.000000,0.000000,0.000000,0.000000,1647411698.890780,0.000000
64.000000,43139.738517,30259.322257,11638.687448,27535.382215,23227.128175,41396.324801,32899.733829,35095.837426,-0.014000,0.948000,0.270000,192.000000,0.000000,0.000000,0.000000,0.000000,0.000000,0.000000,0.000000,0.000000,0.000000,1647411698.897876,0.000000
65.000000,43145.147639,30260.998638,11641.660230,27535.538678,23229.810384,41398.694086,32898.638594,35095.390391,-0.016000,0.950000,0.272000,192.000000,255.000000,128.000000,29.000000,176.000000,8.000000,128.000000,0.000000,0.000000,0.000000,1647411698.897911,0.000000
66.000000,43144.745308,30259.165795,11641.235547,27535.359864,23231.240896,41400.593984,32902.013707,35098.430228,-0.016000,0.950000,0.272000,192.000000,0.000000,0.000000,0.000000,0.000000,0.000000,0.000000,0.000000,0.000000,0.000000,1647411698.905475,0.000000
67.000000,43142.644244,30263.099702,11638.754504,27536.790375,23231.665579,41401.555109,32906.640519,35098.072600,-0.016000,0.950000,0.272000,192.000000,0.000000,0.000000,0.000000,0.000000,0.000000,0.000000,0.000000,0.000000,0.000000,1647411698.905492,0.000000
68.000000,43149.729747,30270.766350,11643.671887,27536.745672,23234.146623,41400.437522,32906.975795,35100.196016,-0.016000,0.950000,0.272000,192.000000,0.000000,0.000000,0.000000,0.000000,0.000000,0.000000,0.000000,0.000000,0.000000,1647411698.913439,0.000000
69.000000,43150.333244,30270.006391,11642.219024,27536.320989,23231.106786,41400.191653,32907.221664,35103.168798,-0.016000,0.950000,0.272000,192.000000,0.000000,0.000000,0.000000,0.000000,0.000000,0.000000,0.000000,0.000000,0.000000,1647411698.913455,0.000000
70.000000,43147.025185,30271.056923,11643.761294,27540.277247,23232.246725,41399.163473,32906.595815,35104.174626,-0.016000,0.950000,0.272000,192.000000,0.000000,0.000000,0.000000,0.000000,0.000000,0.000000,0.000000,0.000000,0.000000,1647411698.921179,0.000000
71.000000,43137.548046,30263.233812,11635.893480,27535.203401,23229.162184,41390.714513,32900.382030,35098.676097,-0.016000,0.950000,0.272000,192.000000,0.000000,0.000000,0.000000,0.000000,0.000000,0.000000,0.000000,0.000000,0.000000,1647411698.921195,0.000000
72.000000,43143.515962,30261.870356,11642.554300,27541.931277,23229.676274,41401.085723,32907.825161,35105.716897,-0.016000,0.950000,0.272000,192.000000,0.000000,0.000000,0.000000,0.000000,0.000000,0.000000,0.000000,0.000000,0.000000,1647411698.928001,0.000000
73.000000,43142.085450,30265.893670,11646.734076,27547.474509,23238.348751,41407.366563,32914.083649,35113.271786,-0.016000,0.950000,0.272000,192.000000,0.000000,0.000000,0.000000,0.000000,0.000000,0.000000,0.000000,0.000000,0.000000,1647411698.928019,0.000000
74.000000,43134.463505,30261.535080,11643.180149,27545.105224,23234.817175,41405.511368,32912.720193,35113.048269,-0.016000,0.950000,0.272000,192.000000,0.000000,0.000000,0.000000,0.000000,0.000000,0.000000,0.000000,0.000000,0.000000,1647411698.936090,0.000000
75.000000,43128.808514,30249.331027,11630.707876,27533.415262,23227.575210,41394.246089,32901.745486,35103.526426,-0.010000,0.944000,0.274000,192.000000,255.000000,176.000000,29.000000,128.000000,8.000000,144.000000,0.000000,0.000000,0.000000,1647411698.936106,0.000000
76.000000,43107.127322,30230.600265,11623.711780,27526.888553,23221.428480,41391.318010,32900.627899,35101.827693,-0.010000,0.944000,0.274000,192.000000,0.000000,0.000000,0.000000,0.000000,0.000000,0.000000,0.000000,0.000000,0.000000,1647411698.943040,0.000000
77.000000,43094.699752,30221.123126,11625.745788,27520.652416,23215.438213,41392.636763,32901.901949,35098.944318,-0.010000,0.944000,0.274000,192.000000,0.000000,0.000000,0.000000,0.000000,0.000000,0.000000,0.000000,0.000000,0.000000,1647411698.950963,0.000000
78.000000,43077.064225,30201.319480,11613.184108,27512.091698,23209.850277,41387.227641,32899.175036,35093.043458,-0.010000,0.944000,0.274000,192.000000,0.000000,0.000000,0.000000,0.000000,0.000000,0.000000,0.000000,0.000000,0.000000,1647411698.950979,0.000000
79.000000,43050.018615,30176.263175,11608.646704,27509.543599,23198.294425,41393.620240,32900.136161,35095.099818,-0.010000,0.944000,0.274000,192.000000,0.000000,0.000000,0.000000,0.000000,0.000000,0.000000,0.000000,0.000000,0.000000,1647411698.957472,0.000000
80.000000,43016.803922,30145.529526,11595.615637,27500.737012,23192.527675,41387.674676,32897.811579,35100.754809,-0.010000,0.944000,0.274000,192.000000,0.000000,0.000000,0.000000,0.000000,0.000000,0.000000,0.000000,0.000000,0.000000,1647411698.957488,0.000000
81.000000,42979.476509,30107.151581,11575.744936,27487.035392,23179.943643,41379.628048,32895.889329,35096.999716,-0.010000,0.944000,0.274000,192.000000,0.000000,0.000000,0.000000,0.000000,0.000000,0.000000,0.000000,0.000000,0.000000,1647411698.965777,0.000000
82.000000,42950.061613,30083.414028,11569.151171,27482.743857,23170.801779,41383.897231,32899.376202,35098.743152,-0.010000,0.944000,0.274000,192.000000,0.000000,0.000000,0.000000,0.000000,0.000000,0.000000,0.000000,0.000000,0.000000,1647411698.965793,0.000000
83.000000,42912.287165,30050.333446,11562.825628,27471.679744,23168.164273,41381.997333,32903.578330,35099.346650,-0.010000,0.944000,0.274000,192.000000,0.000000,0.000000,0.000000,0.000000,0.000000,0.000000,0.000000,0.000000,0.000000,1647411698.973660,0.000000
84.000000,42879.139528,30012.871923,11548.475808,27458.112235,23158.307154,41371.827289,32899.577367,35096.329164,-0.010000,0.944000,0.274000,192.000000,0.000000,0.000000,0.000000,0.000000,0.000000,0.000000,0.000000,0.000000,0.000000,1647411698.973678,0.000000
85.000000,42839.465182,29983.144102,11532.918994,27446.444624,23143.912631,41363.668902,32892.022478,35088.886033,-0.012000,0.944000,0.278000,192.000000,255.000000,160.000000,29.000000,128.000000,8.000000,176.000000,0.000000,0.000000,0.000000,1647411698.980272,0.000000
86.000000,42810.698487,29955.584402,11530.214433,27440.409653,23133.921401,41368.295713,32893.587100,35090.897690,-0.012000,0.944000,0.278000,192.000000,0.000000,0.000000,0.000000,0.000000,0.000000,0.000000,0.000000,0.000000,0.000000,1647411698.980307,0.000000
87.000000,42775.270972,29920.112183,11515.462281,27430.686644,23126.254752,41357.566876,32886.412190,35084.996830,-0.012000,0.944000,0.278000,192.000000,0.000000,0.000000,0.000000,0.000000,0.000000,0.000000,0.000000,0.000000,0.000000,1647411698.988413,0.000000
88.000000,42758.417756,29902.029622,11515.797557,27430.574886,23124.466613,41362.417205,32888.043867,35084.102760,-0.012000,0.944000,0.278000,192.000000,0.000000,0.000000,0.000000,0.000000,0.000000,0.000000,0.000000,0.000000,0.000000,1647411698.988430,0.000000
89.000000,42734.210817,29878.873215,11502.855897,27418.840220,23114.385976,41352.045995,32872.822329,35073.843309,-0.012000,0.944000,0.278000,192.000000,0.000000,0.000000,0.000000,0.000000,0.000000,0.000000,0.000000,0.000000,0.000000,1647411698.996179,0.000000
90.000000,42710.897948,29865.462168,11498.094976,27419.644883,23110.563828,41349.766117,32869.916602,35069.507071,-0.012000,0.944000,0.278000,192.000000,0.000000,0.000000,0.000000,0.000000,0.000000,0.000000,0.000000,0.000000,0.000000,1647411698.996190,0.000000
91.000000,42694.514119,29849.883002,11494.138717,27410.681833,23105.132354,41349.453193,32872.308239,35070.758768,-0.012000,0.944000,0.278000,192.000000,0.000000,0.000000,0.000000,0.000000,0.000000,0.000000,0.000000,0.000000,0.000000,1647411699.003136,0.000000
92.000000,42682.064197,29837.991874,11491.836487,27402.702260,23100.550246,41350.011986,32871.503576,35069.194146,-0.012000,0.944000,0.278000,192.000000,0.000000,0.000000,0.000000,0.000000,0.000000,0.000000,0.000000,0.000000,0.000000,1647411699.003148,0.000000
93.000000,42675.939819,29832.985083,11493.289351,27402.478743,23101.980758,41354.214114,32876.264498,35073.753902,-0.012000,0.944000,0.278000,192.000000,0.000000,0.000000,0.000000,0.000000,0.000000,0.000000,0.000000,0.000000,0.000000,1647411699.009718,0.000000
94.000000,42674.576363,29826.592484,11495.457470,27400.556493,23097.823333,41357.656283,32879.930184,35076.592574,-0.012000,0.944000,0.278000,192.000000,0.000000,0.000000,0.000000,0.000000,0.000000,0.000000,0.000000,0.000000,0.000000,1647411699.017830,0.000000
95.000000,42682.310066,29837.589543,11495.926857,27401.897598,23097.756278,41355.398757,32878.231451,35077.777216,-0.014000,0.938000,0.278000,192.000000,255.000000,144.000000,29.000000,80.000000,8.000000,176.000000,0.000000,0.000000,0.000000,1647411699.017842,0.000000
96.000000,42678.845546,29835.935513,11496.306836,27398.790705,23099.387956,41354.482335,32874.990448,35077.508995,-0.014000,0.938000,0.278000,192.000000,0.000000,0.000000,0.000000,0.000000,0.000000,0.000000,0.000000,0.000000,0.000000,1647411699.025844,0.000000
97.000000,42677.906773,29835.644941,11495.077490,27397.807228,23091.497790,41361.947818,32875.795111,35082.873414,-0.014000,0.938000,0.278000,192.000000,0.000000,0.000000,0.000000,0.000000,0.000000,0.000000,0.000000,0.000000,0.000000,1647411699.025856,0.000000
98.000000,42688.702665,29843.646865,11501.872421,27406.435002,23101.533723,41364.898248,32878.700838,35088.394295,-0.014000,0.938000,0.278000,192.000000,0.000000,0.000000,0.000000,0.000000,0.000000,0.000000,0.000000,0.000000,0.000000,1647411699.032824,0.000000
99.000000,42690.937840,29845.367950,11496.798575,27399.640071,23101.310206,41355.532867,32872.442349,35082.538138,-0.014000,0.938000,0.278000,192.000000,0.000000,0.000000,0.000000,0.000000,0.000000,0.000000,0.000000,0.000000,0.000000,1647411699.032837,0.000000
100.000000,42690.647267,29841.881078,11488.416670,27384.910272,23096.303415,41340.020757,32864.015742,35065.997847,-0.014000,0.938000,0.278000,192.000000,0.000000,0.000000,0.000000,0.000000,0.000000,0.000000,0.000000,0.000000,0.000000,1647411699.040319,0.000000
101.000000,42711.568500,29868.837281,11494.697511,27396.175551,23096.415174,41338.187914,32857.086701,35053.302056,-0.014000,0.938000,0.278000,192.000000,0.000000,0.000000,0.000000,0.000000,0.000000,0.000000,0.000000,0.000000,0.000000,1647411699.040331,0.000000
102.000000,42732.042698,29891.725468,11505.560458,27406.211484,23105.378223,41343.507629,32858.807785,35056.811280,-0.014000,0.938000,0.278000,192.000000,0.000000,0.000000,0.000000,0.000000,0.000000,0.000000,0.000000,0.000000,0.000000,1647411699.048413,0.000000
103.000000,42752.271027,29906.522322,11516.199889,27411.307682,23114.587142,41347.732109,32860.372407,35062.198050,-0.014000,0.938000,0.278000,192.000000,0.000000,0.000000,0.000000,0.000000,0.000000,0.000000,0.000000,0.000000,0.000000,1647411699.048426,0.000000
104.000000,42768.520745,29920.916846,11516.982200,27413.833429,23115.034177,41345.273417,32857.757253,35056.498355,-0.014000,0.938000,0.278000,192.000000,0.000000,0.000000,0.000000,0.000000,0.000000,0.000000,0.000000,0.000000,0.000000,1647411699.056574,0.000000
105.000000,42798.025048,29951.628143,11530.884985,27429.032615,23120.711520,41356.941027,32868.262573,35064.366169,-0.014000,0.934000,0.288000,192.000000,255.000000,144.000000,29.000000,48.000000,9.000000,0.000000,0.000000,0.000000,0.000000,1647411699.056591,0.000000
106.000000,42821.360269,29976.550338,11540.585642,27435.536973,23129.652218,41357.455117,32864.887460,35069.730588,-0.014000,0.934000,0.288000,192.000000,0.000000,0.000000,0.000000,0.000000,0.000000,0.000000,0.000000,0.000000,0.000000,1647411699.063177,0.000000
107.000000,42832.826714,29987.234472,11539.043372,27435.112290,23132.736758,41356.225771,32863.769873,35072.435149,-0.014000,0.934000,0.288000,192.000000,0.000000,0.000000,0.000000,0.000000,0.000000,0.000000,0.000000,0.000000,0.000000,1647411699.063211,0.000000
108.000000,42851.423365,30007.351042,11545.994764,27440.633171,23138.995247,41356.628103,32861.691160,35067.875393,-0.014000,0.934000,0.288000,192.000000,0.000000,0.000000,0.000000,0.000000,0.000000,0.000000,0.000000,0.000000,0.000000,1647411699.070111,0.000000
109.000000,42877.530203,30034.240190,11562.691517,27456.234688,23149.567622,41364.272399,32863.635762,35058.062978,-0.014000,0.934000,0.288000,192.000000,0.000000,0.000000,0.000000,0.000000,0.000000,0.000000,0.000000,0.000000,0.000000,1647411699.078135,0.000000
110.000000,42890.740084,30045.393711,11566.312500,27452.926630,23155.714352,41357.790394,32865.267440,35049.636370,-0.014000,0.934000,0.288000,192.000000,0.000000,0.000000,0.000000,0.000000,0.000000,0.000000,0.000000,0.000000,0.000000,1647411699.078151,0.000000
111.000000,42911.616613,30065.398522,11569.620558,27459.587450,23159.804721,41367.893382,32877.449140,35094.049286,-0.014000,0.934000,0.288000,192.000000,0.000000,0.000000,0.000000,0.000000,0.000000,0.000000,0.000000,0.000000,0.000000,1647411699.085276,0.000000
112.000000,42938.148134,30090.723049,11585.266779,27474.920747,23169.237157,41385.908888,32904.226530,35131.175534,-0.014000,0.934000,0.288000,192.000000,0.000000,0.000000,0.000000,0.000000,0.000000,0.000000,0.000000,0.000000,0.000000,1647411699.085291,0.000000
113.000000,42951.693291,30103.687060,11590.564143,27476.038334,23179.630718,41383.494900,32897.833931,35120.670214,-0.014000,0.934000,0.288000,192.000000,0.000000,0.000000,0.000000,0.000000,0.000000,0.000000,0.000000,0.000000,0.000000,1647411699.092672,0.000000
114.000000,42972.525117,30118.595674,11591.793488,27474.004325,23179.206035,41371.469661,32875.817463,35085.846196,-0.014000,0.934000,0.288000,192.000000,0.000000,0.000000,0.000000,0.000000,0.000000,0.000000,0.000000,0.000000,0.000000,1647411699.092689,0.000000
115.000000,42985.958515,30130.755023,11592.262875,27478.139398,23181.083582,41370.240315,32877.806768,35078.492472,-0.016000,0.924000,0.292000,192.000000,255.000000,128.000000,28.000000,224.000000,9.000000,32.000000,0.000000,0.000000,0.000000,1647411699.100959,0.000000
116.000000,42993.535756,30135.247723,11598.208439,27479.122875,23184.034012,41371.648475,32889.161454,35102.431190,-0.016000,0.924000,0.292000,192.000000,0.000000,0.000000,0.000000,0.000000,0.000000,0.000000,0.000000,0.000000,0.000000,1647411699.100975,0.000000
117.000000,43011.841835,30149.888116,11602.634085,27483.012078,23181.642375,41372.475490,32886.255728,35099.078429,-0.016000,0.924000,0.292000,192.000000,0.000000,0.000000,0.000000,0.000000,0.000000,0.000000,0.000000,0.000000,0.000000,1647411699.108944,0.000000
118.000000,43022.145989,30157.375951,11601.896477,27481.648622,23187.029146,41365.769966,32873.671695,35082.962821,-0.016000,0.924000,0.292000,192.000000,0.000000,0.000000,0.000000,0.000000,0.000000,0.000000,0.000000,0.000000,0.000000,1647411699.108960,0.000000
119.000000,43026.191655,30160.885174,11598.387253,27482.095657,23188.549064,41362.886591,32874.409303,35071.026989,-0.016000,0.924000,0.292000,192.000000,0.000000,0.000000,0.000000,0.000000,0.000000,0.000000,0.000000,0.000000,0.000000,1647411699.115326,0.000000
120.000000,43030.617300,30159.275849,11589.491259,27478.653488,23186.872683,41361.076100,32879.796073,35081.487606,-0.016000,0.924000,0.292000,192.000000,0.000000,0.000000,0.000000,0.000000,0.000000,0.000000,0.000000,0.000000,0.000000,1647411699.115342,0.000000
121.000000,43038.038080,30170.205852,11594.766270,27482.453285,23185.531579,41367.066368,32883.215890,35083.163987,-0.016000,0.924000,0.292000,192.000000,0.000000,0.000000,0.000000,0.000000,0.000000,0.000000,0.000000,0.000000,0.000000,1647411699.123566,0.000000
122.000000,43047.001129,30179.504178,11597.426128,27484.621404,23187.654994,41366.574629,32883.037076,35081.822882,-0.016000,0.924000,0.292000,192.000000,0.000000,0.000000,0.000000,0.000000,0.000000,0.000000,0.000000,0.000000,0.000000,1647411699.123582,0.000000
123.000000,43062.870868,30191.641175,11607.618524,27490.857540,23194.137000,41366.261705,32877.627954,35082.247565,-0.016000,0.924000,0.292000,192.000000,0.000000,0.000000,0.000000,0.000000,0.000000,0.000000,0.000000,0.000000,0.000000,1647411699.130674,0.000000
124.000000,43080.282877,30216.496315,11624.650553,27504.559160,23204.865838,41376.297638,32883.215890,35087.321411,-0.016000,0.924000,0.292000,192.000000,0.000000,0.000000,0.000000,0.000000,0.000000,0.000000,0.000000,0.000000,0.000000,1647411699.138548,0.000000
125.000000,43077.734778,30216.071631,11626.483396,27506.749631,23211.236085,41376.007065,32886.211024,35094.116341,-0.016000,0.924000,0.292000,192.000000,0.000000,0.000000,0.000000,0.000000,0.000000,0.000000,0.000000,0.000000,0.000000,1647411699.138565,0.000000
126.000000,43084.641467,30220.117297,11623.331800,27507.531942,23209.380890,41372.363731,32883.752332,35093.043458,-0.008000,0.920000,0.304000,192.000000,255.000000,192.000000,28.000000,192.000000,9.000000,128.000000,0.000000,0.000000,0.000000,1647411699.145176,0.000000
127.000000,43090.408217,30221.100774,11622.102454,27503.620387,23204.463506,41367.938086,32879.818425,35091.858815,-0.008000,0.920000,0.304000,192.000000,0.000000,0.000000,0.000000,0.000000,0.000000,0.000000,0.000000,0.000000,0.000000,1647411699.145194,0.000000
128.000000,43084.529708,30221.301940,11615.173413,27505.319119,23208.978559,41364.227696,32875.705704,35094.339859,-0.008000,0.920000,0.304000,192.000000,0.000000,0.000000,0.000000,0.000000,0.000000,0.000000,0.000000,0.000000,0.000000,1647411699.152995,0.000000
129.000000,43095.079731,30234.064786,11625.924602,27514.528038,23212.532486,41371.089682,32877.113864,35095.613908,-0.008000,0.920000,0.304000,192.000000,0.000000,0.000000,0.000000,0.000000,0.000000,0.000000,0.000000,0.000000,0.000000,1647411699.153014,0.000000
130.000000,43094.319772,30231.784908,11623.868242,27508.493067,23214.432384,41361.947818,32869.044884,35095.077466,-0.008000,0.920000,0.304000,192.000000,0.000000,0.000000,0.000000,0.000000,0.000000,0.000000,0.000000,0.000000,0.000000,1647411699.161102,0.000000
131.000000,43092.352819,30229.549733,11616.447463,27507.420183,23211.258437,41352.873010,32858.047826,35086.628507,-0.008000,0.920000,0.304000,192.000000,0.000000,0.000000,0.000000,0.000000,0.000000,0.000000,0.000000,0.000000,0.000000,1647411699.161118,0.000000
132.000000,43086.966048,30223.492411,11607.573820,27498.434782,23208.062137,41341.630082,32849.554163,35080.660591,-0.008000,0.920000,0.304000,192.000000,0.000000,0.000000,0.000000,0.000000,0.000000,0.000000,0.000000,0.000000,0.000000,1647411699.168225,0.000000
133.000000,43091.682266,30222.374823,11604.869259,27495.506703,23204.843486,41337.919693,32847.251933,35075.743207,-0.008000,0.920000,0.304000,192.000000,0.000000,0.000000,0.000000,0.000000,0.000000,0.000000,0.000000,0.000000,0.000000,1647411699.168242,0.000000
134.000000,43104.221595,30232.142536,11618.839099,27504.894436,23205.223466,41352.023643,32861.735864,35083.387504,-0.008000,0.920000,0.304000,192.000000,0.000000,0.000000,0.000000,0.000000,0.000000,0.000000,0.000000,0.000000,0.000000,1647411699.175771,0.000000
135.000000,43106.188548,30235.338835,11623.443559,27510.147096,23214.141812,41355.398757,32867.681428,35089.757751,-0.008000,0.920000,0.304000,192.000000,0.000000,0.000000,0.000000,0.000000,0.000000,0.000000,0.000000,0.000000,0.000000,1647411699.175788,0.000000
136.000000,43109.250737,30238.356321,11620.940163,27506.883741,23212.130155,41352.269513,32861.713512,35085.466216,-0.006000,0.930000,0.298000,192.000000,255.000000,208.000000,29.000000,16.000000,9.000000,80.000000,0.000000,0.000000,0.000000,1647411699.183834,0.000000
137.000000,43115.285708,30245.575934,11626.885727,27511.175276,23213.180687,41355.689330,32862.138195,35086.941431,-0.006000,0.930000,0.298000,192.000000,0.000000,0.000000,0.000000,0.000000,0.000000,0.000000,0.000000,0.000000,0.000000,1647411699.183852,0.000000
138.000000,43125.522807,30258.048208,11637.301640,27521.345320,23223.708358,41365.099414,32869.201347,35094.988059,-0.006000,0.930000,0.298000,192.000000,0.000000,0.000000,0.000000,0.000000,0.000000,0.000000,0.000000,0.000000,0.000000,1647411699.190859,0.000000
139.000000,43119.800761,30249.375731,11631.579594,27516.539695,23227.552858,41355.890495,32860.953553,35090.830635,-0.006000,0.930000,0.298000,192.000000,0.000000,0.000000,0.000000,0.000000,0.000000,0.000000,0.000000,0.000000,0.000000,1647411699.197848,0.000000
140.000000,43119.756057,30252.482623,11625.231698,27516.405584,23217.986312,41354.728205,32851.498765,35080.794702,-0.006000,0.930000,0.298000,192.000000,0.000000,0.000000,0.000000,0.000000,0.000000,0.000000,0.000000,0.000000,0.000000,1647411699.197865,0.000000
141.000000,43119.711354,30249.934524,11623.912945,27519.892457,23221.070852,41355.085832,32851.990503,35084.661553,-0.006000,0.930000,0.298000,192.000000,0.000000,0.000000,0.000000,0.000000,0.000000,0.000000,0.000000,0.000000,0.000000,1647411699.205484,0.000000
142.000000,43120.225444,30248.012274,11638.910966,27518.193724,23223.641303,41362.528963,32859.299524,35088.461350,-0.006000,0.930000,0.298000,192.000000,0.000000,0.000000,0.000000,0.000000,0.000000,0.000000,0.000000,0.000000,0.000000,1647411699.205500,0.000000
143.000000,43120.180740,30247.609943,11637.838082,27521.837058,23229.653922,41362.260742,32866.407378,35095.792722,-0.006000,0.930000,0.298000,192.000000,0.000000,0.000000,0.000000,0.000000,0.000000,0.000000,0.000000,0.000000,0.000000,1647411699.213512,0.000000
144.000000,43113.251700,30234.556524,11628.629163,27509.945930,23221.137908,41349.743766,32861.087663,35087.433170,-0.006000,0.930000,0.298000,192.000000,0.000000,0.000000,0.000000,0.000000,0.000000,0.000000,0.000000,0.000000,0.000000,1647411699.213529,0.000000
145.000000,43117.252662,30236.612885,11632.026628,27516.562047,23220.802631,41350.548428,32865.312143,35089.556585,-0.006000,0.930000,0.298000,192.000000,0.000000,0.000000,0.000000,0.000000,0.000000,0.000000,0.000000,0.000000,0.000000,1647411699.220610,0.000000
146.000000,43116.447999,30237.797527,11627.466873,27514.192762,23217.114594,41346.346300,32863.233431,35086.941431,-0.002000,0.942000,0.288000,192.000000,255.000000,240.000000,29.000000,112.000000,9.000000,0.000000,0.000000,0.000000,0.000000,1647411699.220627,0.000000
147.000000,43116.157426,30238.289265,11626.170471,27516.293826,23215.393509,41342.390042,32861.020608,35084.661553,-0.002000,0.942000,0.288000,192.000000,0.000000,0.000000,0.000000,0.000000,0.000000,0.000000,0.000000,0.000000,0.000000,1647411699.228080,0.000000
148.000000,43114.525749,30240.189164,11624.270573,27519.400718,23218.679216,41340.758364,32856.639666,35084.505091,-0.002000,0.942000,0.288000,192.000000,0.000000,0.000000,0.000000,0.000000,0.000000,0.000000,0.000000,0.000000,0.000000,1647411699.228096,0.000000
149.000000,43109.206034,30237.484603,11618.012085,27516.137363,23218.410995,41334.388117,32849.218887,35082.515786,-0.002000,0.942000,0.288000,192.000000,0.000000,0.000000,0.000000,0.000000,0.000000,0.000000,0.000000,0.000000,0.000000,1647411699.236101,0.000000
150.000000,43122.527674,30247.945219,11627.779797,27528.453175,23219.841506,41346.525114,32857.645495,35091.009449,-0.002000,0.942000,0.288000,192.000000,0.000000,0.000000,0.000000,0.000000,0.000000,0.000000,0.000000,0.000000,0.000000,1647411699.236136,0.000000
151.000000,43129.590825,30249.621600,11634.284155,27534.510497,23226.882306,41354.907019,32864.641591,35100.710106,-0.002000,0.942000,0.288000,192.000000,0.000000,0.000000,0.000000,0.000000,0.000000,0.000000,0.000000,0.000000,0.000000,1647411699.244124,0.000000
152.000000,43119.666650,30251.610905,11633.367733,27534.175221,23227.977541,41357.522173,32863.926335,35104.174626,-0.002000,0.942000,0.288000,192.000000,0.000000,0.000000,0.000000,0.000000,0.000000,0.000000,0.000000,0.000000,0.000000,1647411699.244140,0.000000
153.000000,43130.127267,30262.697370,11640.296774,27541.908925,23235.063044,41365.278228,32866.966172,35109.024955,-0.002000,0.942000,0.288000,192.000000,0.000000,0.000000,0.000000,0.000000,0.000000,0.000000,0.000000,0.000000,0.000000,1647411699.250278,0.000000
154.000000,43134.463505,30256.908269,11641.369658,27541.439538,23238.616972,41365.188821,32866.340323,35109.807266,-0.002000,0.942000,0.288000,192.000000,0.000000,0.000000,0.000000,0.000000,0.000000,0.000000,0.000000,0.000000,0.000000,1647411699.250294,0.000000
155.000000,43115.799798,30244.793623,11634.597079,27530.576590,23231.822041,41358.863277,32861.177070,35106.163932,-0.002000,0.942000,0.288000,192.000000,0.000000,0.000000,0.000000,0.000000,0.000000,0.000000,0.000000,0.000000,0.000000,1647411699.257720,0.000000
156.000000,43106.501473,30238.870411,11629.076198,27523.356977,23226.122347,41349.117917,32852.415186,35096.105647,-0.006000,0.948000,0.282000,192.000000,255.000000,208.000000,29.000000,160.000000,8.000000,208.000000,0.000000,0.000000,0.000000,1647411699.265475,0.000000
157.000000,43124.762848,30251.745016,11638.419227,27534.465794,23225.541201,41360.405548,32865.043922,35104.845179,-0.006000,0.948000,0.282000,192.000000,0.000000,0.000000,0.000000,0.000000,0.000000,0.000000,0.000000,0.000000,0.000000,1647411699.265485,0.000000
158.000000,43130.596653,30259.612830,11642.934280,27540.791338,23233.453719,41360.070272,32868.307277,35106.253339,-0.006000,0.948000,0.282000,192.000000,0.000000,0.000000,0.000000,0.000000,0.000000,0.000000,0.000000,0.000000,0.000000,1647411699.273831,0.000000
159.000000,43123.220578,30256.997676,11631.177262,27530.241314,23229.966847,41344.871085,32855.253858,35089.690696,-0.006000,0.948000,0.282000,192.000000,0.000000,0.000000,0.000000,0.000000,0.000000,0.000000,0.000000,0.000000,0.000000,1647411699.273848,0.000000
