%OpenBCI Raw EEG Data
%Number of channels = 8
%Sample Rate = 256 Hz
%Board = OpenBCI_GUI$BoardCytonSerial
%Channels = Fp1, Fp2, F3, F4, Fz, Pz, O1, O2
%Data recorded at AIMS Lab (http://aimsl.uiu.ac.bd) by Rana Depto (mail@ranadepto.com)
%Brainwaves were obtained via the Ultracortex Mark IV Headset using the OpenBCI Cyton Board
%Recording Application = ConcentrateToday (https://concentrate.today)
%Data type = RAW data with noise
%Day No = 2
%Subject ID = 4
%Session ID = 7
%Record starting timestamp (UTC+6) = 2022-03-09T11:00:17.537486
%Record ending timestamp (UTC+6)   = 2022-03-09T11:00:48.394835
%Recorded durations = ~30 seconds
Sample Index, EXG Channel 0, EXG Channel 1, EXG Channel 2, EXG Channel 3, EXG Channel 4, EXG Channel 5, EXG Channel 6, EXG Channel 7, Accel Channel 0, Accel Channel 1, Accel Channel 2, Other, Other, Other, Other, Other, Other, Other, Analog Channel 0, Analog Channel 1, Analog Channel 2, Timestamp, Timestamp (Formatted)
221.000000,55195.420110,51133.839921,39549.288398,45305.153168,6933.377020,40930.156819,63344.664972,72434.001855,0.086000,0.950000,0.242000,192.000000,0.000000,0.000000,0.000000,0.000000,0.000000,0.000000,0.000000,0.000000,0.000000,1646802017.543658,0.000000
222.000000,55198.281133,51137.416200,39555.010445,45307.634211,6942.027145,40935.945920,63343.234461,72426.983407,0.086000,0.950000,0.242000,192.000000,0.000000,0.000000,0.000000,0.000000,0.000000,0.000000,0.000000,0.000000,0.000000,1646802017.543666,0.000000
223.000000,55200.605714,51136.924462,39558.363206,45307.522453,6947.637433,40935.856513,63336.372475,72428.235105,0.084000,0.952000,0.246000,192.000000,2.000000,160.000000,29.000000,192.000000,7.000000,176.000000,0.000000,0.000000,0.000000,1646802017.551640,0.000000
224.000000,55200.493956,51136.388020,39560.263104,45307.276584,6949.224406,40932.436697,63342.765074,72428.726843,0.084000,0.952000,0.246000,192.000000,0.000000,0.000000,0.000000,0.000000,0.000000,0.000000,0.000000,0.000000,0.000000,1646802017.551645,0.000000
225.000000,55205.701912,51147.250968,39564.129956,45313.713886,6952.241892,40929.486266,63343.636792,72422.691872,0.084000,0.952000,0.246000,192.000000,0.000000,0.000000,0.000000,0.000000,0.000000,0.000000,0.000000,0.000000,0.000000,1646802017.558882,0.000000
226.000000,55205.768967,51148.592073,39561.805375,45314.160921,6948.017412,40925.887635,63332.997362,72415.584018,0.084000,0.952000,0.246000,192.000000,0.000000,0.000000,0.000000,0.000000,0.000000,0.000000,0.000000,0.000000,0.000000,1646802017.558887,0.000000
227.000000,55206.931258,51148.145038,39562.163003,45317.692497,6953.247720,40931.699089,63343.457978,72432.370178,0.084000,0.952000,0.246000,192.000000,0.000000,0.000000,0.000000,0.000000,0.000000,0.000000,0.000000,0.000000,0.000000,1646802017.566255,0.000000
228.000000,55212.563898,51146.111029,39560.173697,45315.658488,6956.131095,40932.168476,63346.743685,72428.078643,0.084000,0.952000,0.246000,192.000000,0.000000,0.000000,0.000000,0.000000,0.000000,0.000000,0.000000,0.000000,0.000000,1646802017.566260,0.000000
229.000000,55204.874898,51133.772866,39552.887029,45308.170653,6952.688927,40926.111153,63339.099388,72418.780317,0.084000,0.952000,0.246000,192.000000,0.000000,0.000000,0.000000,0.000000,0.000000,0.000000,0.000000,0.000000,0.000000,1646802017.574292,0.000000
230.000000,55199.398720,51133.728162,39553.758747,45305.488444,6948.106819,40917.729249,63329.599897,72413.929989,0.084000,0.952000,0.246000,192.000000,0.000000,0.000000,0.000000,0.000000,0.000000,0.000000,0.000000,0.000000,0.000000,1646802017.574296,0.000000
231.000000,55202.617371,51139.919596,39554.921038,45306.673086,6943.547063,40913.370659,63336.439530,72407.738555,0.084000,0.952000,0.246000,192.000000,0.000000,0.000000,0.000000,0.000000,0.000000,0.000000,0.000000,0.000000,0.000000,1646802017.581392,0.000000
232.000000,55200.404549,51139.785485,39555.345721,45309.824682,6943.927043,40918.846836,63345.961374,72408.587922,0.084000,0.952000,0.246000,192.000000,0.000000,0.000000,0.000000,0.000000,0.000000,0.000000,0.000000,0.000000,0.000000,1646802017.581399,0.000000
233.000000,55196.872973,51134.666936,39555.412776,45308.371819,6945.446962,40926.446429,63335.679571,72426.089338,0.080000,0.954000,0.244000,192.000000,2.000000,128.000000,29.000000,208.000000,7.000000,160.000000,0.000000,0.000000,0.000000,1646802017.588622,0.000000
234.000000,55197.610581,51134.711639,39559.100814,45307.321287,6949.269110,40931.743793,63333.578507,72431.543163,0.080000,0.954000,0.244000,192.000000,0.000000,0.000000,0.000000,0.000000,0.000000,0.000000,0.000000,0.000000,0.000000,1646802017.595958,0.000000
235.000000,55196.671807,51129.928366,39553.311712,45301.331020,6941.758924,40925.887635,63334.450225,72419.741442,0.080000,0.954000,0.244000,192.000000,0.000000,0.000000,0.000000,0.000000,0.000000,0.000000,0.000000,0.000000,0.000000,1646802017.595964,0.000000
236.000000,55193.363749,51128.095523,39552.775270,45298.805272,6939.367287,40931.140295,63332.058589,72422.870686,0.080000,0.954000,0.244000,192.000000,0.000000,0.000000,0.000000,0.000000,0.000000,0.000000,0.000000,0.000000,0.000000,1646802017.603937,0.000000
237.000000,55190.659188,51123.938098,39552.082366,45300.548709,6943.256491,40936.504714,63334.025542,72429.196230,0.080000,0.954000,0.244000,192.000000,0.000000,0.000000,0.000000,0.000000,0.000000,0.000000,0.000000,0.000000,0.000000,1646802017.603942,0.000000
238.000000,55200.158680,51134.488122,39557.156212,45310.472883,6945.424610,40937.756412,63345.469635,72438.203983,0.080000,0.954000,0.244000,192.000000,0.000000,0.000000,0.000000,0.000000,0.000000,0.000000,0.000000,0.000000,0.000000,1646802017.611127,0.000000
239.000000,55196.113014,51130.330697,39554.809279,45310.718752,6946.385735,40942.897313,63353.382153,72434.761814,0.080000,0.954000,0.244000,192.000000,0.000000,0.000000,0.000000,0.000000,0.000000,0.000000,0.000000,0.000000,0.000000,1646802017.611131,0.000000
240.000000,55192.782604,51126.620308,39554.094023,45309.467055,6948.106819,40945.177191,63344.486158,72431.274942,0.080000,0.954000,0.244000,192.000000,0.000000,0.000000,0.000000,0.000000,0.000000,0.000000,0.000000,0.000000,0.000000,1646802017.618564,0.000000
241.000000,55189.362787,51121.322944,39545.622712,45298.447645,6937.176816,40934.403650,63341.155749,72428.235105,0.080000,0.954000,0.244000,192.000000,0.000000,0.000000,0.000000,0.000000,0.000000,0.000000,0.000000,0.000000,0.000000,1646802017.618568,0.000000
242.000000,55192.335569,51123.222843,39537.330215,45295.273697,6930.761865,40928.748659,63336.595993,72427.877477,0.080000,0.954000,0.244000,192.000000,0.000000,0.000000,0.000000,0.000000,0.000000,0.000000,0.000000,0.000000,0.000000,1646802017.626691,0.000000
243.000000,55190.234505,51124.653354,39545.667415,45302.493310,6946.542197,40944.327825,63338.227670,72429.218582,0.080000,0.956000,0.248000,192.000000,2.000000,128.000000,29.000000,224.000000,7.000000,192.000000,0.000000,0.000000,0.000000,1646802017.626696,0.000000
244.000000,55198.392892,51135.829226,39557.200915,45309.131778,6960.847314,40951.435679,63346.095484,72434.381835,0.080000,0.956000,0.248000,192.000000,0.000000,0.000000,0.000000,0.000000,0.000000,0.000000,0.000000,0.000000,0.000000,1646802017.634749,0.000000
245.000000,55197.856450,51132.968203,39551.411814,45301.420427,6953.493590,40945.020729,63346.944850,72432.884268,0.080000,0.956000,0.248000,192.000000,0.000000,0.000000,0.000000,0.000000,0.000000,0.000000,0.000000,0.000000,0.000000,1646802017.634753,0.000000
246.000000,55199.957514,51134.935157,39547.053223,45300.951040,6948.240930,40942.651444,63335.858385,72432.973675,0.080000,0.956000,0.248000,192.000000,0.000000,0.000000,0.000000,0.000000,0.000000,0.000000,0.000000,0.000000,0.000000,1646802017.641253,0.000000
247.000000,55203.287924,51137.192683,39550.718910,45303.700304,6951.236063,40942.919665,63335.970144,72430.805556,0.080000,0.956000,0.248000,192.000000,0.000000,0.000000,0.000000,0.000000,0.000000,0.000000,0.000000,0.000000,0.000000,1646802017.641258,0.000000
248.000000,55202.393854,51135.918633,39553.378767,45305.108464,6955.840523,40939.455144,63341.267507,72425.798765,0.080000,0.956000,0.248000,192.000000,0.000000,0.000000,0.000000,0.000000,0.000000,0.000000,0.000000,0.000000,0.000000,1646802017.648199,0.000000
249.000000,55209.389950,51144.255834,39558.698482,45309.288241,6955.214674,40931.766144,63341.423969,72434.873573,0.080000,0.956000,0.248000,192.000000,0.000000,0.000000,0.000000,0.000000,0.000000,0.000000,0.000000,0.000000,0.000000,1646802017.656224,0.000000
250.000000,55198.996389,51137.393849,39557.156212,45309.847034,6955.751116,40936.862342,63336.484234,72430.179707,0.080000,0.956000,0.248000,192.000000,0.000000,0.000000,0.000000,0.000000,0.000000,0.000000,0.000000,0.000000,0.000000,1646802017.656228,0.000000
251.000000,55193.609618,51132.297651,39552.730567,45304.952002,6950.252587,40934.113077,63332.684437,72428.346864,0.080000,0.956000,0.248000,192.000000,0.000000,0.000000,0.000000,0.000000,0.000000,0.000000,0.000000,0.000000,0.000000,1646802017.664254,0.000000
252.000000,55200.158680,51134.666936,39551.992959,45303.320325,6944.105857,40928.033403,63335.433702,72430.872611,0.080000,0.956000,0.248000,192.000000,0.000000,0.000000,0.000000,0.000000,0.000000,0.000000,0.000000,0.000000,0.000000,1646802017.664257,0.000000
253.000000,55206.551278,51139.249043,39557.804413,45307.343639,6952.599520,40934.873037,63333.511452,72429.218582,0.080000,0.956000,0.244000,192.000000,2.000000,128.000000,29.000000,224.000000,7.000000,160.000000,0.000000,0.000000,0.000000,1646802017.670802,0.000000
254.000000,55204.360807,51135.270433,39554.831631,45302.873290,6950.230235,40931.810848,63337.802987,72421.820154,0.080000,0.956000,0.244000,192.000000,0.000000,0.000000,0.000000,0.000000,0.000000,0.000000,0.000000,0.000000,0.000000,1646802017.670806,0.000000
255.000000,55202.572668,51133.169369,39552.708215,45301.308668,6946.028107,40930.380336,63334.852557,72421.864858,0.080000,0.956000,0.244000,192.000000,0.000000,0.000000,0.000000,0.000000,0.000000,0.000000,0.000000,0.000000,0.000000,1646802017.678834,0.000000
0.000000,55202.796185,51135.382192,39550.562447,45298.760569,6943.636470,40931.050888,63334.114949,72427.341035,0.080000,0.956000,0.244000,192.000000,0.000000,0.000000,0.000000,0.000000,0.000000,0.000000,0.000000,0.000000,0.000000,1646802017.678838,0.000000
1.000000,55203.913773,51135.963337,39557.022102,45301.822758,6945.603424,40930.872074,63329.823414,72419.853201,0.080000,0.956000,0.244000,192.000000,0.000000,0.000000,0.000000,0.000000,0.000000,0.000000,0.000000,0.000000,0.000000,1646802017.687332,0.000000
2.000000,55205.433691,51135.315136,39558.072634,45305.488444,6949.067944,40931.073240,63331.522147,72414.578189,0.080000,0.956000,0.244000,192.000000,0.000000,0.000000,0.000000,0.000000,0.000000,0.000000,0.000000,0.000000,0.000000,1646802017.687336,0.000000
3.000000,55200.985694,51127.782598,39555.837459,45300.638115,6950.230235,40934.493057,63324.302533,72412.521829,0.080000,0.956000,0.244000,192.000000,0.000000,0.000000,0.000000,0.000000,0.000000,0.000000,0.000000,0.000000,0.000000,1646802017.694032,0.000000
4.000000,55198.303485,51124.094561,39554.116375,45299.252307,6945.715183,40934.448354,63327.945868,72426.335207,0.080000,0.956000,0.244000,192.000000,0.000000,0.000000,0.000000,0.000000,0.000000,0.000000,0.000000,0.000000,0.000000,1646802017.694036,0.000000
5.000000,55197.811746,51124.251023,39554.116375,45302.158034,6947.168046,40941.042118,63336.260716,72430.470280,0.080000,0.956000,0.244000,192.000000,0.000000,0.000000,0.000000,0.000000,0.000000,0.000000,0.000000,0.000000,0.000000,1646802017.701419,0.000000
6.000000,55204.830194,51131.425933,39553.937561,45305.555499,6940.082543,40931.743793,63337.892394,72433.130137,0.080000,0.956000,0.244000,192.000000,0.000000,0.000000,0.000000,0.000000,0.000000,0.000000,0.000000,0.000000,0.000000,1646802017.701452,0.000000
7.000000,55205.701912,51133.839921,39555.770404,45308.461226,6942.094200,40935.990624,63339.322905,72425.642303,0.082000,0.956000,0.250000,192.000000,2.000000,144.000000,29.000000,224.000000,7.000000,208.000000,0.000000,0.000000,0.000000,1646802017.708599,0.000000
8.000000,55194.637799,51121.859386,39550.182468,45303.365028,6941.848331,40935.498886,63334.249059,72426.245800,0.082000,0.956000,0.250000,192.000000,0.000000,0.000000,0.000000,0.000000,0.000000,0.000000,0.000000,0.000000,0.000000,1646802017.716555,0.000000
9.000000,55193.944895,51120.674744,39547.835535,45300.168729,6937.020354,40929.195694,63324.056664,72433.599524,0.082000,0.956000,0.250000,192.000000,0.000000,0.000000,0.000000,0.000000,0.000000,0.000000,0.000000,0.000000,0.000000,1646802017.716560,0.000000
10.000000,55192.961418,51124.295726,39550.428337,45303.342677,6938.339107,40937.979929,63324.816623,72439.746253,0.082000,0.956000,0.250000,192.000000,0.000000,0.000000,0.000000,0.000000,0.000000,0.000000,0.000000,0.000000,0.000000,1646802017.723151,0.000000
11.000000,55194.637799,51127.715543,39549.198991,45305.443741,6937.623851,40938.091688,63342.340391,72447.211736,0.082000,0.956000,0.250000,192.000000,0.000000,0.000000,0.000000,0.000000,0.000000,0.000000,0.000000,0.000000,0.000000,1646802017.723154,0.000000
12.000000,55192.827307,51125.905052,39545.019215,45303.834415,6940.060191,40937.801115,63341.625135,72446.027094,0.082000,0.956000,0.250000,192.000000,0.000000,0.000000,0.000000,0.000000,0.000000,0.000000,0.000000,0.000000,0.000000,1646802017.731139,0.000000
13.000000,55191.620313,51119.803026,39548.304921,45300.593412,6947.279805,40940.550380,63340.440493,72434.583000,0.082000,0.956000,0.250000,192.000000,0.000000,0.000000,0.000000,0.000000,0.000000,0.000000,0.000000,0.000000,0.000000,1646802017.731145,0.000000
14.000000,55199.823403,51126.620308,39550.361282,45301.152206,6943.435305,40933.643691,63340.440493,72438.829832,0.082000,0.956000,0.250000,192.000000,0.000000,0.000000,0.000000,0.000000,0.000000,0.000000,0.000000,0.000000,0.000000,1646802017.739175,0.000000
15.000000,55200.337493,51130.375401,39546.583837,45293.954944,6928.347877,40921.618452,63338.674705,72434.940628,0.082000,0.956000,0.250000,192.000000,0.000000,0.000000,0.000000,0.000000,0.000000,0.000000,0.000000,0.000000,0.000000,1646802017.739181,0.000000
16.000000,55206.886555,51137.304442,39555.301017,45299.609935,6935.656898,40931.095592,63336.886565,72431.453756,0.082000,0.956000,0.250000,192.000000,0.000000,0.000000,0.000000,0.000000,0.000000,0.000000,0.000000,0.000000,0.000000,1646802017.746137,0.000000
17.000000,55204.986656,51138.243215,39556.239790,45307.343639,6947.771543,40937.532894,63340.284030,72433.085434,0.082000,0.960000,0.262000,192.000000,2.000000,144.000000,30.000000,0.000000,8.000000,48.000000,0.000000,0.000000,0.000000,1646802017.746141,0.000000
18.000000,55206.864203,51139.651375,39557.178564,45306.941307,6950.118476,40932.056717,63345.693153,72448.105806,0.082000,0.960000,0.262000,192.000000,0.000000,0.000000,0.000000,0.000000,0.000000,0.000000,0.000000,0.000000,0.000000,1646802017.753721,0.000000
19.000000,55212.049808,51144.971090,39563.168831,45310.271717,6952.353651,40934.046022,63350.230557,72449.558669,0.082000,0.960000,0.262000,192.000000,0.000000,0.000000,0.000000,0.000000,0.000000,0.000000,0.000000,0.000000,0.000000,1646802017.753726,0.000000
20.000000,55207.266534,51141.528921,39558.050282,45308.483578,6951.258415,40931.028537,63326.738873,72437.220506,0.082000,0.960000,0.262000,192.000000,0.000000,0.000000,0.000000,0.000000,0.000000,0.000000,0.000000,0.000000,0.000000,1646802017.761812,0.000000
21.000000,55198.772871,51131.582395,39550.830668,45301.353371,6948.129171,40920.366755,63312.947847,72426.469317,0.082000,0.960000,0.262000,192.000000,0.000000,0.000000,0.000000,0.000000,0.000000,0.000000,0.000000,0.000000,0.000000,1646802017.761816,0.000000
22.000000,55202.460909,51131.269471,39553.468174,45304.728485,6956.175799,40924.613586,63345.357876,72431.453756,0.082000,0.960000,0.262000,192.000000,0.000000,0.000000,0.000000,0.000000,0.000000,0.000000,0.000000,0.000000,0.000000,1646802017.768783,0.000000
23.000000,55207.221831,51132.364706,39557.625599,45309.735275,6965.608235,40935.320072,63350.364667,72443.456643,0.082000,0.960000,0.262000,192.000000,0.000000,0.000000,0.000000,0.000000,0.000000,0.000000,0.000000,0.000000,0.000000,1646802017.775799,0.000000
24.000000,55209.546412,51131.537692,39551.545924,45305.130816,6955.684061,40925.127676,63348.732990,72439.165108,0.082000,0.960000,0.262000,192.000000,0.000000,0.000000,0.000000,0.000000,0.000000,0.000000,0.000000,0.000000,0.000000,1646802017.775802,0.000000
25.000000,55207.333589,51129.548386,39546.159154,45301.800406,6945.424610,40923.630109,63352.912766,72439.634495,0.082000,0.960000,0.262000,192.000000,0.000000,0.000000,0.000000,0.000000,0.000000,0.000000,0.000000,0.000000,0.000000,1646802017.783367,0.000000
26.000000,55212.876822,51141.461866,39558.743186,45313.490369,6955.192322,40935.498886,63359.350068,72453.045541,0.082000,0.960000,0.262000,192.000000,0.000000,0.000000,0.000000,0.000000,0.000000,0.000000,0.000000,0.000000,0.000000,1646802017.783372,0.000000
27.000000,55214.664962,51146.312195,39564.688750,45315.233805,6955.684061,40933.151952,63358.076019,72455.325419,0.082000,0.960000,0.262000,192.000000,0.000000,0.000000,0.000000,0.000000,0.000000,0.000000,0.000000,0.000000,0.000000,1646802017.791446,0.000000
28.000000,55207.579459,51134.599881,39556.463308,45302.850938,6944.865816,40926.915816,63347.481292,72445.758873,0.082000,0.958000,0.272000,192.000000,2.000000,144.000000,29.000000,240.000000,8.000000,128.000000,0.000000,0.000000,0.000000,1646802017.791451,0.000000
29.000000,55201.164508,51124.183968,39549.556619,45292.591487,6939.143770,40930.402688,63344.597917,72438.606314,0.082000,0.958000,0.272000,192.000000,0.000000,0.000000,0.000000,0.000000,0.000000,0.000000,0.000000,0.000000,0.000000,1646802017.799344,0.000000
30.000000,55200.449252,51124.340430,39547.679072,45297.195947,6944.150560,40938.248150,63343.077999,72437.667541,0.082000,0.958000,0.272000,192.000000,0.000000,0.000000,0.000000,0.000000,0.000000,0.000000,0.000000,0.000000,0.000000,1646802017.799374,0.000000
31.000000,55204.427863,51132.610575,39550.048357,45301.509834,6944.687002,40936.392955,63350.409371,72449.312800,0.082000,0.958000,0.272000,192.000000,0.000000,0.000000,0.000000,0.000000,0.000000,0.000000,0.000000,0.000000,0.000000,1646802017.806010,0.000000
32.000000,55199.510479,51130.330697,39554.943389,45301.375723,6952.800686,40943.813735,63349.560004,72447.211736,0.082000,0.958000,0.272000,192.000000,0.000000,0.000000,0.000000,0.000000,0.000000,0.000000,0.000000,0.000000,0.000000,1646802017.806015,0.000000
33.000000,55198.974037,51126.285032,39553.088194,45297.955906,6954.901749,40942.360871,63348.621231,72451.659733,0.082000,0.958000,0.272000,192.000000,0.000000,0.000000,0.000000,0.000000,0.000000,0.000000,0.000000,0.000000,0.000000,1646802017.814090,0.000000
34.000000,55208.965267,51131.716505,39552.797622,45298.090017,6949.693793,40940.371566,63352.175159,72454.900736,0.082000,0.958000,0.272000,192.000000,0.000000,0.000000,0.000000,0.000000,0.000000,0.000000,0.000000,0.000000,0.000000,1646802017.814096,0.000000
35.000000,55197.051787,51121.680572,39546.248561,45292.278563,6936.260395,40936.236493,63347.146016,72445.825928,0.082000,0.958000,0.272000,192.000000,0.000000,0.000000,0.000000,0.000000,0.000000,0.000000,0.000000,0.000000,0.000000,1646802017.821986,0.000000
36.000000,55192.290865,51119.959488,39546.963817,45294.491386,6938.562624,40942.517333,63344.799083,72443.724864,0.082000,0.958000,0.272000,192.000000,0.000000,0.000000,0.000000,0.000000,0.000000,0.000000,0.000000,0.000000,0.000000,1646802017.821989,0.000000
37.000000,55198.102319,51125.815645,39552.395290,45300.593412,6948.844427,40944.640749,63347.391885,72448.888117,0.082000,0.958000,0.272000,192.000000,0.000000,0.000000,0.000000,0.000000,0.000000,0.000000,0.000000,0.000000,0.000000,1646802017.829219,0.000000
38.000000,55202.483261,51127.000287,39555.748052,45303.499139,6954.052383,40942.763203,63343.569737,72443.322533,0.088000,0.952000,0.276000,192.000000,2.000000,192.000000,29.000000,192.000000,8.000000,160.000000,0.000000,0.000000,0.000000,1646802017.829237,0.000000
39.000000,55206.327761,51130.062476,39559.860773,45304.169691,6953.918273,40941.310339,63344.776731,72442.249649,0.088000,0.952000,0.276000,192.000000,0.000000,0.000000,0.000000,0.000000,0.000000,0.000000,0.000000,0.000000,0.000000,1646802017.835656,0.000000
40.000000,55205.545450,51130.889491,39559.391386,45302.761531,6948.375040,40944.283121,63350.968164,72456.085379,0.088000,0.952000,0.276000,192.000000,0.000000,0.000000,0.000000,0.000000,0.000000,0.000000,0.000000,0.000000,0.000000,1646802017.843692,0.000000
41.000000,55203.667903,51127.559081,39560.799546,45302.739179,6955.706412,40955.615456,63350.834054,72453.246707,0.088000,0.952000,0.276000,192.000000,0.000000,0.000000,0.000000,0.000000,0.000000,0.000000,0.000000,0.000000,0.000000,1646802017.843696,0.000000
42.000000,55209.278191,51133.929328,39562.788852,45306.360162,6957.360441,40948.082918,63352.622193,72455.392475,0.088000,0.952000,0.276000,192.000000,0.000000,0.000000,0.000000,0.000000,0.000000,0.000000,0.000000,0.000000,0.000000,1646802017.851588,0.000000
43.000000,55207.020665,51132.364706,39559.301979,45303.253270,6951.861912,40938.873999,63346.184891,72451.883251,0.088000,0.952000,0.276000,192.000000,0.000000,0.000000,0.000000,0.000000,0.000000,0.000000,0.000000,0.000000,0.000000,1646802017.851593,0.000000
44.000000,55210.239316,51138.131456,39564.398177,45308.796502,6957.427497,40945.735985,63341.893356,72451.771492,0.088000,0.952000,0.276000,192.000000,0.000000,0.000000,0.000000,0.000000,0.000000,0.000000,0.000000,0.000000,0.000000,1646802017.858271,0.000000
45.000000,55207.937087,51136.633889,39560.866602,45307.634211,6952.241892,40946.361833,63351.795179,72451.927954,0.088000,0.952000,0.276000,192.000000,0.000000,0.000000,0.000000,0.000000,0.000000,0.000000,0.000000,0.000000,0.000000,1646802017.858276,0.000000
46.000000,55203.846717,51128.810779,39553.624636,45299.833453,6941.289537,40935.074202,63349.224728,72443.970733,0.088000,0.952000,0.276000,192.000000,0.000000,0.000000,0.000000,0.000000,0.000000,0.000000,0.000000,0.000000,0.000000,1646802017.866229,0.000000
47.000000,55204.740787,51126.799122,39554.250485,45298.268831,6943.524712,40933.219008,63353.270394,72437.131099,0.088000,0.952000,0.276000,192.000000,0.000000,0.000000,0.000000,0.000000,0.000000,0.000000,0.000000,0.000000,0.000000,1646802017.866233,0.000000
48.000000,55201.566839,51126.061514,39557.849116,45301.308668,6953.493590,40946.473592,63350.588185,72442.003780,0.082000,0.948000,0.276000,192.000000,2.000000,144.000000,29.000000,160.000000,8.000000,160.000000,0.000000,0.000000,0.000000,1646802017.874310,0.000000
49.000000,55198.482299,51125.860348,39552.015311,45299.341714,6950.364345,40945.065432,63340.351086,72438.628666,0.082000,0.948000,0.276000,192.000000,0.000000,0.000000,0.000000,0.000000,0.000000,0.000000,0.000000,0.000000,0.000000,1646802017.874314,0.000000
50.000000,55199.197554,51125.614479,39552.439994,45297.017133,6942.340069,40939.209275,63335.701923,72450.519794,0.082000,0.948000,0.276000,192.000000,0.000000,0.000000,0.000000,0.000000,0.000000,0.000000,0.000000,0.000000,0.000000,1646802017.881357,0.000000
51.000000,55197.320008,51124.631003,39555.636293,45300.124025,6951.057249,40952.150935,63359.886510,72467.954155,0.082000,0.948000,0.276000,192.000000,0.000000,0.000000,0.000000,0.000000,0.000000,0.000000,0.000000,0.000000,0.000000,1646802017.881361,0.000000
52.000000,55205.321932,51131.940023,39559.994884,45305.063761,6958.612139,40954.117889,63372.090563,72471.530434,0.082000,0.948000,0.276000,192.000000,0.000000,0.000000,0.000000,0.000000,0.000000,0.000000,0.000000,0.000000,0.000000,1646802017.888921,0.000000
53.000000,55202.885592,51129.727200,39556.709177,45304.974354,6962.970729,40955.570752,63349.425894,72451.257402,0.082000,0.948000,0.276000,192.000000,0.000000,0.000000,0.000000,0.000000,0.000000,0.000000,0.000000,0.000000,0.000000,1646802017.888927,0.000000
54.000000,55209.836985,51136.946814,39553.982264,45305.510796,6958.790953,40947.859400,63353.069228,72450.340980,0.082000,0.948000,0.276000,192.000000,0.000000,0.000000,0.000000,0.000000,0.000000,0.000000,0.000000,0.000000,0.000000,1646802017.895859,0.000000
55.000000,55218.397703,51146.960395,39561.492450,45311.612822,6960.087354,40952.106232,63354.700906,72455.057198,0.082000,0.948000,0.276000,192.000000,0.000000,0.000000,0.000000,0.000000,0.000000,0.000000,0.000000,0.000000,0.000000,1646802017.903881,0.000000
56.000000,55219.112959,51148.525017,39564.934619,45315.770246,6966.278787,40959.705825,63344.396751,72470.457550,0.082000,0.948000,0.276000,192.000000,0.000000,0.000000,0.000000,0.000000,0.000000,0.000000,0.000000,0.000000,0.000000,1646802017.903885,0.000000
57.000000,55213.457967,51140.880721,39564.822860,45312.551595,6972.537276,40955.190772,63334.852557,72448.552841,0.082000,0.948000,0.276000,192.000000,0.000000,0.000000,0.000000,0.000000,0.000000,0.000000,0.000000,0.000000,0.000000,1646802017.911032,0.000000
58.000000,55206.908906,51130.621270,39554.876334,45304.661429,6967.508133,40943.120830,63327.811757,72433.778338,0.080000,0.932000,0.276000,192.000000,2.000000,128.000000,29.000000,32.000000,8.000000,160.000000,0.000000,0.000000,0.000000,1646802017.911036,0.000000
59.000000,55196.515345,51118.461921,39538.671319,45288.948153,6948.397392,40923.741868,63319.049873,72425.329378,0.080000,0.932000,0.276000,192.000000,0.000000,0.000000,0.000000,0.000000,0.000000,0.000000,0.000000,0.000000,0.000000,1646802017.918620,0.000000
60.000000,55191.687368,51116.182043,39541.353529,45284.589563,6942.205959,40920.657327,63321.843841,72423.720053,0.080000,0.932000,0.276000,192.000000,0.000000,0.000000,0.000000,0.000000,0.000000,0.000000,0.000000,0.000000,0.000000,1646802017.918624,0.000000
61.000000,55190.167450,51117.500796,39547.030872,45292.971467,6950.230235,40931.654386,63328.079978,72430.962018,0.080000,0.932000,0.276000,192.000000,0.000000,0.000000,0.000000,0.000000,0.000000,0.000000,0.000000,0.000000,0.000000,1646802017.926608,0.000000
62.000000,55195.978903,51121.725276,39550.160116,45297.285354,6956.444020,40934.180133,63336.148958,72439.388626,0.080000,0.932000,0.276000,192.000000,0.000000,0.000000,0.000000,0.000000,0.000000,0.000000,0.000000,0.000000,0.000000,1646802017.926611,0.000000
63.000000,55202.684427,51129.235462,39550.897724,45301.465130,6961.182590,40935.811810,63339.367609,72441.176765,0.080000,0.932000,0.276000,192.000000,0.000000,0.000000,0.000000,0.000000,0.000000,0.000000,0.000000,0.000000,0.000000,1646802017.934604,0.000000
64.000000,55203.131462,51130.308346,39550.853020,45302.761531,6960.936720,40936.348252,63341.625135,72448.195213,0.080000,0.932000,0.276000,192.000000,0.000000,0.000000,0.000000,0.000000,0.000000,0.000000,0.000000,0.000000,0.000000,1646802017.934607,0.000000
65.000000,55205.768967,51128.117875,39551.724738,45301.263964,6954.141790,40931.810848,63350.990516,72454.654867,0.080000,0.932000,0.276000,192.000000,0.000000,0.000000,0.000000,0.000000,0.000000,0.000000,0.000000,0.000000,0.000000,1646802017.941182,0.000000
66.000000,55208.764101,51130.509511,39556.820936,45306.158996,6957.852180,40932.548455,63348.576528,72457.448835,0.080000,0.932000,0.276000,192.000000,0.000000,0.000000,0.000000,0.000000,0.000000,0.000000,0.000000,0.000000,0.000000,1646802017.941185,0.000000
67.000000,55212.183918,51135.002212,39558.117337,45309.422351,6966.882285,40939.790421,63343.770903,72454.431350,0.080000,0.932000,0.276000,192.000000,0.000000,0.000000,0.000000,0.000000,0.000000,0.000000,0.000000,0.000000,0.000000,1646802017.949186,0.000000
68.000000,55208.764101,51133.459942,39556.418604,45308.125950,6968.625721,40941.645615,63344.396751,72455.906565,0.076000,0.926000,0.280000,192.000000,2.000000,96.000000,28.000000,240.000000,8.000000,192.000000,0.000000,0.000000,0.000000,1646802017.949190,0.000000
69.000000,55206.841851,51131.247119,39552.708215,45305.779017,6963.596578,40935.521237,63346.319001,72456.621821,0.076000,0.926000,0.280000,192.000000,0.000000,0.000000,0.000000,0.000000,0.000000,0.000000,0.000000,0.000000,0.000000,1646802017.956261,0.000000
70.000000,55207.266534,51134.666936,39549.377805,45305.197871,6958.835657,40929.821542,63341.401618,72452.039713,0.076000,0.926000,0.280000,192.000000,0.000000,0.000000,0.000000,0.000000,0.000000,0.000000,0.000000,0.000000,0.000000,1646802017.964298,0.000000
71.000000,55205.433691,51134.622232,39549.780136,45302.247441,6954.767639,40925.150028,63335.768978,72451.525623,0.076000,0.926000,0.280000,192.000000,0.000000,0.000000,0.000000,0.000000,0.000000,0.000000,0.000000,0.000000,0.000000,1646802017.964306,0.000000
72.000000,55204.830194,51132.476465,39556.195087,45305.600203,6963.685985,40935.990624,63332.393865,72452.084416,0.076000,0.926000,0.280000,192.000000,0.000000,0.000000,0.000000,0.000000,0.000000,0.000000,0.000000,0.000000,0.000000,1646802017.970921,0.000000
73.000000,55203.466738,51129.079000,39551.545924,45302.336848,6962.635453,40937.130563,63343.703847,72453.313762,0.076000,0.926000,0.280000,192.000000,0.000000,0.000000,0.000000,0.000000,0.000000,0.000000,0.000000,0.000000,0.000000,1646802017.970936,0.000000
74.000000,55196.850621,51123.088732,39538.850133,45288.836394,6948.777371,40927.318147,63350.230557,72446.317666,0.076000,0.926000,0.280000,192.000000,0.000000,0.000000,0.000000,0.000000,0.000000,0.000000,0.000000,0.000000,0.000000,1646802017.978780,0.000000
75.000000,55202.639723,51129.704848,39542.091136,45289.551650,6947.860950,40931.632034,63346.766036,72444.104844,0.076000,0.926000,0.280000,192.000000,0.000000,0.000000,0.000000,0.000000,0.000000,0.000000,0.000000,0.000000,0.000000,1646802017.978784,0.000000
76.000000,55204.338456,51131.604747,39545.779174,45292.971467,6948.889130,40936.415307,63346.207243,72459.684010,0.076000,0.926000,0.280000,192.000000,0.000000,0.000000,0.000000,0.000000,0.000000,0.000000,0.000000,0.000000,0.000000,1646802017.986809,0.000000
77.000000,55198.772871,51126.553253,39541.040604,45287.182365,6944.955223,40930.916778,63342.586260,72459.080512,0.076000,0.926000,0.280000,192.000000,0.000000,0.000000,0.000000,0.000000,0.000000,0.000000,0.000000,0.000000,0.000000,1646802017.986813,0.000000
78.000000,55199.018741,51125.279203,39546.226209,45293.418502,6956.265206,40942.830258,63339.322905,72453.112597,0.084000,0.938000,0.282000,192.000000,2.000000,160.000000,29.000000,80.000000,8.000000,208.000000,0.000000,0.000000,0.000000,1646802017.993458,0.000000
79.000000,55196.627104,51122.172311,39537.732546,45285.304819,6945.066982,40933.174304,63338.272373,72446.451777,0.084000,0.938000,0.282000,192.000000,0.000000,0.000000,0.000000,0.000000,0.000000,0.000000,0.000000,0.000000,0.000000,1646802017.993462,0.000000
80.000000,55198.169374,51124.116912,39536.346738,45283.315514,6935.276918,40926.558188,63353.069228,72461.762722,0.084000,0.938000,0.282000,192.000000,0.000000,0.000000,0.000000,0.000000,0.000000,0.000000,0.000000,0.000000,0.000000,1646802018.001490,0.000000
81.000000,55209.166433,51133.974032,39546.315616,45293.910240,6944.329374,40936.415307,63369.475409,72462.746199,0.084000,0.938000,0.282000,192.000000,0.000000,0.000000,0.000000,0.000000,0.000000,0.000000,0.000000,0.000000,0.000000,1646802018.001494,0.000000
82.000000,55205.567802,51132.029430,39546.919113,45297.173595,6954.588825,40942.696147,63357.852502,72443.121367,0.084000,0.938000,0.282000,192.000000,0.000000,0.000000,0.000000,0.000000,0.000000,0.000000,0.000000,0.000000,0.000000,1646802018.009516,0.000000
83.000000,55202.326799,51126.441494,39546.337968,45298.581755,6963.797744,40951.100403,63351.236385,72464.668449,0.084000,0.938000,0.282000,192.000000,0.000000,0.000000,0.000000,0.000000,0.000000,0.000000,0.000000,0.000000,0.000000,1646802018.009522,0.000000
84.000000,55209.635819,51131.381229,39541.688805,45298.335886,6955.147619,40944.126659,63352.845711,72478.884158,0.084000,0.938000,0.282000,192.000000,0.000000,0.000000,0.000000,0.000000,0.000000,0.000000,0.000000,0.000000,0.000000,1646802018.016687,0.000000
85.000000,55216.877784,51139.651375,39549.824840,45305.823720,6953.761811,40948.149973,63364.200397,72478.437123,0.084000,0.938000,0.282000,192.000000,0.000000,0.000000,0.000000,0.000000,0.000000,0.000000,0.000000,0.000000,0.000000,1646802018.023058,0.000000
86.000000,55205.724264,51130.934194,39546.941465,45299.811101,6950.140828,40952.597970,63356.489045,72468.222376,0.084000,0.938000,0.282000,192.000000,0.000000,0.000000,0.000000,0.000000,0.000000,0.000000,0.000000,0.000000,0.000000,1646802018.023062,0.000000
87.000000,55203.779662,51128.788427,39545.354491,45294.469034,6945.648127,40943.567865,63347.168368,72464.310821,0.084000,0.938000,0.282000,192.000000,0.000000,0.000000,0.000000,0.000000,0.000000,0.000000,0.000000,0.000000,0.000000,1646802018.031087,0.000000
88.000000,55210.731055,51134.599881,39552.328235,45301.710999,6953.471238,40947.121793,63348.867100,72472.513911,0.090000,0.934000,0.282000,192.000000,2.000000,208.000000,29.000000,48.000000,8.000000,208.000000,0.000000,0.000000,0.000000,1646802018.031091,0.000000
89.000000,55209.255839,51134.130494,39553.401119,45303.230918,6956.622834,40953.559095,63359.215958,72478.057143,0.090000,0.934000,0.282000,192.000000,0.000000,0.000000,0.000000,0.000000,0.000000,0.000000,0.000000,0.000000,0.000000,1646802018.039163,0.000000
90.000000,55204.450214,51124.161616,39550.450689,45297.888851,6957.651014,40959.102328,63360.400600,72469.652888,0.090000,0.934000,0.282000,192.000000,0.000000,0.000000,0.000000,0.000000,0.000000,0.000000,0.000000,0.000000,0.000000,1646802018.039167,0.000000
91.000000,55204.472566,51124.988630,39549.646026,45297.128892,6958.410973,40952.933246,63357.964260,72468.356486,0.090000,0.934000,0.282000,192.000000,0.000000,0.000000,0.000000,0.000000,0.000000,0.000000,0.000000,0.000000,0.000000,1646802018.046383,0.000000
92.000000,55205.768967,51129.213110,39551.925904,45300.436950,6961.361404,40945.244246,63349.560004,72450.720960,0.090000,0.934000,0.282000,192.000000,0.000000,0.000000,0.000000,0.000000,0.000000,0.000000,0.000000,0.000000,0.000000,1646802018.046387,0.000000
93.000000,55210.507537,51133.437590,39551.478869,45306.226052,6960.422630,40939.633958,63346.475464,72449.044579,0.090000,0.934000,0.282000,192.000000,0.000000,0.000000,0.000000,0.000000,0.000000,0.000000,0.000000,0.000000,0.000000,1646802018.054202,0.000000
94.000000,55209.926392,51132.029430,39547.232037,45303.230918,6952.085430,40938.292854,63355.952603,72466.210719,0.090000,0.934000,0.282000,192.000000,0.000000,0.000000,0.000000,0.000000,0.000000,0.000000,0.000000,0.000000,0.000000,1646802018.054218,0.000000
95.000000,55206.260706,51130.956546,39553.691692,45307.343639,6958.098049,40955.570752,63367.620214,72483.153341,0.090000,0.934000,0.282000,192.000000,0.000000,0.000000,0.000000,0.000000,0.000000,0.000000,0.000000,0.000000,0.000000,1646802018.062187,0.000000
96.000000,55202.483261,51126.776770,39557.290322,45304.124988,6954.119438,40949.804002,63362.702830,72476.090190,0.090000,0.934000,0.282000,192.000000,0.000000,0.000000,0.000000,0.000000,0.000000,0.000000,0.000000,0.000000,0.000000,1646802018.062203,0.000000
97.000000,55204.539621,51127.715543,39561.514802,45303.968525,6957.382793,40943.366700,63352.711600,72464.579042,0.090000,0.934000,0.282000,192.000000,0.000000,0.000000,0.000000,0.000000,0.000000,0.000000,0.000000,0.000000,0.000000,1646802018.070012,0.000000
98.000000,55215.603735,51134.465770,39570.544907,45312.104560,6962.121363,40946.250075,63372.694060,72468.311783,0.092000,0.934000,0.290000,192.000000,2.000000,224.000000,29.000000,48.000000,9.000000,16.000000,0.000000,0.000000,0.000000,1646802018.070023,0.000000
99.000000,55212.586249,51136.030392,39565.806337,45309.869386,6956.779296,40943.903141,63362.345202,72461.315687,0.092000,0.934000,0.290000,192.000000,0.000000,0.000000,0.000000,0.000000,0.000000,0.000000,0.000000,0.000000,0.000000,1646802018.076312,0.000000
100.000000,55208.048845,51136.633889,39566.901573,45312.462188,6960.646148,40948.820525,63362.367554,72458.007629,0.092000,0.934000,0.290000,192.000000,0.000000,0.000000,0.000000,0.000000,0.000000,0.000000,0.000000,0.000000,0.000000,1646802018.076328,0.000000
101.000000,55210.284020,51141.819494,39573.160061,45316.396095,6967.485782,40954.766089,63374.459848,72460.041637,0.092000,0.934000,0.290000,192.000000,0.000000,0.000000,0.000000,0.000000,0.000000,0.000000,0.000000,0.000000,0.000000,1646802018.083867,0.000000
102.000000,55214.039113,51144.836979,39578.323314,45319.301822,6973.990139,40955.950732,63371.263548,72466.970678,0.092000,0.934000,0.290000,192.000000,0.000000,0.000000,0.000000,0.000000,0.000000,0.000000,0.000000,0.000000,0.000000,1646802018.091585,0.000000
103.000000,55215.156700,51140.567796,39576.199898,45316.776075,6978.326378,40953.380281,63365.787371,72463.282640,0.092000,0.934000,0.290000,192.000000,0.000000,0.000000,0.000000,0.000000,0.000000,0.000000,0.000000,0.000000,0.000000,1646802018.091596,0.000000
104.000000,55216.140177,51140.053706,39575.395235,45319.860616,6978.818116,40950.988644,63367.866083,72457.627649,0.092000,0.934000,0.290000,192.000000,0.000000,0.000000,0.000000,0.000000,0.000000,0.000000,0.000000,0.000000,0.000000,1646802018.099882,0.000000
105.000000,55215.827252,51142.780619,39572.780081,45315.546729,6962.613101,40933.487229,63365.452095,72450.720960,0.092000,0.934000,0.290000,192.000000,0.000000,0.000000,0.000000,0.000000,0.000000,0.000000,0.000000,0.000000,0.000000,1646802018.099899,0.000000
106.000000,55215.894308,51142.735916,39575.506994,45318.519511,6961.160238,40931.833199,63358.500702,72456.465358,0.092000,0.934000,0.290000,192.000000,0.000000,0.000000,0.000000,0.000000,0.000000,0.000000,0.000000,0.000000,0.000000,1646802018.106231,0.000000
107.000000,55215.804901,51140.076058,39582.659552,45323.414543,6973.990139,40938.315205,63350.230557,72448.575193,0.092000,0.934000,0.290000,192.000000,0.000000,0.000000,0.000000,0.000000,0.000000,0.000000,0.000000,0.000000,0.000000,1646802018.106248,0.000000
108.000000,55216.698970,51142.959433,39582.234869,45325.716773,6979.242799,40938.292854,63348.353010,72448.239916,0.094000,0.938000,0.296000,192.000000,2.000000,240.000000,29.000000,80.000000,9.000000,64.000000,0.000000,0.000000,0.000000,1646802018.114126,0.000000
109.000000,55221.973982,51150.111991,39582.391331,45328.644851,6979.846296,40940.997415,63353.896243,72456.308896,0.094000,0.938000,0.296000,192.000000,0.000000,0.000000,0.000000,0.000000,0.000000,0.000000,0.000000,0.000000,0.000000,1646802018.114137,0.000000
110.000000,55217.190709,51146.222788,39581.161986,45321.961680,6970.995005,40934.515409,63357.249005,72450.251573,0.094000,0.938000,0.296000,192.000000,0.000000,0.000000,0.000000,0.000000,0.000000,0.000000,0.000000,0.000000,0.000000,1646802018.122227,0.000000
111.000000,55214.799072,51142.490046,39588.403951,45325.269738,6980.136869,40947.702938,63354.522092,72455.928916,0.094000,0.938000,0.296000,192.000000,0.000000,0.000000,0.000000,0.000000,0.000000,0.000000,0.000000,0.000000,0.000000,1646802018.122240,0.000000
112.000000,55216.229584,51141.260700,39587.822805,45324.733296,6980.561552,40943.791383,63364.178045,72458.342905,0.094000,0.938000,0.296000,192.000000,0.000000,0.000000,0.000000,0.000000,0.000000,0.000000,0.000000,0.000000,0.000000,1646802018.128828,0.000000
113.000000,55221.281078,51147.116857,39585.855852,45324.710944,6974.951264,40939.812772,63370.704755,72460.734542,0.094000,0.938000,0.296000,192.000000,0.000000,0.000000,0.000000,0.000000,0.000000,0.000000,0.000000,0.000000,0.000000,1646802018.128845,0.000000
114.000000,55220.610526,51148.390907,39580.938468,45322.319308,6966.547008,40937.912874,63365.541502,72455.459530,0.094000,0.938000,0.296000,192.000000,0.000000,0.000000,0.000000,0.000000,0.000000,0.000000,0.000000,0.000000,0.000000,1646802018.137066,0.000000
115.000000,55214.776720,51141.171293,39581.810186,45319.950023,6961.830790,40939.164572,63359.439475,72457.158262,0.094000,0.938000,0.296000,192.000000,0.000000,0.000000,0.000000,0.000000,0.000000,0.000000,0.000000,0.000000,0.000000,1646802018.137081,0.000000
116.000000,55208.831156,51130.375401,39583.732436,45317.513683,6965.004738,40946.428889,63360.914691,72456.331248,0.094000,0.938000,0.296000,192.000000,0.000000,0.000000,0.000000,0.000000,0.000000,0.000000,0.000000,0.000000,0.000000,1646802018.143853,0.000000
117.000000,55218.598869,51138.533788,39587.040494,45321.849921,6970.905599,40940.483325,63353.985650,72445.580059,0.094000,0.938000,0.296000,192.000000,0.000000,0.000000,0.000000,0.000000,0.000000,0.000000,0.000000,0.000000,0.000000,1646802018.152207,0.000000
118.000000,55221.459892,51141.663032,39585.162948,45319.681802,6963.529523,40926.245263,63349.180025,72444.998913,0.096000,0.932000,0.294000,192.000000,3.000000,0.000000,29.000000,32.000000,9.000000,48.000000,0.000000,0.000000,0.000000,1646802018.152222,0.000000
119.000000,55215.022590,51134.488122,39579.172680,45314.987935,6958.679194,40927.340499,63352.108103,72438.785128,0.096000,0.932000,0.294000,192.000000,0.000000,0.000000,0.000000,0.000000,0.000000,0.000000,0.000000,0.000000,0.000000,1646802018.158507,0.000000
120.000000,55219.403531,51137.595014,39579.686770,45318.787732,6960.579093,40935.007147,63359.707696,72449.044579,0.096000,0.932000,0.294000,192.000000,0.000000,0.000000,0.000000,0.000000,0.000000,0.000000,0.000000,0.000000,0.000000,1646802018.158523,0.000000
121.000000,55217.190709,51139.718430,39578.122148,45318.675973,6962.255473,40940.952711,63363.485141,72471.575138,0.096000,0.932000,0.294000,192.000000,0.000000,0.000000,0.000000,0.000000,0.000000,0.000000,0.000000,0.000000,0.000000,1646802018.166569,0.000000
122.000000,55206.774796,51131.828264,39576.445767,45315.680840,6963.216598,40942.450278,63363.619252,72458.164091,0.096000,0.932000,0.294000,192.000000,0.000000,0.000000,0.000000,0.000000,0.000000,0.000000,0.000000,0.000000,0.000000,1646802018.166581,0.000000
123.000000,55204.561973,51128.274337,39574.076483,45317.111351,6964.602407,40941.109173,63359.774752,72454.699571,0.096000,0.932000,0.294000,192.000000,0.000000,0.000000,0.000000,0.000000,0.000000,0.000000,0.000000,0.000000,0.000000,1646802018.174384,0.000000
124.000000,55215.827252,51136.946814,39580.334971,45323.146322,6966.189380,40941.064470,63366.323813,72459.236975,0.096000,0.932000,0.294000,192.000000,0.000000,0.000000,0.000000,0.000000,0.000000,0.000000,0.000000,0.000000,0.000000,1646802018.174395,0.000000
125.000000,55219.917622,51142.110067,39581.497262,45325.068572,6963.864799,40936.482362,63362.568720,72454.319591,0.096000,0.932000,0.294000,192.000000,0.000000,0.000000,0.000000,0.000000,0.000000,0.000000,0.000000,0.000000,0.000000,1646802018.181841,0.000000
126.000000,55215.782549,51137.259738,39578.502128,45317.536034,6958.433325,40923.317185,63354.745609,72433.465413,0.096000,0.932000,0.294000,192.000000,0.000000,0.000000,0.000000,0.000000,0.000000,0.000000,0.000000,0.000000,0.000000,1646802018.181856,0.000000
127.000000,55216.430749,51137.036221,39587.532233,45323.638061,6975.666520,40932.503752,63356.936080,72436.460547,0.096000,0.932000,0.294000,192.000000,0.000000,0.000000,0.000000,0.000000,0.000000,0.000000,0.000000,0.000000,0.000000,1646802018.189038,0.000000
128.000000,55220.878747,51138.310270,39586.705218,45320.821741,6975.510058,40927.787534,63363.932176,72456.308896,0.096000,0.932000,0.294000,192.000000,0.000000,0.000000,0.000000,0.000000,0.000000,0.000000,0.000000,0.000000,0.000000,1646802018.189049,0.000000
129.000000,55220.409360,51136.812703,39577.250430,45317.223110,6961.294348,40911.448409,63342.563908,72436.840527,0.100000,0.932000,0.298000,192.000000,3.000000,32.000000,29.000000,32.000000,9.000000,80.000000,0.000000,0.000000,0.000000,1646802018.197104,0.000000
130.000000,55223.672715,51142.713564,39580.424378,45321.671107,6960.512037,40910.710801,63341.491025,72426.648131,0.100000,0.932000,0.298000,192.000000,0.000000,0.000000,0.000000,0.000000,0.000000,0.000000,0.000000,0.000000,0.000000,1646802018.197115,0.000000
131.000000,55226.712552,51148.525017,39589.588593,45327.482561,6968.178686,40922.110191,63353.203339,72449.782187,0.100000,0.932000,0.298000,192.000000,0.000000,0.000000,0.000000,0.000000,0.000000,0.000000,0.000000,0.000000,0.000000,1646802018.205697,0.000000
132.000000,55223.180976,51145.842808,39587.308715,45325.336793,6970.480915,40923.719516,63360.691173,72453.157300,0.100000,0.932000,0.298000,192.000000,0.000000,0.000000,0.000000,0.000000,0.000000,0.000000,0.000000,0.000000,0.000000,1646802018.211889,0.000000
133.000000,55218.598869,51135.851578,39581.966648,45316.999592,6964.825924,40918.131580,63357.897205,72446.205908,0.100000,0.932000,0.298000,192.000000,0.000000,0.000000,0.000000,0.000000,0.000000,0.000000,0.000000,0.000000,0.000000,1646802018.211907,0.000000
134.000000,55219.425883,51135.896282,39578.189204,45313.535072,6953.538293,40908.900310,63344.530862,72438.025169,0.100000,0.932000,0.298000,192.000000,0.000000,0.000000,0.000000,0.000000,0.000000,0.000000,0.000000,0.000000,0.000000,1646802018.218795,0.000000
135.000000,55212.519194,51131.716505,39579.306791,45315.233805,6957.963938,40920.232644,63349.180025,72446.809405,0.100000,0.932000,0.298000,192.000000,0.000000,0.000000,0.000000,0.000000,0.000000,0.000000,0.000000,0.000000,0.000000,1646802018.218806,0.000000
136.000000,55212.295677,51132.208244,39576.646933,45314.205624,6958.589787,40917.528083,63347.973031,72442.070835,0.100000,0.932000,0.298000,192.000000,0.000000,0.000000,0.000000,0.000000,0.000000,0.000000,0.000000,0.000000,0.000000,1646802018.227026,0.000000
137.000000,55209.836985,51131.202415,39574.456462,45311.702229,6958.366270,40919.137409,63343.860310,72437.958114,0.100000,0.932000,0.298000,192.000000,0.000000,0.000000,0.000000,0.000000,0.000000,0.000000,0.000000,0.000000,0.000000,1646802018.227042,0.000000
138.000000,55212.295677,51129.928366,39574.970552,45310.294069,6953.627700,40916.455199,63346.810740,72441.310876,0.100000,0.932000,0.298000,192.000000,0.000000,0.000000,0.000000,0.000000,0.000000,0.000000,0.000000,0.000000,0.000000,1646802018.235051,0.000000
139.000000,55212.385084,51127.492026,39572.288343,45307.477749,6947.592729,40907.626260,63333.176176,72432.616047,0.094000,0.934000,0.302000,192.000000,2.000000,240.000000,29.000000,48.000000,9.000000,112.000000,0.000000,0.000000,0.000000,1646802018.235066,0.000000
140.000000,55210.127558,51128.475503,39575.462291,45309.534110,6949.023241,40910.733153,63327.811757,72444.350713,0.094000,0.934000,0.302000,192.000000,0.000000,0.000000,0.000000,0.000000,0.000000,0.000000,0.000000,0.000000,0.000000,1646802018.241484,0.000000
141.000000,55215.849604,51134.622232,39587.308715,45319.704154,6953.828866,40918.310394,63351.236385,72453.917259,0.094000,0.934000,0.302000,192.000000,0.000000,0.000000,0.000000,0.000000,0.000000,0.000000,0.000000,0.000000,0.000000,1646802018.241495,0.000000
142.000000,55211.625124,51129.637793,39581.832538,45316.619613,6955.527598,40924.613586,63349.470597,72444.864803,0.094000,0.934000,0.302000,192.000000,0.000000,0.000000,0.000000,0.000000,0.000000,0.000000,0.000000,0.000000,0.000000,1646802018.249623,0.000000
143.000000,55214.754369,51133.079962,39581.609020,45317.692497,6960.981424,40933.978967,63356.958432,72444.820099,0.094000,0.934000,0.302000,192.000000,0.000000,0.000000,0.000000,0.000000,0.000000,0.000000,0.000000,0.000000,0.000000,1646802018.249640,0.000000
144.000000,55212.943877,51136.522131,39576.132843,45316.127874,6952.778334,40928.525141,63354.589147,72444.373065,0.094000,0.934000,0.302000,192.000000,0.000000,0.000000,0.000000,0.000000,0.000000,0.000000,0.000000,0.000000,0.000000,1646802018.257656,0.000000
145.000000,55214.307334,51138.310270,39580.737302,45318.295994,6951.079601,40929.933301,63353.985650,72444.864803,0.094000,0.934000,0.302000,192.000000,0.000000,0.000000,0.000000,0.000000,0.000000,0.000000,0.000000,0.000000,0.000000,1646802018.257674,0.000000
146.000000,55208.451177,51130.420104,39582.793663,45318.251290,6961.696680,40939.231627,63346.944850,72441.981428,0.094000,0.934000,0.302000,192.000000,0.000000,0.000000,0.000000,0.000000,0.000000,0.000000,0.000000,0.000000,0.000000,1646802018.264729,0.000000
147.000000,55207.668866,51129.771904,39581.564317,45314.786770,6963.306005,40932.302586,63337.087731,72440.528565,0.094000,0.934000,0.302000,192.000000,0.000000,0.000000,0.000000,0.000000,0.000000,0.000000,0.000000,0.000000,0.000000,1646802018.271057,0.000000
148.000000,55212.653305,51135.918633,39584.514747,45315.725543,6964.714165,40930.715612,63345.670801,72447.479957,0.094000,0.934000,0.302000,192.000000,0.000000,0.000000,0.000000,0.000000,0.000000,0.000000,0.000000,0.000000,0.000000,1646802018.271069,0.000000
149.000000,55213.905002,51139.003174,39583.777140,45316.619613,6963.954206,40936.124734,63342.072170,72441.333227,0.090000,0.938000,0.302000,192.000000,2.000000,208.000000,29.000000,80.000000,9.000000,112.000000,0.000000,0.000000,0.000000,1646802018.279164,0.000000
150.000000,55216.028418,51144.971090,39588.158082,45319.637098,6962.970729,40940.148048,63349.224728,72450.139815,0.090000,0.938000,0.302000,192.000000,0.000000,0.000000,0.000000,0.000000,0.000000,0.000000,0.000000,0.000000,0.000000,1646802018.279176,0.000000
151.000000,55208.808805,51137.013869,39581.810186,45313.713886,6958.276863,40932.593159,63337.445359,72441.780262,0.090000,0.938000,0.302000,192.000000,0.000000,0.000000,0.000000,0.000000,0.000000,0.000000,0.000000,0.000000,0.000000,1646802018.287106,0.000000
152.000000,55212.742712,51137.840883,39580.871413,45316.440799,6963.015433,40930.514447,63336.618344,72445.065969,0.090000,0.938000,0.302000,192.000000,0.000000,0.000000,0.000000,0.000000,0.000000,0.000000,0.000000,0.000000,0.000000,1646802018.287123,0.000000
153.000000,55216.207232,51143.272357,39584.961782,45319.145360,6966.010566,40932.414345,63345.022600,72453.224355,0.090000,0.938000,0.302000,192.000000,0.000000,0.000000,0.000000,0.000000,0.000000,0.000000,0.000000,0.000000,0.000000,1646802018.293674,0.000000
154.000000,55216.698970,51143.607634,39591.913175,45322.833398,6965.228255,40936.236493,63355.192644,72455.951268,0.090000,0.938000,0.302000,192.000000,0.000000,0.000000,0.000000,0.000000,0.000000,0.000000,0.000000,0.000000,0.000000,1646802018.293686,0.000000
155.000000,55217.034247,51139.450209,39589.387427,45322.207549,6960.422630,40931.944958,63349.112970,72441.065006,0.090000,0.938000,0.302000,192.000000,0.000000,0.000000,0.000000,0.000000,0.000000,0.000000,0.000000,0.000000,0.000000,1646802018.301668,0.000000
156.000000,55219.604697,51138.600843,39590.102683,45319.234767,6961.562569,40926.804057,63343.480330,72441.735559,0.090000,0.938000,0.302000,192.000000,0.000000,0.000000,0.000000,0.000000,0.000000,0.000000,0.000000,0.000000,0.000000,1646802018.301684,0.000000
157.000000,55221.661058,51139.070229,39588.828634,45318.385401,6963.395412,40923.026612,63342.943888,72449.826890,0.090000,0.938000,0.302000,192.000000,0.000000,0.000000,0.000000,0.000000,0.000000,0.000000,0.000000,0.000000,0.000000,1646802018.309853,0.000000
158.000000,55213.793244,51135.695116,39578.815052,45313.825645,6958.656843,40917.639842,63340.284030,72450.855070,0.090000,0.938000,0.302000,192.000000,0.000000,0.000000,0.000000,0.000000,0.000000,0.000000,0.000000,0.000000,0.000000,1646802018.309869,0.000000
159.000000,55209.054674,51133.214072,39575.618753,45310.137607,6952.465409,40917.326917,63335.277240,72438.673370,0.088000,0.928000,0.300000,192.000000,2.000000,192.000000,29.000000,0.000000,9.000000,96.000000,0.000000,0.000000,0.000000,1646802018.317064,0.000000
160.000000,55219.269421,51140.321927,39581.229041,45313.758589,6955.058212,40929.754487,63353.069228,72455.526585,0.088000,0.928000,0.300000,192.000000,0.000000,0.000000,0.000000,0.000000,0.000000,0.000000,0.000000,0.000000,0.000000,1646802018.317079,0.000000
161.000000,55218.330648,51137.818532,39576.669285,45309.131778,6949.000889,40924.434772,63350.342315,72449.268097,0.088000,0.928000,0.300000,192.000000,0.000000,0.000000,0.000000,0.000000,0.000000,0.000000,0.000000,0.000000,0.000000,1646802018.323634,0.000000
162.000000,55221.057561,51140.634852,39573.674151,45307.097770,6947.190398,40920.076182,63351.571661,72440.863841,0.088000,0.928000,0.300000,192.000000,0.000000,0.000000,0.000000,0.000000,0.000000,0.000000,0.000000,0.000000,0.000000,1646802018.323650,0.000000
163.000000,55211.736883,51133.705811,39569.382616,45302.627421,6946.944528,40921.707859,63344.083827,72441.869669,0.088000,0.928000,0.300000,192.000000,0.000000,0.000000,0.000000,0.000000,0.000000,0.000000,0.000000,0.000000,0.000000,1646802018.331519,0.000000
164.000000,55203.064406,51123.893395,39572.198936,45297.888851,6943.345898,40921.886673,63340.239327,72443.076663,0.088000,0.928000,0.300000,192.000000,0.000000,0.000000,0.000000,0.000000,0.000000,0.000000,0.000000,0.000000,0.000000,1646802018.339526,0.000000
165.000000,55211.021627,51129.302517,39576.065788,45303.230918,6947.212749,40923.987737,63347.838920,72449.670428,0.088000,0.928000,0.300000,192.000000,0.000000,0.000000,0.000000,0.000000,0.000000,0.000000,0.000000,0.000000,0.000000,1646802018.339541,0.000000
166.000000,55211.334552,51128.207282,39573.897669,45303.588546,6943.547063,40917.841007,63351.996345,72449.581021,0.088000,0.928000,0.300000,192.000000,0.000000,0.000000,0.000000,0.000000,0.000000,0.000000,0.000000,0.000000,0.000000,1646802018.347410,0.000000
167.000000,55207.490052,51126.665011,39576.870451,45303.096807,6956.734593,40930.916778,63346.028429,72445.490652,0.088000,0.928000,0.300000,192.000000,0.000000,0.000000,0.000000,0.000000,0.000000,0.000000,0.000000,0.000000,0.000000,1646802018.347422,0.000000
168.000000,55215.670790,51133.929328,39580.223212,45302.090979,6959.506209,40930.223874,63352.711600,72456.599469,0.088000,0.928000,0.300000,192.000000,0.000000,0.000000,0.000000,0.000000,0.000000,0.000000,0.000000,0.000000,0.000000,1646802018.354697,0.000000
169.000000,55210.552241,51133.325831,39575.752863,45299.900508,6955.505247,40932.257883,63354.924423,72448.664599,0.084000,0.930000,0.296000,192.000000,2.000000,160.000000,29.000000,16.000000,9.000000,64.000000,0.000000,0.000000,0.000000,1646802018.354713,0.000000
170.000000,55208.272363,51132.252947,39568.823823,45300.079322,6949.514979,40934.314243,63363.015755,72467.238899,0.084000,0.930000,0.296000,192.000000,0.000000,0.000000,0.000000,0.000000,0.000000,0.000000,0.000000,0.000000,0.000000,1646802018.362213,0.000000
171.000000,55206.595982,51129.034296,39566.454538,45300.705171,6946.497494,40937.689357,63363.395734,72473.430332,0.084000,0.930000,0.296000,192.000000,0.000000,0.000000,0.000000,0.000000,0.000000,0.000000,0.000000,0.000000,0.000000,1646802018.362230,0.000000
172.000000,55208.607639,51130.531863,39569.628485,45306.628383,6954.901749,40940.706842,63361.317022,72469.742295,0.084000,0.930000,0.296000,192.000000,0.000000,0.000000,0.000000,0.000000,0.000000,0.000000,0.000000,0.000000,0.000000,1646802018.370165,0.000000
173.000000,55205.076063,51127.961412,39568.019160,45307.187177,6955.840523,40938.605778,63362.009926,72464.489635,0.084000,0.930000,0.296000,192.000000,0.000000,0.000000,0.000000,0.000000,0.000000,0.000000,0.000000,0.000000,0.000000,1646802018.370181,0.000000
174.000000,55201.745653,51127.961412,39564.353474,45300.593412,6952.800686,40932.481400,63339.948754,72448.843413,0.084000,0.930000,0.296000,192.000000,0.000000,0.000000,0.000000,0.000000,0.000000,0.000000,0.000000,0.000000,0.000000,1646802018.376605,0.000000
175.000000,55204.316104,51130.420104,39563.682921,45298.000610,6944.552892,40923.495999,63345.156711,72455.258364,0.084000,0.930000,0.296000,192.000000,0.000000,0.000000,0.000000,0.000000,0.000000,0.000000,0.000000,0.000000,0.000000,1646802018.376617,0.000000
176.000000,55210.574592,51134.756343,39567.259200,45299.855804,6944.687002,40921.819618,63352.756304,72454.029018,0.084000,0.930000,0.296000,192.000000,0.000000,0.000000,0.000000,0.000000,0.000000,0.000000,0.000000,0.000000,0.000000,1646802018.384779,0.000000
177.000000,55209.367598,51130.867139,39573.003599,45300.302839,6956.108744,40933.710746,63357.897205,72460.175748,0.084000,0.930000,0.296000,192.000000,0.000000,0.000000,0.000000,0.000000,0.000000,0.000000,0.000000,0.000000,0.000000,1646802018.384795,0.000000
178.000000,55201.253915,51123.222843,39568.421491,45294.871365,6955.952281,40932.526104,63361.674650,72451.011533,0.084000,0.930000,0.296000,192.000000,0.000000,0.000000,0.000000,0.000000,0.000000,0.000000,0.000000,0.000000,0.000000,1646802018.391542,0.000000
179.000000,55200.337493,51124.563947,39558.363206,45289.574002,6941.870682,40916.589310,63355.013830,72448.664599,0.090000,0.932000,0.290000,192.000000,2.000000,208.000000,29.000000,32.000000,9.000000,16.000000,0.000000,0.000000,0.000000,1646802018.399669,0.000000
180.000000,55204.629028,51128.766075,39558.989055,45294.759607,6942.541235,40922.445467,63361.093505,72456.107730,0.090000,0.932000,0.290000,192.000000,0.000000,0.000000,0.000000,0.000000,0.000000,0.000000,0.000000,0.000000,0.000000,1646802018.399685,0.000000
181.000000,55204.271400,51130.710677,39563.392349,45296.525395,6945.715183,40923.987737,63357.517225,72457.918222,0.090000,0.932000,0.290000,192.000000,0.000000,0.000000,0.000000,0.000000,0.000000,0.000000,0.000000,0.000000,0.000000,1646802018.406508,0.000000
182.000000,55201.388025,51124.720409,39557.804413,45290.848051,6939.300232,40913.661231,63348.442417,72450.966829,0.090000,0.932000,0.290000,192.000000,0.000000,0.000000,0.000000,0.000000,0.000000,0.000000,0.000000,0.000000,0.000000,1646802018.406524,0.000000
183.000000,55202.282095,51125.458017,39558.787889,45290.423368,6936.170988,40913.281252,63353.248042,72457.381780,0.090000,0.932000,0.290000,192.000000,0.000000,0.000000,0.000000,0.000000,0.000000,0.000000,0.000000,0.000000,0.000000,1646802018.414515,0.000000
184.000000,55197.252953,51123.982802,39560.598381,45296.011304,6936.930947,40925.641766,63358.679516,72456.152434,0.090000,0.932000,0.290000,192.000000,0.000000,0.000000,0.000000,0.000000,0.000000,0.000000,0.000000,0.000000,0.000000,1646802018.414532,0.000000
185.000000,55198.392892,51127.268508,39558.631427,45297.508871,6933.466427,40923.697164,63346.140188,72448.776358,0.090000,0.932000,0.290000,192.000000,0.000000,0.000000,0.000000,0.000000,0.000000,0.000000,0.000000,0.000000,0.000000,1646802018.422430,0.000000
186.000000,55199.957514,51125.301555,39559.637256,45292.904412,6931.812397,40922.110191,63348.107141,72445.490652,0.090000,0.932000,0.290000,192.000000,0.000000,0.000000,0.000000,0.000000,0.000000,0.000000,0.000000,0.000000,0.000000,1646802018.422441,0.000000
187.000000,55190.636836,51113.231613,39549.601322,45285.774205,6933.891110,40923.093667,63347.168368,72445.937687,0.090000,0.932000,0.290000,192.000000,0.000000,0.000000,0.000000,0.000000,0.000000,0.000000,0.000000,0.000000,0.000000,1646802018.429022,0.000000
188.000000,55196.694159,51119.579508,39548.684901,45285.014246,6928.191415,40914.600005,63343.346219,72444.082492,0.090000,0.932000,0.290000,192.000000,0.000000,0.000000,0.000000,0.000000,0.000000,0.000000,0.000000,0.000000,0.000000,1646802018.429040,0.000000
189.000000,55196.247124,51115.556194,39544.594532,45277.995798,6917.261412,40911.359002,63333.422045,72435.164146,0.088000,0.932000,0.288000,192.000000,2.000000,192.000000,29.000000,32.000000,9.000000,0.000000,0.000000,0.000000,0.000000,1646802018.437139,0.000000
190.000000,55200.940991,51118.752494,39548.930770,45278.062854,6917.306115,40915.628185,63337.713580,72439.992123,0.088000,0.932000,0.288000,192.000000,0.000000,0.000000,0.000000,0.000000,0.000000,0.000000,0.000000,0.000000,0.000000,1646802018.437155,0.000000
191.000000,55200.516307,51117.880776,39553.691692,45283.159051,6929.085485,40926.334670,63352.398676,72448.530489,0.088000,0.932000,0.288000,192.000000,0.000000,0.000000,0.000000,0.000000,0.000000,0.000000,0.000000,0.000000,0.000000,1646802018.445090,0.000000
192.000000,55202.170337,51118.931308,39558.765538,45290.177499,6941.289537,40934.001319,63356.310231,72462.634440,0.088000,0.932000,0.288000,192.000000,0.000000,0.000000,0.000000,0.000000,0.000000,0.000000,0.000000,0.000000,0.000000,1646802018.445107,0.000000
193.000000,55203.824366,51121.658220,39560.687788,45293.887889,6941.133075,40929.240397,63347.436589,72452.911431,0.088000,0.932000,0.288000,192.000000,0.000000,0.000000,0.000000,0.000000,0.000000,0.000000,0.000000,0.000000,0.000000,1646802018.452335,0.000000
194.000000,55206.193651,51126.329735,39556.530363,45292.546784,6931.924156,40917.125752,63339.300554,72442.786091,0.088000,0.932000,0.288000,192.000000,0.000000,0.000000,0.000000,0.000000,0.000000,0.000000,0.000000,0.000000,0.000000,1646802018.458675,0.000000
195.000000,55209.322895,51132.208244,39553.334064,45294.513738,6926.537386,40912.543644,63347.034257,72465.830739,0.088000,0.932000,0.288000,192.000000,0.000000,0.000000,0.000000,0.000000,0.000000,0.000000,0.000000,0.000000,0.000000,1646802018.458692,0.000000
196.000000,55206.752444,51133.884625,39553.736395,45297.218299,6934.673421,40921.551397,63342.452150,72461.852129,0.088000,0.932000,0.288000,192.000000,0.000000,0.000000,0.000000,0.000000,0.000000,0.000000,0.000000,0.000000,0.000000,1646802018.466730,0.000000
197.000000,55208.004142,51134.108142,39554.742224,45299.207604,6941.513055,40923.943034,63342.340391,72454.990143,0.088000,0.932000,0.288000,192.000000,0.000000,0.000000,0.000000,0.000000,0.000000,0.000000,0.000000,0.000000,0.000000,1646802018.466746,0.000000
198.000000,55202.729130,51124.183968,39548.908418,45293.776130,6937.221520,40920.098534,63352.085752,72451.257402,0.088000,0.932000,0.288000,192.000000,0.000000,0.000000,0.000000,0.000000,0.000000,0.000000,0.000000,0.000000,0.000000,1646802018.474605,0.000000
199.000000,55210.395778,51129.324869,39548.439032,45295.385456,6933.242909,40922.981909,63360.221787,72450.788015,0.088000,0.934000,0.290000,192.000000,2.000000,192.000000,29.000000,48.000000,9.000000,16.000000,0.000000,0.000000,0.000000,1646802018.474622,0.000000
200.000000,55205.768967,51125.837997,39547.723776,45292.055046,6933.689944,40933.420173,63363.708659,72455.571289,0.088000,0.934000,0.290000,192.000000,0.000000,0.000000,0.000000,0.000000,0.000000,0.000000,0.000000,0.000000,0.000000,1646802018.481896,0.000000
201.000000,55203.600848,51124.832168,39547.209686,45291.920935,6935.813360,40930.648557,63354.678554,72457.001800,0.088000,0.934000,0.290000,192.000000,0.000000,0.000000,0.000000,0.000000,0.000000,0.000000,0.000000,0.000000,0.000000,1646802018.481912,0.000000
202.000000,55211.535717,51133.951680,39554.049320,45300.571060,6940.395467,40926.848760,63348.911804,72457.985277,0.088000,0.934000,0.290000,192.000000,0.000000,0.000000,0.000000,0.000000,0.000000,0.000000,0.000000,0.000000,0.000000,1646802018.489334,0.000000
203.000000,55215.804901,51137.595014,39561.335988,45305.376685,6947.905653,40933.330766,63343.882661,72458.611126,0.088000,0.934000,0.290000,192.000000,0.000000,0.000000,0.000000,0.000000,0.000000,0.000000,0.000000,0.000000,0.000000,1646802018.489351,0.000000
204.000000,55215.715494,51137.974994,39560.106642,45302.828586,6944.798761,40932.101420,63337.423007,72455.258364,0.088000,0.934000,0.290000,192.000000,0.000000,0.000000,0.000000,0.000000,0.000000,0.000000,0.000000,0.000000,0.000000,1646802018.497399,0.000000
205.000000,55213.547374,51131.291822,39553.512878,45294.826662,6935.768656,40925.194731,63332.036237,72448.239916,0.088000,0.934000,0.290000,192.000000,0.000000,0.000000,0.000000,0.000000,0.000000,0.000000,0.000000,0.000000,0.000000,1646802018.497416,0.000000
206.000000,55217.056598,51134.108142,39551.702386,45297.888851,6937.623851,40928.301624,63338.026504,72451.771492,0.088000,0.934000,0.290000,192.000000,0.000000,0.000000,0.000000,0.000000,0.000000,0.000000,0.000000,0.000000,0.000000,1646802018.505386,0.000000
207.000000,55218.196537,51133.616404,39552.931732,45299.408770,6941.781275,40928.793362,63347.548347,72452.732617,0.088000,0.934000,0.290000,192.000000,0.000000,0.000000,0.000000,0.000000,0.000000,0.000000,0.000000,0.000000,0.000000,1646802018.505402,0.000000
208.000000,55216.676619,51135.538654,39563.682921,45311.635174,6959.081526,40945.914798,63346.900147,72457.270021,0.088000,0.934000,0.290000,192.000000,0.000000,0.000000,0.000000,0.000000,0.000000,0.000000,0.000000,0.000000,0.000000,1646802018.511395,0.000000
209.000000,55213.301505,51129.526035,39556.575067,45303.409732,6949.738497,40937.912874,63330.538670,72446.071797,0.084000,0.940000,0.290000,192.000000,2.000000,160.000000,29.000000,96.000000,9.000000,16.000000,0.000000,0.000000,0.000000,1646802018.519040,0.000000
210.000000,55214.106168,51129.190758,39552.149421,45295.139586,6935.679249,40920.187941,63333.019714,72443.233126,0.084000,0.940000,0.290000,192.000000,0.000000,0.000000,0.000000,0.000000,0.000000,0.000000,0.000000,0.000000,0.000000,1646802018.519056,0.000000
211.000000,55205.500746,51119.803026,39548.684901,45291.071569,6937.467389,40921.238473,63330.605725,72438.718073,0.084000,0.940000,0.290000,192.000000,0.000000,0.000000,0.000000,0.000000,0.000000,0.000000,0.000000,0.000000,0.000000,1646802018.527094,0.000000
212.000000,55208.272363,51124.161616,39553.848154,45300.258136,6947.793895,40927.921644,63327.699998,72436.952285,0.084000,0.940000,0.290000,192.000000,0.000000,0.000000,0.000000,0.000000,0.000000,0.000000,0.000000,0.000000,0.000000,1646802018.527111,0.000000
213.000000,55205.254877,51122.999325,39548.371976,45298.112368,6947.168046,40928.189865,63340.932231,72446.630591,0.084000,0.940000,0.290000,192.000000,0.000000,0.000000,0.000000,0.000000,0.000000,0.000000,0.000000,0.000000,0.000000,1646802018.534101,0.000000
214.000000,55200.605714,51118.126645,39537.866657,45288.746987,6928.549043,40910.576691,63334.025542,72448.374027,0.084000,0.940000,0.290000,192.000000,0.000000,0.000000,0.000000,0.000000,0.000000,0.000000,0.000000,0.000000,0.000000,1646802018.534118,0.000000
215.000000,55203.176165,51120.272412,39541.644101,45290.401017,6929.666630,40918.869188,63343.927365,72436.728768,0.084000,0.940000,0.290000,192.000000,0.000000,0.000000,0.000000,0.000000,0.000000,0.000000,0.000000,0.000000,0.000000,1646802018.541569,0.000000
216.000000,55211.848642,51125.055686,39548.930770,45294.021999,6937.825017,40923.518351,63353.292746,72442.651980,0.084000,0.940000,0.290000,192.000000,0.000000,0.000000,0.000000,0.000000,0.000000,0.000000,0.000000,0.000000,0.000000,1646802018.541585,0.000000
217.000000,55204.874898,51119.914784,39546.472078,45290.669237,6942.317717,40923.138371,63339.747589,72448.686951,0.084000,0.940000,0.290000,192.000000,0.000000,0.000000,0.000000,0.000000,0.000000,0.000000,0.000000,0.000000,0.000000,1646802018.549406,0.000000
218.000000,55204.405511,51122.641697,39544.974511,45288.188194,6932.281784,40909.906138,63335.523109,72452.307934,0.084000,0.940000,0.290000,192.000000,0.000000,0.000000,0.000000,0.000000,0.000000,0.000000,0.000000,0.000000,0.000000,1646802018.549423,0.000000
219.000000,55208.339418,51127.246157,39548.975474,45295.676028,6936.483912,40918.511560,63338.764112,72452.777320,0.086000,0.938000,0.294000,192.000000,2.000000,176.000000,29.000000,80.000000,9.000000,48.000000,0.000000,0.000000,0.000000,1646802018.557679,0.000000
220.000000,55211.468662,51128.877834,39547.679072,45294.267868,6939.590805,40917.393973,63328.750530,72445.803576,0.086000,0.938000,0.294000,192.000000,0.000000,0.000000,0.000000,0.000000,0.000000,0.000000,0.000000,0.000000,0.000000,1646802018.557696,0.000000
221.000000,55216.073122,51134.398715,39547.746128,45296.927726,6944.999927,40912.543644,63324.995437,72447.390550,0.086000,0.938000,0.294000,192.000000,0.000000,0.000000,0.000000,0.000000,0.000000,0.000000,0.000000,0.000000,0.000000,1646802018.564213,0.000000
222.000000,55204.807842,51124.720409,39542.560523,45292.233860,6949.649090,40914.734115,63316.457071,72435.678236,0.086000,0.938000,0.294000,192.000000,0.000000,0.000000,0.000000,0.000000,0.000000,0.000000,0.000000,0.000000,0.000000,1646802018.564229,0.000000
223.000000,55211.066331,51131.582395,39553.624636,45305.779017,6964.445944,40924.792400,63339.568775,72448.195213,0.086000,0.938000,0.294000,192.000000,0.000000,0.000000,0.000000,0.000000,0.000000,0.000000,0.000000,0.000000,0.000000,1646802018.571117,0.000000
224.000000,55219.068255,51137.773828,39557.513840,45305.488444,6953.717107,40914.108266,63345.626097,72440.863841,0.086000,0.938000,0.294000,192.000000,0.000000,0.000000,0.000000,0.000000,0.000000,0.000000,0.000000,0.000000,0.000000,1646802018.571133,0.000000
225.000000,55222.130444,51138.600843,39560.061939,45305.108464,6948.173874,40913.147141,63335.523109,72422.624817,0.086000,0.938000,0.294000,192.000000,0.000000,0.000000,0.000000,0.000000,0.000000,0.000000,0.000000,0.000000,0.000000,1646802018.579173,0.000000
226.000000,55210.775758,51128.810779,39556.910343,45301.018095,6954.030031,40922.467819,63336.059551,72441.422634,0.086000,0.938000,0.294000,192.000000,0.000000,0.000000,0.000000,0.000000,0.000000,0.000000,0.000000,0.000000,0.000000,1646802018.587198,0.000000
227.000000,55206.707741,51124.005154,39554.943389,45297.866499,6959.081526,40924.390069,63329.711655,72442.294352,0.086000,0.938000,0.294000,192.000000,0.000000,0.000000,0.000000,0.000000,0.000000,0.000000,0.000000,0.000000,0.000000,1646802018.587216,0.000000
228.000000,55227.070180,51141.081886,39567.952105,45311.076380,6965.474125,40926.021746,63330.561022,72454.207832,0.086000,0.938000,0.294000,192.000000,0.000000,0.000000,0.000000,0.000000,0.000000,0.000000,0.000000,0.000000,0.000000,1646802018.593921,0.000000
229.000000,55220.677581,51132.387058,39561.000712,45305.287278,6954.320604,40919.472685,63320.905068,72446.228259,0.086000,0.938000,0.294000,192.000000,0.000000,0.000000,0.000000,0.000000,0.000000,0.000000,0.000000,0.000000,0.000000,1646802018.593938,0.000000
230.000000,55214.597906,51129.928366,39554.898686,45299.721694,6949.023241,40919.249167,63322.648504,72443.523698,0.092000,0.934000,0.292000,192.000000,2.000000,224.000000,29.000000,48.000000,9.000000,32.000000,0.000000,0.000000,0.000000,1646802018.601953,0.000000
231.000000,55223.650363,51140.970128,39561.671264,45308.640040,6952.912444,40923.093667,63342.541557,72452.263230,0.092000,0.934000,0.292000,192.000000,0.000000,0.000000,0.000000,0.000000,0.000000,0.000000,0.000000,0.000000,0.000000,1646802018.601969,0.000000
232.000000,55215.939011,51127.134398,39559.480793,45306.136645,6955.706412,40924.680641,63341.334562,72455.124254,0.092000,0.934000,0.292000,192.000000,0.000000,0.000000,0.000000,0.000000,0.000000,0.000000,0.000000,0.000000,0.000000,1646802018.609894,0.000000
233.000000,55214.955534,51125.837997,39555.345721,45302.873290,6956.801648,40927.184037,63334.785501,72456.420655,0.092000,0.934000,0.292000,192.000000,0.000000,0.000000,0.000000,0.000000,0.000000,0.000000,0.000000,0.000000,0.000000,1646802018.609910,0.000000
234.000000,55214.195575,51127.335564,39551.277703,45299.520528,6947.883302,40924.233606,63336.663048,72452.307934,0.092000,0.934000,0.292000,192.000000,0.000000,0.000000,0.000000,0.000000,0.000000,0.000000,0.000000,0.000000,0.000000,1646802018.617055,0.000000
235.000000,55220.610526,51136.700945,39553.669340,45301.554537,6946.653956,40928.636900,63340.082865,72456.174786,0.092000,0.934000,0.292000,192.000000,0.000000,0.000000,0.000000,0.000000,0.000000,0.000000,0.000000,0.000000,0.000000,1646802018.617073,0.000000
236.000000,55217.727151,51132.387058,39553.289360,45297.330057,6948.129171,40925.418249,63331.343333,72447.569364,0.092000,0.934000,0.292000,192.000000,0.000000,0.000000,0.000000,0.000000,0.000000,0.000000,0.000000,0.000000,0.000000,1646802018.624451,0.000000
237.000000,55201.902116,51118.238404,39546.181505,45292.166804,6946.318680,40921.439638,63311.651446,72445.870631,0.092000,0.934000,0.292000,192.000000,0.000000,0.000000,0.000000,0.000000,0.000000,0.000000,0.000000,0.000000,0.000000,1646802018.624463,0.000000
238.000000,55219.336476,51134.689288,39556.686825,45302.448607,6953.605348,40924.993566,63323.699036,72451.235050,0.092000,0.934000,0.292000,192.000000,0.000000,0.000000,0.000000,0.000000,0.000000,0.000000,0.000000,0.000000,0.000000,1646802018.632372,0.000000
239.000000,55203.042055,51121.859386,39552.551753,45299.766397,6959.461505,40935.185961,63346.989554,72459.259326,0.092000,0.934000,0.292000,192.000000,0.000000,0.000000,0.000000,0.000000,0.000000,0.000000,0.000000,0.000000,0.000000,1646802018.632383,0.000000
240.000000,55193.699025,51113.656296,39541.174715,45290.155147,6944.999927,40922.378412,63344.709676,72459.125216,0.090000,0.938000,0.288000,192.000000,2.000000,208.000000,29.000000,80.000000,9.000000,0.000000,0.000000,0.000000,0.000000,1646802018.639467,0.000000
241.000000,55204.852546,51127.089694,39540.951197,45290.110444,6943.547063,40916.499903,63335.813682,72451.436216,0.090000,0.938000,0.288000,192.000000,0.000000,0.000000,0.000000,0.000000,0.000000,0.000000,0.000000,0.000000,0.000000,1646802018.646391,0.000000
242.000000,55205.031360,51121.010020,39542.158191,45290.088092,6946.184569,40919.070353,63334.472577,72453.827852,0.090000,0.938000,0.288000,192.000000,0.000000,0.000000,0.000000,0.000000,0.000000,0.000000,0.000000,0.000000,0.000000,1646802018.646401,0.000000
243.000000,55224.991468,51137.751476,39550.540096,45300.056970,6954.655880,40925.060621,63323.587277,72455.750102,0.090000,0.938000,0.288000,192.000000,0.000000,0.000000,0.000000,0.000000,0.000000,0.000000,0.000000,0.000000,0.000000,1646802018.653874,0.000000
244.000000,55225.952593,51142.713564,39549.802488,45300.995743,6949.403220,40919.293871,63331.186870,72467.842396,0.090000,0.938000,0.288000,192.000000,0.000000,0.000000,0.000000,0.000000,0.000000,0.000000,0.000000,0.000000,0.000000,1646802018.653889,0.000000
245.000000,55228.657154,51146.938043,39552.171773,45305.600203,6947.369212,40919.450333,63341.133397,72475.173768,0.090000,0.938000,0.288000,192.000000,0.000000,0.000000,0.000000,0.000000,0.000000,0.000000,0.000000,0.000000,0.000000,1646802018.662118,0.000000
246.000000,55233.798055,51150.111991,39559.324331,45312.216319,6958.746250,40928.480438,63349.269432,72466.635402,0.090000,0.938000,0.288000,192.000000,0.000000,0.000000,0.000000,0.000000,0.000000,0.000000,0.000000,0.000000,0.000000,1646802018.662134,0.000000
247.000000,55234.245090,51146.111029,39554.675168,45303.432084,6961.875494,40923.719516,63333.958487,72447.256440,0.090000,0.938000,0.288000,192.000000,0.000000,0.000000,0.000000,0.000000,0.000000,0.000000,0.000000,0.000000,0.000000,1646802018.670062,0.000000
248.000000,55233.485130,51147.161561,39555.435128,45304.929650,6970.056232,40926.178208,63325.978914,72449.916297,0.090000,0.938000,0.288000,192.000000,0.000000,0.000000,0.000000,0.000000,0.000000,0.000000,0.000000,0.000000,0.000000,1646802018.670073,0.000000
249.000000,55232.926337,51152.123648,39556.887991,45305.220223,6965.831753,40921.707859,63319.943943,72451.279754,0.090000,0.938000,0.288000,192.000000,0.000000,0.000000,0.000000,0.000000,0.000000,0.000000,0.000000,0.000000,0.000000,1646802018.676715,0.000000
250.000000,55223.762122,51140.210168,39548.841363,45290.959810,6953.404183,40909.101475,63296.206390,72429.062120,0.092000,0.936000,0.286000,192.000000,2.000000,224.000000,29.000000,64.000000,8.000000,240.000000,0.000000,0.000000,0.000000,1646802018.676731,0.000000
251.000000,55216.743674,51130.978898,39540.012424,45281.035636,6942.474180,40896.785664,63298.620379,72414.265265,0.092000,0.936000,0.286000,192.000000,0.000000,0.000000,0.000000,0.000000,0.000000,0.000000,0.000000,0.000000,0.000000,1646802018.684728,0.000000
252.000000,55218.956497,51136.455075,39542.873447,45286.489461,6944.888168,40900.987792,63317.552306,72420.680215,0.092000,0.936000,0.286000,192.000000,0.000000,0.000000,0.000000,0.000000,0.000000,0.000000,0.000000,0.000000,0.000000,1646802018.684746,0.000000
253.000000,55218.934145,51135.493950,39543.901628,45287.294124,6947.190398,40905.435789,63309.617437,72432.146660,0.092000,0.936000,0.286000,192.000000,0.000000,0.000000,0.000000,0.000000,0.000000,0.000000,0.000000,0.000000,0.000000,1646802018.692757,0.000000
254.000000,55215.268459,51130.531863,39538.872485,45284.902487,6940.864854,40900.697219,63310.779728,72429.777375,0.092000,0.936000,0.286000,192.000000,0.000000,0.000000,0.000000,0.000000,0.000000,0.000000,0.000000,0.000000,0.000000,1646802018.692774,0.000000
255.000000,55210.529889,51120.674744,39534.402136,45282.533202,6940.037839,40903.446484,63312.254943,72437.600486,0.092000,0.936000,0.286000,192.000000,0.000000,0.000000,0.000000,0.000000,0.000000,0.000000,0.000000,0.000000,0.000000,1646802018.698648,0.000000
0.000000,55216.989543,51127.693191,39540.325348,45286.735330,6945.893996,40906.665135,63319.809833,72443.166070,0.092000,0.936000,0.286000,192.000000,0.000000,0.000000,0.000000,0.000000,0.000000,0.000000,0.000000,0.000000,0.000000,1646802018.706267,0.000000
1.000000,55215.044941,51128.944889,39541.800564,45282.063816,6946.721011,40904.720533,63316.054739,72441.065006,0.092000,0.936000,0.286000,192.000000,0.000000,0.000000,0.000000,0.000000,0.000000,0.000000,0.000000,0.000000,0.000000,1646802018.706283,0.000000
2.000000,55211.870994,51128.251985,39537.665491,45278.688702,6941.401296,40901.390124,63316.769995,72447.636419,0.092000,0.936000,0.286000,192.000000,0.000000,0.000000,0.000000,0.000000,0.000000,0.000000,0.000000,0.000000,0.000000,1646802018.714166,0.000000
3.000000,55223.180976,51139.696078,39540.839439,45285.528336,6939.322584,40904.407609,63335.634868,72456.778283,0.092000,0.936000,0.286000,192.000000,0.000000,0.000000,0.000000,0.000000,0.000000,0.000000,0.000000,0.000000,0.000000,1646802018.714174,0.000000
4.000000,55228.366581,51139.539616,39538.201933,45288.344656,6938.719086,40908.229757,63336.260716,72450.631553,0.086000,0.944000,0.286000,192.000000,2.000000,176.000000,29.000000,128.000000,8.000000,240.000000,0.000000,0.000000,0.000000,1646802018.722226,0.000000
5.000000,55220.543470,51131.515340,39534.938578,45281.952057,6933.444075,40900.093722,63323.274353,72441.176765,0.086000,0.944000,0.286000,192.000000,0.000000,0.000000,0.000000,0.000000,0.000000,0.000000,0.000000,0.000000,0.000000,1646802018.722235,0.000000
6.000000,55220.677581,51133.102314,39539.297168,45284.880136,6944.061153,40909.973193,63328.392902,72445.513004,0.086000,0.944000,0.286000,192.000000,0.000000,0.000000,0.000000,0.000000,0.000000,0.000000,0.000000,0.000000,0.000000,1646802018.728819,0.000000
7.000000,55218.218889,51131.090657,39535.229151,45280.968580,6945.446962,40911.984850,63326.358894,72441.109710,0.086000,0.944000,0.286000,192.000000,0.000000,0.000000,0.000000,0.000000,0.000000,0.000000,0.000000,0.000000,0.000000,1646802018.728831,0.000000
8.000000,55220.521119,51132.096485,39533.776287,45281.728540,6938.987307,40907.380391,63327.007094,72439.142756,0.086000,0.944000,0.286000,192.000000,0.000000,0.000000,0.000000,0.000000,0.000000,0.000000,0.000000,0.000000,0.000000,1646802018.737029,0.000000
9.000000,55217.883613,51130.442456,39531.719927,45282.019112,6934.829883,40903.379429,63323.386112,72433.867745,0.086000,0.944000,0.286000,192.000000,0.000000,0.000000,0.000000,0.000000,0.000000,0.000000,0.000000,0.000000,0.000000,1646802018.737047,0.000000
10.000000,55216.743674,51128.430799,39530.200008,45281.370912,6931.968860,40899.356115,63324.906030,72436.661713,0.086000,0.944000,0.286000,192.000000,0.000000,0.000000,0.000000,0.000000,0.000000,0.000000,0.000000,0.000000,0.000000,1646802018.745011,0.000000
11.000000,55216.386046,51130.196587,39526.467267,45281.370912,6933.041743,40901.926565,63321.352103,72438.919239,0.086000,0.944000,0.286000,192.000000,0.000000,0.000000,0.000000,0.000000,0.000000,0.000000,0.000000,0.000000,0.000000,1646802018.745022,0.000000
12.000000,55219.895270,51137.215035,39538.805430,45291.898583,6947.793895,40912.163664,63315.987684,72429.576210,0.086000,0.944000,0.286000,192.000000,0.000000,0.000000,0.000000,0.000000,0.000000,0.000000,0.000000,0.000000,0.000000,1646802018.752085,0.000000
13.000000,55224.544433,51139.249043,39539.699500,45293.038522,6948.509151,40907.134522,63319.295742,72429.531506,0.086000,0.944000,0.286000,192.000000,0.000000,0.000000,0.000000,0.000000,0.000000,0.000000,0.000000,0.000000,0.000000,1646802018.752101,0.000000
14.000000,55228.299526,51136.499779,39535.363261,45288.076435,6939.076714,40900.674868,63323.944905,72438.740425,0.090000,0.946000,0.288000,192.000000,2.000000,208.000000,29.000000,144.000000,9.000000,0.000000,0.000000,0.000000,0.000000,1646802018.758553,0.000000
15.000000,55222.868052,51133.996383,39535.586779,45288.389360,6944.731706,40908.967365,63317.440548,72424.368253,0.090000,0.946000,0.288000,192.000000,0.000000,0.000000,0.000000,0.000000,0.000000,0.000000,0.000000,0.000000,0.000000,1646802018.766570,0.000000
16.000000,55224.857357,51139.137285,39540.615921,45291.920935,6950.744325,40912.364830,63310.556210,72434.940628,0.090000,0.946000,0.288000,192.000000,0.000000,0.000000,0.000000,0.000000,0.000000,0.000000,0.000000,0.000000,0.000000,1646802018.766587,0.000000
17.000000,55225.214985,51140.478389,39540.101831,45291.071569,6949.738497,40914.734115,63325.487176,72457.493539,0.090000,0.946000,0.288000,192.000000,0.000000,0.000000,0.000000,0.000000,0.000000,0.000000,0.000000,0.000000,0.000000,1646802018.774470,0.000000
18.000000,55221.772816,51134.398715,39533.508066,45282.577906,6943.703526,40916.634013,63327.811757,72451.637382,0.090000,0.946000,0.288000,192.000000,0.000000,0.000000,0.000000,0.000000,0.000000,0.000000,0.000000,0.000000,0.000000,1646802018.774481,0.000000
19.000000,55218.934145,51129.369572,39528.143648,45277.459356,6934.427552,40914.108266,63322.849670,72441.489690,0.090000,0.946000,0.288000,192.000000,0.000000,0.000000,0.000000,0.000000,0.000000,0.000000,0.000000,0.000000,0.000000,1646802018.782071,0.000000
20.000000,55226.869014,51137.215035,39535.273854,45285.058950,6940.104895,40917.550435,63317.440548,72435.722939,0.090000,0.946000,0.288000,192.000000,0.000000,0.000000,0.000000,0.000000,0.000000,0.000000,0.000000,0.000000,0.000000,1646802018.782088,0.000000
21.000000,55228.299526,51142.534750,39538.850133,45289.574002,6944.441133,40918.176284,63323.497870,72438.516908,0.090000,0.946000,0.288000,192.000000,0.000000,0.000000,0.000000,0.000000,0.000000,0.000000,0.000000,0.000000,0.000000,1646802018.789384,0.000000
22.000000,55224.432674,51142.825322,39543.029909,45293.709075,6952.331299,40927.273444,63321.866193,72451.503271,0.090000,0.946000,0.288000,192.000000,0.000000,0.000000,0.000000,0.000000,0.000000,0.000000,0.000000,0.000000,0.000000,1646802018.789401,0.000000
23.000000,55219.671752,51139.204340,39540.325348,45294.178461,6949.336165,40925.865284,63319.094577,72442.182594,0.090000,0.946000,0.288000,192.000000,0.000000,0.000000,0.000000,0.000000,0.000000,0.000000,0.000000,0.000000,0.000000,1646802018.797414,0.000000
24.000000,55225.259689,51140.433686,39536.525552,45291.205679,6943.748229,40921.439638,63317.328789,72436.617009,0.092000,0.940000,0.276000,192.000000,2.000000,224.000000,29.000000,96.000000,8.000000,160.000000,0.000000,0.000000,0.000000,1646802018.797431,0.000000
25.000000,55232.792226,51145.529884,39538.134877,45292.099749,6944.843464,40920.389106,63314.735987,72432.571343,0.092000,0.940000,0.276000,192.000000,0.000000,0.000000,0.000000,0.000000,0.000000,0.000000,0.000000,0.000000,0.000000,1646802018.805254,0.000000
26.000000,55233.731000,51146.692174,39540.481811,45292.435025,6949.291462,40921.529045,63306.711710,72438.382797,0.092000,0.940000,0.276000,192.000000,0.000000,0.000000,0.000000,0.000000,0.000000,0.000000,0.000000,0.000000,0.000000,1646802018.805266,0.000000
27.000000,55219.716456,51132.498817,39527.048412,45284.656618,6938.987307,40911.671926,63302.956617,72440.305047,0.092000,0.940000,0.276000,192.000000,0.000000,0.000000,0.000000,0.000000,0.000000,0.000000,0.000000,0.000000,0.000000,1646802018.812109,0.000000
28.000000,55224.879709,51135.113971,39535.475020,45291.429197,6944.105857,40922.356060,63338.294725,72454.699571,0.092000,0.940000,0.276000,192.000000,0.000000,0.000000,0.000000,0.000000,0.000000,0.000000,0.000000,0.000000,0.000000,1646802018.812126,0.000000
29.000000,55230.355886,51141.998308,39545.578008,45301.353371,6954.812343,40931.609682,63337.311248,72451.816195,0.092000,0.940000,0.276000,192.000000,0.000000,0.000000,0.000000,0.000000,0.000000,0.000000,0.000000,0.000000,0.000000,1646802018.818785,0.000000
30.000000,55236.033229,51152.682442,39546.986168,45307.120121,6955.259377,40920.880845,63341.178100,72456.822986,0.092000,0.940000,0.276000,192.000000,0.000000,0.000000,0.000000,0.000000,0.000000,0.000000,0.000000,0.000000,0.000000,1646802018.818796,0.000000
31.000000,55235.094456,51153.040070,39551.992959,45311.590470,6966.345843,40931.810848,63342.474501,72454.811329,0.092000,0.940000,0.276000,192.000000,0.000000,0.000000,0.000000,0.000000,0.000000,0.000000,0.000000,0.000000,0.000000,1646802018.826743,0.000000
32.000000,55233.328668,51146.781581,39551.411814,45305.533148,6965.965863,40931.497923,63327.878812,72442.294352,0.092000,0.940000,0.276000,192.000000,0.000000,0.000000,0.000000,0.000000,0.000000,0.000000,0.000000,0.000000,0.000000,1646802018.835050,0.000000
33.000000,55240.257709,51152.660090,39549.936599,45303.275621,6956.600482,40922.132542,63333.511452,72447.099977,0.092000,0.940000,0.276000,192.000000,0.000000,0.000000,0.000000,0.000000,0.000000,0.000000,0.000000,0.000000,0.000000,1646802018.835066,0.000000
34.000000,55227.360753,51142.400639,39542.337005,45296.681857,6948.844427,40923.607758,63338.875871,72441.824966,0.086000,0.944000,0.274000,192.000000,2.000000,176.000000,29.000000,128.000000,8.000000,144.000000,0.000000,0.000000,0.000000,1646802018.841563,0.000000
35.000000,55229.148892,51142.244177,39547.522610,45297.844147,6952.487761,40930.022708,63339.792292,72453.827852,0.086000,0.944000,0.274000,192.000000,0.000000,0.000000,0.000000,0.000000,0.000000,0.000000,0.000000,0.000000,0.000000,1646802018.841574,0.000000
36.000000,55233.932165,51144.993442,39558.609075,45303.767360,6965.496476,40940.818601,63338.898222,72452.307934,0.086000,0.944000,0.274000,192.000000,0.000000,0.000000,0.000000,0.000000,0.000000,0.000000,0.000000,0.000000,0.000000,1646802018.849577,0.000000
37.000000,55230.378238,51136.611538,39551.411814,45292.144453,6952.353651,40925.619415,63331.723312,72445.892983,0.086000,0.944000,0.274000,192.000000,0.000000,0.000000,0.000000,0.000000,0.000000,0.000000,0.000000,0.000000,0.000000,1646802018.849588,0.000000
38.000000,55226.779607,51135.158674,39551.769442,45289.864575,6943.167084,40921.909025,63335.254888,72448.798710,0.086000,0.944000,0.274000,192.000000,0.000000,0.000000,0.000000,0.000000,0.000000,0.000000,0.000000,0.000000,0.000000,1646802018.857698,0.000000
39.000000,55222.845700,51135.270433,39555.680997,45290.870403,6948.866778,40930.246226,63327.990571,72439.343922,0.086000,0.944000,0.274000,192.000000,0.000000,0.000000,0.000000,0.000000,0.000000,0.000000,0.000000,0.000000,0.000000,1646802018.857714,0.000000
40.000000,55229.104189,51140.120761,39560.084291,45293.843185,6948.911482,40925.619415,63331.745664,72445.848280,0.086000,0.944000,0.274000,192.000000,0.000000,0.000000,0.000000,0.000000,0.000000,0.000000,0.000000,0.000000,0.000000,1646802018.864115,0.000000
41.000000,55231.182901,51140.120761,39563.682921,45299.006438,6951.280767,40924.881807,63335.970144,72443.546050,0.086000,0.944000,0.274000,192.000000,0.000000,0.000000,0.000000,0.000000,0.000000,0.000000,0.000000,0.000000,0.000000,1646802018.864132,0.000000
42.000000,55239.117770,51148.413259,39564.666398,45300.839281,6946.877473,40919.629147,63338.652353,72451.123291,0.086000,0.944000,0.274000,192.000000,0.000000,0.000000,0.000000,0.000000,0.000000,0.000000,0.000000,0.000000,0.000000,1646802018.872069,0.000000
43.000000,55237.888424,51148.413259,39563.414700,45301.241613,6942.988270,40919.718554,63350.051743,72444.708341,0.086000,0.944000,0.274000,192.000000,0.000000,0.000000,0.000000,0.000000,0.000000,0.000000,0.000000,0.000000,0.000000,1646802018.872088,0.000000
44.000000,55237.664907,51146.401602,39565.426357,45305.376685,6948.106819,40923.294833,63337.221841,72441.556745,0.088000,0.948000,0.278000,192.000000,2.000000,192.000000,29.000000,160.000000,8.000000,176.000000,0.000000,0.000000,0.000000,1646802018.880151,0.000000
45.000000,55238.626032,51150.111991,39574.724683,45315.859653,6965.809401,40937.130563,63346.944850,72455.861861,0.088000,0.948000,0.278000,192.000000,0.000000,0.000000,0.000000,0.000000,0.000000,0.000000,0.000000,0.000000,0.000000,1646802018.880195,0.000000
46.000000,55233.798055,51141.640680,39570.656666,45310.763456,6965.675290,40934.671871,63344.597917,72452.732617,0.088000,0.948000,0.278000,192.000000,0.000000,0.000000,0.000000,0.000000,0.000000,0.000000,0.000000,0.000000,0.000000,1646802018.887488,0.000000
47.000000,55236.949651,51141.528921,39565.001674,45306.181348,6956.354613,40926.289967,63338.339429,72442.897849,0.088000,0.948000,0.278000,192.000000,0.000000,0.000000,0.000000,0.000000,0.000000,0.000000,0.000000,0.000000,0.000000,1646802018.894064,0.000000
48.000000,55227.628973,51131.805912,39555.278665,45297.419464,6946.452790,40925.440601,63334.114949,72438.047521,0.088000,0.948000,0.278000,192.000000,0.000000,0.000000,0.000000,0.000000,0.000000,0.000000,0.000000,0.000000,0.000000,1646802018.894081,0.000000
49.000000,55226.556090,51132.945851,39547.723776,45293.530261,6933.354668,40913.705935,63329.845766,72437.734596,0.088000,0.948000,0.278000,192.000000,0.000000,0.000000,0.000000,0.000000,0.000000,0.000000,0.000000,0.000000,0.000000,1646802018.901703,0.000000
50.000000,55244.012802,51152.503628,39562.095948,45307.969488,6939.791970,40911.694278,63331.835071,72447.345847,0.088000,0.948000,0.278000,192.000000,0.000000,0.000000,0.000000,0.000000,0.000000,0.000000,0.000000,0.000000,0.000000,1646802018.901714,0.000000
51.000000,55233.261613,51139.874892,39556.530363,45304.013229,6944.888168,40915.181150,63323.095539,72451.145643,0.088000,0.948000,0.278000,192.000000,0.000000,0.000000,0.000000,0.000000,0.000000,0.000000,0.000000,0.000000,0.000000,1646802018.909968,0.000000
52.000000,55229.908851,51138.064401,39553.937561,45302.426255,6943.055325,40916.030516,63334.494929,72459.348733,0.088000,0.948000,0.278000,192.000000,0.000000,0.000000,0.000000,0.000000,0.000000,0.000000,0.000000,0.000000,0.000000,1646802018.909985,0.000000
53.000000,55231.026439,51140.500741,39553.848154,45299.341714,6939.724915,40918.735077,63332.103292,72452.799672,0.088000,0.948000,0.278000,192.000000,0.000000,0.000000,0.000000,0.000000,0.000000,0.000000,0.000000,0.000000,0.000000,1646802018.917090,0.000000
54.000000,55235.429732,51145.999270,39558.206744,45301.822758,6945.379906,40922.914853,63357.070191,72450.117463,0.088000,0.940000,0.278000,192.000000,2.000000,192.000000,29.000000,96.000000,8.000000,176.000000,0.000000,0.000000,0.000000,1646802018.917106,0.000000
55.000000,55230.065314,51141.059535,39553.289360,45296.905374,6939.121418,40908.855606,63354.879720,72436.773471,0.088000,0.940000,0.278000,192.000000,0.000000,0.000000,0.000000,0.000000,0.000000,0.000000,0.000000,0.000000,0.000000,1646802018.924463,0.000000
56.000000,55225.550261,51136.343317,39552.484697,45296.503043,6942.720049,40916.522255,63349.403542,72437.265210,0.088000,0.940000,0.278000,192.000000,0.000000,0.000000,0.000000,0.000000,0.000000,0.000000,0.000000,0.000000,0.000000,1646802018.924474,0.000000
57.000000,55228.254822,51136.052744,39550.540096,45294.491386,6938.406162,40921.059659,63347.056609,72446.429425,0.088000,0.940000,0.278000,192.000000,0.000000,0.000000,0.000000,0.000000,0.000000,0.000000,0.000000,0.000000,0.000000,1646802018.932668,0.000000
58.000000,55220.610526,51131.113008,39549.266046,45293.552612,6939.188473,40927.809885,63350.498778,72459.236975,0.088000,0.940000,0.278000,192.000000,0.000000,0.000000,0.000000,0.000000,0.000000,0.000000,0.000000,0.000000,0.000000,1646802018.932685,0.000000
59.000000,55220.074084,51132.431761,39548.796660,45296.905374,6938.070886,40926.938167,63358.724220,72466.568347,0.088000,0.940000,0.278000,192.000000,0.000000,0.000000,0.000000,0.000000,0.000000,0.000000,0.000000,0.000000,0.000000,1646802018.940565,0.000000
60.000000,55223.337439,51132.029430,39547.120279,45294.826662,6937.154464,40920.679679,63349.381190,72453.805501,0.088000,0.940000,0.278000,192.000000,0.000000,0.000000,0.000000,0.000000,0.000000,0.000000,0.000000,0.000000,0.000000,1646802018.940582,0.000000
61.000000,55215.715494,51122.015848,39538.447802,45286.243592,6937.467389,40914.421191,63339.792292,72440.103881,0.088000,0.940000,0.278000,192.000000,0.000000,0.000000,0.000000,0.000000,0.000000,0.000000,0.000000,0.000000,0.000000,1646802018.946655,0.000000
62.000000,55219.157662,51124.675706,39538.827782,45286.601220,6935.813360,40910.621394,63345.715504,72442.048483,0.088000,0.940000,0.278000,192.000000,0.000000,0.000000,0.000000,0.000000,0.000000,0.000000,0.000000,0.000000,0.000000,1646802018.954084,0.000000
63.000000,55229.260651,51135.225729,39546.360319,45293.150281,6933.064095,40906.218100,63344.374400,72448.843413,0.088000,0.940000,0.278000,192.000000,0.000000,0.000000,0.000000,0.000000,0.000000,0.000000,0.000000,0.000000,0.000000,1646802018.954100,0.000000
64.000000,55231.451122,51138.980822,39553.267008,45302.560366,6941.244834,40916.052868,63332.103292,72439.142756,0.090000,0.940000,0.274000,192.000000,2.000000,208.000000,29.000000,96.000000,8.000000,144.000000,0.000000,0.000000,0.000000,1646802018.962254,0.000000
65.000000,55225.594965,51132.945851,39550.137764,45298.201775,6940.462523,40914.152970,63333.980839,72434.784166,0.090000,0.940000,0.274000,192.000000,0.000000,0.000000,0.000000,0.000000,0.000000,0.000000,0.000000,0.000000,0.000000,1646802018.962271,0.000000
66.000000,55224.276212,51129.526035,39553.736395,45296.883022,6945.648127,40921.663156,63340.149920,72444.842451,0.090000,0.940000,0.274000,192.000000,0.000000,0.000000,0.000000,0.000000,0.000000,0.000000,0.000000,0.000000,0.000000,1646802018.969236,0.000000
67.000000,55229.774741,51132.096485,39551.612979,45292.993819,6938.897900,40913.728286,63339.702885,72433.979503,0.090000,0.940000,0.274000,192.000000,0.000000,0.000000,0.000000,0.000000,0.000000,0.000000,0.000000,0.000000,0.000000,1646802018.969252,0.000000
68.000000,55222.309258,51125.636831,39544.192200,45287.607048,6933.801703,40914.957632,63337.311248,72430.112652,0.090000,0.940000,0.274000,192.000000,0.000000,0.000000,0.000000,0.000000,0.000000,0.000000,0.000000,0.000000,0.000000,1646802018.976601,0.000000
69.000000,55227.114883,51133.124665,39553.445822,45298.738217,6940.037839,40921.327880,63343.815606,72450.676256,0.090000,0.940000,0.274000,192.000000,0.000000,0.000000,0.000000,0.000000,0.000000,0.000000,0.000000,0.000000,0.000000,1646802018.976617,0.000000
70.000000,55222.309258,51128.319040,39551.836497,45299.721694,6939.523749,40915.672888,63335.076074,72444.462472,0.090000,0.940000,0.274000,192.000000,0.000000,0.000000,0.000000,0.000000,0.000000,0.000000,0.000000,0.000000,0.000000,1646802018.984835,0.000000
71.000000,55214.419092,51122.641697,39548.170811,45298.402941,6941.691869,40915.181150,63336.886565,72432.548992,0.090000,0.940000,0.274000,192.000000,0.000000,0.000000,0.000000,0.000000,0.000000,0.000000,0.000000,0.000000,0.000000,1646802018.984851,0.000000
72.000000,55218.509462,51124.720409,39550.428337,45296.883022,6938.741438,40914.734115,63339.457016,72441.824966,0.090000,0.940000,0.274000,192.000000,0.000000,0.000000,0.000000,0.000000,0.000000,0.000000,0.000000,0.000000,0.000000,1646802018.992814,0.000000
73.000000,55225.662020,51131.694154,39550.361282,45296.100711,6929.912499,40911.917795,63334.629039,72439.746253,0.090000,0.940000,0.274000,192.000000,0.000000,0.000000,0.000000,0.000000,0.000000,0.000000,0.000000,0.000000,0.000000,1646802018.992829,0.000000
74.000000,55223.560956,51129.481331,39550.987131,45295.988953,6932.728819,40914.287080,63336.305420,72433.957152,0.090000,0.940000,0.274000,192.000000,0.000000,0.000000,0.000000,0.000000,0.000000,0.000000,0.000000,0.000000,0.000000,1646802018.999436,0.000000
75.000000,55216.296639,51121.121779,39550.383633,45295.139586,6937.579148,40915.628185,63336.573641,72441.087358,0.092000,0.938000,0.278000,192.000000,2.000000,224.000000,29.000000,80.000000,8.000000,176.000000,0.000000,0.000000,0.000000,1646802018.999452,0.000000
76.000000,55208.607639,51112.046970,39546.114450,45291.943287,6940.753095,40918.042173,63327.320019,72435.924105,0.092000,0.938000,0.278000,192.000000,0.000000,0.000000,0.000000,0.000000,0.000000,0.000000,0.000000,0.000000,0.000000,1646802019.006163,0.000000
77.000000,55196.537697,51099.909973,39537.151401,45283.069644,6929.465464,40910.621394,63335.813682,72430.738500,0.092000,0.938000,0.278000,192.000000,0.000000,0.000000,0.000000,0.000000,0.000000,0.000000,0.000000,0.000000,0.000000,1646802019.014464,0.000000
78.000000,55176.801107,51083.637903,39527.875427,45273.525449,6918.691923,40901.770103,63326.828280,72423.720053,0.092000,0.938000,0.278000,192.000000,0.000000,0.000000,0.000000,0.000000,0.000000,0.000000,0.000000,0.000000,0.000000,1646802019.014479,0.000000
79.000000,55173.582455,51075.948903,39530.647043,45273.860726,6918.580165,40907.469798,63326.068321,72431.274942,0.092000,0.938000,0.278000,192.000000,0.000000,0.000000,0.000000,0.000000,0.000000,0.000000,0.000000,0.000000,0.000000,1646802019.022331,0.000000
80.000000,55163.099487,51058.782763,39530.870561,45273.078415,6918.669572,40916.723420,63333.734969,72450.899774,0.092000,0.938000,0.278000,192.000000,0.000000,0.000000,0.000000,0.000000,0.000000,0.000000,0.000000,0.000000,0.000000,1646802019.022346,0.000000
81.000000,55137.640850,51041.661327,39521.035793,45267.401071,6912.411083,40918.556263,63340.395789,72447.055274,0.092000,0.938000,0.278000,192.000000,0.000000,0.000000,0.000000,0.000000,0.000000,0.000000,0.000000,0.000000,0.000000,1646802019.028961,0.000000
82.000000,55118.038370,51027.937356,39507.021249,45257.789821,6901.726949,40910.308470,63333.354990,72435.477070,0.092000,0.938000,0.278000,192.000000,0.000000,0.000000,0.000000,0.000000,0.000000,0.000000,0.000000,0.000000,0.000000,1646802019.028978,0.000000
83.000000,55101.229859,51007.753731,39500.695705,45249.586731,6890.215801,40903.088856,63331.790368,72438.941591,0.092000,0.938000,0.278000,192.000000,0.000000,0.000000,0.000000,0.000000,0.000000,0.000000,0.000000,0.000000,0.000000,1646802019.037085,0.000000
84.000000,55087.662350,50988.844155,39501.589775,45242.858856,6889.634656,40906.799246,63332.170347,72445.110672,0.092000,0.938000,0.278000,192.000000,0.000000,0.000000,0.000000,0.000000,0.000000,0.000000,0.000000,0.000000,0.000000,1646802019.037103,0.000000
85.000000,55063.366003,50963.385518,39488.938688,45226.586786,6880.023406,40898.126769,63321.799138,72428.928009,0.090000,0.944000,0.272000,192.000000,2.000000,208.000000,29.000000,128.000000,8.000000,128.000000,0.000000,0.000000,0.000000,1646802019.045000,0.000000
86.000000,55045.216387,50947.024041,39484.870670,45219.411876,6885.186659,40910.017897,63308.253981,72419.137945,0.090000,0.944000,0.272000,192.000000,0.000000,0.000000,0.000000,0.000000,0.000000,0.000000,0.000000,0.000000,0.000000,1646802019.045016,0.000000
87.000000,55035.739247,50941.257291,39481.562612,45214.941527,6883.398519,40905.525196,63304.476536,72423.183611,0.090000,0.944000,0.272000,192.000000,0.000000,0.000000,0.000000,0.000000,0.000000,0.000000,0.000000,0.000000,0.000000,1646802019.052173,0.000000
88.000000,55034.912233,50945.548826,39481.607316,45218.920138,6875.486001,40898.529100,63340.909879,72443.970733,0.090000,0.944000,0.272000,192.000000,0.000000,0.000000,0.000000,0.000000,0.000000,0.000000,0.000000,0.000000,0.000000,1646802019.052184,0.000000
89.000000,55031.939451,50946.040564,39480.534432,45217.824902,6870.076879,40897.411513,63323.117891,72440.886192,0.090000,0.944000,0.272000,192.000000,0.000000,0.000000,0.000000,0.000000,0.000000,0.000000,0.000000,0.000000,0.000000,1646802019.059404,0.000000
90.000000,55034.711067,50945.057088,39483.417807,45222.027030,6878.212914,40906.843949,63328.392902,72449.737483,0.090000,0.944000,0.272000,192.000000,0.000000,0.000000,0.000000,0.000000,0.000000,0.000000,0.000000,0.000000,0.000000,1646802019.059415,0.000000
91.000000,55038.577919,50941.994899,39477.852223,45223.524597,6880.805717,40908.743847,63329.599897,72452.956134,0.090000,0.944000,0.272000,192.000000,0.000000,0.000000,0.000000,0.000000,0.000000,0.000000,0.000000,0.000000,0.000000,1646802019.066793,0.000000
92.000000,55046.043401,50950.890893,39484.200118,45230.118362,6883.465574,40909.973193,63336.663048,72458.298201,0.090000,0.944000,0.272000,192.000000,0.000000,0.000000,0.000000,0.000000,0.000000,0.000000,0.000000,0.000000,0.000000,1646802019.066808,0.000000
93.000000,55041.282480,50953.014309,39489.899813,45228.151408,6883.242057,40912.208368,63319.139280,72445.669466,0.090000,0.944000,0.272000,192.000000,0.000000,0.000000,0.000000,0.000000,0.000000,0.000000,0.000000,0.000000,0.000000,1646802019.074805,0.000000
94.000000,55043.316489,50955.473000,39485.876499,45223.815170,6876.916513,40903.446484,63309.997417,72440.282695,0.090000,0.944000,0.272000,192.000000,0.000000,0.000000,0.000000,0.000000,0.000000,0.000000,0.000000,0.000000,0.000000,1646802019.081915,0.000000
95.000000,55053.084201,50964.056070,39490.905641,45230.565397,6881.722138,40901.881862,63326.493004,72445.937687,0.088000,0.942000,0.272000,192.000000,2.000000,192.000000,29.000000,112.000000,8.000000,128.000000,0.000000,0.000000,0.000000,1646802019.081932,0.000000
96.000000,55058.180399,50972.460326,39497.342944,45239.751964,6894.909667,40908.497978,63320.793309,72444.596582,0.088000,0.942000,0.272000,192.000000,0.000000,0.000000,0.000000,0.000000,0.000000,0.000000,0.000000,0.000000,0.000000,1646802019.089380,0.000000
97.000000,55061.197884,50977.690634,39496.717095,45236.957996,6892.965066,40907.536853,63319.206335,72442.428463,0.088000,0.942000,0.272000,192.000000,0.000000,0.000000,0.000000,0.000000,0.000000,0.000000,0.000000,0.000000,0.000000,1646802019.089397,0.000000
98.000000,55069.311567,50982.809184,39499.309897,45236.935644,6892.115699,40913.504769,63333.578507,72443.590754,0.088000,0.942000,0.272000,192.000000,0.000000,0.000000,0.000000,0.000000,0.000000,0.000000,0.000000,0.000000,0.000000,1646802019.097389,0.000000
99.000000,55070.563265,50982.697425,39494.839548,45235.058097,6888.539420,40909.324993,63329.197565,72435.722939,0.088000,0.942000,0.272000,192.000000,0.000000,0.000000,0.000000,0.000000,0.000000,0.000000,0.000000,0.000000,0.000000,1646802019.097405,0.000000
100.000000,55079.481611,50990.654646,39497.566461,45238.768487,6891.780423,40905.324031,63330.136338,72439.343922,0.088000,0.942000,0.272000,192.000000,0.000000,0.000000,0.000000,0.000000,0.000000,0.000000,0.000000,0.000000,0.000000,1646802019.104440,0.000000
101.000000,55088.422309,51000.176489,39502.528549,45240.601330,6896.340179,40906.575728,63328.728179,72436.192326,0.088000,0.942000,0.272000,192.000000,0.000000,0.000000,0.000000,0.000000,0.000000,0.000000,0.000000,0.000000,0.000000,1646802019.104457,0.000000
102.000000,55094.010245,51003.775120,39507.334174,45245.652824,6905.638505,40915.561130,63337.557118,72447.368198,0.088000,0.942000,0.272000,192.000000,0.000000,0.000000,0.000000,0.000000,0.000000,0.000000,0.000000,0.000000,0.000000,1646802019.112103,0.000000
103.000000,55101.542783,51005.809129,39507.021249,45245.876342,6897.278952,40907.849778,63333.064417,72443.143719,0.088000,0.942000,0.272000,192.000000,0.000000,0.000000,0.000000,0.000000,0.000000,0.000000,0.000000,0.000000,0.000000,1646802019.112119,0.000000
104.000000,55112.495138,51015.710952,39508.898796,45250.167877,6892.719196,40901.948917,63320.390978,72436.147623,0.088000,0.942000,0.272000,192.000000,0.000000,0.000000,0.000000,0.000000,0.000000,0.000000,0.000000,0.000000,0.000000,1646802019.120048,0.000000
105.000000,55112.450434,51016.493263,39509.479941,45248.178571,6899.156499,40905.994583,63325.241306,72441.176765,0.088000,0.944000,0.278000,192.000000,2.000000,192.000000,29.000000,128.000000,8.000000,176.000000,0.000000,0.000000,0.000000,1646802019.120065,0.000000
106.000000,55112.048103,51018.169644,39509.122313,45248.424440,6907.985438,40909.839083,63328.370551,72430.514983,0.088000,0.944000,0.278000,192.000000,0.000000,0.000000,0.000000,0.000000,0.000000,0.000000,0.000000,0.000000,0.000000,1646802019.128058,0.000000
107.000000,55112.852766,51013.811053,39506.596566,45244.915217,6906.599630,40906.262804,63330.672780,72440.237992,0.088000,0.944000,0.278000,192.000000,0.000000,0.000000,0.000000,0.000000,0.000000,0.000000,0.000000,0.000000,0.000000,1646802019.128074,0.000000
108.000000,55109.790577,51009.452463,39498.393476,45236.153333,6895.021426,40897.232699,63325.978914,72443.523698,0.088000,0.944000,0.278000,192.000000,0.000000,0.000000,0.000000,0.000000,0.000000,0.000000,0.000000,0.000000,0.000000,1646802019.134271,0.000000
109.000000,55118.261888,51018.728437,39503.780246,45240.780144,6894.216763,40892.360019,63322.402635,72434.203021,0.088000,0.944000,0.278000,192.000000,0.000000,0.000000,0.000000,0.000000,0.000000,0.000000,0.000000,0.000000,0.000000,1646802019.141659,0.000000
110.000000,55122.016981,51024.852815,39509.189368,45247.195094,6900.676417,40896.092760,63326.470652,72436.460547,0.088000,0.944000,0.278000,192.000000,0.000000,0.000000,0.000000,0.000000,0.000000,0.000000,0.000000,0.000000,0.000000,1646802019.141675,0.000000
111.000000,55128.856615,51032.184187,39511.916281,45252.715975,6907.538403,40905.122865,63328.482309,72437.265210,0.088000,0.944000,0.278000,192.000000,0.000000,0.000000,0.000000,0.000000,0.000000,0.000000,0.000000,0.000000,0.000000,1646802019.149701,0.000000
112.000000,55139.317231,51040.946071,39515.112581,45254.861743,6909.773577,40908.900310,63340.775769,72445.423597,0.088000,0.944000,0.278000,192.000000,0.000000,0.000000,0.000000,0.000000,0.000000,0.000000,0.000000,0.000000,0.000000,1646802019.149717,0.000000
113.000000,55140.434818,51039.649670,39516.163113,45257.543952,6905.884374,40909.302641,63328.012923,72436.617009,0.088000,0.944000,0.278000,192.000000,0.000000,0.000000,0.000000,0.000000,0.000000,0.000000,0.000000,0.000000,0.000000,1646802019.157524,0.000000
114.000000,55137.707905,51039.157932,39516.073706,45257.409842,6906.845499,40917.349269,63324.302533,72436.281733,0.088000,0.944000,0.278000,192.000000,0.000000,0.000000,0.000000,0.000000,0.000000,0.000000,0.000000,0.000000,0.000000,1646802019.157536,0.000000
115.000000,55144.145208,51047.182208,39519.918206,45261.701377,6915.182700,40922.870150,63339.032333,72442.853146,0.090000,0.942000,0.276000,192.000000,2.000000,208.000000,29.000000,112.000000,8.000000,160.000000,0.000000,0.000000,0.000000,1646802019.164307,0.000000
116.000000,55144.324022,51045.081144,39519.873502,45260.248513,6913.528670,40919.048002,63334.159652,72442.473166,0.090000,0.942000,0.276000,192.000000,0.000000,0.000000,0.000000,0.000000,0.000000,0.000000,0.000000,0.000000,0.000000,1646802019.164323,0.000000
117.000000,55142.602938,51048.411554,39520.633462,45259.779127,6915.696790,40923.227778,63335.411350,72437.958114,0.090000,0.942000,0.276000,192.000000,0.000000,0.000000,0.000000,0.000000,0.000000,0.000000,0.000000,0.000000,0.000000,1646802019.172375,0.000000
118.000000,55147.252100,51055.765278,39523.069802,45263.198944,6915.562679,40922.892502,63337.400655,72454.476053,0.090000,0.942000,0.276000,192.000000,0.000000,0.000000,0.000000,0.000000,0.000000,0.000000,0.000000,0.000000,0.000000,1646802019.172390,0.000000
119.000000,55141.395943,51050.892598,39510.552825,45251.687795,6905.169118,40907.559205,63322.000304,72443.613105,0.090000,0.942000,0.276000,192.000000,0.000000,0.000000,0.000000,0.000000,0.000000,0.000000,0.000000,0.000000,0.000000,1646802019.180274,0.000000
120.000000,55140.144246,51046.176379,39511.335136,45251.173705,6911.069979,40908.676792,63323.274353,72440.573268,0.090000,0.942000,0.276000,192.000000,0.000000,0.000000,0.000000,0.000000,0.000000,0.000000,0.000000,0.000000,0.000000,1646802019.180285,0.000000
121.000000,55148.079115,51052.077240,39506.462456,45251.196057,6901.458728,40891.510652,63323.721388,72441.355579,0.090000,0.942000,0.276000,192.000000,0.000000,0.000000,0.000000,0.000000,0.000000,0.000000,0.000000,0.000000,0.000000,1646802019.187470,0.000000
122.000000,55147.922653,51054.200656,39499.935746,45251.687795,6895.647275,40882.569955,63318.155803,72424.770585,0.090000,0.942000,0.276000,192.000000,0.000000,0.000000,0.000000,0.000000,0.000000,0.000000,0.000000,0.000000,0.000000,1646802019.187486,0.000000
123.000000,55154.941100,51057.106383,39511.513950,45255.331129,6905.526746,40890.415417,63323.430815,72429.576210,0.090000,0.942000,0.276000,192.000000,0.000000,0.000000,0.000000,0.000000,0.000000,0.000000,0.000000,0.000000,0.000000,1646802019.194060,0.000000
124.000000,55154.203493,51057.195789,39512.922110,45260.762603,6912.992229,40897.635030,63325.822452,72445.043617,0.090000,0.942000,0.276000,192.000000,0.000000,0.000000,0.000000,0.000000,0.000000,0.000000,0.000000,0.000000,0.000000,1646802019.202069,0.000000
125.000000,55157.690365,51062.202580,39515.157284,45264.160069,6914.176871,40896.651554,63326.649466,72442.607277,0.086000,0.942000,0.276000,192.000000,2.000000,176.000000,29.000000,112.000000,8.000000,160.000000,0.000000,0.000000,0.000000,1646802019.202086,0.000000
126.000000,55161.646624,51063.946016,39523.427430,45267.266961,6926.805607,40905.860472,63325.174251,72436.013512,0.086000,0.942000,0.276000,192.000000,0.000000,0.000000,0.000000,0.000000,0.000000,0.000000,0.000000,0.000000,0.000000,1646802019.210053,0.000000
127.000000,55167.368670,51071.657368,39526.333156,45270.083281,6926.537386,40904.273499,63334.204356,72439.612143,0.086000,0.942000,0.276000,192.000000,0.000000,0.000000,0.000000,0.000000,0.000000,0.000000,0.000000,0.000000,0.000000,1646802019.210070,0.000000
128.000000,55161.780734,51067.119964,39522.935691,45267.401071,6927.610270,40912.029554,63323.587277,72430.291466,0.086000,0.942000,0.276000,192.000000,0.000000,0.000000,0.000000,0.000000,0.000000,0.000000,0.000000,0.000000,0.000000,1646802019.216970,0.000000
129.000000,55165.111144,51069.779822,39524.813238,45267.602237,6929.107836,40911.828388,63318.222859,72425.888172,0.086000,0.942000,0.276000,192.000000,0.000000,0.000000,0.000000,0.000000,0.000000,0.000000,0.000000,0.000000,0.000000,1646802019.216987,0.000000
130.000000,55171.794316,51075.926551,39525.327328,45268.138679,6926.872662,40901.188958,63319.742777,72428.838602,0.086000,0.942000,0.276000,192.000000,0.000000,0.000000,0.000000,0.000000,0.000000,0.000000,0.000000,0.000000,0.000000,1646802019.224605,0.000000
131.000000,55179.103336,51085.783671,39526.780191,45273.547801,6926.313868,40899.870205,63330.248097,72436.594657,0.086000,0.942000,0.276000,192.000000,0.000000,0.000000,0.000000,0.000000,0.000000,0.000000,0.000000,0.000000,0.000000,1646802019.224621,0.000000
132.000000,55178.253970,51082.296799,39527.830723,45271.424385,6922.290554,40906.955708,63328.817586,72430.671445,0.086000,0.942000,0.276000,192.000000,0.000000,0.000000,0.000000,0.000000,0.000000,0.000000,0.000000,0.000000,0.000000,1646802019.231792,0.000000
133.000000,55178.544543,51080.486307,39527.540151,45266.059967,6920.681229,40910.107304,63325.934211,72433.845393,0.086000,0.942000,0.276000,192.000000,0.000000,0.000000,0.000000,0.000000,0.000000,0.000000,0.000000,0.000000,0.000000,1646802019.231808,0.000000
134.000000,55184.624217,51083.593200,39527.987185,45262.573095,6913.416912,40906.553377,63328.169385,72435.991160,0.086000,0.942000,0.276000,192.000000,0.000000,0.000000,0.000000,0.000000,0.000000,0.000000,0.000000,0.000000,0.000000,1646802019.239997,0.000000
135.000000,55176.868162,51079.905162,39523.673299,45262.751909,6917.015543,40909.123827,63323.229649,72443.814271,0.086000,0.942000,0.274000,192.000000,2.000000,176.000000,29.000000,112.000000,8.000000,144.000000,0.000000,0.000000,0.000000,1646802019.240013,0.000000
136.000000,55171.548447,51078.519354,39529.238883,45265.523525,6922.916403,40908.989717,63315.473594,72440.305047,0.086000,0.942000,0.274000,192.000000,0.000000,0.000000,0.000000,0.000000,0.000000,0.000000,0.000000,0.000000,0.000000,1646802019.247984,0.000000
137.000000,55174.834153,51080.441604,39533.932750,45269.345673,6928.884319,40919.897368,63331.455091,72438.181631,0.086000,0.942000,0.274000,192.000000,0.000000,0.000000,0.000000,0.000000,0.000000,0.000000,0.000000,0.000000,0.000000,1646802019.247999,0.000000
138.000000,55180.891476,51083.146165,39527.584854,45270.709130,6921.776464,40916.857531,63330.449263,72437.622838,0.086000,0.942000,0.274000,192.000000,0.000000,0.000000,0.000000,0.000000,0.000000,0.000000,0.000000,0.000000,0.000000,1646802019.255070,0.000000
139.000000,55189.943932,51090.254020,39529.082421,45280.230973,6921.865871,40912.320127,63330.516318,72451.145643,0.086000,0.942000,0.274000,192.000000,0.000000,0.000000,0.000000,0.000000,0.000000,0.000000,0.000000,0.000000,0.000000,1646802019.261591,0.000000
140.000000,55186.434708,51086.230706,39530.468229,45281.639133,6930.918328,40918.600967,63324.011961,72440.953248,0.086000,0.942000,0.274000,192.000000,0.000000,0.000000,0.000000,0.000000,0.000000,0.000000,0.000000,0.000000,0.000000,1646802019.261607,0.000000
141.000000,55188.893400,51090.298723,39535.050337,45281.750891,6929.912499,40914.018859,63327.208260,72445.200079,0.086000,0.942000,0.274000,192.000000,0.000000,0.000000,0.000000,0.000000,0.000000,0.000000,0.000000,0.000000,0.000000,1646802019.269627,0.000000
142.000000,55190.502726,51091.595124,39534.335081,45279.627476,6923.832825,40909.324993,63325.107196,72446.496480,0.086000,0.942000,0.274000,192.000000,0.000000,0.000000,0.000000,0.000000,0.000000,0.000000,0.000000,0.000000,0.000000,1646802019.269643,0.000000
143.000000,55190.502726,51092.131566,39529.909435,45275.581810,6912.880470,40898.931432,63317.664065,72438.606314,0.086000,0.942000,0.274000,192.000000,0.000000,0.000000,0.000000,0.000000,0.000000,0.000000,0.000000,0.000000,0.000000,1646802019.277623,0.000000
144.000000,55183.081947,51085.358987,39523.986223,45269.099804,6910.310019,40895.601022,63308.991588,72432.727806,0.086000,0.942000,0.274000,192.000000,0.000000,0.000000,0.000000,0.000000,0.000000,0.000000,0.000000,0.000000,0.000000,1646802019.277639,0.000000
145.000000,55180.913828,51084.554325,39522.645119,45268.630417,6917.641391,40896.517443,63310.936190,72434.940628,0.088000,0.940000,0.280000,192.000000,2.000000,192.000000,29.000000,96.000000,8.000000,192.000000,0.000000,0.000000,0.000000,1646802019.284771,0.000000
146.000000,55189.385139,51091.885697,39527.383688,45274.531278,6923.296383,40895.377504,63319.072225,72432.996027,0.088000,0.940000,0.280000,192.000000,0.000000,0.000000,0.000000,0.000000,0.000000,0.000000,0.000000,0.000000,0.000000,1646802019.284787,0.000000
147.000000,55191.195630,51091.595124,39527.428392,45275.112423,6926.671496,40898.752618,63308.544553,72430.291466,0.088000,0.940000,0.280000,192.000000,0.000000,0.000000,0.000000,0.000000,0.000000,0.000000,0.000000,0.000000,0.000000,1646802019.291971,0.000000
148.000000,55192.648493,51094.523203,39528.411869,45274.218354,6927.632621,40901.099551,63314.087786,72434.717111,0.088000,0.940000,0.280000,192.000000,0.000000,0.000000,0.000000,0.000000,0.000000,0.000000,0.000000,0.000000,0.000000,1646802019.291988,0.000000
149.000000,55194.861316,51096.490156,39528.680090,45276.230011,6927.677325,40903.692353,63319.586315,72436.728768,0.088000,0.940000,0.280000,192.000000,0.000000,0.000000,0.000000,0.000000,0.000000,0.000000,0.000000,0.000000,0.000000,1646802019.300214,0.000000
150.000000,55196.940028,51099.798214,39526.936653,45278.956923,6923.698714,40898.842025,63321.687379,72440.394454,0.088000,0.940000,0.280000,192.000000,0.000000,0.000000,0.000000,0.000000,0.000000,0.000000,0.000000,0.000000,0.000000,1646802019.300230,0.000000
151.000000,55199.331665,51099.887621,39539.297168,45280.186269,6929.890147,40905.659307,63323.922554,72440.796785,0.088000,0.940000,0.280000,192.000000,0.000000,0.000000,0.000000,0.000000,0.000000,0.000000,0.000000,0.000000,0.000000,1646802019.308278,0.000000
152.000000,55199.443424,51100.155842,39537.352566,45273.570153,6929.621927,40911.068429,63329.734007,72449.581021,0.088000,0.940000,0.280000,192.000000,0.000000,0.000000,0.000000,0.000000,0.000000,0.000000,0.000000,0.000000,0.000000,1646802019.308294,0.000000
153.000000,55195.710682,51093.986761,39531.049374,45268.049272,6922.201147,40910.733153,63323.207298,72448.664599,0.088000,0.940000,0.280000,192.000000,0.000000,0.000000,0.000000,0.000000,0.000000,0.000000,0.000000,0.000000,0.000000,1646802019.314408,0.000000
154.000000,55193.676674,51093.472671,39534.670357,45270.664426,6929.420761,40920.567920,63320.100405,72446.563536,0.088000,0.940000,0.280000,192.000000,0.000000,0.000000,0.000000,0.000000,0.000000,0.000000,0.000000,0.000000,0.000000,1646802019.314423,0.000000
155.000000,55196.381235,51097.317171,39537.240808,45271.804365,6934.427552,40918.243339,63326.425949,72443.456643,0.082000,0.940000,0.274000,192.000000,2.000000,144.000000,29.000000,96.000000,8.000000,144.000000,0.000000,0.000000,0.000000,1646802019.321710,0.000000
156.000000,55196.247124,51098.747682,39533.217494,45269.278618,6929.711333,40910.710801,63324.861327,72439.433329,0.082000,0.940000,0.274000,192.000000,0.000000,0.000000,0.000000,0.000000,0.000000,0.000000,0.000000,0.000000,0.000000,1646802019.329841,0.000000
157.000000,55197.163546,51100.334656,39528.389517,45268.071624,6925.352743,40908.006240,63318.535783,72432.012550,0.082000,0.940000,0.274000,192.000000,0.000000,0.000000,0.000000,0.000000,0.000000,0.000000,0.000000,0.000000,0.000000,1646802019.329853,0.000000
158.000000,55195.218944,51100.580525,39526.623729,45268.541010,6924.212804,40911.537816,63325.107196,72447.994047,0.082000,0.940000,0.274000,192.000000,0.000000,0.000000,0.000000,0.000000,0.000000,0.000000,0.000000,0.000000,0.000000,1646802019.336726,0.000000
159.000000,55197.431767,51105.274392,39529.596511,45273.614856,6928.057304,40913.370659,63332.080940,72453.850204,0.082000,0.940000,0.274000,192.000000,0.000000,0.000000,0.000000,0.000000,0.000000,0.000000,0.000000,0.000000,0.000000,1646802019.336743,0.000000
160.000000,55198.057616,51102.815700,39526.914302,45272.966656,6933.645241,40912.543644,63320.681551,72435.991160,0.082000,0.940000,0.274000,192.000000,0.000000,0.000000,0.000000,0.000000,0.000000,0.000000,0.000000,0.000000,0.000000,1646802019.344440,0.000000
161.000000,55192.357921,51099.462938,39531.362299,45274.285409,6939.948432,40914.890577,63322.872022,72439.254515,0.082000,0.940000,0.274000,192.000000,0.000000,0.000000,0.000000,0.000000,0.000000,0.000000,0.000000,0.000000,0.000000,1646802019.344455,0.000000
162.000000,55197.856450,51104.223860,39533.999805,45272.854897,6932.237081,40911.269595,63326.336542,72459.549899,0.082000,0.940000,0.274000,192.000000,0.000000,0.000000,0.000000,0.000000,0.000000,0.000000,0.000000,0.000000,0.000000,1646802019.352477,0.000000
163.000000,55196.917677,51100.267601,39524.768534,45262.483688,6917.216708,40899.020839,63313.327827,72440.483861,0.082000,0.940000,0.274000,192.000000,0.000000,0.000000,0.000000,0.000000,0.000000,0.000000,0.000000,0.000000,0.000000,1646802019.352494,0.000000
164.000000,55199.488127,51102.994514,39529.641215,45266.708167,6918.669572,40897.925603,63312.344350,72434.672407,0.082000,0.940000,0.274000,192.000000,0.000000,0.000000,0.000000,0.000000,0.000000,0.000000,0.000000,0.000000,0.000000,1646802019.360284,0.000000
165.000000,55200.851584,51103.821528,39535.363261,45272.698435,6934.025220,40911.582519,63310.064472,72451.905602,0.082000,0.940000,0.276000,192.000000,2.000000,144.000000,29.000000,96.000000,8.000000,160.000000,0.000000,0.000000,0.000000,1646802019.360296,0.000000
