%OpenBCI Raw EEG Data
%Number of channels = 8
%Sample Rate = 256 Hz
%Board = OpenBCI_GUI$BoardCytonSerial
%Channels = Fp1, Fp2, F3, F4, Fz, Pz, O1, O2
%Data recorded at AIMS Lab (http://aimsl.uiu.ac.bd) by Rana Depto (mail@ranadepto.com)
%Brainwaves were obtained via the Ultracortex Mark IV Headset using the OpenBCI Cyton Board
%Recording Application = ConcentrateToday (https://concentrate.today)
%Data type = RAW data with noise
%Day No = 3
%Subject ID = 2
%Session ID = 7
%Record starting timestamp (UTC+6) = 2022-03-08T13:31:45.243547
%Record ending timestamp (UTC+6)   = 2022-03-08T13:32:06.080691
%Recorded durations = ~20 seconds
Sample Index, EXG Channel 0, EXG Channel 1, EXG Channel 2, EXG Channel 3, EXG Channel 4, EXG Channel 5, EXG Channel 6, EXG Channel 7, Accel Channel 0, Accel Channel 1, Accel Channel 2, Other, Other, Other, Other, Other, Other, Other, Analog Channel 0, Analog Channel 1, Analog Channel 2, Timestamp, Timestamp (Formatted)
219.000000,35330.240170,37480.500338,28141.516822,34608.815266,13794.647312,26857.543213,21163.101037,23691.373907,-0.036000,0.972000,0.120000,192.000000,0.000000,0.000000,0.000000,0.000000,0.000000,0.000000,0.000000,0.000000,0.000000,1646724705.245649,0.000000
220.000000,35314.929225,37460.607286,28126.630560,34591.582071,13780.655119,26845.093291,21146.784263,23683.953128,-0.036000,0.972000,0.120000,192.000000,0.000000,0.000000,0.000000,0.000000,0.000000,0.000000,0.000000,0.000000,0.000000,1646724705.245658,0.000000
221.000000,35320.181885,37465.949352,28132.039682,34592.520844,13784.320806,26851.418835,21147.611278,23692.938530,-0.036000,0.972000,0.120000,192.000000,0.000000,0.000000,0.000000,0.000000,0.000000,0.000000,0.000000,0.000000,0.000000,1646724705.252176,0.000000
222.000000,35316.315033,37464.764710,28127.167002,34592.029106,13781.750355,26849.787158,21153.869766,23688.848160,-0.036000,0.972000,0.120000,192.000000,0.000000,0.000000,0.000000,0.000000,0.000000,0.000000,0.000000,0.000000,0.000000,1646724705.252181,0.000000
223.000000,35316.627957,37463.133033,28124.708310,34590.084504,13780.588064,26848.334294,21151.768702,23684.198998,-0.034000,0.976000,0.116000,192.000000,254.000000,240.000000,30.000000,128.000000,3.000000,160.000000,0.000000,0.000000,0.000000,1646724705.260051,0.000000
224.000000,35321.500638,37468.653914,28130.765632,34594.130170,13785.661910,26853.452844,21148.125368,23688.132905,-0.034000,0.976000,0.116000,192.000000,0.000000,0.000000,0.000000,0.000000,0.000000,0.000000,0.000000,0.000000,0.000000,1646724705.260056,0.000000
225.000000,35314.348079,37459.534402,28126.965836,34590.464484,13778.241131,26849.004847,21149.511176,23680.734477,-0.034000,0.976000,0.116000,192.000000,0.000000,0.000000,0.000000,0.000000,0.000000,0.000000,0.000000,0.000000,0.000000,1646724705.268158,0.000000
226.000000,35320.472457,37467.648085,28132.240848,34599.226367,13783.516143,26853.743417,21150.651115,23689.988099,-0.034000,0.976000,0.116000,192.000000,0.000000,0.000000,0.000000,0.000000,0.000000,0.000000,0.000000,0.000000,0.000000,1646724705.268162,0.000000
227.000000,35331.223647,37475.046512,28139.035778,34604.814303,13789.238189,26861.410065,21157.200176,23703.890884,-0.034000,0.976000,0.116000,192.000000,0.000000,0.000000,0.000000,0.000000,0.000000,0.000000,0.000000,0.000000,0.000000,1646724705.275256,0.000000
228.000000,35326.596835,37468.877431,28134.207801,34601.170969,13786.064242,26856.917364,21153.534490,23692.469143,-0.034000,0.976000,0.116000,192.000000,0.000000,0.000000,0.000000,0.000000,0.000000,0.000000,0.000000,0.000000,0.000000,1646724705.275260,0.000000
229.000000,35309.587158,37457.366283,28123.836592,34592.230271,13777.391765,26850.055379,21145.532566,23686.501227,-0.034000,0.976000,0.116000,192.000000,0.000000,0.000000,0.000000,0.000000,0.000000,0.000000,0.000000,0.000000,0.000000,1646724705.282712,0.000000
230.000000,35324.585178,37470.598515,28136.755900,34603.942585,13788.344120,26857.319696,21147.834795,23693.318509,-0.034000,0.976000,0.116000,192.000000,0.000000,0.000000,0.000000,0.000000,0.000000,0.000000,0.000000,0.000000,0.000000,1646724705.282716,0.000000
231.000000,35325.993338,37469.749149,28136.353569,34604.926062,13787.271236,26854.481024,21145.711380,23682.723782,-0.034000,0.976000,0.116000,192.000000,0.000000,0.000000,0.000000,0.000000,0.000000,0.000000,0.000000,0.000000,0.000000,1646724705.289714,0.000000
232.000000,35333.928208,37474.845347,28148.222345,34610.245777,13795.899009,26864.807530,21170.477113,23700.091088,-0.034000,0.976000,0.116000,192.000000,0.000000,0.000000,0.000000,0.000000,0.000000,0.000000,0.000000,0.000000,0.000000,1646724705.289720,0.000000
233.000000,35332.229475,37469.503280,28147.685903,34605.842484,13796.569562,26867.400332,21171.907624,23707.243646,-0.028000,0.972000,0.116000,192.000000,255.000000,32.000000,30.000000,96.000000,3.000000,160.000000,0.000000,0.000000,0.000000,1646724705.297929,0.000000
234.000000,35322.461763,37467.223402,28139.773385,34601.305080,13790.311073,26858.884318,21161.424656,23690.368079,-0.028000,0.972000,0.116000,192.000000,0.000000,0.000000,0.000000,0.000000,0.000000,0.000000,0.000000,0.000000,0.000000,1646724705.304461,0.000000
235.000000,35330.262522,37477.706370,28146.724778,34615.319623,13799.922323,26863.734646,21149.824101,23691.820942,-0.028000,0.972000,0.116000,192.000000,0.000000,0.000000,0.000000,0.000000,0.000000,0.000000,0.000000,0.000000,0.000000,1646724705.304471,0.000000
236.000000,35326.798001,37470.263239,28144.333141,34611.005737,13796.524858,26859.778388,21142.470377,23686.255358,-0.028000,0.972000,0.116000,192.000000,0.000000,0.000000,0.000000,0.000000,0.000000,0.000000,0.000000,0.000000,0.000000,1646724705.312369,0.000000
237.000000,35328.541437,37472.520765,28145.495432,34610.782219,13795.921361,26860.515995,21153.378028,23689.541064,-0.028000,0.972000,0.116000,192.000000,0.000000,0.000000,0.000000,0.000000,0.000000,0.000000,0.000000,0.000000,0.000000,1646724705.312372,0.000000
238.000000,35330.128411,37470.799681,28144.176679,34607.407106,13793.105041,26860.136015,21149.131197,23684.556625,-0.028000,0.972000,0.116000,192.000000,0.000000,0.000000,0.000000,0.000000,0.000000,0.000000,0.000000,0.000000,0.000000,1646724705.320320,0.000000
239.000000,35337.146859,37476.074693,28151.083368,34611.989213,13798.290646,26864.695771,21159.994144,23687.887035,-0.028000,0.972000,0.116000,192.000000,0.000000,0.000000,0.000000,0.000000,0.000000,0.000000,0.000000,0.000000,0.000000,1646724705.320324,0.000000
240.000000,35340.209048,37481.237946,28156.425435,34613.799705,13802.559829,26869.948431,21173.204025,23693.609082,-0.028000,0.972000,0.116000,192.000000,0.000000,0.000000,0.000000,0.000000,0.000000,0.000000,0.000000,0.000000,0.000000,1646724705.327465,0.000000
241.000000,35338.353853,37477.438149,28153.877336,34610.670461,13799.721158,26867.288574,21171.594700,23694.704317,-0.028000,0.972000,0.116000,192.000000,0.000000,0.000000,0.000000,0.000000,0.000000,0.000000,0.000000,0.000000,0.000000,1646724705.327469,0.000000
242.000000,35326.954463,37470.889088,28142.321484,34602.377963,13790.311073,26856.358571,21146.292525,23683.550797,-0.028000,0.972000,0.116000,192.000000,0.000000,0.000000,0.000000,0.000000,0.000000,0.000000,0.000000,0.000000,0.000000,1646724705.335038,0.000000
243.000000,35336.968045,37483.227251,28149.965781,34615.319623,13801.062262,26870.037838,21151.299316,23697.163009,-0.026000,0.974000,0.116000,192.000000,255.000000,48.000000,30.000000,112.000000,3.000000,160.000000,0.000000,0.000000,0.000000,1646724705.335042,0.000000
244.000000,35344.455879,37487.965821,28153.899688,34622.829810,13805.510259,26875.804588,21163.682182,23701.521599,-0.026000,0.974000,0.116000,192.000000,0.000000,0.000000,0.000000,0.000000,0.000000,0.000000,0.000000,0.000000,0.000000,1646724705.343051,0.000000
245.000000,35332.922379,37475.560603,28145.048397,34610.670461,13796.100175,26866.260393,21148.281830,23690.345727,-0.026000,0.974000,0.116000,192.000000,0.000000,0.000000,0.000000,0.000000,0.000000,0.000000,0.000000,0.000000,0.000000,1646724705.343055,0.000000
246.000000,35325.233379,37465.167041,28135.392444,34600.790989,13789.282893,26856.917364,21141.933935,23683.774314,-0.026000,0.974000,0.116000,192.000000,0.000000,0.000000,0.000000,0.000000,0.000000,0.000000,0.000000,0.000000,0.000000,1646724705.351066,0.000000
247.000000,35323.914626,37456.673379,28129.648045,34593.951356,13785.416041,26852.290553,21144.482034,23683.304928,-0.026000,0.974000,0.116000,192.000000,0.000000,0.000000,0.000000,0.000000,0.000000,0.000000,0.000000,0.000000,0.000000,1646724705.351070,0.000000
248.000000,35329.971949,37467.871603,28135.727720,34603.696716,13792.836820,26856.470329,21141.308086,23683.640204,-0.026000,0.974000,0.116000,192.000000,0.000000,0.000000,0.000000,0.000000,0.000000,0.000000,0.000000,0.000000,0.000000,1646724705.357163,0.000000
249.000000,35335.716347,37478.242812,28141.896801,34613.039745,13799.207067,26865.053399,21155.389685,23695.687794,-0.026000,0.974000,0.116000,192.000000,0.000000,0.000000,0.000000,0.000000,0.000000,0.000000,0.000000,0.000000,0.000000,1646724705.364668,0.000000
250.000000,35345.774632,37487.563489,28152.715046,34620.885208,13804.973817,26875.469312,21169.806560,23702.795649,-0.026000,0.974000,0.116000,192.000000,0.000000,0.000000,0.000000,0.000000,0.000000,0.000000,0.000000,0.000000,0.000000,1646724705.364672,0.000000
251.000000,35338.644426,37483.897803,28149.697560,34614.336147,13799.430585,26869.903728,21168.979546,23696.917140,-0.026000,0.974000,0.116000,192.000000,0.000000,0.000000,0.000000,0.000000,0.000000,0.000000,0.000000,0.000000,0.000000,1646724705.372592,0.000000
252.000000,35340.365510,37485.775350,28153.229136,34618.605330,13804.683245,26871.669516,21167.347868,23702.102745,-0.026000,0.974000,0.116000,192.000000,0.000000,0.000000,0.000000,0.000000,0.000000,0.000000,0.000000,0.000000,0.000000,1646724705.372596,0.000000
253.000000,35335.269312,37479.695675,28146.925944,34612.324490,13797.418928,26863.801702,21167.236110,23690.703355,-0.030000,0.980000,0.118000,192.000000,255.000000,16.000000,30.000000,160.000000,3.000000,176.000000,0.000000,0.000000,0.000000,1646724705.380766,0.000000
254.000000,35336.521010,37477.505204,28145.584839,34611.028088,13794.423794,26860.113664,21163.883348,23691.195094,-0.030000,0.980000,0.118000,192.000000,0.000000,0.000000,0.000000,0.000000,0.000000,0.000000,0.000000,0.000000,0.000000,1646724705.380770,0.000000
255.000000,35337.124507,37475.605306,28148.758787,34613.710298,13796.994245,26862.907632,21161.536415,23692.804419,-0.030000,0.980000,0.118000,192.000000,0.000000,0.000000,0.000000,0.000000,0.000000,0.000000,0.000000,0.000000,0.000000,1646724705.387318,0.000000
0.000000,35328.139106,37469.592687,28141.248601,34607.876492,13789.037024,26856.380922,21155.344982,23687.976442,-0.030000,0.980000,0.118000,192.000000,0.000000,0.000000,0.000000,0.000000,0.000000,0.000000,0.000000,0.000000,0.000000,1646724705.387322,0.000000
1.000000,35323.534646,37470.464405,28136.688845,34603.942585,13785.796021,26856.470329,21166.520854,23690.725707,-0.030000,0.980000,0.118000,192.000000,0.000000,0.000000,0.000000,0.000000,0.000000,0.000000,0.000000,0.000000,0.000000,1646724705.395277,0.000000
2.000000,35329.971949,37473.683056,28140.779214,34608.234120,13790.601646,26860.538347,21169.717153,23688.959919,-0.030000,0.980000,0.118000,192.000000,0.000000,0.000000,0.000000,0.000000,0.000000,0.000000,0.000000,0.000000,0.000000,1646724705.395282,0.000000
3.000000,35329.279045,37475.135919,28138.991074,34610.581054,13792.702710,26860.024257,21155.367333,23689.742230,-0.030000,0.980000,0.118000,192.000000,0.000000,0.000000,0.000000,0.000000,0.000000,0.000000,0.000000,0.000000,0.000000,1646724705.403429,0.000000
4.000000,35327.692071,37474.621829,28138.633447,34610.134019,13793.127393,26856.313867,21142.671542,23685.540102,-0.030000,0.980000,0.118000,192.000000,0.000000,0.000000,0.000000,0.000000,0.000000,0.000000,0.000000,0.000000,0.000000,1646724705.403434,0.000000
5.000000,35333.659987,37483.517824,28147.574144,34620.952263,13798.692977,26862.415893,21145.107883,23688.065849,-0.030000,0.980000,0.118000,192.000000,0.000000,0.000000,0.000000,0.000000,0.000000,0.000000,0.000000,0.000000,0.000000,1646724705.409968,0.000000
6.000000,35348.479193,37495.587766,28157.475967,34631.815211,13803.900934,26873.122379,21159.837682,23696.492457,-0.030000,0.980000,0.118000,192.000000,0.000000,0.000000,0.000000,0.000000,0.000000,0.000000,0.000000,0.000000,0.000000,1646724705.409972,0.000000
7.000000,35345.796984,37486.110626,28150.479871,34621.779278,13795.250809,26868.115588,21152.908641,23690.055155,-0.030000,0.978000,0.122000,192.000000,255.000000,16.000000,30.000000,144.000000,3.000000,208.000000,0.000000,0.000000,0.000000,1646724705.417011,0.000000
8.000000,35332.207123,37474.666533,28141.561525,34614.313795,13791.696881,26861.477120,21147.343057,23682.075582,-0.030000,0.978000,0.122000,192.000000,0.000000,0.000000,0.000000,0.000000,0.000000,0.000000,0.000000,0.000000,0.000000,1646724705.424918,0.000000
9.000000,35332.184772,37470.464405,28144.891935,34614.336147,13796.234285,26863.488777,21149.131197,23679.415724,-0.030000,0.978000,0.122000,192.000000,0.000000,0.000000,0.000000,0.000000,0.000000,0.000000,0.000000,0.000000,0.000000,1646724705.424922,0.000000
10.000000,35331.335405,37468.452748,28140.153365,34609.575225,13792.546248,26862.840577,21143.945592,23684.489570,-0.030000,0.978000,0.122000,192.000000,0.000000,0.000000,0.000000,0.000000,0.000000,0.000000,0.000000,0.000000,0.000000,1646724705.433097,0.000000
11.000000,35331.760088,37470.822033,28140.689807,34611.631586,13793.865000,26864.740475,21140.235202,23683.953128,-0.030000,0.978000,0.122000,192.000000,0.000000,0.000000,0.000000,0.000000,0.000000,0.000000,0.000000,0.000000,0.000000,1646724705.433102,0.000000
12.000000,35334.129373,37469.369169,28140.175717,34616.459562,13796.010768,26869.479045,21159.748275,23690.926873,-0.030000,0.978000,0.122000,192.000000,0.000000,0.000000,0.000000,0.000000,0.000000,0.000000,0.000000,0.000000,0.000000,1646724705.439592,0.000000
13.000000,35327.133277,37467.737492,28133.850173,34612.279786,13791.473364,26860.359533,21148.080665,23679.147503,-0.030000,0.978000,0.122000,192.000000,0.000000,0.000000,0.000000,0.000000,0.000000,0.000000,0.000000,0.000000,0.000000,1646724705.439595,0.000000
14.000000,35333.905856,37479.516861,28141.717987,34622.248664,13801.643408,26868.048533,21152.729827,23690.390431,-0.030000,0.978000,0.122000,192.000000,0.000000,0.000000,0.000000,0.000000,0.000000,0.000000,0.000000,0.000000,0.000000,1646724705.447543,0.000000
15.000000,35331.804792,37477.527556,28138.007598,34617.733612,13796.033120,26860.225422,21143.833833,23673.917195,-0.030000,0.978000,0.122000,192.000000,0.000000,0.000000,0.000000,0.000000,0.000000,0.000000,0.000000,0.000000,0.000000,1646724705.447582,0.000000
16.000000,35330.933074,37474.510071,28138.164060,34617.778315,13793.172096,26862.304135,21154.048580,23680.443904,-0.030000,0.978000,0.122000,192.000000,0.000000,0.000000,0.000000,0.000000,0.000000,0.000000,0.000000,0.000000,0.000000,1646724705.455642,0.000000
17.000000,35336.006920,37480.388579,28145.048397,34626.361385,13798.134184,26870.104893,21158.809502,23690.502189,-0.028000,0.978000,0.124000,192.000000,255.000000,32.000000,30.000000,144.000000,3.000000,224.000000,0.000000,0.000000,0.000000,1646724705.455646,0.000000
18.000000,35339.784365,37483.651934,28148.110586,34629.133001,13801.263428,26875.536367,21170.186540,23700.381661,-0.028000,0.978000,0.124000,192.000000,0.000000,0.000000,0.000000,0.000000,0.000000,0.000000,0.000000,0.000000,0.000000,1646724705.462641,0.000000
19.000000,35340.030234,37486.423550,28148.959952,34628.820077,13804.638541,26872.831806,21171.080610,23699.912274,-0.028000,0.978000,0.124000,192.000000,0.000000,0.000000,0.000000,0.000000,0.000000,0.000000,0.000000,0.000000,0.000000,1646724705.462645,0.000000
20.000000,35332.900027,37477.460501,28140.287476,34621.108725,13799.944675,26862.639411,21153.087455,23688.646995,-0.028000,0.978000,0.124000,192.000000,0.000000,0.000000,0.000000,0.000000,0.000000,0.000000,0.000000,0.000000,0.000000,1646724705.470203,0.000000
21.000000,35332.028309,37480.500338,28137.493508,34624.305025,13801.822221,26861.722989,21149.824101,23683.617852,-0.028000,0.978000,0.124000,192.000000,0.000000,0.000000,0.000000,0.000000,0.000000,0.000000,0.000000,0.000000,0.000000,1646724705.470206,0.000000
22.000000,35326.038042,37472.878393,28128.776327,34616.928949,13791.652178,26850.614172,21157.602508,23673.537215,-0.028000,0.978000,0.124000,192.000000,0.000000,0.000000,0.000000,0.000000,0.000000,0.000000,0.000000,0.000000,0.000000,1646724705.477288,0.000000
23.000000,35319.511332,37464.071806,28123.478964,34612.257434,13784.991358,26849.563640,21159.502406,23673.380753,-0.028000,0.978000,0.124000,192.000000,0.000000,0.000000,0.000000,0.000000,0.000000,0.000000,0.000000,0.000000,0.000000,1646724705.485323,0.000000
24.000000,35329.904894,37473.817167,28134.990112,34624.997929,13795.899009,26862.214728,21157.669563,23687.596463,-0.028000,0.978000,0.124000,192.000000,0.000000,0.000000,0.000000,0.000000,0.000000,0.000000,0.000000,0.000000,0.000000,1646724705.485327,0.000000
25.000000,35335.559885,37479.047475,28138.141708,34628.238932,13797.508335,26865.701600,21163.369258,23691.016280,-0.028000,0.978000,0.124000,192.000000,0.000000,0.000000,0.000000,0.000000,0.000000,0.000000,0.000000,0.000000,0.000000,1646724705.492362,0.000000
26.000000,35339.940827,37483.339010,28140.533345,34628.618911,13797.977721,26866.014524,21152.595717,23689.786934,-0.028000,0.978000,0.124000,192.000000,0.000000,0.000000,0.000000,0.000000,0.000000,0.000000,0.000000,0.000000,0.000000,1646724705.492366,0.000000
27.000000,35340.723138,37480.075655,28143.304961,34629.311815,13799.654102,26863.958164,21144.057351,23688.624643,-0.026000,0.986000,0.126000,192.000000,255.000000,48.000000,30.000000,208.000000,3.000000,240.000000,0.000000,0.000000,0.000000,1646724705.499947,0.000000
28.000000,35340.857248,37478.868661,28144.489604,34629.982368,13803.185678,26865.969821,21149.019438,23686.970614,-0.026000,0.986000,0.126000,192.000000,0.000000,0.000000,0.000000,0.000000,0.000000,0.000000,0.000000,0.000000,0.000000,1646724705.499950,0.000000
29.000000,35345.841687,37487.250565,28149.742264,34636.240856,13809.712387,26871.356591,21160.374124,23693.653785,-0.026000,0.986000,0.126000,192.000000,0.000000,0.000000,0.000000,0.000000,0.000000,0.000000,0.000000,0.000000,0.000000,1646724705.507818,0.000000
30.000000,35340.387862,37481.327353,28144.266086,34631.994025,13802.246905,26865.098103,21155.277926,23685.271881,-0.026000,0.986000,0.126000,192.000000,0.000000,0.000000,0.000000,0.000000,0.000000,0.000000,0.000000,0.000000,0.000000,1646724705.507822,0.000000
31.000000,35341.661911,37483.964859,28148.691732,34636.285560,13802.157498,26866.863891,21155.479092,23684.802495,-0.026000,0.986000,0.126000,192.000000,0.000000,0.000000,0.000000,0.000000,0.000000,0.000000,0.000000,0.000000,0.000000,1646724705.515919,0.000000
32.000000,35340.410214,37482.109664,28146.344798,34634.877400,13799.698806,26865.545138,21153.534490,23687.551759,-0.026000,0.986000,0.126000,192.000000,0.000000,0.000000,0.000000,0.000000,0.000000,0.000000,0.000000,0.000000,0.000000,1646724705.515922,0.000000
33.000000,35338.957350,37480.388579,28146.523612,34635.480897,13801.442242,26867.154463,21148.795920,23683.662556,-0.026000,0.986000,0.126000,192.000000,0.000000,0.000000,0.000000,0.000000,0.000000,0.000000,0.000000,0.000000,0.000000,1646724705.522471,0.000000
34.000000,35317.276158,37461.300190,28126.049414,34615.185513,13782.487963,26849.362475,21129.573420,23662.696619,-0.026000,0.986000,0.126000,192.000000,0.000000,0.000000,0.000000,0.000000,0.000000,0.000000,0.000000,0.000000,0.000000,1646724705.522475,0.000000
35.000000,35333.257655,37478.801606,28141.248601,34631.435231,13796.815431,26861.432417,21148.974734,23679.058096,-0.026000,0.986000,0.126000,192.000000,0.000000,0.000000,0.000000,0.000000,0.000000,0.000000,0.000000,0.000000,0.000000,1646724705.530516,0.000000
36.000000,35334.822277,37481.729684,28141.382711,34631.994025,13799.899971,26863.242908,21152.752179,23683.103762,-0.026000,0.986000,0.126000,192.000000,0.000000,0.000000,0.000000,0.000000,0.000000,0.000000,0.000000,0.000000,0.000000,1646724705.530520,0.000000
37.000000,35331.804792,37477.169928,28134.811298,34628.529504,13797.016596,26857.654972,21142.716246,23675.973556,-0.026000,0.986000,0.126000,192.000000,0.000000,0.000000,0.000000,0.000000,0.000000,0.000000,0.000000,0.000000,0.000000,1646724705.537562,0.000000
38.000000,35343.114775,37487.183510,28142.790871,34639.638321,13804.862059,26867.266222,21156.529624,23680.332146,-0.024000,0.990000,0.126000,192.000000,255.000000,64.000000,30.000000,240.000000,3.000000,240.000000,0.000000,0.000000,0.000000,1646724705.537566,0.000000
39.000000,35335.224609,37482.556699,28137.001769,34638.565438,13798.156535,26864.204033,21157.401342,23674.475989,-0.024000,0.990000,0.126000,192.000000,0.000000,0.000000,0.000000,0.000000,0.000000,0.000000,0.000000,0.000000,0.000000,1646724705.545552,0.000000
40.000000,35333.034138,37475.225326,28134.744243,34632.329301,13790.936922,26858.593745,21125.684217,23667.971631,-0.024000,0.990000,0.126000,192.000000,0.000000,0.000000,0.000000,0.000000,0.000000,0.000000,0.000000,0.000000,0.000000,1646724705.552172,0.000000
41.000000,35341.907780,37479.606268,28140.265124,34635.123269,13797.240114,26868.160292,21137.552993,23674.699506,-0.024000,0.990000,0.126000,192.000000,0.000000,0.000000,0.000000,0.000000,0.000000,0.000000,0.000000,0.000000,0.000000,1646724705.552176,0.000000
42.000000,35324.026385,37463.647123,28127.234057,34619.119420,13781.616245,26857.878489,21129.148737,23668.217500,-0.024000,0.990000,0.126000,192.000000,0.000000,0.000000,0.000000,0.000000,0.000000,0.000000,0.000000,0.000000,0.000000,1646724705.560150,0.000000
43.000000,35325.143972,37463.490661,28129.983321,34623.679176,13783.002053,26862.393542,21140.056388,23674.319526,-0.024000,0.990000,0.126000,192.000000,0.000000,0.000000,0.000000,0.000000,0.000000,0.000000,0.000000,0.000000,0.000000,1646724705.560160,0.000000
44.000000,35329.100231,37463.848289,28131.525592,34626.875475,13789.037024,26867.825016,21149.108845,23680.198035,-0.024000,0.990000,0.126000,192.000000,0.000000,0.000000,0.000000,0.000000,0.000000,0.000000,0.000000,0.000000,0.000000,1646724705.568272,0.000000
45.000000,35326.440373,37459.422643,28127.636388,34621.980443,13788.098250,26863.086446,21148.572403,23675.213596,-0.024000,0.990000,0.126000,192.000000,0.000000,0.000000,0.000000,0.000000,0.000000,0.000000,0.000000,0.000000,0.000000,1646724705.568276,0.000000
46.000000,35324.115792,37462.864812,28125.177696,34622.271016,13785.952483,26861.499472,21167.459627,23671.905538,-0.024000,0.990000,0.126000,192.000000,0.000000,0.000000,0.000000,0.000000,0.000000,0.000000,0.000000,0.000000,0.000000,1646724705.574869,0.000000
47.000000,35332.095365,37471.716103,28131.391481,34630.317644,13790.467535,26866.282745,21171.818217,23684.824846,-0.024000,0.990000,0.126000,192.000000,0.000000,0.000000,0.000000,0.000000,0.000000,0.000000,0.000000,0.000000,0.000000,1646724705.574873,0.000000
48.000000,35333.548228,37473.548946,28135.414795,34633.648054,13792.613303,26873.345896,21166.118522,23709.478821,-0.032000,0.982000,0.136000,192.000000,255.000000,0.000000,30.000000,176.000000,4.000000,64.000000,0.000000,0.000000,0.000000,1646724705.582764,0.000000
49.000000,35331.380109,37471.492585,28130.206839,34628.171876,13787.293588,26866.327449,21159.748275,23693.385564,-0.032000,0.982000,0.136000,192.000000,0.000000,0.000000,0.000000,0.000000,0.000000,0.000000,0.000000,0.000000,0.000000,1646724705.582768,0.000000
50.000000,35329.122583,37470.509108,28122.651949,34620.594635,13777.749393,26851.128262,21136.658923,23676.353535,-0.032000,0.982000,0.136000,192.000000,0.000000,0.000000,0.000000,0.000000,0.000000,0.000000,0.000000,0.000000,0.000000,1646724705.590847,0.000000
51.000000,35343.204182,37482.668457,28135.392444,34634.989159,13789.215838,26861.901803,21144.303220,23691.418611,-0.032000,0.982000,0.136000,192.000000,0.000000,0.000000,0.000000,0.000000,0.000000,0.000000,0.000000,0.000000,0.000000,1646724705.590851,0.000000
52.000000,35335.045795,37465.748187,28136.778252,34638.610141,13792.836820,26871.445998,21155.322630,23695.687794,-0.032000,0.982000,0.136000,192.000000,0.000000,0.000000,0.000000,0.000000,0.000000,0.000000,0.000000,0.000000,0.000000,1646724705.597868,0.000000
53.000000,35319.019594,37453.074748,28128.083423,34630.742327,13786.019538,26864.293440,21152.014572,23690.770410,-0.032000,0.982000,0.136000,192.000000,0.000000,0.000000,0.000000,0.000000,0.000000,0.000000,0.000000,0.000000,0.000000,1646724705.597871,0.000000
54.000000,35327.535609,37466.731664,28132.397310,34633.893923,13791.026329,26864.695771,21158.071894,23692.089163,-0.032000,0.982000,0.136000,192.000000,0.000000,0.000000,0.000000,0.000000,0.000000,0.000000,0.000000,0.000000,0.000000,1646724705.604493,0.000000
55.000000,35332.855324,37473.303076,28139.147537,34640.353577,13799.050605,26871.155425,21161.938746,23698.325300,-0.032000,0.982000,0.136000,192.000000,0.000000,0.000000,0.000000,0.000000,0.000000,0.000000,0.000000,0.000000,0.000000,1646724705.612444,0.000000
56.000000,35313.163437,37455.108756,28122.830763,34625.310853,13784.052585,26857.766731,21140.592830,23684.869550,-0.032000,0.982000,0.136000,192.000000,0.000000,0.000000,0.000000,0.000000,0.000000,0.000000,0.000000,0.000000,0.000000,1646724705.612448,0.000000
57.000000,35305.228568,37444.782250,28117.533400,34615.274920,13776.631805,26846.032065,21127.494708,23670.542082,-0.032000,0.982000,0.136000,192.000000,0.000000,0.000000,0.000000,0.000000,0.000000,0.000000,0.000000,0.000000,0.000000,1646724705.620411,0.000000
58.000000,35319.511332,37458.260352,28130.877391,34630.250589,13791.205143,26858.794911,21143.878537,23678.074620,-0.032000,0.978000,0.130000,192.000000,255.000000,0.000000,30.000000,144.000000,4.000000,16.000000,0.000000,0.000000,0.000000,1646724705.620416,0.000000
59.000000,35325.345138,37462.931867,28132.844345,34636.196153,13793.641483,26860.895975,21137.128310,23678.476951,-0.032000,0.978000,0.130000,192.000000,0.000000,0.000000,0.000000,0.000000,0.000000,0.000000,0.000000,0.000000,0.000000,1646724705.627484,0.000000
60.000000,35335.068147,37475.381789,28140.913324,34643.371063,13800.816393,26871.468350,21153.154511,23688.468181,-0.032000,0.978000,0.130000,192.000000,0.000000,0.000000,0.000000,0.000000,0.000000,0.000000,0.000000,0.000000,0.000000,1646724705.627488,0.000000
61.000000,35328.295568,37466.977533,28134.274856,34638.543086,13794.021463,26869.411989,21164.062162,23690.882169,-0.032000,0.978000,0.130000,192.000000,0.000000,0.000000,0.000000,0.000000,0.000000,0.000000,0.000000,0.000000,0.000000,1646724705.635022,0.000000
62.000000,35314.750411,37455.332274,28120.975568,34629.177705,13782.555018,26861.834748,21157.803673,23681.405029,-0.032000,0.978000,0.130000,192.000000,0.000000,0.000000,0.000000,0.000000,0.000000,0.000000,0.000000,0.000000,0.000000,1646724705.635026,0.000000
63.000000,35323.445239,37469.346818,28128.239885,34640.018301,13790.109907,26865.522786,21158.027191,23686.769448,-0.032000,0.978000,0.130000,192.000000,0.000000,0.000000,0.000000,0.000000,0.000000,0.000000,0.000000,0.000000,0.000000,1646724705.643106,0.000000
64.000000,35324.786344,37470.509108,28135.906534,34642.789917,13792.769765,26868.272050,21160.910566,23688.714050,-0.032000,0.978000,0.130000,192.000000,0.000000,0.000000,0.000000,0.000000,0.000000,0.000000,0.000000,0.000000,0.000000,1646724705.643109,0.000000
65.000000,35321.880617,37465.435262,28136.510031,34636.598484,13789.551114,26862.617059,21151.612240,23678.633413,-0.032000,0.978000,0.130000,192.000000,0.000000,0.000000,0.000000,0.000000,0.000000,0.000000,0.000000,0.000000,0.000000,1646724705.650029,0.000000
66.000000,35317.678489,37459.243829,28129.983321,34627.411917,13783.203218,26850.703579,21133.261458,23668.485721,-0.032000,0.978000,0.130000,192.000000,0.000000,0.000000,0.000000,0.000000,0.000000,0.000000,0.000000,0.000000,0.000000,1646724705.650033,0.000000
67.000000,35320.204237,37461.434300,28133.514897,34632.485763,13788.813506,26854.704542,21136.949496,23671.547910,-0.032000,0.978000,0.130000,192.000000,0.000000,0.000000,0.000000,0.000000,0.000000,0.000000,0.000000,0.000000,0.000000,1646724705.657707,0.000000
68.000000,35331.268350,37469.391521,28142.500298,34641.739385,13797.933018,26863.354667,21147.119540,23676.375887,-0.032000,0.974000,0.128000,192.000000,255.000000,0.000000,30.000000,112.000000,4.000000,0.000000,0.000000,0.000000,0.000000,1646724705.657711,0.000000
69.000000,35326.775649,37463.267143,28139.751034,34639.168935,13793.909704,26858.213765,21142.693894,23666.049381,-0.032000,0.974000,0.128000,192.000000,0.000000,0.000000,0.000000,0.000000,0.000000,0.000000,0.000000,0.000000,0.000000,1646724705.664796,0.000000
70.000000,35322.774687,37464.272972,28137.672322,34639.817135,13794.669663,26861.007733,21148.415941,23673.760733,-0.032000,0.974000,0.128000,192.000000,0.000000,0.000000,0.000000,0.000000,0.000000,0.000000,0.000000,0.000000,0.000000,1646724705.672630,0.000000
71.000000,35322.104135,37464.228268,28133.380787,34636.576132,13791.763936,26857.587917,21158.630688,23666.049381,-0.032000,0.974000,0.128000,192.000000,0.000000,0.000000,0.000000,0.000000,0.000000,0.000000,0.000000,0.000000,0.000000,1646724705.672634,0.000000
72.000000,35335.626940,37478.578088,28148.624676,34648.199039,13804.482079,26870.462521,21171.035906,23686.121248,-0.032000,0.974000,0.128000,192.000000,0.000000,0.000000,0.000000,0.000000,0.000000,0.000000,0.000000,0.000000,0.000000,1646724705.679726,0.000000
73.000000,35340.209048,37483.607231,28154.726703,34654.569287,13811.724044,26876.609251,21158.809502,23696.090126,-0.032000,0.974000,0.128000,192.000000,0.000000,0.000000,0.000000,0.000000,0.000000,0.000000,0.000000,0.000000,0.000000,1646724705.679729,0.000000
74.000000,35342.287760,37480.165062,28154.056150,34651.440042,13808.997131,26875.469312,21158.407171,23692.290329,-0.032000,0.974000,0.128000,192.000000,0.000000,0.000000,0.000000,0.000000,0.000000,0.000000,0.000000,0.000000,0.000000,1646724705.687320,0.000000
75.000000,35332.363586,37474.845347,28144.824880,34650.545973,13799.318826,26868.272050,21148.751217,23685.607157,-0.032000,0.974000,0.128000,192.000000,0.000000,0.000000,0.000000,0.000000,0.000000,0.000000,0.000000,0.000000,0.000000,1646724705.687324,0.000000
76.000000,35331.201295,37474.688885,28141.159194,34650.568324,13795.094346,26863.689943,21140.190499,23684.489570,-0.032000,0.974000,0.128000,192.000000,0.000000,0.000000,0.000000,0.000000,0.000000,0.000000,0.000000,0.000000,0.000000,1646724705.695333,0.000000
77.000000,35326.038042,37467.245754,28136.711197,34639.995949,13788.746451,26857.230289,21136.927144,23675.235948,-0.032000,0.974000,0.128000,192.000000,0.000000,0.000000,0.000000,0.000000,0.000000,0.000000,0.000000,0.000000,0.000000,1646724705.695336,0.000000
78.000000,35317.678489,37458.997960,28130.676226,34635.883228,13784.901951,26853.005809,21131.987409,23664.015372,-0.028000,0.988000,0.124000,192.000000,255.000000,32.000000,30.000000,224.000000,3.000000,224.000000,0.000000,0.000000,0.000000,1646724705.703252,0.000000
79.000000,35322.931149,37467.379864,28137.448804,34643.549877,13793.596780,26855.576260,21139.229374,23665.490587,-0.028000,0.988000,0.124000,192.000000,0.000000,0.000000,0.000000,0.000000,0.000000,0.000000,0.000000,0.000000,0.000000,1646724705.703256,0.000000
80.000000,35325.300434,37469.257411,28141.896801,34646.343845,13797.240114,26856.202108,21136.927144,23667.234023,-0.028000,0.988000,0.124000,192.000000,0.000000,0.000000,0.000000,0.000000,0.000000,0.000000,0.000000,0.000000,0.000000,1646724705.709877,0.000000
81.000000,35322.171190,37464.496489,28138.320522,34642.588752,13791.987454,26854.749245,21133.395569,23666.004678,-0.028000,0.988000,0.124000,192.000000,0.000000,0.000000,0.000000,0.000000,0.000000,0.000000,0.000000,0.000000,0.000000,1646724705.709880,0.000000
82.000000,35328.295568,37467.983361,28144.400197,34648.377853,13799.631751,26860.515995,21144.839662,23672.240814,-0.028000,0.988000,0.124000,192.000000,0.000000,0.000000,0.000000,0.000000,0.000000,0.000000,0.000000,0.000000,0.000000,1646724705.718023,0.000000
83.000000,35331.938902,37471.671399,28147.127109,34653.250534,13804.280913,26868.562623,21151.880461,23681.092105,-0.028000,0.988000,0.124000,192.000000,0.000000,0.000000,0.000000,0.000000,0.000000,0.000000,0.000000,0.000000,0.000000,1646724705.718027,0.000000
84.000000,35323.065260,37462.328370,28136.174755,34640.085356,13789.618169,26858.996076,21147.968906,23680.645070,-0.028000,0.988000,0.124000,192.000000,0.000000,0.000000,0.000000,0.000000,0.000000,0.000000,0.000000,0.000000,0.000000,1646724705.725282,0.000000
85.000000,35329.748431,37470.866736,28141.874449,34645.516830,13794.759070,26863.958164,21152.528662,23678.320489,-0.028000,0.988000,0.124000,192.000000,0.000000,0.000000,0.000000,0.000000,0.000000,0.000000,0.000000,0.000000,0.000000,1646724705.733386,0.000000
86.000000,35340.924304,37482.087312,28156.403083,34658.011455,13808.885373,26874.530539,21157.691915,23686.367117,-0.028000,0.988000,0.124000,192.000000,0.000000,0.000000,0.000000,0.000000,0.000000,0.000000,0.000000,0.000000,0.000000,1646724705.733420,0.000000
87.000000,35339.180868,37480.813263,28158.682961,34660.716016,13809.645332,26877.190396,21159.636517,23688.132905,-0.028000,0.988000,0.124000,192.000000,0.000000,0.000000,0.000000,0.000000,0.000000,0.000000,0.000000,0.000000,0.000000,1646724705.740062,0.000000
88.000000,35331.827144,37474.085387,28150.144595,34653.406996,13801.397538,26868.227347,21154.942650,23678.879282,-0.034000,0.982000,0.134000,192.000000,254.000000,240.000000,30.000000,176.000000,4.000000,48.000000,0.000000,0.000000,0.000000,1646724705.740079,0.000000
89.000000,35333.503524,37477.482853,28149.451691,34653.943438,13803.386844,26872.697696,21167.459627,23681.025050,-0.034000,0.982000,0.134000,192.000000,0.000000,0.000000,0.000000,0.000000,0.000000,0.000000,0.000000,0.000000,0.000000,1646724705.748091,0.000000
90.000000,35340.320807,37480.634449,28152.223307,34658.525545,13808.639504,26875.514016,21178.993127,23678.655765,-0.034000,0.982000,0.134000,192.000000,0.000000,0.000000,0.000000,0.000000,0.000000,0.000000,0.000000,0.000000,0.000000,1646724705.748107,0.000000
91.000000,35333.503524,37473.951277,28143.684941,34652.736444,13801.509297,26870.954260,21159.748275,23681.293271,-0.034000,0.982000,0.134000,192.000000,0.000000,0.000000,0.000000,0.000000,0.000000,0.000000,0.000000,0.000000,0.000000,1646724705.755849,0.000000
92.000000,35336.945693,37475.672361,28147.305923,34652.222353,13803.498602,26873.390600,21155.233223,23695.151352,-0.034000,0.982000,0.134000,192.000000,0.000000,0.000000,0.000000,0.000000,0.000000,0.000000,0.000000,0.000000,0.000000,1646724705.755865,0.000000
93.000000,35335.381071,37477.035818,28145.093101,34650.210696,13803.856230,26874.016449,21153.780359,23696.224236,-0.034000,0.982000,0.134000,192.000000,0.000000,0.000000,0.000000,0.000000,0.000000,0.000000,0.000000,0.000000,0.000000,1646724705.763105,0.000000
94.000000,35324.741641,37466.217573,28136.912362,34638.028996,13796.636617,26861.678286,21147.901851,23683.193169,-0.034000,0.982000,0.134000,192.000000,0.000000,0.000000,0.000000,0.000000,0.000000,0.000000,0.000000,0.000000,0.000000,1646724705.763121,0.000000
95.000000,35321.992376,37463.177736,28138.119356,34635.436193,13793.574428,26857.431454,21146.270173,23679.527483,-0.034000,0.982000,0.134000,192.000000,0.000000,0.000000,0.000000,0.000000,0.000000,0.000000,0.000000,0.000000,0.000000,1646724705.770693,0.000000
96.000000,35321.232417,37466.463443,28139.303999,34638.900714,13794.535553,26861.074789,21158.138950,23684.266053,-0.034000,0.982000,0.134000,192.000000,0.000000,0.000000,0.000000,0.000000,0.000000,0.000000,0.000000,0.000000,0.000000,1646724705.770711,0.000000
97.000000,35326.999167,37465.614076,28141.382711,34641.538220,13795.071995,26860.292478,21153.556842,23685.495399,-0.034000,0.982000,0.134000,192.000000,0.000000,0.000000,0.000000,0.000000,0.000000,0.000000,0.000000,0.000000,0.000000,1646724705.778743,0.000000
98.000000,35326.574484,37467.871603,28139.751034,34641.515868,13795.519030,26858.370228,21150.695819,23687.887035,-0.036000,0.978000,0.122000,192.000000,254.000000,224.000000,30.000000,144.000000,3.000000,208.000000,0.000000,0.000000,0.000000,1646724705.778761,0.000000
99.000000,35336.878638,37478.555736,28147.417682,34651.998836,13805.309094,26869.456693,21169.717153,23696.291291,-0.036000,0.978000,0.122000,192.000000,0.000000,0.000000,0.000000,0.000000,0.000000,0.000000,0.000000,0.000000,0.000000,1646724705.785503,0.000000
100.000000,35334.464649,37475.024161,28145.651894,34653.071720,13804.012692,26868.227347,21163.324554,23690.189265,-0.036000,0.978000,0.122000,192.000000,0.000000,0.000000,0.000000,0.000000,0.000000,0.000000,0.000000,0.000000,0.000000,1646724705.785520,0.000000
101.000000,35335.604588,37480.299172,28147.797662,34655.843336,13805.979646,26871.647164,21160.575290,23695.106649,-0.036000,0.978000,0.122000,192.000000,0.000000,0.000000,0.000000,0.000000,0.000000,0.000000,0.000000,0.000000,0.000000,1646724705.792036,0.000000
102.000000,35338.420908,37485.842405,28150.502223,34658.033807,13808.371283,26870.440170,21159.882386,23694.078469,-0.036000,0.978000,0.122000,192.000000,0.000000,0.000000,0.000000,0.000000,0.000000,0.000000,0.000000,0.000000,0.000000,1646724705.800309,0.000000
103.000000,35334.107022,37476.074693,28146.322447,34648.981351,13803.990341,26864.136978,21157.803673,23688.848160,-0.036000,0.978000,0.122000,192.000000,0.000000,0.000000,0.000000,0.000000,0.000000,0.000000,0.000000,0.000000,0.000000,1646724705.800325,0.000000
104.000000,35321.366527,37462.395425,28132.419662,34631.546990,13789.528762,26852.469367,21158.675392,23681.539140,-0.036000,0.978000,0.122000,192.000000,0.000000,0.000000,0.000000,0.000000,0.000000,0.000000,0.000000,0.000000,0.000000,1646724705.808205,0.000000
105.000000,35319.779553,37460.227306,28130.028025,34627.210751,13785.483096,26846.948486,21143.453854,23675.660631,-0.036000,0.978000,0.122000,192.000000,0.000000,0.000000,0.000000,0.000000,0.000000,0.000000,0.000000,0.000000,0.000000,1646724705.808222,0.000000
106.000000,35334.509353,37477.706370,28143.550830,34641.649978,13797.687149,26856.872661,21149.399418,23682.835541,-0.036000,0.978000,0.122000,192.000000,0.000000,0.000000,0.000000,0.000000,0.000000,0.000000,0.000000,0.000000,0.000000,1646724705.815016,0.000000
107.000000,35344.545286,37485.954164,28147.574144,34647.349673,13801.933980,26862.259431,21159.323592,23688.334070,-0.036000,0.978000,0.122000,192.000000,0.000000,0.000000,0.000000,0.000000,0.000000,0.000000,0.000000,0.000000,0.000000,1646724705.815038,0.000000
108.000000,35345.305246,37483.182547,28142.589705,34640.264170,13793.440317,26855.151576,21152.439255,23679.102800,-0.026000,0.982000,0.120000,192.000000,255.000000,48.000000,30.000000,176.000000,3.000000,192.000000,0.000000,0.000000,0.000000,1646724705.822544,0.000000
109.000000,35329.234341,37465.994056,28134.185449,34631.614045,13784.745489,26847.440225,21141.330438,23671.771428,-0.026000,0.982000,0.120000,192.000000,0.000000,0.000000,0.000000,0.000000,0.000000,0.000000,0.000000,0.000000,0.000000,1646724705.822554,0.000000
110.000000,35325.233379,37462.328370,28139.214592,34636.844353,13790.713405,26857.029123,21158.138950,23684.042535,-0.026000,0.982000,0.120000,192.000000,0.000000,0.000000,0.000000,0.000000,0.000000,0.000000,0.000000,0.000000,0.000000,1646724705.830931,0.000000
111.000000,35341.863077,37475.784120,28146.903592,34646.746176,13798.134184,26863.645239,21166.140874,23692.715012,-0.026000,0.982000,0.120000,192.000000,0.000000,0.000000,0.000000,0.000000,0.000000,0.000000,0.000000,0.000000,0.000000,1646724705.830947,0.000000
112.000000,35343.338292,37474.487719,28146.389502,34645.561534,13796.435451,26859.688981,21164.017458,23685.428343,-0.026000,0.982000,0.120000,192.000000,0.000000,0.000000,0.000000,0.000000,0.000000,0.000000,0.000000,0.000000,0.000000,1646724705.838924,0.000000
113.000000,35339.918475,37477.438149,28151.172775,34653.116423,13802.962160,26868.853196,21170.365354,23693.430268,-0.026000,0.982000,0.120000,192.000000,0.000000,0.000000,0.000000,0.000000,0.000000,0.000000,0.000000,0.000000,0.000000,1646724705.838940,0.000000
114.000000,35330.195466,37467.335161,28139.236944,34643.482821,13794.334387,26854.525728,21153.534490,23678.678117,-0.026000,0.982000,0.120000,192.000000,0.000000,0.000000,0.000000,0.000000,0.000000,0.000000,0.000000,0.000000,0.000000,1646724705.845500,0.000000
115.000000,35317.745545,37454.572315,28121.199086,34631.770507,13779.962215,26836.286704,21134.379045,23664.060076,-0.026000,0.982000,0.120000,192.000000,0.000000,0.000000,0.000000,0.000000,0.000000,0.000000,0.000000,0.000000,0.000000,1646724705.845516,0.000000
116.000000,35320.271292,37455.645198,28124.216571,34630.049423,13781.213913,26832.978646,21135.049598,23657.555718,-0.026000,0.982000,0.120000,192.000000,0.000000,0.000000,0.000000,0.000000,0.000000,0.000000,0.000000,0.000000,0.000000,1646724705.852599,0.000000
117.000000,35329.524914,37465.032931,28135.727720,34638.341920,13790.981625,26844.869774,21145.264345,23682.813189,-0.026000,0.982000,0.120000,192.000000,0.000000,0.000000,0.000000,0.000000,0.000000,0.000000,0.000000,0.000000,0.000000,1646724705.860668,0.000000
118.000000,35336.766879,37469.525632,28142.299133,34646.410900,13795.384919,26851.754111,21153.936822,23683.707259,-0.026000,0.982000,0.120000,192.000000,255.000000,48.000000,30.000000,176.000000,3.000000,192.000000,0.000000,0.000000,0.000000,1646724705.860684,0.000000
119.000000,35329.904894,37466.083463,28136.062996,34643.102842,13790.109907,26848.893088,21160.307069,23679.058096,-0.026000,0.982000,0.120000,192.000000,0.000000,0.000000,0.000000,0.000000,0.000000,0.000000,0.000000,0.000000,0.000000,1646724705.868582,0.000000
120.000000,35337.415080,37474.890050,28144.511955,34649.942476,13796.077823,26854.682190,21193.119430,23681.785009,-0.026000,0.982000,0.120000,192.000000,0.000000,0.000000,0.000000,0.000000,0.000000,0.000000,0.000000,0.000000,0.000000,1646724705.868599,0.000000
121.000000,35355.944676,37493.285536,28162.840386,34664.761682,13812.394597,26871.222481,21181.228302,23698.079431,-0.026000,0.982000,0.120000,192.000000,0.000000,0.000000,0.000000,0.000000,0.000000,0.000000,0.000000,0.000000,0.000000,1646724705.875305,0.000000
122.000000,35343.874734,37484.858928,28152.089197,34653.898734,13803.431547,26862.527652,21157.468397,23692.938530,-0.026000,0.982000,0.120000,192.000000,0.000000,0.000000,0.000000,0.000000,0.000000,0.000000,0.000000,0.000000,0.000000,1646724705.875320,0.000000
123.000000,35334.487001,37469.749149,28140.645104,34640.822964,13791.607474,26852.737588,21150.718170,23675.437114,-0.026000,0.982000,0.120000,192.000000,0.000000,0.000000,0.000000,0.000000,0.000000,0.000000,0.000000,0.000000,0.000000,1646724705.883257,0.000000
124.000000,35330.195466,37462.820108,28137.962894,34634.162144,13785.237227,26844.735664,21133.417920,23664.752980,-0.026000,0.982000,0.120000,192.000000,0.000000,0.000000,0.000000,0.000000,0.000000,0.000000,0.000000,0.000000,0.000000,1646724705.883272,0.000000
125.000000,35340.387862,37475.784120,28148.289400,34650.411862,13797.553038,26853.564603,21139.855223,23677.515826,-0.026000,0.982000,0.120000,192.000000,0.000000,0.000000,0.000000,0.000000,0.000000,0.000000,0.000000,0.000000,0.000000,1646724705.891187,0.000000
126.000000,35346.065205,37483.517824,28152.469176,34660.023112,13804.415024,26859.487815,21152.014572,23678.633413,-0.026000,0.982000,0.120000,192.000000,0.000000,0.000000,0.000000,0.000000,0.000000,0.000000,0.000000,0.000000,0.000000,1646724705.891203,0.000000
127.000000,35336.409251,37476.164100,28144.914287,34652.088243,13798.201239,26851.798815,21149.242955,23678.722820,-0.026000,0.982000,0.120000,192.000000,0.000000,0.000000,0.000000,0.000000,0.000000,0.000000,0.000000,0.000000,0.000000,1646724705.898165,0.000000
128.000000,35333.078841,37472.498414,28142.835574,34651.127118,13798.536515,26846.233230,21141.486900,23673.939547,-0.024000,0.974000,0.116000,192.000000,255.000000,64.000000,30.000000,112.000000,3.000000,160.000000,0.000000,0.000000,0.000000,1646724705.898181,0.000000
129.000000,35335.693995,37470.754978,28144.199031,34650.143641,13796.726024,26846.724969,21141.933935,23672.218462,-0.024000,0.974000,0.116000,192.000000,0.000000,0.000000,0.000000,0.000000,0.000000,0.000000,0.000000,0.000000,0.000000,1646724705.905692,0.000000
130.000000,35339.471440,37478.891013,28145.495432,34652.647037,13798.201239,26848.423701,21139.743464,23676.130018,-0.024000,0.974000,0.116000,192.000000,0.000000,0.000000,0.000000,0.000000,0.000000,0.000000,0.000000,0.000000,0.000000,1646724705.905709,0.000000
131.000000,35329.569617,37469.480928,28135.437147,34646.746176,13788.321768,26840.488832,21136.256592,23668.485721,-0.024000,0.974000,0.116000,192.000000,0.000000,0.000000,0.000000,0.000000,0.000000,0.000000,0.000000,0.000000,0.000000,1646724705.912963,0.000000
132.000000,35329.055527,37462.507184,28134.565429,34645.986217,13785.639559,26837.761919,21135.206060,23666.228195,-0.024000,0.974000,0.116000,192.000000,0.000000,0.000000,0.000000,0.000000,0.000000,0.000000,0.000000,0.000000,0.000000,1646724705.920890,0.000000
133.000000,35335.336368,37472.163137,28141.561525,34653.429348,13794.289684,26846.881431,21151.031095,23672.799608,-0.024000,0.974000,0.116000,192.000000,0.000000,0.000000,0.000000,0.000000,0.000000,0.000000,0.000000,0.000000,0.000000,1646724705.920906,0.000000
134.000000,35336.230437,37479.136882,28140.689807,34656.044502,13796.882486,26851.172966,21163.056333,23677.873454,-0.024000,0.974000,0.116000,192.000000,0.000000,0.000000,0.000000,0.000000,0.000000,0.000000,0.000000,0.000000,0.000000,1646724705.927512,0.000000
135.000000,35332.475344,37475.717065,28137.851135,34652.758795,13793.350910,26844.713312,21147.454816,23668.753942,-0.024000,0.974000,0.116000,192.000000,0.000000,0.000000,0.000000,0.000000,0.000000,0.000000,0.000000,0.000000,0.000000,1646724705.927528,0.000000
136.000000,35340.410214,37481.841443,28148.758787,34660.291333,13802.962160,26849.764806,21160.575290,23671.369096,-0.024000,0.974000,0.116000,192.000000,0.000000,0.000000,0.000000,0.000000,0.000000,0.000000,0.000000,0.000000,0.000000,1646724705.935567,0.000000
137.000000,35345.975798,37485.395370,28149.406987,34658.302028,13802.738643,26846.523803,21148.415941,23663.277765,-0.024000,0.974000,0.116000,192.000000,0.000000,0.000000,0.000000,0.000000,0.000000,0.000000,0.000000,0.000000,0.000000,1646724705.935584,0.000000
138.000000,35350.669664,37484.054266,28146.367150,34652.200002,13801.665759,26841.494661,21134.468452,23657.488663,-0.024000,0.974000,0.116000,192.000000,0.000000,0.000000,0.000000,0.000000,0.000000,0.000000,0.000000,0.000000,0.000000,1646724705.943540,0.000000
139.000000,35346.266371,37484.098969,28148.065883,34658.480842,13807.767786,26849.608344,21148.304182,23664.998849,-0.032000,0.978000,0.128000,192.000000,255.000000,0.000000,30.000000,144.000000,4.000000,0.000000,0.000000,0.000000,0.000000,1646724705.943556,0.000000
140.000000,35331.536571,37482.377885,28149.138766,34666.862746,13811.567582,26859.174890,21157.893080,23673.201939,-0.032000,0.978000,0.128000,192.000000,0.000000,0.000000,0.000000,0.000000,0.000000,0.000000,0.000000,0.000000,0.000000,1646724705.950570,0.000000
141.000000,35328.027347,37478.756902,28143.394368,34665.186365,13808.103062,26860.292478,21156.283755,23678.901634,-0.032000,0.978000,0.128000,192.000000,0.000000,0.000000,0.000000,0.000000,0.000000,0.000000,0.000000,0.000000,0.000000,1646724705.950587,0.000000
142.000000,35337.683301,37486.356495,28150.144595,34671.914240,13816.306152,26868.272050,21161.469360,23692.022108,-0.032000,0.978000,0.128000,192.000000,0.000000,0.000000,0.000000,0.000000,0.000000,0.000000,0.000000,0.000000,0.000000,1646724705.958173,0.000000
143.000000,35330.083708,37480.053303,28143.439072,34667.801519,13812.349893,26862.840577,21154.160339,23681.002698,-0.032000,0.978000,0.128000,192.000000,0.000000,0.000000,0.000000,0.000000,0.000000,0.000000,0.000000,0.000000,0.000000,1646724705.958188,0.000000
144.000000,35322.640577,37468.095120,28131.704406,34657.564420,13801.554001,26856.202108,21149.377066,23672.307869,-0.032000,0.978000,0.128000,192.000000,0.000000,0.000000,0.000000,0.000000,0.000000,0.000000,0.000000,0.000000,0.000000,1646724705.966146,0.000000
145.000000,35324.898103,37469.033893,28132.598476,34655.418653,13799.698806,26854.279858,21159.591813,23669.625660,-0.032000,0.978000,0.128000,192.000000,0.000000,0.000000,0.000000,0.000000,0.000000,0.000000,0.000000,0.000000,0.000000,1646724705.966162,0.000000
146.000000,35317.745545,37467.379864,28128.016368,34653.474051,13797.821259,26853.385789,21153.266269,23670.743247,-0.032000,0.978000,0.128000,192.000000,0.000000,0.000000,0.000000,0.000000,0.000000,0.000000,0.000000,0.000000,0.000000,1646724705.973172,0.000000
147.000000,35313.833989,37465.032931,28125.043586,34651.328284,13794.557905,26852.625829,21167.459627,23672.352573,-0.032000,0.978000,0.128000,192.000000,0.000000,0.000000,0.000000,0.000000,0.000000,0.000000,0.000000,0.000000,0.000000,1646724705.980038,0.000000
148.000000,35335.962216,37485.864757,28145.987170,34667.846223,13811.858155,26872.831806,21172.824046,23701.923931,-0.032000,0.978000,0.128000,192.000000,0.000000,0.000000,0.000000,0.000000,0.000000,0.000000,0.000000,0.000000,0.000000,1646724705.980054,0.000000
149.000000,35336.163382,37486.021219,28144.780176,34662.995894,13807.924248,26872.407123,21161.759932,23692.513846,-0.034000,0.980000,0.126000,192.000000,254.000000,240.000000,30.000000,160.000000,3.000000,240.000000,0.000000,0.000000,0.000000,1646724705.987780,0.000000
150.000000,35325.725117,37479.159233,28136.353569,34657.810290,13801.397538,26864.069922,21156.082589,23681.896768,-0.034000,0.980000,0.126000,192.000000,0.000000,0.000000,0.000000,0.000000,0.000000,0.000000,0.000000,0.000000,0.000000,1646724705.987816,0.000000
151.000000,35328.452030,37481.193242,28141.762691,34663.264115,13804.951466,26862.415893,21152.595717,23682.276747,-0.034000,0.980000,0.126000,192.000000,0.000000,0.000000,0.000000,0.000000,0.000000,0.000000,0.000000,0.000000,0.000000,1646724705.995795,0.000000
152.000000,35329.144934,37476.342914,28137.918191,34660.716016,13802.693940,26856.023294,21138.894098,23671.749076,-0.034000,0.980000,0.126000,192.000000,0.000000,0.000000,0.000000,0.000000,0.000000,0.000000,0.000000,0.000000,0.000000,1646724705.995811,0.000000
153.000000,35328.519085,37470.643219,28134.543077,34655.262191,13800.659931,26854.436321,21159.547110,23675.481817,-0.034000,0.980000,0.126000,192.000000,0.000000,0.000000,0.000000,0.000000,0.000000,0.000000,0.000000,0.000000,0.000000,1646724706.003400,0.000000
154.000000,35335.559885,37481.372056,28143.595534,34664.068778,13806.449033,26863.868757,21184.066973,23690.658652,-0.034000,0.980000,0.126000,192.000000,0.000000,0.000000,0.000000,0.000000,0.000000,0.000000,0.000000,0.000000,0.000000,1646724706.003413,0.000000
155.000000,35328.586141,37479.874489,28139.907496,34664.426406,13800.905800,26860.963030,21167.481979,23689.518713,-0.034000,0.980000,0.126000,192.000000,0.000000,0.000000,0.000000,0.000000,0.000000,0.000000,0.000000,0.000000,0.000000,1646724706.010326,0.000000
156.000000,35327.468553,37476.477024,28136.800603,34660.201926,13796.927189,26855.308039,21155.412037,23681.181512,-0.034000,0.980000,0.126000,192.000000,0.000000,0.000000,0.000000,0.000000,0.000000,0.000000,0.000000,0.000000,0.000000,1646724706.010343,0.000000
157.000000,35326.350966,37476.342914,28131.793813,34657.251496,13795.519030,26852.514071,21151.902813,23673.470160,-0.034000,0.980000,0.126000,192.000000,0.000000,0.000000,0.000000,0.000000,0.000000,0.000000,0.000000,0.000000,0.000000,1646724706.018108,0.000000
158.000000,35326.798001,37481.103835,28135.839478,34661.118348,13799.832916,26854.458672,21154.965002,23680.645070,-0.034000,0.980000,0.126000,192.000000,0.000000,0.000000,0.000000,0.000000,0.000000,0.000000,0.000000,0.000000,0.000000,1646724706.018120,0.000000
159.000000,35329.301397,37481.573222,28138.476984,34663.554688,13804.169155,26855.665667,21154.294450,23682.343803,-0.036000,0.982000,0.128000,192.000000,254.000000,224.000000,30.000000,176.000000,4.000000,0.000000,0.000000,0.000000,0.000000,1646724706.026411,0.000000
160.000000,35325.143972,37473.928925,28132.687883,34657.564420,13800.525820,26854.458672,21155.970830,23682.410858,-0.036000,0.982000,0.128000,192.000000,0.000000,0.000000,0.000000,0.000000,0.000000,0.000000,0.000000,0.000000,0.000000,1646724706.026427,0.000000
161.000000,35332.654158,37481.930850,28142.589705,34669.075569,13812.439300,26864.315792,21158.071894,23691.753887,-0.036000,0.982000,0.128000,192.000000,0.000000,0.000000,0.000000,0.000000,0.000000,0.000000,0.000000,0.000000,0.000000,1646724706.032337,0.000000
162.000000,35332.251827,37486.580013,28143.930810,34668.427368,13814.406254,26869.121417,21166.364392,23692.625605,-0.036000,0.982000,0.128000,192.000000,0.000000,0.000000,0.000000,0.000000,0.000000,0.000000,0.000000,0.000000,0.000000,1646724706.032348,0.000000
163.000000,35333.212952,37488.211690,28145.786005,34670.863708,13819.547155,26868.652030,21175.707421,23690.278672,-0.036000,0.982000,0.128000,192.000000,0.000000,0.000000,0.000000,0.000000,0.000000,0.000000,0.000000,0.000000,0.000000,1646724706.040051,0.000000
164.000000,35327.915588,37483.160196,28142.075615,34667.689761,13814.473309,26863.645239,21173.472246,23682.768486,-0.036000,0.982000,0.128000,192.000000,0.000000,0.000000,0.000000,0.000000,0.000000,0.000000,0.000000,0.000000,0.000000,1646724706.048078,0.000000
165.000000,35331.402461,37489.105760,28145.920115,34671.556612,13815.054454,26864.427550,21161.044676,23681.427381,-0.036000,0.982000,0.128000,192.000000,0.000000,0.000000,0.000000,0.000000,0.000000,0.000000,0.000000,0.000000,0.000000,1646724706.048095,0.000000
166.000000,35328.854362,37484.210728,28139.683979,34664.046426,13806.314922,26852.335257,21156.060237,23668.686887,-0.036000,0.982000,0.128000,192.000000,0.000000,0.000000,0.000000,0.000000,0.000000,0.000000,0.000000,0.000000,0.000000,1646724706.055886,0.000000
167.000000,35328.809658,37481.662629,28133.269028,34666.415711,13798.715329,26843.863945,21159.167130,23665.043553,-0.036000,0.982000,0.128000,192.000000,0.000000,0.000000,0.000000,0.000000,0.000000,0.000000,0.000000,0.000000,0.000000,1646724706.055903,0.000000
168.000000,35315.845646,37473.571297,28125.892952,34684.185348,13794.557905,26844.847422,21138.178842,23667.390486,-0.036000,0.982000,0.128000,192.000000,0.000000,0.000000,0.000000,0.000000,0.000000,0.000000,0.000000,0.000000,0.000000,1646724706.062673,0.000000
169.000000,35320.137181,37474.800643,28133.045510,34715.835418,13804.683245,26856.112701,21139.028208,23666.652878,-0.034000,0.978000,0.128000,192.000000,254.000000,240.000000,30.000000,144.000000,4.000000,0.000000,0.000000,0.000000,0.000000,1646724706.062690,0.000000
170.000000,35328.519085,37480.299172,28133.380787,34731.079308,13804.526783,26855.933887,21144.862013,23670.251509,-0.034000,0.978000,0.128000,192.000000,0.000000,0.000000,0.000000,0.000000,0.000000,0.000000,0.000000,0.000000,0.000000,1646724706.070586,0.000000
171.000000,35326.999167,37483.517824,28138.745205,34756.895573,13810.897030,26869.881376,21172.578177,23687.887035,-0.034000,0.978000,0.128000,192.000000,0.000000,0.000000,0.000000,0.000000,0.000000,0.000000,0.000000,0.000000,0.000000,1646724706.070621,0.000000
172.000000,35310.414172,37470.531460,28131.436185,34754.615695,13805.353797,26868.048533,21164.375086,23679.862759,-0.034000,0.978000,0.128000,192.000000,0.000000,0.000000,0.000000,0.000000,0.000000,0.000000,0.000000,0.000000,0.000000,1646724706.078620,0.000000
173.000000,35309.631861,37466.664608,28125.244752,34746.747881,13799.028253,26859.197242,21152.483958,23676.152370,-0.034000,0.978000,0.128000,192.000000,0.000000,0.000000,0.000000,0.000000,0.000000,0.000000,0.000000,0.000000,0.000000,1646724706.078636,0.000000
174.000000,35311.487056,37464.027102,28122.450784,34747.641951,13798.089480,26862.706466,21170.678278,23677.225253,-0.034000,0.978000,0.128000,192.000000,0.000000,0.000000,0.000000,0.000000,0.000000,0.000000,0.000000,0.000000,0.000000,1646724706.085802,0.000000
175.000000,35328.452030,37480.098007,28141.270952,34767.199727,13811.768748,26874.463484,21183.239959,23690.345727,-0.034000,0.978000,0.128000,192.000000,0.000000,0.000000,0.000000,0.000000,0.000000,0.000000,0.000000,0.000000,0.000000,1646724706.085818,0.000000
176.000000,35340.678434,37486.580013,28148.535269,34775.827500,13819.502451,26877.883301,21175.819180,23695.732498,-0.034000,0.978000,0.128000,192.000000,0.000000,0.000000,0.000000,0.000000,0.000000,0.000000,0.000000,0.000000,0.000000,1646724706.093300,0.000000
177.000000,35334.956388,37479.338047,28140.533345,34768.540832,13814.406254,26869.501396,21160.865862,23687.730573,-0.034000,0.978000,0.128000,192.000000,0.000000,0.000000,0.000000,0.000000,0.000000,0.000000,0.000000,0.000000,0.000000,1646724706.093315,0.000000
178.000000,35335.224609,37482.713161,28142.053263,34767.892631,13813.445129,26870.283707,21165.112694,23686.277710,-0.034000,0.978000,0.128000,192.000000,0.000000,0.000000,0.000000,0.000000,0.000000,0.000000,0.000000,0.000000,0.000000,1646724706.100127,0.000000
179.000000,35326.350966,37476.678190,28135.727720,34759.510727,13804.169155,26862.862928,21163.905700,23679.661593,-0.036000,0.978000,0.130000,192.000000,254.000000,224.000000,30.000000,144.000000,4.000000,16.000000,0.000000,0.000000,0.000000,1646724706.108392,0.000000
180.000000,35326.060394,37483.182547,28137.493508,34767.110320,13809.444166,26865.545138,21163.592775,23682.209692,-0.036000,0.978000,0.130000,192.000000,0.000000,0.000000,0.000000,0.000000,0.000000,0.000000,0.000000,0.000000,0.000000,1646724706.108408,0.000000
181.000000,35320.852437,37477.706370,28133.894877,34767.110320,13806.806661,26863.824053,21163.346906,23679.460428,-0.036000,0.978000,0.130000,192.000000,0.000000,0.000000,0.000000,0.000000,0.000000,0.000000,0.000000,0.000000,0.000000,1646724706.115459,0.000000
182.000000,35316.851475,37473.101911,28124.887124,34758.504898,13799.877620,26856.000943,21157.915432,23668.753942,-0.036000,0.978000,0.130000,192.000000,0.000000,0.000000,0.000000,0.000000,0.000000,0.000000,0.000000,0.000000,0.000000,1646724706.115475,0.000000
183.000000,35306.457914,37459.512050,28112.303092,34743.193953,13788.969968,26847.350818,21152.260441,23667.614003,-0.036000,0.978000,0.130000,192.000000,0.000000,0.000000,0.000000,0.000000,0.000000,0.000000,0.000000,0.000000,0.000000,1646724706.122676,0.000000
184.000000,35312.448181,37463.915344,28116.348757,34743.998616,13792.792117,26851.910573,21152.305144,23672.263166,-0.036000,0.978000,0.130000,192.000000,0.000000,0.000000,0.000000,0.000000,0.000000,0.000000,0.000000,0.000000,0.000000,1646724706.122694,0.000000
185.000000,35325.948635,37481.059132,28130.452708,34753.028721,13804.526783,26861.477120,21166.744371,23679.303965,-0.036000,0.978000,0.130000,192.000000,0.000000,0.000000,0.000000,0.000000,0.000000,0.000000,0.000000,0.000000,0.000000,1646724706.130822,0.000000
186.000000,35323.288777,37480.880318,28132.687883,34753.363997,13805.733777,26864.986344,21181.921206,23685.830675,-0.036000,0.978000,0.130000,192.000000,0.000000,0.000000,0.000000,0.000000,0.000000,0.000000,0.000000,0.000000,0.000000,1646724706.130838,0.000000
187.000000,35320.740678,37478.801606,28131.369130,34752.581686,13803.632713,26864.628716,21169.515988,23685.897730,-0.036000,0.978000,0.130000,192.000000,0.000000,0.000000,0.000000,0.000000,0.000000,0.000000,0.000000,0.000000,0.000000,1646724706.138999,0.000000
188.000000,35309.341289,37466.910478,28119.679167,34740.288227,13790.981625,26852.111739,21156.015534,23672.017297,-0.036000,0.978000,0.130000,192.000000,0.000000,0.000000,0.000000,0.000000,0.000000,0.000000,0.000000,0.000000,0.000000,1646724706.139016,0.000000
189.000000,35320.695975,37477.259335,28130.340949,34751.173526,13799.899971,26861.119492,21182.345889,23677.806399,-0.034000,0.978000,0.124000,192.000000,254.000000,240.000000,30.000000,144.000000,3.000000,224.000000,0.000000,0.000000,0.000000,1646724706.145598,0.000000
190.000000,35322.618225,37474.063036,28130.720929,34753.475756,13797.798907,26860.605402,21160.441179,23673.716029,-0.034000,0.978000,0.124000,192.000000,0.000000,0.000000,0.000000,0.000000,0.000000,0.000000,0.000000,0.000000,0.000000,1646724706.145614,0.000000
191.000000,35323.109963,37472.677228,28127.859906,34749.608904,13796.301341,26853.832823,21141.129272,23670.251509,-0.034000,0.978000,0.124000,192.000000,0.000000,0.000000,0.000000,0.000000,0.000000,0.000000,0.000000,0.000000,0.000000,1646724706.153550,0.000000
192.000000,35321.902969,37471.269068,28126.854077,34748.647779,13798.111832,26848.423701,21137.664752,23659.410913,-0.034000,0.978000,0.124000,192.000000,0.000000,0.000000,0.000000,0.000000,0.000000,0.000000,0.000000,0.000000,0.000000,1646724706.153566,0.000000
193.000000,35331.178943,37478.242812,28140.958028,34756.381483,13811.455823,26858.370228,21148.997086,23671.525558,-0.034000,0.978000,0.124000,192.000000,0.000000,0.000000,0.000000,0.000000,0.000000,0.000000,0.000000,0.000000,0.000000,1646724706.160504,0.000000
194.000000,35327.647367,37479.270992,28137.180583,34750.547677,13809.600629,26854.145748,21147.901851,23658.114512,-0.034000,0.978000,0.124000,192.000000,0.000000,0.000000,0.000000,0.000000,0.000000,0.000000,0.000000,0.000000,0.000000,1646724706.167665,0.000000
195.000000,35327.915588,37482.288478,28138.454633,34753.743977,13807.097233,26861.231251,21166.386743,23679.549835,-0.034000,0.978000,0.124000,192.000000,0.000000,0.000000,0.000000,0.000000,0.000000,0.000000,0.000000,0.000000,0.000000,1646724706.167682,0.000000
196.000000,35325.211027,37479.360399,28137.895839,34756.247372,13804.795004,26863.242908,21165.179749,23679.102800,-0.034000,0.978000,0.124000,192.000000,0.000000,0.000000,0.000000,0.000000,0.000000,0.000000,0.000000,0.000000,0.000000,1646724706.175289,0.000000
197.000000,35326.507428,37476.722893,28137.337045,34754.548640,13806.225515,26863.645239,21157.736618,23672.844311,-0.034000,0.978000,0.124000,192.000000,0.000000,0.000000,0.000000,0.000000,0.000000,0.000000,0.000000,0.000000,0.000000,1646724706.175306,0.000000
198.000000,35325.300434,37471.425530,28134.163098,34749.497145,13802.045739,26856.671495,21143.945592,23654.605288,-0.034000,0.978000,0.124000,192.000000,0.000000,0.000000,0.000000,0.000000,0.000000,0.000000,0.000000,0.000000,0.000000,1646724706.183202,0.000000
199.000000,35323.735812,37475.225326,28135.414795,34751.352340,13804.236210,26858.839614,21145.778435,23665.557643,-0.030000,0.978000,0.114000,192.000000,255.000000,16.000000,30.000000,144.000000,3.000000,144.000000,0.000000,0.000000,0.000000,1646724706.183219,0.000000
200.000000,35323.847571,37478.354571,28137.515859,34754.660398,13808.304227,26865.858062,21184.379898,23678.409896,-0.030000,0.978000,0.114000,192.000000,0.000000,0.000000,0.000000,0.000000,0.000000,0.000000,0.000000,0.000000,0.000000,1646724706.191269,0.000000
201.000000,35324.786344,37479.047475,28138.521688,34757.275552,13812.282838,26869.836673,21181.831799,23685.160123,-0.030000,0.978000,0.114000,192.000000,0.000000,0.000000,0.000000,0.000000,0.000000,0.000000,0.000000,0.000000,0.000000,1646724706.191285,0.000000
202.000000,35321.813562,37472.945449,28135.906534,34753.587515,13809.622980,26859.510167,21159.010668,23670.922061,-0.030000,0.978000,0.114000,192.000000,0.000000,0.000000,0.000000,0.000000,0.000000,0.000000,0.000000,0.000000,0.000000,1646724706.197830,0.000000
203.000000,35319.466629,37469.749149,28133.872525,34751.039416,13807.410158,26859.331353,21149.645287,23670.363268,-0.030000,0.978000,0.114000,192.000000,0.000000,0.000000,0.000000,0.000000,0.000000,0.000000,0.000000,0.000000,0.000000,1646724706.197846,0.000000
204.000000,35320.897141,37474.912402,28136.442976,34756.828518,13810.561754,26867.534443,21159.792979,23677.828750,-0.030000,0.978000,0.114000,192.000000,0.000000,0.000000,0.000000,0.000000,0.000000,0.000000,0.000000,0.000000,0.000000,1646724706.205689,0.000000
205.000000,35327.110926,37479.896841,28143.215554,34765.143366,13817.177870,26875.826940,21170.611223,23688.222312,-0.030000,0.978000,0.114000,192.000000,0.000000,0.000000,0.000000,0.000000,0.000000,0.000000,0.000000,0.000000,0.000000,1646724706.205706,0.000000
206.000000,35320.383050,37471.559640,28135.437147,34758.393140,13809.377111,26871.155425,21164.665659,23681.673250,-0.030000,0.978000,0.114000,192.000000,0.000000,0.000000,0.000000,0.000000,0.000000,0.000000,0.000000,0.000000,0.000000,1646724706.213822,0.000000
207.000000,35325.769821,37474.443015,28139.013426,34754.950971,13808.393634,26873.994097,21169.404229,23681.695602,-0.030000,0.978000,0.114000,192.000000,0.000000,0.000000,0.000000,0.000000,0.000000,0.000000,0.000000,0.000000,0.000000,1646724706.213838,0.000000
208.000000,35318.684318,37464.943524,28130.273894,34744.579762,13797.418928,26864.539309,21163.279851,23674.654803,-0.030000,0.978000,0.114000,192.000000,0.000000,0.000000,0.000000,0.000000,0.000000,0.000000,0.000000,0.000000,0.000000,1646724706.221039,0.000000
209.000000,35308.357812,37452.314788,28118.136897,34733.001558,13786.913608,26856.090350,21151.701647,23665.892919,-0.030000,0.974000,0.118000,192.000000,255.000000,16.000000,30.000000,112.000000,3.000000,176.000000,0.000000,0.000000,0.000000,1646724706.227585,0.000000
210.000000,35309.117771,37459.132070,28122.428432,34737.136631,13789.215838,26857.073826,21153.534490,23666.496416,-0.030000,0.974000,0.118000,192.000000,0.000000,0.000000,0.000000,0.000000,0.000000,0.000000,0.000000,0.000000,0.000000,1646724706.227602,0.000000
211.000000,35324.316958,37480.969725,28138.991074,34753.878087,13803.208030,26869.255527,21168.420752,23677.851102,-0.030000,0.974000,0.118000,192.000000,0.000000,0.000000,0.000000,0.000000,0.000000,0.000000,0.000000,0.000000,0.000000,1646724706.235505,0.000000
212.000000,35323.758164,37482.914327,28141.762691,34756.225020,13807.454861,26871.624812,21188.403212,23683.528445,-0.030000,0.974000,0.118000,192.000000,0.000000,0.000000,0.000000,0.000000,0.000000,0.000000,0.000000,0.000000,0.000000,1646724706.235522,0.000000
213.000000,35314.839818,37470.307943,28132.531420,34746.524363,13800.257599,26864.114626,21179.238996,23675.861797,-0.030000,0.974000,0.118000,192.000000,0.000000,0.000000,0.000000,0.000000,0.000000,0.000000,0.000000,0.000000,0.000000,1646724706.243648,0.000000
214.000000,35314.459838,37464.764710,28130.318598,34742.210477,13797.396576,26861.834748,21167.236110,23669.491550,-0.030000,0.974000,0.118000,192.000000,0.000000,0.000000,0.000000,0.000000,0.000000,0.000000,0.000000,0.000000,0.000000,1646724706.243682,0.000000
215.000000,35326.060394,37477.862832,28143.819051,34755.375654,13808.214820,26867.690905,21149.488825,23679.281614,-0.030000,0.974000,0.118000,192.000000,0.000000,0.000000,0.000000,0.000000,0.000000,0.000000,0.000000,0.000000,0.000000,1646724706.250598,0.000000
216.000000,35324.518123,37474.822995,28141.159194,34753.252238,13804.996169,26866.483911,21158.161301,23677.024088,-0.030000,0.974000,0.118000,192.000000,0.000000,0.000000,0.000000,0.000000,0.000000,0.000000,0.000000,0.000000,0.000000,1646724706.250614,0.000000
217.000000,35314.504542,37464.183565,28130.653874,34742.098718,13797.374224,26861.052437,21159.211833,23674.475989,-0.030000,0.974000,0.118000,192.000000,0.000000,0.000000,0.000000,0.000000,0.000000,0.000000,0.000000,0.000000,0.000000,1646724706.257859,0.000000
218.000000,35321.657100,37478.041646,28141.919153,34754.414529,13807.410158,26868.048533,21168.800732,23681.472085,-0.030000,0.974000,0.118000,192.000000,0.000000,0.000000,0.000000,0.000000,0.000000,0.000000,0.000000,0.000000,0.000000,1646724706.257870,0.000000
219.000000,35322.484114,37484.635411,28144.668418,34760.293038,13809.846498,26870.082542,21156.127293,23681.896768,-0.032000,0.980000,0.126000,192.000000,255.000000,0.000000,30.000000,160.000000,3.000000,240.000000,0.000000,0.000000,0.000000,1646724706.266065,0.000000
220.000000,35312.761106,37475.314733,28134.408967,34750.882954,13801.889277,26864.628716,21159.882386,23676.040611,-0.032000,0.980000,0.126000,192.000000,0.000000,0.000000,0.000000,0.000000,0.000000,0.000000,0.000000,0.000000,0.000000,1646724706.266077,0.000000
221.000000,35319.377222,37477.996943,28138.007598,34756.247372,13806.337274,26871.401295,21160.932918,23679.728649,-0.032000,0.980000,0.126000,192.000000,0.000000,0.000000,0.000000,0.000000,0.000000,0.000000,0.000000,0.000000,0.000000,1646724706.273064,0.000000
222.000000,35319.578388,37480.321524,28138.074653,34758.504898,13808.840669,26876.698658,21162.162264,23679.751000,-0.032000,0.980000,0.126000,192.000000,0.000000,0.000000,0.000000,0.000000,0.000000,0.000000,0.000000,0.000000,0.000000,1646724706.273081,0.000000
223.000000,35323.534646,37484.478949,28140.823917,34761.947067,13809.801794,26876.475141,21161.290546,23669.938585,-0.032000,0.980000,0.126000,192.000000,0.000000,0.000000,0.000000,0.000000,0.000000,0.000000,0.000000,0.000000,0.000000,1646724706.279852,0.000000
224.000000,35325.993338,37484.881280,28141.405063,34760.963590,13808.840669,26875.290498,21161.603470,23668.798646,-0.032000,0.980000,0.126000,192.000000,0.000000,0.000000,0.000000,0.000000,0.000000,0.000000,0.000000,0.000000,0.000000,1646724706.279868,0.000000
225.000000,35318.036117,37476.633486,28135.861830,34754.906268,13803.431547,26871.490702,21164.956232,23660.349686,-0.032000,0.980000,0.126000,192.000000,0.000000,0.000000,0.000000,0.000000,0.000000,0.000000,0.000000,0.000000,0.000000,1646724706.287722,0.000000
226.000000,35310.145952,37468.139823,28129.066900,34747.150212,13793.887352,26862.527652,21151.589889,23650.716084,-0.032000,0.980000,0.126000,192.000000,0.000000,0.000000,0.000000,0.000000,0.000000,0.000000,0.000000,0.000000,0.000000,1646724706.295824,0.000000
227.000000,35312.358774,37473.660704,28133.716063,34750.346512,13799.810564,26873.345896,21157.334287,23683.059059,-0.032000,0.980000,0.126000,192.000000,0.000000,0.000000,0.000000,0.000000,0.000000,0.000000,0.000000,0.000000,0.000000,1646724706.295840,0.000000
228.000000,35310.324765,37466.575201,28128.575162,34743.685692,13795.496678,26869.188472,21158.317764,23673.671326,-0.032000,0.980000,0.126000,192.000000,0.000000,0.000000,0.000000,0.000000,0.000000,0.000000,0.000000,0.000000,0.000000,1646724706.302894,0.000000
229.000000,35313.431658,37467.759844,28132.419662,34746.077328,13800.056434,26872.295364,21161.089380,23677.247605,-0.032000,0.976000,0.126000,192.000000,255.000000,0.000000,30.000000,128.000000,3.000000,240.000000,0.000000,0.000000,0.000000,1646724706.302910,0.000000
230.000000,35323.914626,37479.427454,28144.109624,34760.650666,13812.260486,26887.539254,21173.561653,23691.575073,-0.032000,0.976000,0.126000,192.000000,0.000000,0.000000,0.000000,0.000000,0.000000,0.000000,0.000000,0.000000,0.000000,1646724706.310393,0.000000
231.000000,35325.076917,37481.506167,28143.595534,34764.070483,13811.880507,26891.137885,21181.921206,23694.972538,-0.032000,0.976000,0.126000,192.000000,0.000000,0.000000,0.000000,0.000000,0.000000,0.000000,0.000000,0.000000,0.000000,1646724706.310409,0.000000
232.000000,35325.345138,37481.036780,28140.488641,34761.835308,13809.220649,26886.958109,21191.532456,23688.021146,-0.032000,0.976000,0.126000,192.000000,0.000000,0.000000,0.000000,0.000000,0.000000,0.000000,0.000000,0.000000,0.000000,1646724706.318519,0.000000
233.000000,35324.831048,37483.964859,28141.941505,34759.488375,13809.108890,26878.732667,21161.201139,23686.098896,-0.032000,0.976000,0.126000,192.000000,0.000000,0.000000,0.000000,0.000000,0.000000,0.000000,0.000000,0.000000,0.000000,1646724706.318535,0.000000
234.000000,35317.298510,37475.314733,28134.811298,34753.967494,13805.353797,26869.344934,21154.227394,23679.058096,-0.032000,0.976000,0.126000,192.000000,0.000000,0.000000,0.000000,0.000000,0.000000,0.000000,0.000000,0.000000,0.000000,1646724706.326417,0.000000
235.000000,35311.308242,37466.664608,28126.675263,34747.396081,13797.173059,26863.466425,21159.435351,23673.805436,-0.032000,0.976000,0.126000,192.000000,0.000000,0.000000,0.000000,0.000000,0.000000,0.000000,0.000000,0.000000,0.000000,1646724706.326451,0.000000
236.000000,35316.270330,37468.139823,28126.563505,34746.859640,13797.463631,26864.159329,21161.715229,23676.733515,-0.032000,0.976000,0.126000,192.000000,0.000000,0.000000,0.000000,0.000000,0.000000,0.000000,0.000000,0.000000,0.000000,1646724706.333047,0.000000
237.000000,35323.579350,37482.959030,28135.638313,34753.632218,13804.146803,26871.133074,21171.818217,23681.695602,-0.032000,0.976000,0.126000,192.000000,0.000000,0.000000,0.000000,0.000000,0.000000,0.000000,0.000000,0.000000,0.000000,1646724706.333064,0.000000
238.000000,35318.371393,37480.857966,28129.156307,34745.652645,13795.474326,26862.617059,21162.318726,23667.949279,-0.032000,0.976000,0.126000,192.000000,0.000000,0.000000,0.000000,0.000000,0.000000,0.000000,0.000000,0.000000,0.000000,1646724706.340709,0.000000
239.000000,35324.853399,37483.964859,28133.760766,34748.133689,13798.022425,26867.757960,21169.337174,23675.437114,-0.032000,0.976000,0.126000,192.000000,0.000000,0.000000,0.000000,0.000000,0.000000,0.000000,0.000000,0.000000,0.000000,1646724706.340720,0.000000
240.000000,35330.195466,37486.356495,28138.834612,34749.541849,13801.039910,26873.859987,21175.886235,23681.673250,-0.034000,0.978000,0.120000,192.000000,254.000000,240.000000,30.000000,144.000000,3.000000,192.000000,0.000000,0.000000,0.000000,1646724706.347874,0.000000
241.000000,35327.714423,37480.030952,28135.258333,34740.668206,13796.278989,26869.032010,21155.523796,23674.766561,-0.034000,0.978000,0.120000,192.000000,0.000000,0.000000,0.000000,0.000000,0.000000,0.000000,0.000000,0.000000,0.000000,1646724706.355926,0.000000
242.000000,35320.315995,37470.531460,28130.989150,34733.336834,13793.105041,26868.540271,21154.026229,23670.698544,-0.034000,0.978000,0.120000,192.000000,0.000000,0.000000,0.000000,0.000000,0.000000,0.000000,0.000000,0.000000,0.000000,1646724706.355942,0.000000
243.000000,35331.044833,37480.120358,28142.120319,34746.032625,13803.900934,26881.124303,21167.459627,23677.739343,-0.034000,0.978000,0.120000,192.000000,0.000000,0.000000,0.000000,0.000000,0.000000,0.000000,0.000000,0.000000,0.000000,1646724706.362790,0.000000
244.000000,35335.716347,37485.685943,28147.417682,34752.648741,13808.058358,26888.634490,21186.905645,23687.440000,-0.034000,0.978000,0.120000,192.000000,0.000000,0.000000,0.000000,0.000000,0.000000,0.000000,0.000000,0.000000,0.000000,1646724706.362836,0.000000
245.000000,35321.411231,37475.493547,28135.258333,34739.707081,13796.122527,26873.859987,21166.386743,23671.726724,-0.034000,0.978000,0.120000,192.000000,0.000000,0.000000,0.000000,0.000000,0.000000,0.000000,0.000000,0.000000,0.000000,1646724706.370672,0.000000
246.000000,35323.579350,37477.706370,28134.207801,34741.741090,13795.071995,26870.842501,21159.502406,23674.431285,-0.034000,0.978000,0.120000,192.000000,0.000000,0.000000,0.000000,0.000000,0.000000,0.000000,0.000000,0.000000,0.000000,1646724706.370688,0.000000
247.000000,35327.066222,37478.041646,28133.894877,34742.836326,13796.010768,26868.272050,21152.998048,23670.586785,-0.034000,0.978000,0.120000,192.000000,0.000000,0.000000,0.000000,0.000000,0.000000,0.000000,0.000000,0.000000,0.000000,1646724706.378714,0.000000
248.000000,35322.841742,37478.063998,28138.320522,34748.804241,13801.889277,26873.234138,21168.286642,23672.687849,-0.034000,0.978000,0.120000,192.000000,0.000000,0.000000,0.000000,0.000000,0.000000,0.000000,0.000000,0.000000,0.000000,1646724706.378730,0.000000
249.000000,35318.438449,37476.253507,28139.303999,34750.637084,13804.236210,26876.765713,21165.559729,23677.895806,-0.034000,0.978000,0.120000,192.000000,0.000000,0.000000,0.000000,0.000000,0.000000,0.000000,0.000000,0.000000,0.000000,1646724706.385743,0.000000
250.000000,35325.993338,37479.583917,28145.786005,34753.319294,13810.494698,26878.062114,21162.944575,23677.158198,-0.030000,0.976000,0.120000,192.000000,255.000000,16.000000,30.000000,128.000000,3.000000,192.000000,0.000000,0.000000,0.000000,1646724706.385760,0.000000
251.000000,35321.657100,37476.298210,28139.728682,34749.608904,13806.650198,26870.574280,21157.580156,23668.820997,-0.030000,0.976000,0.120000,192.000000,0.000000,0.000000,0.000000,0.000000,0.000000,0.000000,0.000000,0.000000,0.000000,1646724706.393334,0.000000
252.000000,35322.528818,37482.713161,28144.556659,34753.453404,13809.779443,26873.211786,21178.903720,23669.290384,-0.030000,0.976000,0.120000,192.000000,0.000000,0.000000,0.000000,0.000000,0.000000,0.000000,0.000000,0.000000,0.000000,1646724706.393350,0.000000
253.000000,35321.925321,37482.623754,28143.930810,34751.285285,13805.756129,26873.457655,21170.767685,23668.575128,-0.030000,0.976000,0.120000,192.000000,0.000000,0.000000,0.000000,0.000000,0.000000,0.000000,0.000000,0.000000,0.000000,1646724706.401089,0.000000
254.000000,35319.556036,37476.029989,28139.683979,34748.536020,13800.659931,26870.216652,21150.315839,23666.943451,-0.030000,0.976000,0.120000,192.000000,0.000000,0.000000,0.000000,0.000000,0.000000,0.000000,0.000000,0.000000,0.000000,1646724706.401104,0.000000
255.000000,35312.850513,37465.837594,28130.631522,34739.662378,13789.975797,26862.997039,21149.466473,23668.485721,-0.030000,0.976000,0.120000,192.000000,0.000000,0.000000,0.000000,0.000000,0.000000,0.000000,0.000000,0.000000,0.000000,1646724706.408372,0.000000
0.000000,35320.740678,37475.627658,28136.308865,34747.284323,13795.742547,26866.930946,21150.964040,23667.278727,-0.030000,0.976000,0.120000,192.000000,0.000000,0.000000,0.000000,0.000000,0.000000,0.000000,0.000000,0.000000,0.000000,1646724706.414981,0.000000
1.000000,35326.283911,37475.337085,28138.320522,34747.530192,13798.268294,26870.015486,21154.674429,23670.966765,-0.030000,0.976000,0.120000,192.000000,0.000000,0.000000,0.000000,0.000000,0.000000,0.000000,0.000000,0.000000,0.000000,1646724706.415016,0.000000
2.000000,35313.677527,37466.530498,28128.195182,34736.019043,13789.349948,26862.974687,21164.665659,23666.988154,-0.030000,0.976000,0.120000,192.000000,0.000000,0.000000,0.000000,0.000000,0.000000,0.000000,0.000000,0.000000,0.000000,1646724706.422737,0.000000
3.000000,35319.064298,37479.092178,28136.062996,34742.970436,13796.189582,26871.334239,21171.728810,23669.022163,-0.030000,0.976000,0.120000,192.000000,0.000000,0.000000,0.000000,0.000000,0.000000,0.000000,0.000000,0.000000,0.000000,1646724706.422753,0.000000
4.000000,35314.370431,37472.476062,28131.503240,34739.774137,13790.869867,26865.902766,21155.568499,23670.609137,-0.032000,0.986000,0.118000,192.000000,255.000000,0.000000,30.000000,208.000000,3.000000,176.000000,0.000000,0.000000,0.000000,1646724706.430831,0.000000
5.000000,35315.331556,37473.168966,28137.448804,34743.417471,13795.474326,26870.931908,21159.390647,23672.598442,-0.032000,0.986000,0.118000,192.000000,0.000000,0.000000,0.000000,0.000000,0.000000,0.000000,0.000000,0.000000,0.000000,1646724706.430848,0.000000
6.000000,35326.932112,37481.506167,28151.664514,34754.883916,13807.566620,26885.885225,21171.237072,23683.371983,-0.032000,0.986000,0.118000,192.000000,0.000000,0.000000,0.000000,0.000000,0.000000,0.000000,0.000000,0.000000,0.000000,1646724706.438157,0.000000
7.000000,35322.864094,37482.690809,28148.736435,34754.816861,13806.024349,26878.531501,21157.893080,23672.553739,-0.032000,0.986000,0.118000,192.000000,0.000000,0.000000,0.000000,0.000000,0.000000,0.000000,0.000000,0.000000,0.000000,1646724706.438173,0.000000
8.000000,35325.903931,37484.680114,28150.077540,34758.504898,13810.159422,26881.325469,21166.230281,23678.432247,-0.032000,0.986000,0.118000,192.000000,0.000000,0.000000,0.000000,0.000000,0.000000,0.000000,0.000000,0.000000,0.000000,1646724706.445584,0.000000
9.000000,35340.723138,37502.270937,28162.996848,34771.692428,13824.106911,26893.641280,21183.575235,23691.195094,-0.032000,0.986000,0.118000,192.000000,0.000000,0.000000,0.000000,0.000000,0.000000,0.000000,0.000000,0.000000,0.000000,1646724706.445600,0.000000
10.000000,35338.845591,37502.405048,28160.873432,34769.747826,13823.838690,26895.988214,21187.509142,23694.257283,-0.032000,0.986000,0.118000,192.000000,0.000000,0.000000,0.000000,0.000000,0.000000,0.000000,0.000000,0.000000,0.000000,1646724706.453554,0.000000
11.000000,35319.466629,37483.137844,28140.980380,34757.633180,13807.767786,26879.626737,21171.929976,23680.801532,-0.032000,0.986000,0.118000,192.000000,0.000000,0.000000,0.000000,0.000000,0.000000,0.000000,0.000000,0.000000,0.000000,1646724706.453571,0.000000
12.000000,35315.443315,37474.487719,28132.039682,34748.468965,13799.341178,26867.020353,21161.916394,23664.663573,-0.032000,0.986000,0.118000,192.000000,0.000000,0.000000,0.000000,0.000000,0.000000,0.000000,0.000000,0.000000,0.000000,1646724706.461632,0.000000
13.000000,35322.148838,37478.108701,28138.342874,34748.312503,13803.431547,26873.524710,21169.672450,23671.190282,-0.032000,0.986000,0.118000,192.000000,0.000000,0.000000,0.000000,0.000000,0.000000,0.000000,0.000000,0.000000,0.000000,1646724706.461649,0.000000
14.000000,35331.313054,37488.390504,28149.988133,34758.527250,13810.360588,26881.325469,21172.488770,23683.684907,-0.032000,0.980000,0.130000,192.000000,255.000000,0.000000,30.000000,160.000000,4.000000,16.000000,0.000000,0.000000,0.000000,1646724706.467723,0.000000
15.000000,35334.039966,37491.206824,28151.485700,34759.622486,13812.841632,26882.040725,21170.253595,23683.371983,-0.032000,0.980000,0.130000,192.000000,0.000000,0.000000,0.000000,0.000000,0.000000,0.000000,0.000000,0.000000,0.000000,1646724706.475261,0.000000
16.000000,35329.815487,37484.635411,28145.294266,34752.849907,13808.371283,26876.788065,21164.822121,23674.051306,-0.032000,0.980000,0.130000,192.000000,0.000000,0.000000,0.000000,0.000000,0.000000,0.000000,0.000000,0.000000,0.000000,1646724706.475277,0.000000
17.000000,35329.793135,37490.223347,28145.160156,34756.314427,13810.919381,26881.146655,21184.044621,23677.426419,-0.032000,0.980000,0.130000,192.000000,0.000000,0.000000,0.000000,0.000000,0.000000,0.000000,0.000000,0.000000,0.000000,1646724706.483210,0.000000
18.000000,35336.856286,37502.248585,28150.546926,34763.645800,13816.529669,26887.449847,21176.109752,23689.451657,-0.032000,0.980000,0.130000,192.000000,0.000000,0.000000,0.000000,0.000000,0.000000,0.000000,0.000000,0.000000,0.000000,1646724706.483226,0.000000
19.000000,35340.656083,37509.088219,28155.576069,34768.339666,13819.033065,26890.087353,21173.561653,23693.407916,-0.032000,0.980000,0.130000,192.000000,0.000000,0.000000,0.000000,0.000000,0.000000,0.000000,0.000000,0.000000,0.000000,1646724706.490287,0.000000
20.000000,35332.162420,37495.364248,28142.433243,34754.123956,13806.113756,26877.615080,21166.207929,23679.907463,-0.032000,0.980000,0.130000,192.000000,0.000000,0.000000,0.000000,0.000000,0.000000,0.000000,0.000000,0.000000,0.000000,1646724706.490303,0.000000
21.000000,35329.793135,37485.551832,28136.912362,34746.099680,13800.816393,26870.328411,21157.535453,23671.570262,-0.032000,0.980000,0.130000,192.000000,0.000000,0.000000,0.000000,0.000000,0.000000,0.000000,0.000000,0.000000,0.000000,1646724706.497852,0.000000
22.000000,35330.463687,37488.211690,28138.141708,34746.971398,13803.297437,26870.015486,21163.033982,23679.952166,-0.032000,0.980000,0.130000,192.000000,0.000000,0.000000,0.000000,0.000000,0.000000,0.000000,0.000000,0.000000,0.000000,1646724706.497887,0.000000
23.000000,35329.480210,37489.552795,28136.845307,34748.290151,13801.598704,26869.322582,21178.970775,23675.839445,-0.032000,0.980000,0.130000,192.000000,0.000000,0.000000,0.000000,0.000000,0.000000,0.000000,0.000000,0.000000,0.000000,1646724706.505772,0.000000
24.000000,35325.121620,37486.647068,28135.280685,34745.742052,13800.235248,26865.947469,21155.769665,23672.464332,-0.032000,0.980000,0.126000,192.000000,255.000000,0.000000,30.000000,160.000000,3.000000,240.000000,0.000000,0.000000,0.000000,1646724706.505789,0.000000
25.000000,35329.949597,37488.994001,28142.030912,34748.670131,13806.225515,26868.361457,21153.646249,23676.375887,-0.032000,0.980000,0.126000,192.000000,0.000000,0.000000,0.000000,0.000000,0.000000,0.000000,0.000000,0.000000,0.000000,1646724706.513788,0.000000
26.000000,35339.739661,37494.403123,28150.479871,34752.179355,13813.221611,26876.162216,21169.739505,23685.428343,-0.032000,0.980000,0.126000,192.000000,0.000000,0.000000,0.000000,0.000000,0.000000,0.000000,0.000000,0.000000,0.000000,1646724706.513806,0.000000
27.000000,35336.923341,37488.546966,28146.724778,34739.729433,13807.141937,26869.411989,21171.013554,23684.087239,-0.032000,0.980000,0.126000,192.000000,0.000000,0.000000,0.000000,0.000000,0.000000,0.000000,0.000000,0.000000,0.000000,1646724706.520313,0.000000
28.000000,35342.600684,37492.503225,28151.306886,34745.183259,13810.002960,26871.781274,21159.412999,23682.969652,-0.032000,0.980000,0.126000,192.000000,0.000000,0.000000,0.000000,0.000000,0.000000,0.000000,0.000000,0.000000,0.000000,1646724706.520325,0.000000
29.000000,35325.009862,37477.639315,28134.788946,34733.962683,13795.608437,26859.778388,21160.910566,23669.156274,-0.032000,0.980000,0.126000,192.000000,0.000000,0.000000,0.000000,0.000000,0.000000,0.000000,0.000000,0.000000,0.000000,1646724706.527578,0.000000
30.000000,35316.583254,37474.443015,28124.753013,34725.804296,13788.478230,26853.229326,21167.794903,23670.922061,-0.032000,0.980000,0.126000,192.000000,0.000000,0.000000,0.000000,0.000000,0.000000,0.000000,0.000000,0.000000,0.000000,1646724706.527594,0.000000
31.000000,35331.223647,37494.246661,28140.376883,34742.568105,13804.996169,26870.171949,21176.668546,23690.032803,-0.032000,0.980000,0.126000,192.000000,0.000000,0.000000,0.000000,0.000000,0.000000,0.000000,0.000000,0.000000,0.000000,1646724706.535590,0.000000
32.000000,35329.904894,37493.732571,28138.968723,34740.668206,13804.035044,26867.109760,21169.180711,23684.154294,-0.032000,0.980000,0.126000,192.000000,0.000000,0.000000,0.000000,0.000000,0.000000,0.000000,0.000000,0.000000,0.000000,1646724706.543536,0.000000
33.000000,35339.963179,37497.062981,28143.349665,34744.624465,13810.226477,26875.826940,21176.735601,23693.854951,-0.032000,0.980000,0.126000,192.000000,0.000000,0.000000,0.000000,0.000000,0.000000,0.000000,0.000000,0.000000,0.000000,1646724706.543552,0.000000
34.000000,35333.548228,37489.664553,28138.007598,34738.902418,13807.611323,26872.407123,21171.997031,23685.607157,-0.034000,0.972000,0.128000,192.000000,254.000000,240.000000,30.000000,96.000000,4.000000,0.000000,0.000000,0.000000,0.000000,1646724706.550052,0.000000
35.000000,35337.795059,37493.777274,28143.997865,34744.400948,13812.104024,26877.838597,21182.837627,23696.559512,-0.034000,0.972000,0.128000,192.000000,0.000000,0.000000,0.000000,0.000000,0.000000,0.000000,0.000000,0.000000,0.000000,1646724706.550069,0.000000
36.000000,35338.353853,37491.452693,28140.935676,34741.718738,13809.354759,26876.251623,21178.523741,23691.530370,-0.034000,0.972000,0.128000,192.000000,0.000000,0.000000,0.000000,0.000000,0.000000,0.000000,0.000000,0.000000,0.000000,1646724706.557822,0.000000
37.000000,35327.267388,37481.282649,28129.089252,34730.118183,13797.977721,26865.478082,21161.536415,23674.833617,-0.034000,0.972000,0.128000,192.000000,0.000000,0.000000,0.000000,0.000000,0.000000,0.000000,0.000000,0.000000,0.000000,1646724706.557831,0.000000
38.000000,35309.542454,37467.893954,28114.426507,34717.355337,13782.890294,26855.308039,21152.103979,23664.238890,-0.034000,0.972000,0.128000,192.000000,0.000000,0.000000,0.000000,0.000000,0.000000,0.000000,0.000000,0.000000,0.000000,1646724706.566104,0.000000
39.000000,35316.784420,37475.985286,28121.757879,34725.536075,13789.372300,26865.187510,21169.203063,23674.252471,-0.034000,0.972000,0.128000,192.000000,0.000000,0.000000,0.000000,0.000000,0.000000,0.000000,0.000000,0.000000,0.000000,1646724706.566120,0.000000
40.000000,35331.134240,37492.704391,28134.990112,34740.042357,13804.303265,26878.933833,21185.899816,23683.327279,-0.034000,0.972000,0.128000,192.000000,0.000000,0.000000,0.000000,0.000000,0.000000,0.000000,0.000000,0.000000,0.000000,1646724706.573171,0.000000
41.000000,35328.027347,37492.726742,28134.163098,34737.203686,13802.112794,26873.815283,21173.539302,23680.019221,-0.034000,0.972000,0.128000,192.000000,0.000000,0.000000,0.000000,0.000000,0.000000,0.000000,0.000000,0.000000,0.000000,1646724706.573187,0.000000
42.000000,35326.485077,37489.418684,28133.514897,34735.236732,13800.324655,26871.714219,21172.041735,23681.069753,-0.034000,0.972000,0.128000,192.000000,0.000000,0.000000,0.000000,0.000000,0.000000,0.000000,0.000000,0.000000,0.000000,1646724706.580768,0.000000
43.000000,35324.316958,37482.556699,28130.452708,34729.402927,13793.999111,26869.166120,21171.974679,23680.868588,-0.034000,0.972000,0.128000,192.000000,0.000000,0.000000,0.000000,0.000000,0.000000,0.000000,0.000000,0.000000,0.000000,1646724706.580803,0.000000
44.000000,35329.569617,37484.881280,28134.721891,34729.626445,13797.150707,26872.697696,21172.935804,23680.689774,-0.036000,0.974000,0.132000,192.000000,254.000000,224.000000,30.000000,112.000000,4.000000,32.000000,0.000000,0.000000,0.000000,1646724706.588745,0.000000
45.000000,35329.055527,37490.446864,28134.274856,34731.101660,13796.010768,26868.406161,21167.146703,23675.303003,-0.036000,0.974000,0.132000,192.000000,0.000000,0.000000,0.000000,0.000000,0.000000,0.000000,0.000000,0.000000,0.000000,1646724706.588762,0.000000
46.000000,35312.068202,37477.751074,28118.025138,34716.997709,13782.756183,26854.995114,21179.060182,23668.686887,-0.036000,0.974000,0.132000,192.000000,0.000000,0.000000,0.000000,0.000000,0.000000,0.000000,0.000000,0.000000,0.000000,1646724706.595785,0.000000
47.000000,35327.289740,37490.446864,28133.269028,34733.113317,13798.134184,26872.250661,21177.562616,23687.261187,-0.036000,0.974000,0.132000,192.000000,0.000000,0.000000,0.000000,0.000000,0.000000,0.000000,0.000000,0.000000,0.000000,1646724706.602903,0.000000
48.000000,35334.822277,37495.140731,28138.901667,34738.365977,13803.208030,26873.412952,21166.766723,23684.757791,-0.036000,0.974000,0.132000,192.000000,0.000000,0.000000,0.000000,0.000000,0.000000,0.000000,0.000000,0.000000,0.000000,1646724706.602919,0.000000
49.000000,35335.626940,37494.269013,28139.438109,34737.673073,13804.392672,26873.167082,21168.979546,23681.740306,-0.036000,0.974000,0.132000,192.000000,0.000000,0.000000,0.000000,0.000000,0.000000,0.000000,0.000000,0.000000,0.000000,1646724706.610526,0.000000
50.000000,35329.591969,37487.831710,28135.951237,34731.012253,13800.794041,26872.250661,21180.155418,23686.277710,-0.036000,0.974000,0.132000,192.000000,0.000000,0.000000,0.000000,0.000000,0.000000,0.000000,0.000000,0.000000,0.000000,1646724706.610542,0.000000
51.000000,35329.480210,37482.288478,28131.525592,34726.988939,13797.150707,26868.897899,21174.209854,23682.656727,-0.036000,0.974000,0.132000,192.000000,0.000000,0.000000,0.000000,0.000000,0.000000,0.000000,0.000000,0.000000,0.000000,1646724706.618494,0.000000
52.000000,35336.677472,37492.682039,28137.404101,34735.147325,13803.722120,26874.038800,21178.389630,23685.987137,-0.036000,0.974000,0.132000,192.000000,0.000000,0.000000,0.000000,0.000000,0.000000,0.000000,0.000000,0.000000,0.000000,1646724706.618511,0.000000
53.000000,35329.703728,37491.117417,28133.604304,34728.821782,13796.077823,26861.499472,21159.770627,23666.451712,-0.036000,0.974000,0.132000,192.000000,0.000000,0.000000,0.000000,0.000000,0.000000,0.000000,0.000000,0.000000,0.000000,1646724706.625467,0.000000
54.000000,35321.880617,37483.718989,28124.395385,34719.791677,13788.187657,26850.748283,21144.549089,23656.527538,-0.038000,0.976000,0.130000,192.000000,254.000000,208.000000,30.000000,128.000000,4.000000,16.000000,0.000000,0.000000,0.000000,1646724706.625485,0.000000
55.000000,35334.375243,37497.353553,28134.028987,34732.845096,13800.369358,26869.568452,21179.753087,23690.502189,-0.038000,0.976000,0.130000,192.000000,0.000000,0.000000,0.000000,0.000000,0.000000,0.000000,0.000000,0.000000,0.000000,1646724706.633108,0.000000
56.000000,35336.856286,37496.370077,28132.643179,34731.392232,13797.910666,26863.734646,21171.192368,23680.421553,-0.038000,0.976000,0.130000,192.000000,0.000000,0.000000,0.000000,0.000000,0.000000,0.000000,0.000000,0.000000,0.000000,1646724706.633125,0.000000
57.000000,35334.174077,37487.004696,28136.890010,34725.670186,13801.352835,26865.947469,21170.722982,23683.953128,-0.038000,0.976000,0.130000,192.000000,0.000000,0.000000,0.000000,0.000000,0.000000,0.000000,0.000000,0.000000,0.000000,1646724706.641124,0.000000
58.000000,35324.384013,37471.224364,28132.307903,34715.634253,13796.658969,26865.209861,21174.276909,23679.773352,-0.038000,0.976000,0.130000,192.000000,0.000000,0.000000,0.000000,0.000000,0.000000,0.000000,0.000000,0.000000,0.000000,1646724706.641140,0.000000
59.000000,35322.305301,37469.458576,28129.290417,34716.930654,13793.574428,26865.276917,21174.723944,23680.913291,-0.038000,0.976000,0.130000,192.000000,0.000000,0.000000,0.000000,0.000000,0.000000,0.000000,0.000000,0.000000,0.000000,1646724706.649016,0.000000
60.000000,35318.840780,37464.161213,28122.719004,34705.508912,13786.220704,26852.424664,21157.110769,23664.440055,-0.038000,0.976000,0.130000,192.000000,0.000000,0.000000,0.000000,0.000000,0.000000,0.000000,0.000000,0.000000,0.000000,1646724706.649032,0.000000
61.000000,35314.281024,37466.731664,28125.043586,34706.850017,13789.037024,26854.861004,21157.356639,23664.752980,-0.038000,0.976000,0.130000,192.000000,0.000000,0.000000,0.000000,0.000000,0.000000,0.000000,0.000000,0.000000,0.000000,1646724706.655055,0.000000
62.000000,35321.411231,37476.924059,28136.085348,34718.651738,13801.554001,26863.086446,21165.626784,23672.464332,-0.038000,0.976000,0.130000,192.000000,0.000000,0.000000,0.000000,0.000000,0.000000,0.000000,0.000000,0.000000,0.000000,1646724706.662803,0.000000
63.000000,35324.451068,37472.677228,28133.201973,34716.617729,13800.995207,26862.594707,21168.532511,23673.023125,-0.038000,0.976000,0.130000,192.000000,0.000000,0.000000,0.000000,0.000000,0.000000,0.000000,0.000000,0.000000,0.000000,1646724706.662819,0.000000
64.000000,35316.449143,37463.200088,28126.742318,34710.873331,13795.094346,26858.258469,21168.040772,23670.966765,-0.038000,0.978000,0.126000,192.000000,254.000000,208.000000,30.000000,144.000000,3.000000,240.000000,0.000000,0.000000,0.000000,1646724706.670825,0.000000
65.000000,35313.610472,37463.513012,28128.910438,34708.191122,13794.692015,26854.928059,21156.350810,23669.335087,-0.038000,0.978000,0.126000,192.000000,0.000000,0.000000,0.000000,0.000000,0.000000,0.000000,0.000000,0.000000,0.000000,1646724706.670858,0.000000
66.000000,35321.970024,37470.509108,28134.364263,34714.918997,13801.688111,26859.778388,21162.765761,23672.687849,-0.038000,0.978000,0.126000,192.000000,0.000000,0.000000,0.000000,0.000000,0.000000,0.000000,0.000000,0.000000,0.000000,1646724706.678858,0.000000
67.000000,35319.086649,37466.083463,28128.128127,34712.102677,13800.481117,26858.951373,21160.597642,23669.759771,-0.038000,0.978000,0.126000,192.000000,0.000000,0.000000,0.000000,0.000000,0.000000,0.000000,0.000000,0.000000,0.000000,1646724706.678873,0.000000
68.000000,35320.852437,37466.888126,28131.637351,34712.415601,13801.330483,26858.034951,21163.458665,23670.631489,-0.038000,0.978000,0.126000,192.000000,0.000000,0.000000,0.000000,0.000000,0.000000,0.000000,0.000000,0.000000,0.000000,1646724706.685279,0.000000
69.000000,35318.326690,37467.759844,28134.230153,34713.153209,13803.297437,26856.939716,21159.524758,23665.803512,-0.038000,0.978000,0.126000,192.000000,0.000000,0.000000,0.000000,0.000000,0.000000,0.000000,0.000000,0.000000,0.000000,1646724706.685296,0.000000
70.000000,35329.614321,37481.439111,28143.036740,34725.714889,13813.176908,26865.321620,21166.677316,23672.821960,-0.038000,0.978000,0.126000,192.000000,0.000000,0.000000,0.000000,0.000000,0.000000,0.000000,0.000000,0.000000,0.000000,1646724706.693402,0.000000
71.000000,35329.815487,37480.723856,28143.483775,34727.435974,13813.132204,26865.656896,21166.051467,23675.392410,-0.038000,0.978000,0.126000,192.000000,0.000000,0.000000,0.000000,0.000000,0.000000,0.000000,0.000000,0.000000,0.000000,1646724706.693418,0.000000
72.000000,35321.120658,37470.129129,28133.559601,34715.678956,13800.883448,26855.464501,21154.339153,23665.423532,-0.038000,0.978000,0.126000,192.000000,0.000000,0.000000,0.000000,0.000000,0.000000,0.000000,0.000000,0.000000,0.000000,1646724706.701451,0.000000
73.000000,35325.143972,37473.459539,28134.788946,34718.517628,13798.827088,26857.766731,21160.061200,23664.551814,-0.038000,0.978000,0.126000,192.000000,0.000000,0.000000,0.000000,0.000000,0.000000,0.000000,0.000000,0.000000,0.000000,1646724706.701468,0.000000
74.000000,35320.964196,37463.825937,28128.150478,34711.834456,13792.099213,26856.403274,21179.596624,23658.561547,-0.032000,0.978000,0.122000,192.000000,255.000000,0.000000,30.000000,144.000000,3.000000,208.000000,0.000000,0.000000,0.000000,1646724706.708411,0.000000
75.000000,35320.964196,37460.942562,28128.731624,34710.158075,13792.412137,26856.582088,21186.525665,23660.081465,-0.032000,0.978000,0.122000,192.000000,0.000000,0.000000,0.000000,0.000000,0.000000,0.000000,0.000000,0.000000,0.000000,1646724706.708427,0.000000
76.000000,35326.328615,37470.553812,28134.520726,34713.756706,13797.374224,26861.678286,21173.561653,23667.234023,-0.032000,0.978000,0.122000,192.000000,0.000000,0.000000,0.000000,0.000000,0.000000,0.000000,0.000000,0.000000,0.000000,1646724706.714980,0.000000
77.000000,35324.652234,37468.765672,28134.319560,34709.554578,13794.580256,26865.343972,21165.872653,23674.967727,-0.032000,0.978000,0.122000,192.000000,0.000000,0.000000,0.000000,0.000000,0.000000,0.000000,0.000000,0.000000,0.000000,1646724706.722919,0.000000
78.000000,35326.127449,37468.586858,28136.398272,34709.554578,13794.893181,26864.360495,21154.897947,23663.657744,-0.032000,0.978000,0.122000,192.000000,0.000000,0.000000,0.000000,0.000000,0.000000,0.000000,0.000000,0.000000,0.000000,1646724706.722937,0.000000
79.000000,35305.765010,37451.219553,28117.622807,34690.421485,13775.000128,26841.539364,21130.422787,23639.003770,-0.032000,0.978000,0.122000,192.000000,0.000000,0.000000,0.000000,0.000000,0.000000,0.000000,0.000000,0.000000,0.000000,1646724706.731049,0.000000
80.000000,35317.857303,37464.205916,28133.827821,34710.873331,13791.652178,26863.846405,21166.185578,23672.106704,-0.032000,0.978000,0.122000,192.000000,0.000000,0.000000,0.000000,0.000000,0.000000,0.000000,0.000000,0.000000,0.000000,1646724706.731065,0.000000
81.000000,35328.228513,37475.739417,28144.735473,34725.625482,13800.838745,26876.631603,21181.496523,23687.238835,-0.032000,0.978000,0.122000,192.000000,0.000000,0.000000,0.000000,0.000000,0.000000,0.000000,0.000000,0.000000,0.000000,1646724706.737403,0.000000
82.000000,35325.389841,37470.442053,28141.561525,34721.401003,13795.116698,26872.273013,21175.796828,23676.778218,-0.032000,0.978000,0.122000,192.000000,0.000000,0.000000,0.000000,0.000000,0.000000,0.000000,0.000000,0.000000,0.000000,1646724706.737413,0.000000
83.000000,35307.396687,37457.947428,28125.222400,34702.670241,13780.722175,26860.471292,21163.078685,23668.552776,-0.032000,0.978000,0.122000,192.000000,0.000000,0.000000,0.000000,0.000000,0.000000,0.000000,0.000000,0.000000,0.000000,1646724706.745563,0.000000
84.000000,35311.464704,37459.936733,28124.417737,34700.502122,13781.280968,26855.263335,21158.407171,23663.814207,-0.032000,0.978000,0.122000,192.000000,0.000000,0.000000,0.000000,0.000000,0.000000,0.000000,0.000000,0.000000,0.000000,1646724706.745579,0.000000
85.000000,35315.912702,37461.926038,28128.351644,34702.513779,13786.667739,26858.772559,21160.016496,23665.468236,-0.032000,0.980000,0.128000,192.000000,255.000000,0.000000,30.000000,160.000000,4.000000,0.000000,0.000000,0.000000,0.000000,1646724706.753637,0.000000
86.000000,35315.935053,37465.278800,28129.312769,34705.352450,13791.674530,26858.347876,21160.932918,23666.652878,-0.032000,0.980000,0.128000,192.000000,0.000000,0.000000,0.000000,0.000000,0.000000,0.000000,0.000000,0.000000,0.000000,1646724706.753671,0.000000
87.000000,35318.952539,37464.183565,28131.771461,34705.307747,13792.747413,26859.756036,21159.055371,23664.708276,-0.032000,0.980000,0.128000,192.000000,0.000000,0.000000,0.000000,0.000000,0.000000,0.000000,0.000000,0.000000,0.000000,1646724706.760707,0.000000
88.000000,35313.275196,37457.522745,28127.569333,34700.703287,13784.678433,26855.911536,21152.506310,23659.790893,-0.032000,0.980000,0.128000,192.000000,0.000000,0.000000,0.000000,0.000000,0.000000,0.000000,0.000000,0.000000,0.000000,1646724706.760723,0.000000
89.000000,35311.554111,37454.549963,28124.909475,34696.456456,13780.632768,26852.581126,21141.822176,23655.499358,-0.032000,0.980000,0.128000,192.000000,0.000000,0.000000,0.000000,0.000000,0.000000,0.000000,0.000000,0.000000,0.000000,1646724706.768188,0.000000
90.000000,35320.852437,37466.977533,28132.710234,34706.626499,13790.266370,26867.646202,21172.533473,23671.056172,-0.032000,0.980000,0.128000,192.000000,0.000000,0.000000,0.000000,0.000000,0.000000,0.000000,0.000000,0.000000,0.000000,1646724706.768204,0.000000
91.000000,35323.065260,37471.716103,28134.587781,34710.962738,13793.708538,26866.752132,21173.606357,23671.614965,-0.032000,0.980000,0.128000,192.000000,0.000000,0.000000,0.000000,0.000000,0.000000,0.000000,0.000000,0.000000,0.000000,1646724706.775282,0.000000
92.000000,35328.384975,37473.012504,28138.946371,34713.443782,13797.620094,26866.483911,21166.520854,23669.960936,-0.032000,0.980000,0.128000,192.000000,0.000000,0.000000,0.000000,0.000000,0.000000,0.000000,0.000000,0.000000,0.000000,1646724706.775298,0.000000
93.000000,35323.445239,37464.921172,28136.934714,34708.660508,13793.932056,26860.963030,21155.456740,23660.573204,-0.032000,0.980000,0.128000,192.000000,0.000000,0.000000,0.000000,0.000000,0.000000,0.000000,0.000000,0.000000,0.000000,1646724706.783322,0.000000
94.000000,35320.248940,37464.049454,28136.442976,34702.446723,13790.109907,26858.593745,21164.889176,23662.473102,-0.032000,0.980000,0.128000,192.000000,0.000000,0.000000,0.000000,0.000000,0.000000,0.000000,0.000000,0.000000,0.000000,1646724706.790262,0.000000
95.000000,35322.327652,37469.100948,28139.818089,34707.900549,13793.842649,26863.153501,21179.529569,23660.394390,-0.030000,0.978000,0.122000,192.000000,255.000000,16.000000,30.000000,144.000000,3.000000,208.000000,0.000000,0.000000,0.000000,1646724706.790279,0.000000
96.000000,35317.007937,37466.530498,28133.201973,34704.771305,13789.126431,26856.090350,21165.023287,23650.783140,-0.030000,0.978000,0.122000,192.000000,0.000000,0.000000,0.000000,0.000000,0.000000,0.000000,0.000000,0.000000,0.000000,1646724706.797871,0.000000
97.000000,35318.729021,37465.457614,28129.826859,34705.263043,13789.931093,26856.649143,21164.173921,23663.523634,-0.030000,0.978000,0.122000,192.000000,0.000000,0.000000,0.000000,0.000000,0.000000,0.000000,0.000000,0.000000,0.000000,1646724706.797887,0.000000
98.000000,35320.204237,37465.301152,28134.230153,34702.558482,13791.786288,26858.929021,21159.792979,23663.814207,-0.030000,0.978000,0.122000,192.000000,0.000000,0.000000,0.000000,0.000000,0.000000,0.000000,0.000000,0.000000,0.000000,1646724706.805713,0.000000
99.000000,35314.705707,37468.788024,28130.162135,34699.228072,13788.768803,26855.844480,21154.115636,23659.880300,-0.030000,0.978000,0.122000,192.000000,0.000000,0.000000,0.000000,0.000000,0.000000,0.000000,0.000000,0.000000,0.000000,1646724706.805730,0.000000
100.000000,35311.576463,37464.317675,28126.228228,34694.511854,13784.790192,26850.547117,21148.527700,23652.481872,-0.030000,0.978000,0.122000,192.000000,0.000000,0.000000,0.000000,0.000000,0.000000,0.000000,0.000000,0.000000,0.000000,1646724706.813835,0.000000
101.000000,35318.237283,37468.408044,28134.967760,34703.385497,13791.652178,26857.789082,21156.507272,23652.124244,-0.030000,0.978000,0.122000,192.000000,0.000000,0.000000,0.000000,0.000000,0.000000,0.000000,0.000000,0.000000,0.000000,1646724706.813851,0.000000
102.000000,35320.181885,37467.469271,28135.593609,34705.933595,13792.054509,26861.074789,21163.145740,23657.622773,-0.030000,0.978000,0.122000,192.000000,0.000000,0.000000,0.000000,0.000000,0.000000,0.000000,0.000000,0.000000,0.000000,1646724706.820524,0.000000
103.000000,35320.584216,37470.106777,28133.917228,34704.838360,13792.389785,26864.516957,21176.221511,23661.064942,-0.030000,0.978000,0.122000,192.000000,0.000000,0.000000,0.000000,0.000000,0.000000,0.000000,0.000000,0.000000,0.000000,1646724706.820540,0.000000
104.000000,35324.339309,37470.106777,28136.599438,34707.252348,13796.547210,26869.993135,21165.939708,23676.845274,-0.030000,0.978000,0.122000,192.000000,0.000000,0.000000,0.000000,0.000000,0.000000,0.000000,0.000000,0.000000,0.000000,1646724706.828458,0.000000
105.000000,35321.210065,37464.876469,28130.139784,34699.876273,13791.272198,26861.275954,21151.478130,23664.730628,-0.028000,0.974000,0.116000,192.000000,255.000000,32.000000,30.000000,112.000000,3.000000,160.000000,0.000000,0.000000,0.000000,1646724706.828474,0.000000
106.000000,35313.163437,37463.557716,28122.651949,34693.371915,13785.550152,26851.664704,21146.225470,23656.147558,-0.028000,0.974000,0.116000,192.000000,0.000000,0.000000,0.000000,0.000000,0.000000,0.000000,0.000000,0.000000,0.000000,1646724706.836495,0.000000
107.000000,35323.735812,37472.833690,28133.604304,34704.368973,13795.451974,26865.813359,21163.123389,23672.777256,-0.028000,0.974000,0.116000,192.000000,0.000000,0.000000,0.000000,0.000000,0.000000,0.000000,0.000000,0.000000,0.000000,1646724706.836529,0.000000
108.000000,35324.026385,37469.704446,28129.759804,34701.664412,13789.081727,26860.828920,21160.530586,23663.478930,-0.028000,0.974000,0.116000,192.000000,0.000000,0.000000,0.000000,0.000000,0.000000,0.000000,0.000000,0.000000,0.000000,1646724706.843710,0.000000
109.000000,35325.166324,37472.498414,28131.346778,34704.748953,13790.646349,26862.304135,21162.095208,23664.909442,-0.028000,0.974000,0.116000,192.000000,0.000000,0.000000,0.000000,0.000000,0.000000,0.000000,0.000000,0.000000,0.000000,1646724706.850210,0.000000
110.000000,35325.345138,37471.537289,28130.385653,34702.893758,13790.936922,26858.280821,21156.663735,23664.149483,-0.028000,0.974000,0.116000,192.000000,0.000000,0.000000,0.000000,0.000000,0.000000,0.000000,0.000000,0.000000,0.000000,1646724706.850227,0.000000
111.000000,35328.429678,37479.114530,28136.130051,34711.320366,13799.922323,26862.862928,21160.284717,23665.803512,-0.028000,0.974000,0.116000,192.000000,0.000000,0.000000,0.000000,0.000000,0.000000,0.000000,0.000000,0.000000,0.000000,1646724706.858221,0.000000
112.000000,35322.685280,37477.684018,28130.564467,34706.134761,13795.787250,26858.057303,21157.289583,23662.294288,-0.028000,0.974000,0.116000,192.000000,0.000000,0.000000,0.000000,0.000000,0.000000,0.000000,0.000000,0.000000,0.000000,1646724706.858237,0.000000
113.000000,35319.131353,37469.637390,28129.692749,34699.608052,13792.099213,26859.018428,21167.370220,23661.623736,-0.028000,0.974000,0.116000,192.000000,0.000000,0.000000,0.000000,0.000000,0.000000,0.000000,0.000000,0.000000,0.000000,1646724706.866087,0.000000
114.000000,35316.449143,37469.413873,28125.222400,34698.557520,13788.232361,26855.933887,21168.219586,23655.588765,-0.028000,0.974000,0.116000,192.000000,0.000000,0.000000,0.000000,0.000000,0.000000,0.000000,0.000000,0.000000,0.000000,1646724706.866103,0.000000
115.000000,35305.429733,37461.166079,28112.772478,34688.409828,13775.670680,26845.674437,21143.275040,23651.788968,-0.028000,0.976000,0.118000,192.000000,255.000000,32.000000,30.000000,128.000000,3.000000,176.000000,0.000000,0.000000,0.000000,1646724706.872500,0.000000
116.000000,35300.825274,37456.293399,28113.621844,34684.185348,13772.228512,26843.126338,21139.184670,23649.933773,-0.028000,0.976000,0.118000,192.000000,0.000000,0.000000,0.000000,0.000000,0.000000,0.000000,0.000000,0.000000,0.000000,1646724706.872517,0.000000
117.000000,35308.849550,37464.630600,28122.540191,34691.941403,13777.347061,26847.328466,21139.452891,23646.625715,-0.028000,0.976000,0.118000,192.000000,0.000000,0.000000,0.000000,0.000000,0.000000,0.000000,0.000000,0.000000,0.000000,1646724706.880744,0.000000
118.000000,35308.313108,37460.003788,28121.467307,34690.823816,13773.681375,26849.273068,21147.477168,23646.201032,-0.028000,0.976000,0.118000,192.000000,0.000000,0.000000,0.000000,0.000000,0.000000,0.000000,0.000000,0.000000,0.000000,1646724706.880761,0.000000
119.000000,35303.574539,37460.696693,28115.655853,34687.627517,13769.479247,26849.518937,21170.812389,23652.571279,-0.028000,0.976000,0.118000,192.000000,0.000000,0.000000,0.000000,0.000000,0.000000,0.000000,0.000000,0.000000,0.000000,1646724706.888774,0.000000
120.000000,35308.000184,37467.245754,28115.655853,34687.806331,13772.116753,26851.575297,21143.833833,23656.259317,-0.028000,0.976000,0.118000,192.000000,0.000000,0.000000,0.000000,0.000000,0.000000,0.000000,0.000000,0.000000,0.000000,1646724706.888791,0.000000
121.000000,35320.494809,37471.000847,28127.748147,34695.763552,13781.638596,26863.309963,21157.066066,23670.005640,-0.028000,0.976000,0.118000,192.000000,0.000000,0.000000,0.000000,0.000000,0.000000,0.000000,0.000000,0.000000,0.000000,1646724706.895810,0.000000
122.000000,35311.151780,37456.181640,28119.299188,34687.761627,13771.870884,26854.413969,21152.483958,23661.288459,-0.028000,0.976000,0.118000,192.000000,0.000000,0.000000,0.000000,0.000000,0.000000,0.000000,0.000000,0.000000,0.000000,1646724706.895826,0.000000
123.000000,35306.904949,37457.969780,28119.723871,34690.019153,13773.793134,26854.145748,21150.919336,23659.902651,-0.028000,0.976000,0.118000,192.000000,0.000000,0.000000,0.000000,0.000000,0.000000,0.000000,0.000000,0.000000,0.000000,1646724706.902413,0.000000
124.000000,35306.100286,37457.075710,28117.421641,34686.576985,13772.876712,26854.749245,21152.953345,23663.814207,-0.028000,0.976000,0.118000,192.000000,0.000000,0.000000,0.000000,0.000000,0.000000,0.000000,0.000000,0.000000,0.000000,1646724706.910441,0.000000
125.000000,35304.826236,37455.287570,28111.431374,34682.553671,13768.808695,26847.529632,21146.784263,23654.605288,-0.030000,0.980000,0.126000,192.000000,255.000000,16.000000,30.000000,160.000000,3.000000,240.000000,0.000000,0.000000,0.000000,1646724706.910457,0.000000
126.000000,35309.184827,37461.993094,28117.376938,34684.431217,13776.028308,26850.994152,21149.801749,23654.381770,-0.030000,0.980000,0.126000,192.000000,0.000000,0.000000,0.000000,0.000000,0.000000,0.000000,0.000000,0.000000,0.000000,1646724706.918379,0.000000
127.000000,35312.045850,37469.480928,28123.255446,34690.309726,13781.482134,26856.984419,21159.792979,23659.343858,-0.030000,0.980000,0.126000,192.000000,0.000000,0.000000,0.000000,0.000000,0.000000,0.000000,0.000000,0.000000,0.000000,1646724706.918394,0.000000
128.000000,35320.472457,37475.806472,28130.206839,34697.417581,13785.997186,26860.940678,21158.764798,23663.076599,-0.030000,0.980000,0.126000,192.000000,0.000000,0.000000,0.000000,0.000000,0.000000,0.000000,0.000000,0.000000,0.000000,1646724706.925540,0.000000
129.000000,35324.272254,37478.913364,28132.240848,34701.954985,13786.064242,26863.578184,21163.190444,23664.618869,-0.030000,0.980000,0.126000,192.000000,0.000000,0.000000,0.000000,0.000000,0.000000,0.000000,0.000000,0.000000,0.000000,1646724706.925575,0.000000
130.000000,35312.381126,37466.128166,28121.333196,34691.159092,13775.178942,26858.593745,21162.296374,23658.718009,-0.030000,0.980000,0.126000,192.000000,0.000000,0.000000,0.000000,0.000000,0.000000,0.000000,0.000000,0.000000,0.000000,1646724706.933114,0.000000
131.000000,35315.331556,37471.425530,28128.061071,34695.540034,13781.593893,26864.807530,21165.291508,23671.413800,-0.030000,0.980000,0.126000,192.000000,0.000000,0.000000,0.000000,0.000000,0.000000,0.000000,0.000000,0.000000,0.000000,1646724706.933131,0.000000
132.000000,35310.995318,37468.072768,28124.954179,34688.543938,13779.604588,26857.364399,21165.939708,23656.661648,-0.030000,0.980000,0.126000,192.000000,0.000000,0.000000,0.000000,0.000000,0.000000,0.000000,0.000000,0.000000,0.000000,1646724706.941092,0.000000
133.000000,35310.883559,37472.833690,28126.116470,34697.596395,13781.280968,26861.454768,21168.845435,23660.193224,-0.030000,0.980000,0.126000,192.000000,0.000000,0.000000,0.000000,0.000000,0.000000,0.000000,0.000000,0.000000,0.000000,1646724706.941108,0.000000
134.000000,35310.078896,37469.793853,28126.339987,34696.322345,13777.458820,26859.085483,21155.389685,23663.121302,-0.030000,0.980000,0.126000,192.000000,0.000000,0.000000,0.000000,0.000000,0.000000,0.000000,0.000000,0.000000,0.000000,1646724706.948867,0.000000
135.000000,35320.181885,37482.266126,28134.028987,34706.090058,13787.360643,26865.276917,21158.854205,23671.123227,-0.032000,0.978000,0.126000,192.000000,255.000000,0.000000,30.000000,144.000000,3.000000,240.000000,0.000000,0.000000,0.000000,1646724706.948883,0.000000
136.000000,35318.952539,37479.718027,28132.039682,34704.078401,13790.556942,26865.165158,21159.792979,23669.737419,-0.032000,0.978000,0.126000,192.000000,0.000000,0.000000,0.000000,0.000000,0.000000,0.000000,0.000000,0.000000,0.000000,1646724706.955703,0.000000
137.000000,35318.192580,37475.381789,28132.129089,34703.631366,13791.227495,26865.656896,21162.050505,23666.116436,-0.032000,0.978000,0.126000,192.000000,0.000000,0.000000,0.000000,0.000000,0.000000,0.000000,0.000000,0.000000,0.000000,1646724706.955719,0.000000
138.000000,35309.587158,37466.508146,28122.830763,34694.198930,13781.795058,26859.174890,21155.568499,23661.288459,-0.032000,0.978000,0.126000,192.000000,0.000000,0.000000,0.000000,0.000000,0.000000,0.000000,0.000000,0.000000,0.000000,1646724706.962817,0.000000
139.000000,35309.520103,37465.994056,28122.607246,34693.886005,13780.722175,26861.857100,21171.102961,23672.307869,-0.032000,0.978000,0.126000,192.000000,0.000000,0.000000,0.000000,0.000000,0.000000,0.000000,0.000000,0.000000,0.000000,1646724706.970716,0.000000
140.000000,35295.393800,37449.431413,28107.072783,34678.195081,13766.417058,26846.009713,21151.187557,23650.090235,-0.032000,0.978000,0.126000,192.000000,0.000000,0.000000,0.000000,0.000000,0.000000,0.000000,0.000000,0.000000,0.000000,1646724706.970732,0.000000
141.000000,35282.452140,37439.574294,28095.002841,34665.901621,13754.727096,26831.771652,21128.187612,23630.711273,-0.032000,0.978000,0.126000,192.000000,0.000000,0.000000,0.000000,0.000000,0.000000,0.000000,0.000000,0.000000,0.000000,1646724706.978802,0.000000
142.000000,35292.957460,37452.359492,28110.693766,34678.575060,13767.311128,26842.835765,21147.141891,23634.198145,-0.032000,0.978000,0.126000,192.000000,0.000000,0.000000,0.000000,0.000000,0.000000,0.000000,0.000000,0.000000,0.000000,1646724706.978819,0.000000
143.000000,35304.446257,37464.295323,28119.075670,34689.482711,13777.771744,26849.362475,21154.316801,23647.653895,-0.032000,0.978000,0.126000,192.000000,0.000000,0.000000,0.000000,0.000000,0.000000,0.000000,0.000000,0.000000,0.000000,1646724706.985453,0.000000
144.000000,35317.924359,37479.650972,28128.038720,34702.804351,13789.685224,26862.639411,21157.468397,23667.435189,-0.032000,0.978000,0.126000,192.000000,0.000000,0.000000,0.000000,0.000000,0.000000,0.000000,0.000000,0.000000,0.000000,1646724706.985469,0.000000
145.000000,35318.863132,37475.694713,28132.866696,34703.072572,13793.663835,26870.663687,21162.430485,23675.973556,-0.034000,0.980000,0.124000,192.000000,254.000000,240.000000,30.000000,160.000000,3.000000,224.000000,0.000000,0.000000,0.000000,1646724706.993395,0.000000
146.000000,35312.783457,37471.716103,28133.514897,34707.677031,13795.630788,26876.206920,21170.387706,23674.185416,-0.034000,0.980000,0.124000,192.000000,0.000000,0.000000,0.000000,0.000000,0.000000,0.000000,0.000000,0.000000,0.000000,1646724706.993412,0.000000
147.000000,35318.013766,37476.454672,28130.430356,34707.028831,13793.842649,26873.032972,21159.122426,23664.082428,-0.034000,0.980000,0.124000,192.000000,0.000000,0.000000,0.000000,0.000000,0.000000,0.000000,0.000000,0.000000,0.000000,1646724707.001355,0.000000
148.000000,35318.505504,37474.733588,28132.218496,34705.352450,13792.166268,26867.802664,21151.187557,23659.343858,-0.034000,0.980000,0.124000,192.000000,0.000000,0.000000,0.000000,0.000000,0.000000,0.000000,0.000000,0.000000,0.000000,1646724707.001373,0.000000
149.000000,35306.212045,37465.301152,28123.166039,34696.501159,13783.829067,26859.152539,21162.229319,23652.660686,-0.034000,0.980000,0.124000,192.000000,0.000000,0.000000,0.000000,0.000000,0.000000,0.000000,0.000000,0.000000,0.000000,1646724707.007933,0.000000
150.000000,35302.926338,37461.233134,28115.186467,34689.169787,13776.296529,26848.334294,21156.283755,23646.558660,-0.034000,0.980000,0.124000,192.000000,0.000000,0.000000,0.000000,0.000000,0.000000,0.000000,0.000000,0.000000,0.000000,1646724707.007957,0.000000
151.000000,35301.115847,37455.958123,28111.654891,34683.268927,13771.826180,26842.656951,21146.270173,23643.608230,-0.034000,0.980000,0.124000,192.000000,0.000000,0.000000,0.000000,0.000000,0.000000,0.000000,0.000000,0.000000,0.000000,1646724707.015943,0.000000
152.000000,35293.650364,37450.392538,28104.725850,34674.350580,13764.427753,26836.599629,21137.351827,23642.088311,-0.034000,0.980000,0.124000,192.000000,0.000000,0.000000,0.000000,0.000000,0.000000,0.000000,0.000000,0.000000,0.000000,1646724707.015955,0.000000
153.000000,35301.138199,37459.154422,28110.112621,34683.268927,13772.094401,26843.394559,21141.330438,23649.017352,-0.034000,0.980000,0.124000,192.000000,0.000000,0.000000,0.000000,0.000000,0.000000,0.000000,0.000000,0.000000,0.000000,1646724707.022979,0.000000
154.000000,35307.463742,37467.111643,28117.332234,34688.387476,13779.470477,26852.804643,21161.357601,23660.863776,-0.034000,0.980000,0.124000,192.000000,0.000000,0.000000,0.000000,0.000000,0.000000,0.000000,0.000000,0.000000,0.000000,1646724707.022991,0.000000
155.000000,35310.347117,37468.653914,28122.719004,34690.108560,13782.242093,26858.660800,21178.948424,23664.998849,-0.024000,0.982000,0.124000,192.000000,255.000000,64.000000,30.000000,176.000000,3.000000,224.000000,0.000000,0.000000,0.000000,1646724707.031113,0.000000
156.000000,35312.068202,37469.302114,28125.781193,34692.813121,13785.214875,26862.795873,21180.781267,23662.897785,-0.024000,0.982000,0.124000,192.000000,0.000000,0.000000,0.000000,0.000000,0.000000,0.000000,0.000000,0.000000,0.000000,1646724707.037649,0.000000
157.000000,35316.829123,37474.912402,28130.206839,34697.931671,13791.830992,26867.512091,21168.778380,23670.542082,-0.024000,0.982000,0.124000,192.000000,0.000000,0.000000,0.000000,0.000000,0.000000,0.000000,0.000000,0.000000,0.000000,1646724707.037667,0.000000
158.000000,35321.970024,37480.321524,28134.297208,34701.396191,13796.591913,26873.032972,21167.951365,23674.453637,-0.024000,0.982000,0.124000,192.000000,0.000000,0.000000,0.000000,0.000000,0.000000,0.000000,0.000000,0.000000,0.000000,1646724707.045654,0.000000
159.000000,35314.191617,37474.443015,28124.887124,34692.880177,13785.527800,26862.281783,21148.594755,23657.131035,-0.024000,0.982000,0.124000,192.000000,0.000000,0.000000,0.000000,0.000000,0.000000,0.000000,0.000000,0.000000,0.000000,1646724707.045670,0.000000
