%OpenBCI Raw EEG Data
%Number of channels = 8
%Sample Rate = 256 Hz
%Board = OpenBCI_GUI$BoardCytonSerial
%Channels = Fp1, Fp2, F3, F4, Fz, Pz, O1, O2
%Data recorded at AIMS Lab (http://aimsl.uiu.ac.bd) by Rana Depto (mail@ranadepto.com)
%Brainwaves were obtained via the Ultracortex Mark IV Headset using the OpenBCI Cyton Board
%Recording Application = ConcentrateToday (https://concentrate.today)
%Data type = RAW data with noise
%Day No = 3
%Subject ID = 3
%Session ID = 7
%Record starting timestamp (UTC+6) = 2022-03-10T13:30:20.558906
%Record ending timestamp (UTC+6)   = 2022-03-10T13:30:46.453679
%Recorded durations = ~25 seconds
Sample Index, EXG Channel 0, EXG Channel 1, EXG Channel 2, EXG Channel 3, EXG Channel 4, EXG Channel 5, EXG Channel 6, EXG Channel 7, Accel Channel 0, Accel Channel 1, Accel Channel 2, Other, Other, Other, Other, Other, Other, Other, Analog Channel 0, Analog Channel 1, Analog Channel 2, Timestamp, Timestamp (Formatted)
219.000000,16208.501602,27526.933256,35895.918118,40480.037389,-2548.300034,20731.332389,38447.369748,41595.054161,0.112000,0.956000,0.190000,192.000000,0.000000,0.000000,0.000000,0.000000,0.000000,0.000000,0.000000,0.000000,0.000000,1646897420.560360,0.000000
220.000000,16221.845594,27539.897268,35903.338898,40496.421217,-2535.604243,20742.150634,38465.318199,41608.979298,0.112000,0.956000,0.190000,192.000000,0.000000,0.000000,0.000000,0.000000,0.000000,0.000000,0.000000,0.000000,0.000000,1646897420.560369,0.000000
221.000000,16208.769823,27529.257837,35889.145540,40486.474691,-2551.272816,20726.750282,38436.260931,41590.852033,0.112000,0.956000,0.190000,192.000000,0.000000,0.000000,0.000000,0.000000,0.000000,0.000000,0.000000,0.000000,0.000000,1646897420.568238,0.000000
222.000000,16185.345195,27502.502799,35870.079502,40460.457261,-2575.055072,20703.459764,38410.757591,41563.158222,0.112000,0.956000,0.190000,192.000000,0.000000,0.000000,0.000000,0.000000,0.000000,0.000000,0.000000,0.000000,0.000000,1646897420.568244,0.000000
223.000000,16192.408346,27503.978014,35875.421569,40464.547630,-2575.055072,20703.973854,38410.824646,41556.296236,0.118000,0.962000,0.186000,192.000000,3.000000,176.000000,30.000000,16.000000,5.000000,208.000000,0.000000,0.000000,0.000000,1646897420.574849,0.000000
224.000000,16199.270332,27506.101430,35884.250508,40469.040331,-2562.627502,20710.835840,38416.122009,41566.332169,0.118000,0.962000,0.186000,192.000000,0.000000,0.000000,0.000000,0.000000,0.000000,0.000000,0.000000,0.000000,0.000000,1646897420.574854,0.000000
225.000000,16196.811640,27504.626215,35885.189281,40466.849860,-2556.257255,20714.322712,38403.090942,41575.116405,0.118000,0.962000,0.186000,192.000000,0.000000,0.000000,0.000000,0.000000,0.000000,0.000000,0.000000,0.000000,0.000000,1646897420.582837,0.000000
226.000000,16201.617265,27508.448363,35884.004639,40470.493194,-2565.466173,20717.317846,38411.875178,41566.443928,0.118000,0.962000,0.186000,192.000000,0.000000,0.000000,0.000000,0.000000,0.000000,0.000000,0.000000,0.000000,0.000000,1646897420.582841,0.000000
227.000000,16200.924361,27509.700061,35882.127092,40476.528165,-2568.237790,20716.781404,38411.763419,41567.449757,0.118000,0.962000,0.186000,192.000000,0.000000,0.000000,0.000000,0.000000,0.000000,0.000000,0.000000,0.000000,0.000000,1646897420.589884,0.000000
228.000000,16198.823297,27506.928445,35881.165967,40476.014075,-2569.645950,20717.831936,38429.823629,41567.248591,0.118000,0.962000,0.186000,192.000000,0.000000,0.000000,0.000000,0.000000,0.000000,0.000000,0.000000,0.000000,0.000000,1646897420.589889,0.000000
229.000000,16206.378187,27512.829305,35885.301040,40482.317267,-2561.152287,20725.297418,38435.143344,41568.701454,0.118000,0.962000,0.186000,192.000000,0.000000,0.000000,0.000000,0.000000,0.000000,0.000000,0.000000,0.000000,0.000000,1646897420.598036,0.000000
230.000000,16211.407329,27520.630064,35888.452636,40487.793444,-2559.207685,20730.035988,38433.735184,41571.249553,0.118000,0.962000,0.186000,192.000000,0.000000,0.000000,0.000000,0.000000,0.000000,0.000000,0.000000,0.000000,0.000000,1646897420.604496,0.000000
231.000000,16211.362626,27522.060576,35890.218424,40488.195776,-2561.241694,20733.344046,38431.522361,41579.229126,0.118000,0.962000,0.186000,192.000000,0.000000,0.000000,0.000000,0.000000,0.000000,0.000000,0.000000,0.000000,0.000000,1646897420.604502,0.000000
232.000000,16211.854364,27523.356977,35895.739305,40489.469825,-2563.767441,20737.814395,38442.228847,41581.576059,0.118000,0.962000,0.186000,192.000000,0.000000,0.000000,0.000000,0.000000,0.000000,0.000000,0.000000,0.000000,0.000000,1646897420.612476,0.000000
233.000000,16210.848535,27520.942989,35896.231043,40489.536880,-2558.134801,20735.288648,38429.443649,41579.229126,0.108000,0.966000,0.176000,192.000000,3.000000,96.000000,30.000000,48.000000,5.000000,128.000000,0.000000,0.000000,0.000000,1646897420.612481,0.000000
234.000000,16208.054567,27514.952721,35891.313659,40484.440682,-2549.596435,20725.342122,38415.585567,41568.544992,0.108000,0.966000,0.176000,192.000000,0.000000,0.000000,0.000000,0.000000,0.000000,0.000000,0.000000,0.000000,0.000000,1646897420.620494,0.000000
235.000000,16201.952541,27506.414355,35885.524557,40475.768206,-2552.725679,20716.513183,38403.739143,41555.245704,0.108000,0.966000,0.176000,192.000000,0.000000,0.000000,0.000000,0.000000,0.000000,0.000000,0.000000,0.000000,0.000000,1646897420.620506,0.000000
236.000000,16211.563791,27514.013948,35894.755828,40484.977124,-2563.387461,20723.844555,38396.340715,41573.775300,0.108000,0.966000,0.176000,192.000000,0.000000,0.000000,0.000000,0.000000,0.000000,0.000000,0.000000,0.000000,0.000000,1646897420.627671,0.000000
237.000000,16216.525878,27519.467773,35901.796627,40492.599069,-2567.187258,20724.671569,38375.263020,41570.623704,0.108000,0.966000,0.176000,192.000000,0.000000,0.000000,0.000000,0.000000,0.000000,0.000000,0.000000,0.000000,0.000000,1646897420.627675,0.000000
238.000000,16210.669721,27512.091698,35893.951165,40490.140377,-2556.860752,20724.604514,38410.131742,41576.301047,0.108000,0.966000,0.176000,192.000000,0.000000,0.000000,0.000000,0.000000,0.000000,0.000000,0.000000,0.000000,0.000000,1646897420.635149,0.000000
239.000000,16205.707634,27505.967320,35887.849139,40484.887717,-2547.517723,20722.145822,38437.669091,41583.475957,0.108000,0.966000,0.176000,192.000000,0.000000,0.000000,0.000000,0.000000,0.000000,0.000000,0.000000,0.000000,0.000000,1646897420.635153,0.000000
240.000000,16206.311131,27507.911921,35890.218424,40486.944078,-2535.134856,20725.610343,38432.259969,41605.894757,0.108000,0.966000,0.176000,192.000000,0.000000,0.000000,0.000000,0.000000,0.000000,0.000000,0.000000,0.000000,0.000000,1646897420.643121,0.000000
241.000000,16196.208143,27499.306500,35882.171796,40476.863441,-2545.059031,20713.272180,38425.241521,41604.486597,0.108000,0.966000,0.176000,192.000000,0.000000,0.000000,0.000000,0.000000,0.000000,0.000000,0.000000,0.000000,0.000000,1646897420.643125,0.000000
242.000000,16207.831050,27505.386174,35889.078485,40483.211337,-2556.726641,20710.589970,38423.945120,41584.124158,0.108000,0.966000,0.176000,192.000000,0.000000,0.000000,0.000000,0.000000,0.000000,0.000000,0.000000,0.000000,0.000000,1646897420.650323,0.000000
243.000000,16214.871849,27511.935235,35896.566319,40489.536880,-2548.188275,20714.881505,38426.403812,41579.430292,0.100000,0.962000,0.176000,192.000000,3.000000,32.000000,30.000000,16.000000,5.000000,128.000000,0.000000,0.000000,0.000000,1646897420.650326,0.000000
244.000000,16214.693035,27512.158753,35894.286441,40484.083055,-2543.874388,20714.166250,38421.173504,41573.484728,0.100000,0.962000,0.176000,192.000000,0.000000,0.000000,0.000000,0.000000,0.000000,0.000000,0.000000,0.000000,0.000000,1646897420.656765,0.000000
245.000000,16227.098254,27528.900210,35905.484665,40507.530034,-2529.949251,20726.146785,38420.860579,41582.693646,0.100000,0.962000,0.176000,192.000000,0.000000,0.000000,0.000000,0.000000,0.000000,0.000000,0.000000,0.000000,0.000000,1646897420.664796,0.000000
246.000000,16223.544326,27528.989617,35904.367078,40509.899319,-2528.831664,20725.856212,38403.336811,41593.243670,0.100000,0.962000,0.176000,192.000000,0.000000,0.000000,0.000000,0.000000,0.000000,0.000000,0.000000,0.000000,0.000000,1646897420.664799,0.000000
247.000000,16228.819338,27532.275323,35909.843255,40511.329831,-2534.956042,20723.621037,38381.253288,41589.555632,0.100000,0.962000,0.176000,192.000000,0.000000,0.000000,0.000000,0.000000,0.000000,0.000000,0.000000,0.000000,0.000000,1646897420.672820,0.000000
248.000000,16223.186698,27523.804012,35905.104685,40506.010116,-2530.977432,20720.894125,38389.456378,41583.431254,0.100000,0.962000,0.176000,192.000000,0.000000,0.000000,0.000000,0.000000,0.000000,0.000000,0.000000,0.000000,0.000000,1646897420.672823,0.000000
249.000000,16216.056492,27516.964378,35894.174682,40498.231709,-2529.189292,20710.209991,38411.696364,41573.238858,0.100000,0.962000,0.176000,192.000000,0.000000,0.000000,0.000000,0.000000,0.000000,0.000000,0.000000,0.000000,0.000000,1646897420.680166,0.000000
250.000000,16209.306265,27508.783640,35884.898708,40488.843976,-2540.812199,20691.702746,38397.011268,41547.556704,0.100000,0.962000,0.176000,192.000000,0.000000,0.000000,0.000000,0.000000,0.000000,0.000000,0.000000,0.000000,0.000000,1646897420.680170,0.000000
251.000000,16199.829125,27491.170465,35881.903575,40475.276467,-2558.045394,20688.618206,38373.676047,41554.038710,0.100000,0.962000,0.176000,192.000000,0.000000,0.000000,0.000000,0.000000,0.000000,0.000000,0.000000,0.000000,0.000000,1646897420.687482,0.000000
252.000000,16202.287817,27490.544616,35896.521616,40484.127758,-2555.899627,20705.337310,38387.623535,41557.346768,0.100000,0.962000,0.176000,192.000000,0.000000,0.000000,0.000000,0.000000,0.000000,0.000000,0.000000,0.000000,0.000000,1646897420.687487,0.000000
253.000000,16191.581332,27481.872139,35893.325316,40479.322133,-2541.147475,20706.119622,38386.550651,41562.599428,0.102000,0.970000,0.180000,192.000000,3.000000,48.000000,30.000000,80.000000,5.000000,160.000000,0.000000,0.000000,0.000000,1646897420.695516,0.000000
254.000000,16199.113870,27487.169503,35901.304889,40484.552441,-2534.374897,20708.377148,38393.680858,41567.025073,0.102000,0.970000,0.180000,192.000000,0.000000,0.000000,0.000000,0.000000,0.000000,0.000000,0.000000,0.000000,0.000000,1646897420.695521,0.000000
255.000000,16187.781535,27472.529110,35891.045438,40468.682703,-2539.113467,20700.039947,38384.382532,41570.981332,0.102000,0.970000,0.180000,192.000000,0.000000,0.000000,0.000000,0.000000,0.000000,0.000000,0.000000,0.000000,0.000000,1646897420.703491,0.000000
0.000000,16182.998262,27464.437779,35888.787912,40462.759490,-2556.994862,20695.390784,38376.067683,41564.611085,0.102000,0.970000,0.180000,192.000000,0.000000,0.000000,0.000000,0.000000,0.000000,0.000000,0.000000,0.000000,0.000000,1646897420.703494,0.000000
1.000000,16187.647425,27468.528148,35892.051267,40471.096691,-2565.019138,20700.330520,38398.866463,41571.249553,0.102000,0.970000,0.180000,192.000000,0.000000,0.000000,0.000000,0.000000,0.000000,0.000000,0.000000,0.000000,0.000000,1646897420.710047,0.000000
2.000000,16185.412250,27461.777921,35886.753903,40469.465014,-2560.101755,20695.033156,38398.531186,41574.110576,0.102000,0.970000,0.180000,192.000000,0.000000,0.000000,0.000000,0.000000,0.000000,0.000000,0.000000,0.000000,0.000000,1646897420.710050,0.000000
3.000000,16186.328672,27460.459168,35885.815130,40466.246362,-2556.592531,20688.193522,38387.578832,41566.779204,0.102000,0.970000,0.180000,192.000000,0.000000,0.000000,0.000000,0.000000,0.000000,0.000000,0.000000,0.000000,0.000000,1646897420.717072,0.000000
4.000000,16201.192582,27477.088866,35906.557549,40484.060703,-2551.250464,20702.185715,38397.637117,41565.348693,0.102000,0.970000,0.180000,192.000000,0.000000,0.000000,0.000000,0.000000,0.000000,0.000000,0.000000,0.000000,0.000000,1646897420.725159,0.000000
5.000000,16208.322788,27481.648622,35912.704279,40492.621421,-2550.088173,20712.623979,38410.623480,41570.511946,0.102000,0.970000,0.180000,192.000000,0.000000,0.000000,0.000000,0.000000,0.000000,0.000000,0.000000,0.000000,0.000000,1646897420.725163,0.000000
6.000000,16216.771748,27486.945985,35917.934587,40495.616555,-2552.770382,20715.462651,38403.314460,41560.230143,0.102000,0.970000,0.180000,192.000000,0.000000,0.000000,0.000000,0.000000,0.000000,0.000000,0.000000,0.000000,0.000000,1646897420.733127,0.000000
7.000000,16218.962219,27488.108276,35922.829619,40500.131607,-2533.167903,20721.207049,38400.811064,41576.837489,0.106000,0.970000,0.182000,192.000000,3.000000,80.000000,30.000000,80.000000,5.000000,176.000000,0.000000,0.000000,0.000000,1646897420.733130,0.000000
8.000000,16211.206163,27480.128703,35916.079392,40493.716656,-2526.171807,20720.938828,38428.929559,41600.351524,0.106000,0.970000,0.182000,192.000000,0.000000,0.000000,0.000000,0.000000,0.000000,0.000000,0.000000,0.000000,0.000000,1646897420.739681,0.000000
9.000000,16209.283913,27479.502854,35909.463276,40490.207433,-2533.994917,20710.455860,38411.003460,41589.689742,0.106000,0.970000,0.182000,192.000000,0.000000,0.000000,0.000000,0.000000,0.000000,0.000000,0.000000,0.000000,0.000000,1646897420.739685,0.000000
10.000000,16201.326692,27465.018924,35899.025011,40480.976162,-2549.417621,20699.458802,38380.113349,41574.714074,0.106000,0.970000,0.182000,192.000000,0.000000,0.000000,0.000000,0.000000,0.000000,0.000000,0.000000,0.000000,0.000000,1646897420.747697,0.000000
11.000000,16201.147878,27462.336715,35897.974479,40474.292990,-2561.308749,20697.581255,38386.014210,41562.979408,0.106000,0.970000,0.182000,192.000000,0.000000,0.000000,0.000000,0.000000,0.000000,0.000000,0.000000,0.000000,0.000000,1646897420.747701,0.000000
12.000000,16203.092480,27468.416389,35901.774276,40480.216203,-2542.622691,20707.639540,38397.972393,41575.339922,0.106000,0.970000,0.182000,192.000000,0.000000,0.000000,0.000000,0.000000,0.000000,0.000000,0.000000,0.000000,0.000000,1646897420.755712,0.000000
13.000000,16215.296533,27480.598090,35909.999717,40492.442607,-2529.971603,20714.456822,38402.889777,41575.451681,0.106000,0.970000,0.182000,192.000000,0.000000,0.000000,0.000000,0.000000,0.000000,0.000000,0.000000,0.000000,0.000000,1646897420.755715,0.000000
14.000000,16223.879602,27488.957642,35919.990947,40498.477578,-2526.551786,20724.202183,38426.962605,41566.578039,0.106000,0.970000,0.182000,192.000000,0.000000,0.000000,0.000000,0.000000,0.000000,0.000000,0.000000,0.000000,0.000000,1646897420.762920,0.000000
15.000000,16206.422890,27474.451360,35901.886034,40480.082092,-2542.399173,20713.450994,38407.762457,41567.807384,0.106000,0.970000,0.182000,192.000000,0.000000,0.000000,0.000000,0.000000,0.000000,0.000000,0.000000,0.000000,0.000000,1646897420.762924,0.000000
16.000000,16210.200335,27475.211319,35902.891863,40483.412502,-2553.999728,20712.378110,38393.278526,41568.388530,0.106000,0.970000,0.182000,192.000000,0.000000,0.000000,0.000000,0.000000,0.000000,0.000000,0.000000,0.000000,0.000000,1646897420.770353,0.000000
17.000000,16209.663893,27468.461093,35902.690697,40484.820662,-2539.985185,20712.445165,38395.245480,41579.966733,0.110000,0.968000,0.182000,192.000000,3.000000,112.000000,30.000000,64.000000,5.000000,176.000000,0.000000,0.000000,0.000000,1646897420.770357,0.000000
18.000000,16204.075957,27463.744874,35896.767485,40478.651581,-2532.922033,20704.756165,38406.153131,41579.184422,0.110000,0.968000,0.182000,192.000000,0.000000,0.000000,0.000000,0.000000,0.000000,0.000000,0.000000,0.000000,0.000000,1646897420.777371,0.000000
19.000000,16197.817468,27460.973258,35896.029877,40474.047121,-2541.281586,20696.888351,38391.848015,41572.747120,0.110000,0.968000,0.182000,192.000000,0.000000,0.000000,0.000000,0.000000,0.000000,0.000000,0.000000,0.000000,0.000000,1646897420.785326,0.000000
20.000000,16205.282951,27467.254098,35905.708183,40481.311438,-2550.334042,20702.252770,38396.117198,41564.722844,0.110000,0.968000,0.182000,192.000000,0.000000,0.000000,0.000000,0.000000,0.000000,0.000000,0.000000,0.000000,0.000000,1646897420.785330,0.000000
21.000000,16214.491870,27478.049991,35913.687755,40491.973220,-2546.981281,20710.880543,38417.753687,41560.632474,0.110000,0.968000,0.182000,192.000000,0.000000,0.000000,0.000000,0.000000,0.000000,0.000000,0.000000,0.000000,0.000000,1646897420.792026,0.000000
22.000000,16219.521012,27487.460075,35916.884055,40503.618479,-2528.384629,20717.876639,38418.357184,41572.747120,0.110000,0.968000,0.182000,192.000000,0.000000,0.000000,0.000000,0.000000,0.000000,0.000000,0.000000,0.000000,0.000000,1646897420.792037,0.000000
23.000000,16216.190602,27486.409543,35912.167837,40502.523244,-2523.646059,20712.869848,38403.448570,41570.109614,0.110000,0.968000,0.182000,192.000000,0.000000,0.000000,0.000000,0.000000,0.000000,0.000000,0.000000,0.000000,0.000000,1646897420.800111,0.000000
24.000000,16204.008902,27472.685572,35902.757752,40488.642810,-2529.345754,20705.605531,38384.226070,41572.747120,0.110000,0.968000,0.182000,192.000000,0.000000,0.000000,0.000000,0.000000,0.000000,0.000000,0.000000,0.000000,0.000000,1646897420.800169,0.000000
25.000000,16208.881582,27475.121912,35910.334994,40488.285183,-2538.174693,20711.953427,38389.076399,41589.622687,0.110000,0.968000,0.182000,192.000000,0.000000,0.000000,0.000000,0.000000,0.000000,0.000000,0.000000,0.000000,0.000000,1646897420.807995,0.000000
26.000000,16215.698864,27485.873101,35913.218369,40495.057761,-2539.649909,20719.329503,38410.154094,41588.460396,0.110000,0.968000,0.182000,192.000000,0.000000,0.000000,0.000000,0.000000,0.000000,0.000000,0.000000,0.000000,0.000000,1646897420.807999,0.000000
27.000000,16202.936018,27475.725409,35898.019182,40483.568964,-2540.096943,20709.137107,38391.937422,41576.457510,0.110000,0.962000,0.184000,192.000000,3.000000,112.000000,30.000000,16.000000,5.000000,192.000000,0.000000,0.000000,0.000000,1646897420.815174,0.000000
28.000000,16197.571599,27471.590337,35891.939508,40475.432929,-2537.213568,20703.549171,38379.420445,41573.484728,0.110000,0.962000,0.184000,192.000000,0.000000,0.000000,0.000000,0.000000,0.000000,0.000000,0.000000,0.000000,0.000000,1646897420.815178,0.000000
29.000000,16200.209105,27474.116084,35896.812188,40476.170537,-2541.706269,20708.801831,38385.097788,41574.334094,0.110000,0.962000,0.184000,192.000000,0.000000,0.000000,0.000000,0.000000,0.000000,0.000000,0.000000,0.000000,0.000000,1646897420.822624,0.000000
30.000000,16203.539515,27475.345430,35898.756790,40478.897450,-2546.668356,20718.748357,38405.974317,41584.951172,0.110000,0.962000,0.184000,192.000000,0.000000,0.000000,0.000000,0.000000,0.000000,0.000000,0.000000,0.000000,0.000000,1646897420.822628,0.000000
31.000000,16209.552134,27480.016944,35905.819941,40484.239517,-2544.746106,20724.403348,38417.552521,41586.828719,0.110000,0.962000,0.184000,192.000000,0.000000,0.000000,0.000000,0.000000,0.000000,0.000000,0.000000,0.000000,0.000000,1646897420.830573,0.000000
32.000000,16205.707634,27476.418314,35905.037630,40483.591316,-2535.604243,20717.161383,38406.957794,41589.086245,0.110000,0.962000,0.184000,192.000000,0.000000,0.000000,0.000000,0.000000,0.000000,0.000000,0.000000,0.000000,0.000000,1646897420.830577,0.000000
33.000000,16195.045852,27463.767226,35895.560491,40471.633133,-2539.739315,20698.609435,38373.273715,41578.692684,0.110000,0.962000,0.184000,192.000000,0.000000,0.000000,0.000000,0.000000,0.000000,0.000000,0.000000,0.000000,0.000000,1646897420.837651,0.000000
34.000000,16194.017672,27462.224956,35893.749999,40466.447528,-2550.535208,20689.758145,38367.015227,41568.388530,0.110000,0.962000,0.184000,192.000000,0.000000,0.000000,0.000000,0.000000,0.000000,0.000000,0.000000,0.000000,0.000000,1646897420.837655,0.000000
35.000000,16201.438451,27465.242441,35897.013354,40470.493194,-2557.978339,20690.763973,38404.655564,41570.333132,0.110000,0.962000,0.184000,192.000000,0.000000,0.000000,0.000000,0.000000,0.000000,0.000000,0.000000,0.000000,0.000000,1646897420.844834,0.000000
36.000000,16202.600742,27467.745837,35897.370982,40470.649656,-2555.609054,20691.099249,38402.755666,41568.589696,0.110000,0.962000,0.184000,192.000000,0.000000,0.000000,0.000000,0.000000,0.000000,0.000000,0.000000,0.000000,0.000000,1646897420.852301,0.000000
37.000000,16200.074995,27468.908127,35900.030839,40471.364912,-2542.153304,20692.485057,38402.487445,41581.911335,0.112000,0.962000,0.180000,192.000000,3.000000,128.000000,30.000000,16.000000,5.000000,160.000000,0.000000,0.000000,0.000000,1646897420.852305,0.000000
38.000000,16201.706672,27468.416389,35901.483703,40468.570944,-2539.962833,20689.512275,38383.600221,41589.309763,0.112000,0.962000,0.180000,192.000000,0.000000,0.000000,0.000000,0.000000,0.000000,0.000000,0.000000,0.000000,0.000000,1646897420.860264,0.000000
39.000000,16202.019596,27467.187043,35899.494398,40463.273580,-2541.996842,20692.194485,38406.175483,41592.282545,0.112000,0.962000,0.180000,192.000000,0.000000,0.000000,0.000000,0.000000,0.000000,0.000000,0.000000,0.000000,0.000000,1646897420.860269,0.000000
40.000000,16201.885486,27467.321154,35899.270880,40459.920819,-2546.355432,20696.150744,38433.779887,41589.577984,0.112000,0.962000,0.180000,192.000000,0.000000,0.000000,0.000000,0.000000,0.000000,0.000000,0.000000,0.000000,0.000000,1646897420.868336,0.000000
41.000000,16197.258675,27464.504834,35894.956993,40455.942208,-2549.395269,20688.729964,38422.849884,41570.981332,0.112000,0.962000,0.180000,192.000000,0.000000,0.000000,0.000000,0.000000,0.000000,0.000000,0.000000,0.000000,0.000000,1646897420.868340,0.000000
42.000000,16192.520105,27460.660334,35890.821921,40450.667197,-2550.088173,20686.092458,38414.892663,41582.939515,0.112000,0.962000,0.180000,192.000000,0.000000,0.000000,0.000000,0.000000,0.000000,0.000000,0.000000,0.000000,0.000000,1646897420.874926,0.000000
43.000000,16196.655178,27460.816796,35897.482741,40452.432984,-2539.694612,20689.869903,38413.663317,41590.203832,0.112000,0.962000,0.180000,192.000000,0.000000,0.000000,0.000000,0.000000,0.000000,0.000000,0.000000,0.000000,0.000000,1646897420.874961,0.000000
44.000000,16200.969064,27462.403770,35896.678078,40453.930551,-2542.779153,20692.328595,38415.563216,41587.633382,0.112000,0.962000,0.180000,192.000000,0.000000,0.000000,0.000000,0.000000,0.000000,0.000000,0.000000,0.000000,0.000000,1646897420.882924,0.000000
45.000000,16208.792175,27470.785674,35902.109552,40458.691473,-2555.005557,20697.447145,38425.241521,41586.359332,0.112000,0.962000,0.180000,192.000000,0.000000,0.000000,0.000000,0.000000,0.000000,0.000000,0.000000,0.000000,0.000000,1646897420.882928,0.000000
46.000000,16216.928210,27478.988764,35909.262110,40466.894563,-2555.899627,20703.102136,38430.494181,41584.928821,0.112000,0.962000,0.180000,192.000000,0.000000,0.000000,0.000000,0.000000,0.000000,0.000000,0.000000,0.000000,0.000000,1646897420.890924,0.000000
47.000000,16217.442300,27481.626270,35911.184360,40467.922743,-2539.471095,20708.801831,38437.534980,41600.865615,0.110000,0.960000,0.180000,192.000000,3.000000,112.000000,30.000000,0.000000,5.000000,160.000000,0.000000,0.000000,0.000000,1646897420.890955,0.000000
48.000000,16204.388881,27469.779845,35897.281575,40452.365929,-2537.481789,20693.245017,38421.106448,41597.557556,0.110000,0.960000,0.180000,192.000000,0.000000,0.000000,0.000000,0.000000,0.000000,0.000000,0.000000,0.000000,0.000000,1646897420.897957,0.000000
49.000000,16215.229477,27480.329869,35911.005546,40465.151127,-2540.320461,20695.502543,38410.824646,41595.009457,0.110000,0.960000,0.180000,192.000000,0.000000,0.000000,0.000000,0.000000,0.000000,0.000000,0.000000,0.000000,0.000000,1646897420.897961,0.000000
50.000000,16228.037027,27492.936253,35923.008433,40481.445549,-2541.750972,20710.701729,38449.403757,41603.771341,0.110000,0.960000,0.180000,192.000000,0.000000,0.000000,0.000000,0.000000,0.000000,0.000000,0.000000,0.000000,0.000000,1646897420.904549,0.000000
51.000000,16222.426739,27486.700116,35923.164895,40476.215241,-2538.711135,20709.070052,38457.539792,41609.068705,0.110000,0.960000,0.180000,192.000000,0.000000,0.000000,0.000000,0.000000,0.000000,0.000000,0.000000,0.000000,0.000000,1646897420.912558,0.000000
52.000000,16209.552134,27473.557290,35913.978328,40466.156955,-2528.697554,20700.218761,38445.246332,41602.206719,0.110000,0.960000,0.180000,192.000000,0.000000,0.000000,0.000000,0.000000,0.000000,0.000000,0.000000,0.000000,0.000000,1646897420.912562,0.000000
53.000000,16190.128468,27453.328962,35893.191206,40448.029691,-2535.559539,20674.894235,38406.756628,41579.072664,0.110000,0.960000,0.180000,192.000000,0.000000,0.000000,0.000000,0.000000,0.000000,0.000000,0.000000,0.000000,0.000000,1646897420.920565,0.000000
54.000000,16196.565771,27460.034485,35897.415685,40448.521429,-2548.188275,20677.889368,38430.650643,41570.511946,0.110000,0.960000,0.180000,192.000000,0.000000,0.000000,0.000000,0.000000,0.000000,0.000000,0.000000,0.000000,0.000000,1646897420.920569,0.000000
55.000000,16209.552134,27475.054857,35911.094953,40462.960656,-2547.249502,20696.262502,38442.564123,41584.347675,0.110000,0.960000,0.180000,192.000000,0.000000,0.000000,0.000000,0.000000,0.000000,0.000000,0.000000,0.000000,0.000000,1646897420.927625,0.000000
56.000000,16197.996282,27468.639906,35901.014316,40462.558325,-2545.126086,20693.334424,38448.129707,41583.766530,0.110000,0.960000,0.180000,192.000000,0.000000,0.000000,0.000000,0.000000,0.000000,0.000000,0.000000,0.000000,0.000000,1646897420.927629,0.000000
57.000000,16195.403480,27467.924651,35898.689735,40461.105461,-2541.639214,20691.881560,38441.379481,41583.900640,0.108000,0.958000,0.186000,192.000000,3.000000,96.000000,29.000000,240.000000,5.000000,208.000000,0.000000,0.000000,0.000000,1646897420.935123,0.000000
58.000000,16198.175096,27468.483444,35902.333069,40463.251229,-2529.971603,20697.469496,38445.268684,41587.253402,0.108000,0.958000,0.186000,192.000000,0.000000,0.000000,0.000000,0.000000,0.000000,0.000000,0.000000,0.000000,0.000000,1646897420.935126,0.000000
59.000000,16194.196486,27464.326020,35896.968650,40455.942208,-2531.200949,20694.429659,38449.180239,41579.206774,0.108000,0.958000,0.186000,192.000000,0.000000,0.000000,0.000000,0.000000,0.000000,0.000000,0.000000,0.000000,0.000000,1646897420.943127,0.000000
60.000000,16205.573524,27471.322116,35906.557549,40461.887772,-2540.454571,20699.883485,38453.672940,41587.655734,0.108000,0.958000,0.186000,192.000000,0.000000,0.000000,0.000000,0.000000,0.000000,0.000000,0.000000,0.000000,0.000000,1646897420.943131,0.000000
61.000000,16208.255733,27466.740008,35907.272805,40457.350368,-2544.679051,20692.462706,38432.684652,41585.509966,0.108000,0.958000,0.186000,192.000000,0.000000,0.000000,0.000000,0.000000,0.000000,0.000000,0.000000,0.000000,0.000000,1646897420.950306,0.000000
62.000000,16200.745547,27460.705037,35894.062924,40448.119098,-2542.287414,20676.212987,38424.056879,41572.322437,0.108000,0.958000,0.186000,192.000000,0.000000,0.000000,0.000000,0.000000,0.000000,0.000000,0.000000,0.000000,0.000000,1646897420.950310,0.000000
63.000000,16194.352948,27463.923688,35894.018220,40455.249304,-2529.926900,20678.336403,38436.931483,41567.717977,0.108000,0.958000,0.186000,192.000000,0.000000,0.000000,0.000000,0.000000,0.000000,0.000000,0.000000,0.000000,0.000000,1646897420.957854,0.000000
64.000000,16187.647425,27462.448473,35896.231043,40466.559287,-2524.093094,20690.182828,38446.565085,41581.866632,0.108000,0.958000,0.186000,192.000000,0.000000,0.000000,0.000000,0.000000,0.000000,0.000000,0.000000,0.000000,0.000000,1646897420.957883,0.000000
65.000000,16194.911742,27464.527186,35900.880206,40465.844031,-2535.872464,20687.992357,38446.565085,41572.590658,0.108000,0.958000,0.186000,192.000000,0.000000,0.000000,0.000000,0.000000,0.000000,0.000000,0.000000,0.000000,0.000000,1646897420.964727,0.000000
66.000000,16208.389844,27476.798293,35912.525465,40470.157918,-2538.688783,20691.590988,38452.287132,41562.711187,0.108000,0.958000,0.186000,192.000000,0.000000,0.000000,0.000000,0.000000,0.000000,0.000000,0.000000,0.000000,0.000000,1646897420.972841,0.000000
67.000000,16202.243114,27467.924651,35906.624604,40464.301761,-2526.462379,20685.153685,38429.980091,41564.566382,0.108000,0.958000,0.186000,192.000000,0.000000,0.000000,0.000000,0.000000,0.000000,0.000000,0.000000,0.000000,0.000000,1646897420.972845,0.000000
68.000000,16205.819393,27470.048066,35906.669308,40466.626342,-2518.058123,20690.316938,38458.545620,41573.305914,0.112000,0.958000,0.188000,192.000000,3.000000,128.000000,29.000000,240.000000,5.000000,224.000000,0.000000,0.000000,0.000000,1646897420.979946,0.000000
69.000000,16216.056492,27484.531997,35916.481723,40476.304647,-2515.107693,20702.453935,38487.468778,41582.201908,0.112000,0.958000,0.188000,192.000000,0.000000,0.000000,0.000000,0.000000,0.000000,0.000000,0.000000,0.000000,0.000000,1646897420.979949,0.000000
70.000000,16204.590047,27475.457189,35904.054153,40464.346464,-2518.840434,20696.798944,38473.186013,41586.448739,0.112000,0.958000,0.188000,192.000000,0.000000,0.000000,0.000000,0.000000,0.000000,0.000000,0.000000,0.000000,0.000000,1646897420.987428,0.000000
71.000000,16193.861210,27460.995610,35888.519691,40449.460202,-2535.805408,20683.119676,38455.841059,41579.229126,0.112000,0.958000,0.188000,192.000000,0.000000,0.000000,0.000000,0.000000,0.000000,0.000000,0.000000,0.000000,0.000000,1646897420.987432,0.000000
72.000000,16194.934093,27461.487348,35889.011429,40453.349406,-2538.509970,20681.309185,38453.114146,41568.813213,0.112000,0.958000,0.188000,192.000000,0.000000,0.000000,0.000000,0.000000,0.000000,0.000000,0.000000,0.000000,0.000000,1646897420.995484,0.000000
73.000000,16199.784422,27465.801235,35899.427342,40458.065624,-2533.346717,20685.712479,38452.622408,41565.594562,0.112000,0.958000,0.188000,192.000000,0.000000,0.000000,0.000000,0.000000,0.000000,0.000000,0.000000,0.000000,0.000000,1646897420.995488,0.000000
74.000000,16201.281989,27465.465959,35900.433171,40457.551534,-2534.598414,20690.361642,38450.901324,41564.611085,0.112000,0.958000,0.188000,192.000000,0.000000,0.000000,0.000000,0.000000,0.000000,0.000000,0.000000,0.000000,0.000000,1646897421.003484,0.000000
75.000000,16200.410271,27468.818720,35904.098857,40459.540839,-2528.898719,20693.088555,38448.889667,41570.869573,0.112000,0.958000,0.188000,192.000000,0.000000,0.000000,0.000000,0.000000,0.000000,0.000000,0.000000,0.000000,0.000000,1646897421.003491,0.000000
76.000000,16195.604646,27465.957697,35899.561453,40456.925685,-2533.816103,20686.606549,38458.880896,41583.297143,0.112000,0.958000,0.188000,192.000000,0.000000,0.000000,0.000000,0.000000,0.000000,0.000000,0.000000,0.000000,0.000000,1646897421.010132,0.000000
77.000000,16191.670739,27460.816796,35893.235909,40452.611798,-2539.761667,20671.094438,38429.890684,41560.632474,0.112000,0.958000,0.188000,192.000000,0.000000,0.000000,0.000000,0.000000,0.000000,0.000000,0.000000,0.000000,0.000000,1646897421.010137,0.000000
78.000000,16192.363643,27462.202604,35895.448732,40458.512659,-2524.428371,20673.553130,38421.575835,41551.468259,0.110000,0.958000,0.182000,192.000000,3.000000,112.000000,29.000000,240.000000,5.000000,176.000000,0.000000,0.000000,0.000000,1646897421.018056,0.000000
79.000000,16192.833029,27461.867328,35893.571185,40459.451432,-2526.127103,20676.101229,38415.026774,41559.447832,0.110000,0.958000,0.182000,192.000000,0.000000,0.000000,0.000000,0.000000,0.000000,0.000000,0.000000,0.000000,0.000000,1646897421.018061,0.000000
80.000000,16195.917570,27466.516491,35893.079447,40466.224011,-2535.291318,20684.885464,38412.143399,41579.676161,0.110000,0.958000,0.182000,192.000000,0.000000,0.000000,0.000000,0.000000,0.000000,0.000000,0.000000,0.000000,0.000000,1646897421.025084,0.000000
81.000000,16194.934093,27465.957697,35888.765560,40469.085034,-2539.985185,20687.567674,38438.205533,41577.396283,0.110000,0.958000,0.182000,192.000000,0.000000,0.000000,0.000000,0.000000,0.000000,0.000000,0.000000,0.000000,0.000000,1646897421.033254,0.000000
82.000000,16193.257713,27459.028656,35888.877319,40462.535973,-2537.571196,20685.623072,38408.723582,41568.343826,0.110000,0.958000,0.182000,192.000000,0.000000,0.000000,0.000000,0.000000,0.000000,0.000000,0.000000,0.000000,0.000000,1646897421.033258,0.000000
83.000000,16195.381128,27464.549537,35890.933679,40464.569982,-2527.714077,20695.547246,38424.928597,41576.144585,0.110000,0.958000,0.182000,192.000000,0.000000,0.000000,0.000000,0.000000,0.000000,0.000000,0.000000,0.000000,0.000000,1646897421.039727,0.000000
84.000000,16197.169268,27467.701133,35896.141636,40467.699226,-2529.412810,20702.744508,38437.177353,41583.610068,0.110000,0.958000,0.182000,192.000000,0.000000,0.000000,0.000000,0.000000,0.000000,0.000000,0.000000,0.000000,0.000000,1646897421.039731,0.000000
85.000000,16201.751375,27469.645735,35902.109552,40472.504851,-2536.900644,20707.348967,38465.362902,41585.219393,0.110000,0.958000,0.182000,192.000000,0.000000,0.000000,0.000000,0.000000,0.000000,0.000000,0.000000,0.000000,0.000000,1646897421.047678,0.000000
86.000000,16190.687262,27454.848880,35892.565357,40462.625380,-2546.511894,20691.032194,38449.068481,41570.556649,0.110000,0.958000,0.182000,192.000000,0.000000,0.000000,0.000000,0.000000,0.000000,0.000000,0.000000,0.000000,0.000000,1646897421.047687,0.000000
87.000000,16189.010881,27448.992723,35893.906461,40462.714787,-2538.308804,20687.075935,38435.925655,41571.651885,0.110000,0.958000,0.182000,192.000000,0.000000,0.000000,0.000000,0.000000,0.000000,0.000000,0.000000,0.000000,0.000000,1646897421.055986,0.000000
88.000000,16186.015747,27445.282334,35893.302964,40460.904296,-2532.363240,20689.802848,38431.343547,41572.814175,0.104000,0.958000,0.186000,192.000000,3.000000,64.000000,29.000000,240.000000,5.000000,208.000000,0.000000,0.000000,0.000000,1646897421.056003,0.000000
89.000000,16173.208198,27434.285275,35882.887051,40447.515601,-2543.248539,20678.470514,38415.362050,41562.286504,0.104000,0.958000,0.186000,192.000000,0.000000,0.000000,0.000000,0.000000,0.000000,0.000000,0.000000,0.000000,0.000000,1646897421.063110,0.000000
90.000000,16190.620207,27449.015075,35898.779142,40461.351330,-2551.071650,20686.494790,38425.152114,41557.279713,0.104000,0.958000,0.186000,192.000000,0.000000,0.000000,0.000000,0.000000,0.000000,0.000000,0.000000,0.000000,0.000000,1646897421.063127,0.000000
91.000000,16195.179963,27450.378531,35898.108589,40470.850822,-2545.282548,20685.757182,38423.855713,41547.914332,0.104000,0.958000,0.186000,192.000000,0.000000,0.000000,0.000000,0.000000,0.000000,0.000000,0.000000,0.000000,0.000000,1646897421.070769,0.000000
92.000000,16200.119698,27458.693380,35903.137732,40479.277429,-2535.380725,20690.518104,38417.530169,41552.965826,0.104000,0.958000,0.186000,192.000000,0.000000,0.000000,0.000000,0.000000,0.000000,0.000000,0.000000,0.000000,0.000000,1646897421.070785,0.000000
93.000000,16198.018634,27461.330886,35899.315584,40477.377531,-2526.976469,20688.305281,38416.814913,41563.560553,0.104000,0.958000,0.186000,192.000000,0.000000,0.000000,0.000000,0.000000,0.000000,0.000000,0.000000,0.000000,0.000000,1646897421.078531,0.000000
94.000000,16202.757204,27469.735142,35903.607119,40480.618534,-2525.635365,20692.082726,38433.399908,41568.522640,0.104000,0.958000,0.186000,192.000000,0.000000,0.000000,0.000000,0.000000,0.000000,0.000000,0.000000,0.000000,0.000000,1646897421.078542,0.000000
95.000000,16203.315998,27470.025715,35899.561453,40478.740988,-2531.715039,20690.339290,38437.758498,41557.369120,0.104000,0.958000,0.186000,192.000000,0.000000,0.000000,0.000000,0.000000,0.000000,0.000000,0.000000,0.000000,0.000000,1646897421.085813,0.000000
96.000000,16195.872867,27461.375590,35894.442903,40473.667142,-2531.916205,20682.426772,38433.332853,41562.755890,0.104000,0.958000,0.186000,192.000000,0.000000,0.000000,0.000000,0.000000,0.000000,0.000000,0.000000,0.000000,0.000000,1646897421.085830,0.000000
97.000000,16194.643521,27460.861499,35893.481778,40474.628267,-2531.335060,20676.168284,38422.626367,41576.122233,0.104000,0.958000,0.186000,192.000000,0.000000,0.000000,0.000000,0.000000,0.000000,0.000000,0.000000,0.000000,0.000000,1646897421.092914,0.000000
98.000000,16202.690149,27466.896470,35901.528406,40480.998514,-2523.221376,20686.204217,38431.455306,41566.935666,0.100000,0.970000,0.184000,192.000000,3.000000,32.000000,30.000000,80.000000,5.000000,192.000000,0.000000,0.000000,0.000000,1646897421.100283,0.000000
99.000000,16196.498715,27459.989781,35895.068752,40475.276467,-2528.563443,20683.499656,38418.088963,41564.052291,0.100000,0.970000,0.184000,192.000000,0.000000,0.000000,0.000000,0.000000,0.000000,0.000000,0.000000,0.000000,0.000000,1646897421.100295,0.000000
100.000000,16195.537590,27461.219127,35893.459427,40475.969371,-2536.185388,20683.924339,38416.390230,41568.187364,0.100000,0.970000,0.184000,192.000000,0.000000,0.000000,0.000000,0.000000,0.000000,0.000000,0.000000,0.000000,0.000000,1646897421.108444,0.000000
101.000000,16193.704747,27457.061703,35892.766522,40475.120005,-2530.999783,20690.518104,38426.135591,41577.038655,0.100000,0.970000,0.184000,192.000000,0.000000,0.000000,0.000000,0.000000,0.000000,0.000000,0.000000,0.000000,0.000000,1646897421.108461,0.000000
102.000000,16192.765974,27452.345485,35890.598403,40472.706017,-2523.266080,20692.485057,38433.064632,41578.335056,0.100000,0.970000,0.184000,192.000000,0.000000,0.000000,0.000000,0.000000,0.000000,0.000000,0.000000,0.000000,0.000000,1646897421.115687,0.000000
103.000000,16197.035157,27457.396979,35894.956993,40473.175403,-2520.986202,20696.664834,38462.546583,41573.887059,0.100000,0.970000,0.184000,192.000000,0.000000,0.000000,0.000000,0.000000,0.000000,0.000000,0.000000,0.000000,0.000000,1646897421.115704,0.000000
104.000000,16198.398614,27463.633116,35897.415685,40478.875098,-2516.918184,20707.080747,38470.213231,41593.489539,0.100000,0.970000,0.184000,192.000000,0.000000,0.000000,0.000000,0.000000,0.000000,0.000000,0.000000,0.000000,0.000000,1646897421.123028,0.000000
105.000000,16190.240227,27457.218165,35889.614927,40472.571906,-2527.155283,20700.330520,38447.146231,41589.890908,0.100000,0.970000,0.184000,192.000000,0.000000,0.000000,0.000000,0.000000,0.000000,0.000000,0.000000,0.000000,0.000000,1646897421.123045,0.000000
106.000000,16185.702823,27448.992723,35884.496377,40468.459185,-2535.268967,20694.317900,38439.814858,41574.468204,0.100000,0.970000,0.184000,192.000000,0.000000,0.000000,0.000000,0.000000,0.000000,0.000000,0.000000,0.000000,0.000000,1646897421.130874,0.000000
107.000000,16180.941901,27439.001493,35880.651877,40464.614685,-2534.777228,20682.359717,38404.253233,41559.447832,0.100000,0.970000,0.184000,192.000000,0.000000,0.000000,0.000000,0.000000,0.000000,0.000000,0.000000,0.000000,0.000000,1646897421.130910,0.000000
108.000000,16195.135259,27452.725464,35892.632412,40476.684627,-2527.959946,20691.881560,38399.872291,41562.599428,0.108000,0.964000,0.182000,192.000000,3.000000,96.000000,30.000000,32.000000,5.000000,176.000000,0.000000,0.000000,0.000000,1646897421.139075,0.000000
109.000000,16191.179000,27449.149185,35886.731551,40475.611743,-2524.987164,20699.883485,38424.347451,41577.396283,0.108000,0.964000,0.182000,192.000000,0.000000,0.000000,0.000000,0.000000,0.000000,0.000000,0.000000,0.000000,0.000000,1646897421.139092,0.000000
110.000000,16183.512352,27440.990799,35880.026028,40469.487365,-2533.771400,20697.804773,38447.749728,41583.677123,0.108000,0.964000,0.182000,192.000000,0.000000,0.000000,0.000000,0.000000,0.000000,0.000000,0.000000,0.000000,0.000000,1646897421.145669,0.000000
111.000000,16190.642558,27443.002456,35882.775293,40467.945095,-2543.337946,20687.500618,38413.439800,41564.164050,0.108000,0.964000,0.182000,192.000000,0.000000,0.000000,0.000000,0.000000,0.000000,0.000000,0.000000,0.000000,0.000000,1646897421.145686,0.000000
112.000000,16198.778593,27452.323133,35888.609098,40475.634095,-2532.050315,20690.316938,38406.130780,41558.240838,0.108000,0.964000,0.182000,192.000000,0.000000,0.000000,0.000000,0.000000,0.000000,0.000000,0.000000,0.000000,0.000000,1646897421.152576,0.000000
113.000000,16195.694053,27457.508738,35896.454560,40487.458168,-2514.884176,20707.393671,38434.696309,41573.663542,0.108000,0.964000,0.182000,192.000000,0.000000,0.000000,0.000000,0.000000,0.000000,0.000000,0.000000,0.000000,0.000000,1646897421.160759,0.000000
114.000000,16194.598817,27457.531089,35900.321412,40490.945040,-2511.687876,20715.887334,38428.862504,41596.194100,0.108000,0.964000,0.182000,192.000000,0.000000,0.000000,0.000000,0.000000,0.000000,0.000000,0.000000,0.000000,0.000000,1646897421.160775,0.000000
115.000000,16190.731965,27446.846956,35892.431246,40475.254115,-2531.938557,20699.905837,38419.921806,41570.601353,0.108000,0.964000,0.182000,192.000000,0.000000,0.000000,0.000000,0.000000,0.000000,0.000000,0.000000,0.000000,0.000000,1646897421.168771,0.000000
116.000000,16177.790305,27436.542801,35882.037685,40464.145298,-2535.492484,20689.400517,38410.377611,41564.074643,0.108000,0.964000,0.182000,192.000000,0.000000,0.000000,0.000000,0.000000,0.000000,0.000000,0.000000,0.000000,0.000000,1646897421.168788,0.000000
117.000000,16188.765012,27450.467938,35889.123188,40476.550517,-2523.109618,20706.253732,38433.981053,41594.361257,0.108000,0.964000,0.182000,192.000000,0.000000,0.000000,0.000000,0.000000,0.000000,0.000000,0.000000,0.000000,0.000000,1646897421.175238,0.000000
118.000000,16195.202314,27461.219127,35900.008488,40488.419293,-2510.592641,20715.887334,38438.473754,41599.323344,0.110000,0.968000,0.188000,192.000000,3.000000,112.000000,30.000000,64.000000,5.000000,224.000000,0.000000,0.000000,0.000000,1646897421.175250,0.000000
119.000000,16179.712555,27450.758511,35888.653802,40482.071398,-2519.265118,20701.761031,38405.974317,41581.084321,0.110000,0.968000,0.188000,192.000000,0.000000,0.000000,0.000000,0.000000,0.000000,0.000000,0.000000,0.000000,0.000000,1646897421.183291,0.000000
120.000000,16184.920512,27453.038389,35890.330182,40482.697246,-2534.844283,20703.929151,38414.691498,41569.796690,0.110000,0.968000,0.188000,192.000000,0.000000,0.000000,0.000000,0.000000,0.000000,0.000000,0.000000,0.000000,0.000000,1646897421.183308,0.000000
121.000000,16181.567750,27447.249287,35888.005601,40479.076264,-2532.542054,20704.197372,38428.169600,41580.078492,0.110000,0.968000,0.188000,192.000000,0.000000,0.000000,0.000000,0.000000,0.000000,0.000000,0.000000,0.000000,0.000000,1646897421.191356,0.000000
122.000000,16180.427811,27447.472804,35888.407932,40478.472767,-2524.473074,20700.486982,38433.019928,41591.991972,0.110000,0.968000,0.188000,192.000000,0.000000,0.000000,0.000000,0.000000,0.000000,0.000000,0.000000,0.000000,0.000000,1646897421.191374,0.000000
123.000000,16179.444334,27449.909145,35883.669363,40478.182194,-2522.036734,20696.865999,38415.674974,41590.069722,0.110000,0.968000,0.188000,192.000000,0.000000,0.000000,0.000000,0.000000,0.000000,0.000000,0.000000,0.000000,0.000000,1646897421.198466,0.000000
124.000000,16185.524009,27453.373665,35888.698505,40483.144281,-2524.249557,20707.080747,38429.734222,41592.751931,0.110000,0.968000,0.188000,192.000000,0.000000,0.000000,0.000000,0.000000,0.000000,0.000000,0.000000,0.000000,0.000000,1646897421.198483,0.000000
125.000000,16195.470535,27463.342543,35898.019182,40491.928517,-2527.915243,20719.105985,38438.652568,41590.583812,0.110000,0.968000,0.188000,192.000000,0.000000,0.000000,0.000000,0.000000,0.000000,0.000000,0.000000,0.000000,0.000000,1646897421.205803,0.000000
126.000000,16201.393747,27468.528148,35908.099819,40497.739970,-2524.629536,20723.486927,38435.948007,41585.666428,0.110000,0.968000,0.188000,192.000000,0.000000,0.000000,0.000000,0.000000,0.000000,0.000000,0.000000,0.000000,0.000000,1646897421.205821,0.000000
127.000000,16211.809660,27478.653488,35923.008433,40511.195721,-2501.361370,20738.328485,38441.379481,41601.290298,0.110000,0.968000,0.188000,192.000000,0.000000,0.000000,0.000000,0.000000,0.000000,0.000000,0.000000,0.000000,0.000000,1646897421.213015,0.000000
128.000000,16205.193544,27467.969354,35915.587654,40500.109255,-2489.671408,20736.517994,38466.189917,41611.437990,0.110000,0.964000,0.182000,192.000000,3.000000,112.000000,30.000000,32.000000,5.000000,176.000000,0.000000,0.000000,0.000000,1646897421.221003,0.000000
129.000000,16197.258675,27450.065607,35900.991964,40480.707941,-2509.810330,20711.171116,38435.746841,41595.031809,0.110000,0.964000,0.182000,192.000000,0.000000,0.000000,0.000000,0.000000,0.000000,0.000000,0.000000,0.000000,0.000000,1646897421.221037,0.000000
130.000000,16191.760146,27443.740063,35889.257299,40469.822642,-2524.115446,20692.775630,38405.415524,41581.933687,0.110000,0.964000,0.182000,192.000000,0.000000,0.000000,0.000000,0.000000,0.000000,0.000000,0.000000,0.000000,0.000000,1646897421.227932,0.000000
131.000000,16189.301454,27449.752682,35894.241738,40477.176366,-2524.987164,20696.016633,38397.547710,41575.317571,0.110000,0.964000,0.182000,192.000000,0.000000,0.000000,0.000000,0.000000,0.000000,0.000000,0.000000,0.000000,0.000000,1646897421.227944,0.000000
132.000000,16186.999224,27453.507775,35897.929775,40484.574793,-2511.374952,20707.796002,38407.762457,41584.280620,0.110000,0.964000,0.182000,192.000000,0.000000,0.000000,0.000000,0.000000,0.000000,0.000000,0.000000,0.000000,0.000000,1646897421.235632,0.000000
133.000000,16189.077936,27458.469863,35902.020145,40495.013058,-2504.982353,20719.173040,38436.372690,41583.252440,0.110000,0.964000,0.182000,192.000000,0.000000,0.000000,0.000000,0.000000,0.000000,0.000000,0.000000,0.000000,0.000000,1646897421.235648,0.000000
134.000000,16190.061413,27458.358104,35902.981270,40495.728313,-2508.625687,20720.290628,38418.245425,41603.771341,0.110000,0.964000,0.182000,192.000000,0.000000,0.000000,0.000000,0.000000,0.000000,0.000000,0.000000,0.000000,0.000000,1646897421.243638,0.000000
135.000000,16188.094460,27461.755569,35903.383601,40496.354162,-2515.867652,20716.177907,38414.758553,41609.873368,0.110000,0.964000,0.182000,192.000000,0.000000,0.000000,0.000000,0.000000,0.000000,0.000000,0.000000,0.000000,0.000000,1646897421.243654,0.000000
136.000000,16181.903026,27457.978124,35900.835502,40499.416351,-2511.039676,20711.841668,38432.282321,41600.642097,0.110000,0.964000,0.182000,192.000000,0.000000,0.000000,0.000000,0.000000,0.000000,0.000000,0.000000,0.000000,0.000000,1646897421.251453,0.000000
137.000000,16178.594968,27456.458206,35901.707220,40497.762322,-2503.685952,20710.433508,38447.526210,41599.457455,0.110000,0.964000,0.182000,192.000000,0.000000,0.000000,0.000000,0.000000,0.000000,0.000000,0.000000,0.000000,0.000000,1646897421.251469,0.000000
138.000000,16179.332576,27458.268697,35903.316546,40496.398866,-2502.367199,20710.925247,38439.144306,41606.833530,0.110000,0.956000,0.184000,192.000000,3.000000,112.000000,29.000000,224.000000,5.000000,192.000000,0.000000,0.000000,0.000000,1646897421.258201,0.000000
139.000000,16173.699936,27453.396017,35896.231043,40491.526185,-2508.625687,20703.370357,38408.142437,41600.507987,0.110000,0.956000,0.184000,192.000000,0.000000,0.000000,0.000000,0.000000,0.000000,0.000000,0.000000,0.000000,0.000000,1646897421.258218,0.000000
140.000000,16179.444334,27456.122930,35895.761656,40492.017924,-2522.751990,20704.331482,38414.132704,41588.572155,0.110000,0.956000,0.184000,192.000000,0.000000,0.000000,0.000000,0.000000,0.000000,0.000000,0.000000,0.000000,0.000000,1646897421.266094,0.000000
141.000000,16180.606625,27453.396017,35893.571185,40492.867290,-2521.634402,20704.465592,38416.010251,41589.868556,0.110000,0.956000,0.184000,192.000000,0.000000,0.000000,0.000000,0.000000,0.000000,0.000000,0.000000,0.000000,0.000000,1646897421.266109,0.000000
142.000000,16182.439468,27451.272601,35898.041534,40494.297802,-2514.995934,20706.924284,38405.639041,41589.801501,0.110000,0.956000,0.184000,192.000000,0.000000,0.000000,0.000000,0.000000,0.000000,0.000000,0.000000,0.000000,0.000000,1646897421.273319,0.000000
143.000000,16186.887465,27455.139453,35905.082334,40502.009154,-2507.351638,20719.173040,38417.552521,41594.003629,0.110000,0.956000,0.184000,192.000000,0.000000,0.000000,0.000000,0.000000,0.000000,0.000000,0.000000,0.000000,0.000000,1646897421.280168,0.000000
144.000000,16191.469573,27460.302706,35910.066773,40502.143264,-2512.961926,20727.778462,38438.540809,41589.622687,0.110000,0.956000,0.184000,192.000000,0.000000,0.000000,0.000000,0.000000,0.000000,0.000000,0.000000,0.000000,0.000000,1646897421.280180,0.000000
145.000000,16192.117774,27462.157901,35911.653747,40499.550462,-2519.622745,20728.449014,38439.770155,41583.766530,0.110000,0.956000,0.184000,192.000000,0.000000,0.000000,0.000000,0.000000,0.000000,0.000000,0.000000,0.000000,0.000000,1646897421.287880,0.000000
146.000000,16183.177076,27455.161805,35903.227139,40494.923651,-2521.008554,20723.844555,38418.714812,41594.942402,0.110000,0.956000,0.184000,192.000000,0.000000,0.000000,0.000000,0.000000,0.000000,0.000000,0.000000,0.000000,0.000000,1646897421.287898,0.000000
147.000000,16192.341291,27466.516491,35908.077467,40502.053857,-2512.000801,20728.940753,38423.699251,41604.039562,0.110000,0.956000,0.184000,192.000000,0.000000,0.000000,0.000000,0.000000,0.000000,0.000000,0.000000,0.000000,0.000000,1646897421.295853,0.000000
148.000000,16203.852439,27476.842997,35917.755773,40515.621366,-2501.607239,20738.328485,38443.435841,41607.548786,0.108000,0.958000,0.182000,192.000000,3.000000,96.000000,29.000000,240.000000,5.000000,176.000000,0.000000,0.000000,0.000000,1646897421.295869,0.000000
149.000000,16206.668759,27477.871177,35920.795610,40516.761305,-2503.462434,20735.556869,38437.557332,41590.472053,0.108000,0.958000,0.182000,192.000000,0.000000,0.000000,0.000000,0.000000,0.000000,0.000000,0.000000,0.000000,0.000000,1646897421.303797,0.000000
150.000000,16207.048739,27478.206453,35917.085220,40515.196683,-2508.357466,20730.863003,38418.044259,41590.002667,0.108000,0.958000,0.182000,192.000000,0.000000,0.000000,0.000000,0.000000,0.000000,0.000000,0.000000,0.000000,0.000000,1646897421.303821,0.000000
151.000000,16204.254771,27476.440665,35913.777162,40515.040221,-2502.143681,20721.519973,38415.719678,41597.825777,0.108000,0.958000,0.182000,192.000000,0.000000,0.000000,0.000000,0.000000,0.000000,0.000000,0.000000,0.000000,0.000000,1646897421.310176,0.000000
152.000000,16205.752338,27476.239500,35918.225159,40519.778790,-2488.710283,20719.083633,38427.744916,41595.165920,0.108000,0.958000,0.182000,192.000000,0.000000,0.000000,0.000000,0.000000,0.000000,0.000000,0.000000,0.000000,0.000000,1646897421.310187,0.000000
153.000000,16202.399576,27469.556328,35916.951110,40520.382288,-2482.027111,20715.105023,38409.550596,41619.484618,0.108000,0.958000,0.182000,192.000000,0.000000,0.000000,0.000000,0.000000,0.000000,0.000000,0.000000,0.000000,0.000000,1646897421.318557,0.000000
154.000000,16194.934093,27459.743912,35907.161046,40506.457151,-2499.416768,20703.035081,38403.157998,41604.441894,0.108000,0.958000,0.182000,192.000000,0.000000,0.000000,0.000000,0.000000,0.000000,0.000000,0.000000,0.000000,0.000000,1646897421.318569,0.000000
155.000000,16187.558018,27452.546650,35897.549796,40491.213261,-2522.260251,20694.206142,38419.139495,41583.230088,0.108000,0.958000,0.182000,192.000000,0.000000,0.000000,0.000000,0.000000,0.000000,0.000000,0.000000,0.000000,0.000000,1646897421.326413,0.000000
156.000000,16174.638709,27441.080206,35888.653802,40482.786653,-2524.204853,20682.270310,38403.716791,41568.232068,0.108000,0.958000,0.182000,192.000000,0.000000,0.000000,0.000000,0.000000,0.000000,0.000000,0.000000,0.000000,0.000000,1646897421.326424,0.000000
157.000000,16171.665927,27438.643865,35888.720857,40478.361008,-2519.041600,20679.766915,38397.234785,41567.002722,0.108000,0.958000,0.182000,192.000000,0.000000,0.000000,0.000000,0.000000,0.000000,0.000000,0.000000,0.000000,0.000000,1646897421.333503,0.000000
158.000000,16166.994413,27436.676912,35886.351572,40472.281333,-2517.722847,20679.208121,38399.157035,41568.455585,0.102000,0.956000,0.188000,192.000000,3.000000,48.000000,29.000000,224.000000,5.000000,224.000000,0.000000,0.000000,0.000000,1646897421.333520,0.000000
159.000000,16177.857361,27446.086996,35896.365153,40483.434854,-2524.763647,20686.271272,38397.190082,41558.821983,0.102000,0.956000,0.188000,192.000000,0.000000,0.000000,0.000000,0.000000,0.000000,0.000000,0.000000,0.000000,0.000000,1646897421.339988,0.000000
160.000000,16193.794154,27462.292011,35910.692622,40503.685534,-2522.506121,20703.906799,38398.419428,41569.908448,0.102000,0.956000,0.188000,192.000000,0.000000,0.000000,0.000000,0.000000,0.000000,0.000000,0.000000,0.000000,0.000000,1646897421.348183,0.000000
161.000000,16191.804849,27460.258002,35906.132866,40507.664145,-2514.280679,20709.874715,38399.268794,41573.149451,0.102000,0.956000,0.188000,192.000000,0.000000,0.000000,0.000000,0.000000,0.000000,0.000000,0.000000,0.000000,0.000000,1646897421.348201,0.000000
162.000000,16182.484172,27450.132662,35897.974479,40498.902261,-2504.110635,20712.266351,38408.097733,41580.458472,0.102000,0.956000,0.188000,192.000000,0.000000,0.000000,0.000000,0.000000,0.000000,0.000000,0.000000,0.000000,0.000000,1646897421.355914,0.000000
163.000000,16181.500695,27447.204584,35898.890900,40492.822587,-2504.043580,20711.953427,38404.677916,41580.927858,0.102000,0.956000,0.188000,192.000000,0.000000,0.000000,0.000000,0.000000,0.000000,0.000000,0.000000,0.000000,0.000000,1646897421.355925,0.000000
164.000000,16188.206218,27458.045180,35904.903520,40506.032468,-2504.088283,20719.418909,38417.239597,41587.946306,0.102000,0.956000,0.188000,192.000000,0.000000,0.000000,0.000000,0.000000,0.000000,0.000000,0.000000,0.000000,0.000000,1646897421.363304,0.000000
165.000000,16202.779556,27471.143302,35916.235854,40519.331756,-2505.004705,20728.583125,38426.694384,41589.823853,0.102000,0.956000,0.188000,192.000000,0.000000,0.000000,0.000000,0.000000,0.000000,0.000000,0.000000,0.000000,0.000000,1646897421.363320,0.000000
166.000000,16216.727044,27483.995555,35929.602197,40526.081982,-2493.873536,20739.244907,38445.983940,41595.680010,0.102000,0.956000,0.188000,192.000000,0.000000,0.000000,0.000000,0.000000,0.000000,0.000000,0.000000,0.000000,0.000000,1646897421.370756,0.000000
167.000000,16224.371341,27491.550445,35935.860686,40529.859427,-2485.603390,20743.536442,38450.767213,41605.760647,0.102000,0.956000,0.188000,192.000000,0.000000,0.000000,0.000000,0.000000,0.000000,0.000000,0.000000,0.000000,0.000000,1646897421.370772,0.000000
168.000000,16206.869925,27474.004325,35922.516694,40513.117971,-2487.927972,20722.950485,38417.708983,41600.105655,0.106000,0.958000,0.180000,192.000000,3.000000,80.000000,29.000000,240.000000,5.000000,160.000000,0.000000,0.000000,0.000000,1646897421.378722,0.000000
169.000000,16198.398614,27463.901337,35915.811171,40500.377476,-2503.730655,20703.482116,38402.532149,41567.494460,0.106000,0.958000,0.180000,192.000000,0.000000,0.000000,0.000000,0.000000,0.000000,0.000000,0.000000,0.000000,0.000000,1646897421.378734,0.000000
170.000000,16209.887410,27475.546596,35926.092973,40512.179197,-2502.478957,20712.266351,38398.866463,41566.890963,0.106000,0.958000,0.180000,192.000000,0.000000,0.000000,0.000000,0.000000,0.000000,0.000000,0.000000,0.000000,0.000000,1646897421.386666,0.000000
171.000000,16225.712445,27488.197683,35938.632302,40529.077116,-2493.024170,20730.281857,38432.237617,41597.758722,0.106000,0.958000,0.180000,192.000000,0.000000,0.000000,0.000000,0.000000,0.000000,0.000000,0.000000,0.000000,0.000000,1646897421.386702,0.000000
172.000000,16210.781480,27471.255061,35925.333014,40516.716601,-2481.691835,20718.815412,38405.214358,41598.205757,0.106000,0.958000,0.180000,192.000000,0.000000,0.000000,0.000000,0.000000,0.000000,0.000000,0.000000,0.000000,0.000000,1646897421.393293,0.000000
173.000000,16198.018634,27459.810967,35913.352479,40502.679706,-2486.005722,20709.159459,38390.283393,41599.770379,0.106000,0.958000,0.180000,192.000000,0.000000,0.000000,0.000000,0.000000,0.000000,0.000000,0.000000,0.000000,0.000000,1646897421.393305,0.000000
174.000000,16197.102213,27460.727389,35911.519636,40501.092732,-2499.237955,20716.177907,38445.827478,41610.074533,0.106000,0.958000,0.180000,192.000000,0.000000,0.000000,0.000000,0.000000,0.000000,0.000000,0.000000,0.000000,0.000000,1646897421.400384,0.000000
175.000000,16191.335462,27458.134587,35906.378735,40497.672915,-2511.620821,20711.327578,38443.301731,41595.992934,0.106000,0.958000,0.180000,192.000000,0.000000,0.000000,0.000000,0.000000,0.000000,0.000000,0.000000,0.000000,0.000000,1646897421.408273,0.000000
176.000000,16201.036120,27467.343505,35914.648880,40503.059686,-2507.619859,20719.933000,38444.262856,41607.168806,0.106000,0.958000,0.180000,192.000000,0.000000,0.000000,0.000000,0.000000,0.000000,0.000000,0.000000,0.000000,0.000000,1646897421.408291,0.000000
177.000000,16204.590047,27474.004325,35917.867532,40508.379401,-2492.644190,20727.756110,38429.309539,41609.269870,0.106000,0.958000,0.180000,192.000000,0.000000,0.000000,0.000000,0.000000,0.000000,0.000000,0.000000,0.000000,0.000000,1646897421.416263,0.000000
178.000000,16204.970027,27477.222976,35917.219331,40507.597090,-2491.526603,20731.265334,38445.358091,41607.168806,0.106000,0.958000,0.180000,192.000000,0.000000,0.000000,0.000000,0.000000,0.000000,0.000000,0.000000,0.000000,0.000000,1646897421.416280,0.000000
179.000000,16203.651274,27475.613651,35919.230988,40506.747723,-2495.616972,20735.512165,38455.997521,41613.516702,0.106000,0.958000,0.178000,192.000000,3.000000,80.000000,29.000000,240.000000,5.000000,144.000000,0.000000,0.000000,0.000000,1646897421.423011,0.000000
180.000000,16194.643521,27465.063627,35910.267938,40500.757456,-2503.373027,20728.113738,38441.625350,41604.106617,0.106000,0.958000,0.178000,192.000000,0.000000,0.000000,0.000000,0.000000,0.000000,0.000000,0.000000,0.000000,0.000000,1646897421.423028,0.000000
181.000000,16197.482192,27463.677819,35914.134790,40501.338601,-2506.077588,20725.967971,38435.523323,41593.869519,0.106000,0.958000,0.178000,192.000000,0.000000,0.000000,0.000000,0.000000,0.000000,0.000000,0.000000,0.000000,0.000000,1646897421.430992,0.000000
182.000000,16201.550210,27468.237575,35919.253340,40507.999421,-2498.343885,20727.778462,38434.964530,41591.768455,0.106000,0.958000,0.178000,192.000000,0.000000,0.000000,0.000000,0.000000,0.000000,0.000000,0.000000,0.000000,0.000000,1646897421.431003,0.000000
183.000000,16210.155631,27484.889625,35925.288311,40521.276357,-2485.335169,20732.226459,38432.192914,41596.596431,0.106000,0.958000,0.178000,192.000000,0.000000,0.000000,0.000000,0.000000,0.000000,0.000000,0.000000,0.000000,0.000000,1646897421.439085,0.000000
184.000000,16212.793137,27489.851712,35927.232912,40532.742802,-2479.881344,20735.847442,38436.618559,41599.457455,0.106000,0.958000,0.178000,192.000000,0.000000,0.000000,0.000000,0.000000,0.000000,0.000000,0.000000,0.000000,0.000000,1646897421.439102,0.000000
185.000000,16215.274181,27488.823532,35925.891808,40533.793334,-2487.570344,20732.561735,38434.070460,41593.556594,0.106000,0.958000,0.178000,192.000000,0.000000,0.000000,0.000000,0.000000,0.000000,0.000000,0.000000,0.000000,0.000000,1646897421.445687,0.000000
186.000000,16226.159480,27497.451305,35935.860686,40540.364747,-2481.758890,20738.931982,38436.842076,41601.267946,0.106000,0.958000,0.178000,192.000000,0.000000,0.000000,0.000000,0.000000,0.000000,0.000000,0.000000,0.000000,0.000000,1646897421.445704,0.000000
187.000000,16222.180870,27491.841017,35937.425308,40535.737936,-2465.978559,20739.937811,38437.579684,41608.152283,0.106000,0.958000,0.178000,192.000000,0.000000,0.000000,0.000000,0.000000,0.000000,0.000000,0.000000,0.000000,0.000000,1646897421.453652,0.000000
188.000000,16194.978797,27465.622421,35913.598348,40503.462017,-2474.181649,20714.881505,38417.016079,41595.724713,0.106000,0.958000,0.178000,192.000000,0.000000,0.000000,0.000000,0.000000,0.000000,0.000000,0.000000,0.000000,0.000000,1646897421.453663,0.000000
189.000000,16201.460803,27473.266718,35919.320395,40504.177273,-2488.173841,20713.875677,38413.685669,41592.193138,0.106000,0.968000,0.188000,192.000000,3.000000,80.000000,30.000000,64.000000,5.000000,224.000000,0.000000,0.000000,0.000000,1646897421.460669,0.000000
190.000000,16207.026387,27478.832302,35925.891808,40509.742857,-2498.790920,20716.043796,38419.810047,41580.436120,0.106000,0.968000,0.188000,192.000000,0.000000,0.000000,0.000000,0.000000,0.000000,0.000000,0.000000,0.000000,0.000000,1646897421.468689,0.000000
191.000000,16205.282951,27479.860482,35923.343709,40513.185026,-2493.717074,20708.846534,38401.995707,41558.017320,0.106000,0.968000,0.188000,192.000000,0.000000,0.000000,0.000000,0.000000,0.000000,0.000000,0.000000,0.000000,0.000000,1646897421.468701,0.000000
192.000000,16208.501602,27482.430933,35926.204732,40518.035354,-2479.456661,20709.517087,38412.009288,41565.639265,0.106000,0.968000,0.188000,192.000000,0.000000,0.000000,0.000000,0.000000,0.000000,0.000000,0.000000,0.000000,0.000000,1646897421.475076,0.000000
193.000000,16221.644428,27492.690384,35941.247456,40521.879854,-2467.878457,20724.738625,38453.650588,41593.713056,0.106000,0.968000,0.188000,192.000000,0.000000,0.000000,0.000000,0.000000,0.000000,0.000000,0.000000,0.000000,0.000000,1646897421.475097,0.000000
194.000000,16215.318884,27484.777866,35941.359215,40514.660241,-2468.750175,20730.728892,38467.195745,41615.595414,0.106000,0.968000,0.188000,192.000000,0.000000,0.000000,0.000000,0.000000,0.000000,0.000000,0.000000,0.000000,0.000000,1646897421.483138,0.000000
195.000000,16205.037082,27476.351258,35930.786840,40502.389133,-2482.630608,20717.966046,38440.619521,41599.837434,0.106000,0.968000,0.188000,192.000000,0.000000,0.000000,0.000000,0.000000,0.000000,0.000000,0.000000,0.000000,0.000000,1646897421.483156,0.000000
196.000000,16209.999169,27482.319174,35931.569151,40501.428008,-2482.541201,20712.489869,38424.235693,41588.438045,0.106000,0.968000,0.188000,192.000000,0.000000,0.000000,0.000000,0.000000,0.000000,0.000000,0.000000,0.000000,0.000000,1646897421.491359,0.000000
197.000000,16206.758166,27477.982936,35931.502096,40499.841034,-2468.504306,20720.156517,38461.853678,41609.739257,0.106000,0.968000,0.188000,192.000000,0.000000,0.000000,0.000000,0.000000,0.000000,0.000000,0.000000,0.000000,0.000000,1646897421.491376,0.000000
198.000000,16202.801907,27470.271584,35928.596369,40490.810930,-2471.790012,20718.882468,38458.612676,41623.552635,0.106000,0.968000,0.188000,192.000000,0.000000,0.000000,0.000000,0.000000,0.000000,0.000000,0.000000,0.000000,0.000000,1646897421.498424,0.000000
199.000000,16203.986550,27471.076247,35927.612892,40488.508700,-2487.100957,20715.485002,38453.918809,41612.868501,0.114000,0.970000,0.186000,192.000000,3.000000,144.000000,30.000000,80.000000,5.000000,208.000000,0.000000,0.000000,0.000000,1646897421.498441,0.000000
200.000000,16210.759128,27480.709848,35930.339805,40495.549499,-2490.520774,20719.910648,38464.848812,41597.356391,0.114000,0.970000,0.186000,192.000000,0.000000,0.000000,0.000000,0.000000,0.000000,0.000000,0.000000,0.000000,0.000000,1646897421.505693,0.000000
201.000000,16224.818376,27493.517398,35946.276599,40513.944985,-2468.549009,20739.826052,38492.140292,41601.133835,0.114000,0.970000,0.186000,192.000000,0.000000,0.000000,0.000000,0.000000,0.000000,0.000000,0.000000,0.000000,0.000000,1646897421.505704,0.000000
202.000000,16211.206163,27480.754552,35937.045328,40506.635965,-2451.964015,20736.227421,38477.432844,41608.286394,0.114000,0.970000,0.186000,192.000000,0.000000,0.000000,0.000000,0.000000,0.000000,0.000000,0.000000,0.000000,0.000000,1646897421.513994,0.000000
203.000000,16213.709559,27482.766209,35940.196924,40507.664145,-2450.399393,20737.993209,38490.888594,41609.024001,0.114000,0.970000,0.186000,192.000000,0.000000,0.000000,0.000000,0.000000,0.000000,0.000000,0.000000,0.000000,0.000000,1646897421.514011,0.000000
204.000000,16214.961256,27488.465904,35937.827639,40512.469770,-2458.267207,20739.580183,38492.721438,41609.336926,0.114000,0.970000,0.186000,192.000000,0.000000,0.000000,0.000000,0.000000,0.000000,0.000000,0.000000,0.000000,0.000000,1646897421.521037,0.000000
205.000000,16216.592934,27487.773000,35938.855820,40511.888625,-2469.823059,20740.630715,38491.357981,41601.111484,0.114000,0.970000,0.186000,192.000000,0.000000,0.000000,0.000000,0.000000,0.000000,0.000000,0.000000,0.000000,0.000000,1646897421.528141,0.000000
206.000000,16209.149803,27482.475636,35933.826677,40502.992630,-2475.299236,20730.661837,38471.822556,41585.800539,0.114000,0.970000,0.186000,192.000000,0.000000,0.000000,0.000000,0.000000,0.000000,0.000000,0.000000,0.000000,0.000000,1646897421.528158,0.000000
207.000000,16207.026387,27483.101485,35930.652729,40499.841034,-2472.192344,20729.208974,38476.069388,41582.201908,0.114000,0.970000,0.186000,192.000000,0.000000,0.000000,0.000000,0.000000,0.000000,0.000000,0.000000,0.000000,0.000000,1646897421.535603,0.000000
208.000000,16214.737739,27492.064535,35937.492363,40508.826436,-2466.604408,20734.036950,38480.562089,41595.322382,0.114000,0.970000,0.186000,192.000000,0.000000,0.000000,0.000000,0.000000,0.000000,0.000000,0.000000,0.000000,0.000000,1646897421.535621,0.000000
209.000000,16204.590047,27484.017907,35927.478782,40501.785636,-2474.718091,20724.492755,38473.901269,41597.803426,0.110000,0.962000,0.180000,192.000000,3.000000,112.000000,30.000000,16.000000,5.000000,160.000000,0.000000,0.000000,0.000000,1646897421.543607,0.000000
210.000000,16208.635713,27483.392058,35929.736308,40500.176311,-2484.865783,20719.843593,38469.855603,41591.813158,0.110000,0.962000,0.180000,192.000000,0.000000,0.000000,0.000000,0.000000,0.000000,0.000000,0.000000,0.000000,0.000000,1646897421.543624,0.000000
211.000000,16209.686245,27485.001383,35932.373814,40502.322078,-2475.858030,20719.307151,38468.045112,41582.693646,0.110000,0.962000,0.180000,192.000000,0.000000,0.000000,0.000000,0.000000,0.000000,0.000000,0.000000,0.000000,0.000000,1646897421.551657,0.000000
212.000000,16205.327655,27481.559215,35930.205694,40498.723447,-2461.709376,20717.116680,38474.437711,41594.473016,0.110000,0.962000,0.180000,192.000000,0.000000,0.000000,0.000000,0.000000,0.000000,0.000000,0.000000,0.000000,0.000000,1646897421.551673,0.000000
213.000000,16209.775652,27484.330831,35931.904427,40503.596127,-2463.497515,20717.496659,38485.255955,41592.751931,0.110000,0.962000,0.180000,192.000000,0.000000,0.000000,0.000000,0.000000,0.000000,0.000000,0.000000,0.000000,0.000000,1646897421.558082,0.000000
214.000000,16221.532669,27494.567930,35941.470974,40513.520302,-2471.700605,20725.275067,38484.495996,41585.197042,0.110000,0.962000,0.180000,192.000000,0.000000,0.000000,0.000000,0.000000,0.000000,0.000000,0.000000,0.000000,0.000000,1646897421.558129,0.000000
215.000000,16205.931152,27482.945023,35930.362157,40497.136473,-2473.242876,20717.966046,38469.497975,41586.225222,0.110000,0.962000,0.180000,192.000000,0.000000,0.000000,0.000000,0.000000,0.000000,0.000000,0.000000,0.000000,0.000000,1646897421.566100,0.000000
216.000000,16194.352948,27472.596165,35917.040517,40480.707941,-2479.076681,20710.254694,38465.139385,41591.343771,0.110000,0.962000,0.180000,192.000000,0.000000,0.000000,0.000000,0.000000,0.000000,0.000000,0.000000,0.000000,0.000000,1646897421.566116,0.000000
217.000000,16203.628922,27481.223939,35923.589578,40489.849805,-2467.789050,20722.637561,38479.377446,41606.431199,0.110000,0.962000,0.180000,192.000000,0.000000,0.000000,0.000000,0.000000,0.000000,0.000000,0.000000,0.000000,0.000000,1646897421.574251,0.000000
218.000000,16211.407329,27489.091753,35931.390337,40496.018886,-2467.230256,20729.432491,38481.947897,41594.048332,0.110000,0.962000,0.180000,192.000000,0.000000,0.000000,0.000000,0.000000,0.000000,0.000000,0.000000,0.000000,0.000000,1646897421.574269,0.000000
219.000000,16208.009864,27486.141322,35929.691604,40491.436778,-2482.585905,20726.772633,38465.228792,41561.928876,0.112000,0.962000,0.180000,192.000000,3.000000,128.000000,30.000000,16.000000,5.000000,160.000000,0.000000,0.000000,0.000000,1646897421.581345,0.000000
220.000000,16197.593951,27480.911014,35923.008433,40489.313363,-2481.021283,20733.724026,38499.046981,41596.261155,0.112000,0.962000,0.180000,192.000000,0.000000,0.000000,0.000000,0.000000,0.000000,0.000000,0.000000,0.000000,0.000000,1646897421.581357,0.000000
221.000000,16189.323805,27472.752627,35912.614872,40478.986857,-2478.607294,20724.760976,38493.034362,41604.263080,0.112000,0.962000,0.180000,192.000000,0.000000,0.000000,0.000000,0.000000,0.000000,0.000000,0.000000,0.000000,0.000000,1646897421.587722,0.000000
222.000000,16197.012806,27475.881872,35916.168799,40479.858575,-2474.651036,20721.765843,38471.844908,41590.963792,0.112000,0.962000,0.180000,192.000000,0.000000,0.000000,0.000000,0.000000,0.000000,0.000000,0.000000,0.000000,0.000000,1646897421.595979,0.000000
223.000000,16208.188678,27487.705945,35925.198904,40494.096636,-2463.676329,20729.946581,38470.839080,41594.428312,0.112000,0.962000,0.180000,192.000000,0.000000,0.000000,0.000000,0.000000,0.000000,0.000000,0.000000,0.000000,0.000000,1646897421.595996,0.000000
224.000000,16205.797041,27486.700116,35924.103668,40494.431912,-2461.955245,20733.209936,38485.792397,41596.797597,0.112000,0.962000,0.180000,192.000000,0.000000,0.000000,0.000000,0.000000,0.000000,0.000000,0.000000,0.000000,0.000000,1646897421.603935,0.000000
225.000000,16213.173117,27497.227788,35932.530276,40500.824511,-2463.653977,20740.273087,38513.799133,41604.263080,0.112000,0.962000,0.180000,192.000000,0.000000,0.000000,0.000000,0.000000,0.000000,0.000000,0.000000,0.000000,0.000000,1646897421.603951,0.000000
226.000000,16204.947675,27488.711773,35925.936511,40495.236575,-2460.189457,20731.175927,38499.985754,41619.261100,0.112000,0.962000,0.180000,192.000000,0.000000,0.000000,0.000000,0.000000,0.000000,0.000000,0.000000,0.000000,0.000000,1646897421.610609,0.000000
227.000000,16192.922436,27474.183139,35915.319433,40484.910069,-2459.049518,20719.977703,38488.385199,41619.350507,0.112000,0.962000,0.180000,192.000000,0.000000,0.000000,0.000000,0.000000,0.000000,0.000000,0.000000,0.000000,0.000000,1646897421.610628,0.000000
228.000000,16202.623093,27486.566006,35926.115325,40489.648639,-2468.906637,20724.604514,38496.655345,41609.359277,0.112000,0.962000,0.180000,192.000000,0.000000,0.000000,0.000000,0.000000,0.000000,0.000000,0.000000,0.000000,0.000000,1646897421.618553,0.000000
229.000000,16201.550210,27485.895453,35926.987043,40491.369723,-2471.030053,20728.896049,38502.623260,41612.332059,0.112000,0.962000,0.188000,192.000000,3.000000,128.000000,30.000000,16.000000,5.000000,224.000000,0.000000,0.000000,0.000000,1646897421.618570,0.000000
230.000000,16205.528820,27495.283186,35933.223180,40496.220052,-2467.207905,20735.065131,38517.151894,41621.026888,0.112000,0.962000,0.188000,192.000000,0.000000,0.000000,0.000000,0.000000,0.000000,0.000000,0.000000,0.000000,0.000000,1646897421.626341,0.000000
231.000000,16208.568657,27499.328852,35934.474878,40500.444531,-2460.457678,20734.327523,38503.159702,41621.429219,0.112000,0.962000,0.188000,192.000000,0.000000,0.000000,0.000000,0.000000,0.000000,0.000000,0.000000,0.000000,0.000000,1646897421.626353,0.000000
232.000000,16201.840782,27494.634985,35922.360232,40491.772055,-2469.308969,20715.619113,38481.277344,41604.710115,0.112000,0.962000,0.188000,192.000000,0.000000,0.000000,0.000000,0.000000,0.000000,0.000000,0.000000,0.000000,0.000000,1646897421.633639,0.000000
233.000000,16205.305303,27500.558198,35928.976349,40487.860499,-2466.671463,20720.022407,38484.093664,41609.918071,0.112000,0.962000,0.188000,192.000000,0.000000,0.000000,0.000000,0.000000,0.000000,0.000000,0.000000,0.000000,0.000000,1646897421.633655,0.000000
234.000000,16195.805811,27501.564026,35927.679947,40485.513566,-2469.599541,20724.224535,38478.706894,41612.086190,0.112000,0.962000,0.188000,192.000000,0.000000,0.000000,0.000000,0.000000,0.000000,0.000000,0.000000,0.000000,0.000000,1646897421.641115,0.000000
235.000000,16193.324768,27507.397831,35926.092973,40481.669066,-2479.009626,20720.782366,38482.327876,41607.772304,0.112000,0.962000,0.188000,192.000000,0.000000,0.000000,0.000000,0.000000,0.000000,0.000000,0.000000,0.000000,0.000000,1646897421.641150,0.000000
236.000000,16186.887465,27501.720488,35923.366061,40478.092787,-2473.980483,20721.028235,38488.452254,41610.812141,0.112000,0.962000,0.188000,192.000000,0.000000,0.000000,0.000000,0.000000,0.000000,0.000000,0.000000,0.000000,0.000000,1646897421.648266,0.000000
237.000000,16190.553151,27507.219017,35925.847104,40474.874136,-2463.475163,20718.234267,38479.019818,41615.193083,0.112000,0.962000,0.188000,192.000000,0.000000,0.000000,0.000000,0.000000,0.000000,0.000000,0.000000,0.000000,0.000000,1646897421.656079,0.000000
238.000000,16189.212047,27502.145171,35921.086183,40465.285237,-2470.381852,20709.830011,38473.700103,41607.548786,0.112000,0.962000,0.188000,192.000000,0.000000,0.000000,0.000000,0.000000,0.000000,0.000000,0.000000,0.000000,0.000000,1646897421.656090,0.000000
239.000000,16184.898160,27499.932349,35916.369965,40463.675912,-2479.948399,20704.756165,38468.089815,41603.592527,0.112000,0.962000,0.186000,192.000000,3.000000,128.000000,30.000000,16.000000,5.000000,208.000000,0.000000,0.000000,0.000000,1646897421.663291,0.000000
240.000000,16191.916608,27512.069346,35922.159066,40475.835261,-2478.719053,20709.740604,38463.239487,41612.712039,0.112000,0.962000,0.186000,192.000000,0.000000,0.000000,0.000000,0.000000,0.000000,0.000000,0.000000,0.000000,0.000000,1646897421.663303,0.000000
241.000000,16203.494811,27531.068329,35934.519581,40491.816758,-2467.587884,20722.190526,38472.738978,41613.427295,0.112000,0.962000,0.186000,192.000000,0.000000,0.000000,0.000000,0.000000,0.000000,0.000000,0.000000,0.000000,0.000000,1646897421.670671,0.000000
242.000000,16198.935056,27535.851602,35932.865552,40494.297802,-2456.590826,20727.689055,38478.908059,41622.010365,0.112000,0.962000,0.186000,192.000000,0.000000,0.000000,0.000000,0.000000,0.000000,0.000000,0.000000,0.000000,0.000000,1646897421.670683,0.000000
243.000000,16186.306320,27525.882724,35921.913197,40478.137491,-2464.592751,20718.413081,38471.688446,41616.265966,0.112000,0.962000,0.186000,192.000000,0.000000,0.000000,0.000000,0.000000,0.000000,0.000000,0.000000,0.000000,0.000000,1646897421.678896,0.000000
244.000000,16175.666890,27517.322006,35913.106610,40465.441700,-2486.050425,20705.426717,38437.020890,41606.677068,0.112000,0.962000,0.186000,192.000000,0.000000,0.000000,0.000000,0.000000,0.000000,0.000000,0.000000,0.000000,0.000000,1646897421.678913,0.000000
245.000000,16193.950617,27537.975018,35927.925817,40482.183156,-2490.476071,20715.105023,38447.325045,41603.659583,0.112000,0.962000,0.186000,192.000000,0.000000,0.000000,0.000000,0.000000,0.000000,0.000000,0.000000,0.000000,0.000000,1646897421.686752,0.000000
246.000000,16191.313111,27541.998332,35926.540008,40487.882851,-2472.952303,20722.346988,38470.839080,41622.882083,0.112000,0.962000,0.186000,192.000000,0.000000,0.000000,0.000000,0.000000,0.000000,0.000000,0.000000,0.000000,0.000000,1646897421.686764,0.000000
247.000000,16204.791213,27558.963306,35937.537067,40502.746761,-2458.647187,20731.377093,38493.123769,41635.667281,0.112000,0.962000,0.186000,192.000000,0.000000,0.000000,0.000000,0.000000,0.000000,0.000000,0.000000,0.000000,0.000000,1646897421.693417,0.000000
248.000000,16194.934093,27558.158643,35923.567226,40492.487310,-2460.949416,20712.556924,38436.640911,41615.640118,0.112000,0.962000,0.186000,192.000000,0.000000,0.000000,0.000000,0.000000,0.000000,0.000000,0.000000,0.000000,0.000000,1646897421.693434,0.000000
249.000000,16184.965215,27559.410341,35914.179494,40480.395017,-2480.909524,20705.158497,38445.313388,41597.825777,0.102000,0.964000,0.186000,192.000000,3.000000,48.000000,30.000000,32.000000,5.000000,208.000000,0.000000,0.000000,0.000000,1646897421.701413,0.000000
250.000000,16190.128468,27576.509425,35920.437982,40482.876060,-2483.010588,20718.234267,38466.860469,41612.399115,0.102000,0.964000,0.186000,192.000000,0.000000,0.000000,0.000000,0.000000,0.000000,0.000000,0.000000,0.000000,0.000000,1646897421.701431,0.000000
251.000000,16174.303433,27569.558033,35906.714011,40471.096691,-2474.963960,20711.953427,38471.666094,41621.988013,0.102000,0.964000,0.186000,192.000000,0.000000,0.000000,0.000000,0.000000,0.000000,0.000000,0.000000,0.000000,0.000000,1646897421.708386,0.000000
252.000000,16173.364660,27571.972021,35903.495360,40469.576772,-2474.494573,20707.281912,38472.806033,41610.275699,0.102000,0.964000,0.186000,192.000000,0.000000,0.000000,0.000000,0.000000,0.000000,0.000000,0.000000,0.000000,0.000000,1646897421.716308,0.000000
253.000000,16183.490000,27585.584233,35915.386488,40479.590354,-2479.255495,20713.942732,38472.738978,41603.458417,0.102000,0.964000,0.186000,192.000000,0.000000,0.000000,0.000000,0.000000,0.000000,0.000000,0.000000,0.000000,0.000000,1646897421.716325,0.000000
254.000000,16180.338404,27587.662946,35917.152276,40478.137491,-2484.865783,20717.340197,38474.594173,41611.549748,0.102000,0.964000,0.186000,192.000000,0.000000,0.000000,0.000000,0.000000,0.000000,0.000000,0.000000,0.000000,0.000000,1646897421.723198,0.000000
255.000000,16166.502674,27576.934108,35903.405953,40463.765319,-2491.168975,20708.913590,38463.574763,41614.701344,0.102000,0.964000,0.186000,192.000000,0.000000,0.000000,0.000000,0.000000,0.000000,0.000000,0.000000,0.000000,0.000000,1646897421.723216,0.000000
0.000000,16163.239320,27577.068219,35896.700430,40459.250266,-2490.900754,20704.599703,38448.107356,41616.333022,0.102000,0.964000,0.186000,192.000000,0.000000,0.000000,0.000000,0.000000,0.000000,0.000000,0.000000,0.000000,0.000000,1646897421.730978,0.000000
1.000000,16174.862227,27589.071106,35904.076505,40463.385339,-2495.974600,20706.231380,38453.315312,41594.584774,0.102000,0.964000,0.186000,192.000000,0.000000,0.000000,0.000000,0.000000,0.000000,0.000000,0.000000,0.000000,0.000000,1646897421.731003,0.000000
2.000000,16171.576520,27587.372373,35907.317508,40463.787671,-2500.064969,20703.817392,38448.442632,41592.036675,0.102000,0.964000,0.186000,192.000000,0.000000,0.000000,0.000000,0.000000,0.000000,0.000000,0.000000,0.000000,0.000000,1646897421.738878,0.000000
3.000000,16168.648442,27583.483169,35904.501188,40459.160859,-2506.390513,20700.151706,38438.809030,41589.198004,0.112000,0.964000,0.182000,192.000000,3.000000,128.000000,30.000000,32.000000,5.000000,176.000000,0.000000,0.000000,0.000000,1646897421.738896,0.000000
4.000000,16188.876771,27602.973891,35921.846142,40473.108348,-2499.707341,20713.518049,38449.895495,41595.009457,0.112000,0.964000,0.182000,192.000000,0.000000,0.000000,0.000000,0.000000,0.000000,0.000000,0.000000,0.000000,0.000000,1646897421.746251,0.000000
5.000000,16189.435564,27602.728021,35925.891808,40478.696284,-2477.556762,20720.670607,38451.236600,41600.910318,0.112000,0.964000,0.182000,192.000000,0.000000,0.000000,0.000000,0.000000,0.000000,0.000000,0.000000,0.000000,0.000000,1646897421.746268,0.000000
6.000000,16187.334500,27604.762030,35922.404936,40475.745854,-2475.612161,20718.636598,38453.628236,41607.593490,0.112000,0.964000,0.182000,192.000000,0.000000,0.000000,0.000000,0.000000,0.000000,0.000000,0.000000,0.000000,0.000000,1646897421.753673,0.000000
7.000000,16184.205256,27606.617225,35920.728555,40473.667142,-2484.195231,20717.407252,38455.863411,41604.844225,0.112000,0.964000,0.182000,192.000000,0.000000,0.000000,0.000000,0.000000,0.000000,0.000000,0.000000,0.000000,0.000000,1646897421.753690,0.000000
8.000000,16170.324823,27593.340289,35907.093991,40459.160859,-2498.746216,20704.778517,38447.794431,41597.535205,0.112000,0.964000,0.182000,192.000000,0.000000,0.000000,0.000000,0.000000,0.000000,0.000000,0.000000,0.000000,0.000000,1646897421.761703,0.000000
9.000000,16177.477381,27605.834914,35914.984156,40465.464051,-2499.349713,20713.160421,38453.248257,41594.763588,0.112000,0.964000,0.182000,192.000000,0.000000,0.000000,0.000000,0.000000,0.000000,0.000000,0.000000,0.000000,0.000000,1646897421.761715,0.000000
10.000000,16176.248035,27610.171152,35915.855875,40465.419348,-2487.503289,20717.742529,38451.996559,41604.084266,0.112000,0.964000,0.182000,192.000000,0.000000,0.000000,0.000000,0.000000,0.000000,0.000000,0.000000,0.000000,0.000000,1646897421.768761,0.000000
11.000000,16171.554169,27605.164362,35907.585729,40455.785746,-2486.229239,20711.260523,38449.426109,41606.878234,0.112000,0.964000,0.182000,192.000000,0.000000,0.000000,0.000000,0.000000,0.000000,0.000000,0.000000,0.000000,0.000000,1646897421.775353,0.000000
12.000000,16170.682451,27605.901969,35901.707220,40448.007339,-2489.939629,20707.416023,38452.644760,41606.721772,0.112000,0.964000,0.182000,192.000000,0.000000,0.000000,0.000000,0.000000,0.000000,0.000000,0.000000,0.000000,0.000000,1646897421.775370,0.000000
13.000000,16174.124619,27615.043833,35904.747058,40449.370795,-2499.461472,20705.717290,38447.950893,41602.877272,0.112000,0.966000,0.188000,192.000000,3.000000,128.000000,30.000000,48.000000,5.000000,224.000000,0.000000,0.000000,0.000000,1646897421.783139,0.000000
14.000000,16187.826239,27633.014635,35917.666366,40469.800290,-2489.157318,20718.524840,38473.074254,41617.718830,0.112000,0.966000,0.188000,192.000000,0.000000,0.000000,0.000000,0.000000,0.000000,0.000000,0.000000,0.000000,0.000000,1646897421.783151,0.000000
15.000000,16190.597855,27639.295475,35924.394241,40475.231764,-2478.517887,20719.597723,38481.545565,41623.217359,0.112000,0.966000,0.188000,192.000000,0.000000,0.000000,0.000000,0.000000,0.000000,0.000000,0.000000,0.000000,0.000000,1646897421.790627,0.000000
16.000000,16178.103230,27632.142917,35914.045383,40464.212354,-2480.350730,20705.382014,38461.294885,41600.686801,0.112000,0.966000,0.188000,192.000000,0.000000,0.000000,0.000000,0.000000,0.000000,0.000000,0.000000,0.000000,0.000000,1646897421.790643,0.000000
17.000000,16180.450163,27633.707539,35913.620700,40463.430043,-2484.865783,20703.258598,38422.671070,41596.283507,0.112000,0.966000,0.188000,192.000000,0.000000,0.000000,0.000000,0.000000,0.000000,0.000000,0.000000,0.000000,0.000000,1646897421.798627,0.000000
18.000000,16191.961311,27647.029179,35921.577921,40469.308551,-2490.252553,20710.567619,38418.871274,41600.820911,0.112000,0.966000,0.188000,192.000000,0.000000,0.000000,0.000000,0.000000,0.000000,0.000000,0.000000,0.000000,0.000000,1646897421.798645,0.000000
19.000000,16188.027404,27646.559792,35921.801439,40470.984932,-2477.735576,20725.722101,38506.467760,41633.007423,0.112000,0.966000,0.188000,192.000000,0.000000,0.000000,0.000000,0.000000,0.000000,0.000000,0.000000,0.000000,0.000000,1646897421.806655,0.000000
20.000000,16181.679509,27640.971856,35917.487552,40462.267752,-2479.255495,20718.301322,38505.327821,41628.872350,0.112000,0.966000,0.188000,192.000000,0.000000,0.000000,0.000000,0.000000,0.000000,0.000000,0.000000,0.000000,0.000000,1646897421.806672,0.000000
21.000000,16178.550265,27644.704598,35915.989985,40461.977179,-2473.801669,20717.697825,38483.400760,41624.737278,0.112000,0.966000,0.188000,192.000000,0.000000,0.000000,0.000000,0.000000,0.000000,0.000000,0.000000,0.000000,0.000000,1646897421.813560,0.000000
22.000000,16179.399631,27657.959182,35916.682889,40461.597200,-2477.109728,20716.535534,38478.237507,41620.848074,0.112000,0.966000,0.188000,192.000000,0.000000,0.000000,0.000000,0.000000,0.000000,0.000000,0.000000,0.000000,0.000000,1646897421.813605,0.000000
23.000000,16174.638709,27665.536423,35916.437020,40457.909162,-2481.311855,20716.356720,38476.985809,41628.201798,0.112000,0.958000,0.180000,192.000000,3.000000,128.000000,29.000000,240.000000,5.000000,160.000000,0.000000,0.000000,0.000000,1646897421.821300,0.000000
24.000000,16170.503637,27666.050514,35913.620700,40454.265827,-2483.748196,20706.074918,38450.566047,41620.982185,0.112000,0.958000,0.180000,192.000000,0.000000,0.000000,0.000000,0.000000,0.000000,0.000000,0.000000,0.000000,0.000000,1646897421.821317,0.000000
25.000000,16179.511390,27677.919290,35920.437982,40464.122947,-2477.288541,20707.594837,38446.587437,41606.945289,0.112000,0.958000,0.180000,192.000000,0.000000,0.000000,0.000000,0.000000,0.000000,0.000000,0.000000,0.000000,0.000000,1646897421.828364,0.000000
26.000000,16180.494866,27681.696735,35919.074526,40465.285237,-2470.046576,20710.366453,38462.300713,41614.790751,0.112000,0.958000,0.180000,192.000000,0.000000,0.000000,0.000000,0.000000,0.000000,0.000000,0.000000,0.000000,0.000000,1646897421.828380,0.000000
27.000000,16179.220817,27684.133075,35917.487552,40466.179307,-2475.433347,20709.986473,38458.277399,41624.223187,0.112000,0.958000,0.180000,192.000000,0.000000,0.000000,0.000000,0.000000,0.000000,0.000000,0.000000,0.000000,0.000000,1646897421.836383,0.000000
28.000000,16181.254826,27685.608290,35916.481723,40463.944133,-2490.967809,20704.666758,38449.157888,41617.852940,0.112000,0.958000,0.180000,192.000000,0.000000,0.000000,0.000000,0.000000,0.000000,0.000000,0.000000,0.000000,0.000000,1646897421.842805,0.000000
29.000000,16185.971044,27694.169008,35921.019127,40472.214278,-2490.945457,20705.292607,38445.156925,41610.074533,0.112000,0.958000,0.180000,192.000000,0.000000,0.000000,0.000000,0.000000,0.000000,0.000000,0.000000,0.000000,0.000000,1646897421.842822,0.000000
30.000000,16185.322843,27699.332261,35923.142543,40476.774034,-2474.986312,20709.941770,38451.683635,41621.250405,0.112000,0.958000,0.180000,192.000000,0.000000,0.000000,0.000000,0.000000,0.000000,0.000000,0.000000,0.000000,0.000000,1646897421.850994,0.000000
31.000000,16181.008957,27696.448886,35920.035651,40472.258982,-2463.721033,20704.711462,38436.663262,41623.709097,0.112000,0.958000,0.180000,192.000000,0.000000,0.000000,0.000000,0.000000,0.000000,0.000000,0.000000,0.000000,0.000000,1646897421.851011,0.000000
32.000000,16183.981739,27699.198151,35920.862665,40472.326037,-2470.359501,20703.280950,38441.781812,41605.201853,0.112000,0.958000,0.180000,192.000000,0.000000,0.000000,0.000000,0.000000,0.000000,0.000000,0.000000,0.000000,0.000000,1646897421.858782,0.000000
33.000000,16181.813619,27698.505246,35917.487552,40468.280371,-2477.981446,20699.458802,38444.508725,41606.185330,0.112000,0.958000,0.180000,192.000000,0.000000,0.000000,0.000000,0.000000,0.000000,0.000000,0.000000,0.000000,0.000000,1646897421.858795,0.000000
34.000000,16182.908855,27699.712241,35915.855875,40465.218182,-2484.195231,20695.457839,38451.102489,41605.045391,0.108000,0.966000,0.188000,192.000000,3.000000,96.000000,30.000000,48.000000,5.000000,224.000000,0.000000,0.000000,0.000000,1646897421.866067,0.000000
35.000000,16199.382090,27717.638340,35929.937474,40478.763339,-2477.512059,20707.304264,38443.927579,41610.990955,0.108000,0.966000,0.188000,192.000000,0.000000,0.000000,0.000000,0.000000,0.000000,0.000000,0.000000,0.000000,0.000000,1646897421.866083,0.000000
36.000000,16205.305303,27729.104785,35936.754756,40486.541746,-2464.615102,20712.825145,38429.667166,41607.682897,0.108000,0.966000,0.188000,192.000000,0.000000,0.000000,0.000000,0.000000,0.000000,0.000000,0.000000,0.000000,0.000000,1646897421.873579,0.000000
37.000000,16201.483154,27727.808383,35932.127944,40482.227860,-2460.412974,20718.815412,38487.960516,41617.003574,0.108000,0.966000,0.188000,192.000000,0.000000,0.000000,0.000000,0.000000,0.000000,0.000000,0.000000,0.000000,0.000000,1646897421.873596,0.000000
38.000000,16198.622131,27726.288465,35929.669253,40476.885793,-2470.359501,20716.155555,38479.176280,41635.779039,0.108000,0.966000,0.188000,192.000000,0.000000,0.000000,0.000000,0.000000,0.000000,0.000000,0.000000,0.000000,0.000000,1646897421.881579,0.000000
39.000000,16188.854419,27715.805497,35926.003567,40474.963543,-2477.266190,20714.769747,38456.176335,41637.745993,0.108000,0.966000,0.188000,192.000000,0.000000,0.000000,0.000000,0.000000,0.000000,0.000000,0.000000,0.000000,0.000000,1646897421.881595,0.000000
40.000000,16180.114887,27703.109706,35922.539046,40467.140432,-2471.745309,20720.469441,38467.016931,41636.226074,0.108000,0.966000,0.188000,192.000000,0.000000,0.000000,0.000000,0.000000,0.000000,0.000000,0.000000,0.000000,0.000000,1646897421.889507,0.000000
41.000000,16165.407439,27688.022278,35910.603215,40452.365929,-2467.029091,20709.092404,38447.526210,41638.371842,0.108000,0.966000,0.188000,192.000000,0.000000,0.000000,0.000000,0.000000,0.000000,0.000000,0.000000,0.000000,0.000000,1646897421.889518,0.000000
42.000000,16168.961366,27692.090296,35909.306813,40451.136583,-2475.433347,20706.611360,38440.999501,41634.594397,0.108000,0.966000,0.188000,192.000000,0.000000,0.000000,0.000000,0.000000,0.000000,0.000000,0.000000,0.000000,0.000000,1646897421.895682,0.000000
43.000000,16176.024518,27699.354613,35912.033726,40457.238609,-2487.391530,20712.802793,38451.705986,41628.291205,0.108000,0.966000,0.188000,192.000000,0.000000,0.000000,0.000000,0.000000,0.000000,0.000000,0.000000,0.000000,0.000000,1646897421.903243,0.000000
44.000000,16187.937997,27710.709299,35918.940415,40464.033540,-2489.447890,20723.822203,38463.127728,41623.373821,0.102000,0.962000,0.182000,192.000000,3.000000,48.000000,30.000000,16.000000,5.000000,176.000000,0.000000,0.000000,0.000000,1646897421.903259,0.000000
45.000000,16191.022538,27717.347767,35924.260130,40473.220107,-2475.500402,20733.433453,38470.704969,41621.809199,0.102000,0.962000,0.182000,192.000000,0.000000,0.000000,0.000000,0.000000,0.000000,0.000000,0.000000,0.000000,0.000000,1646897421.911195,0.000000
46.000000,16187.602721,27718.398299,35926.137677,40475.410578,-2465.308006,20735.445110,38473.565993,41628.291205,0.102000,0.962000,0.182000,192.000000,0.000000,0.000000,0.000000,0.000000,0.000000,0.000000,0.000000,0.000000,0.000000,1646897421.911207,0.000000
47.000000,16173.364660,27707.423592,35914.112438,40461.597200,-2473.086414,20722.615209,38456.042225,41629.542903,0.102000,0.962000,0.182000,192.000000,0.000000,0.000000,0.000000,0.000000,0.000000,0.000000,0.000000,0.000000,0.000000,1646897421.919280,0.000000
48.000000,16172.872922,27707.267130,35911.743154,40456.165726,-2486.005722,20715.082671,38453.225905,41620.423391,0.102000,0.962000,0.182000,192.000000,0.000000,0.000000,0.000000,0.000000,0.000000,0.000000,0.000000,0.000000,0.000000,1646897421.919296,0.000000
49.000000,16177.432677,27711.849238,35914.313604,40459.876115,-2490.096091,20716.513183,38455.282266,41614.276661,0.102000,0.962000,0.182000,192.000000,0.000000,0.000000,0.000000,0.000000,0.000000,0.000000,0.000000,0.000000,0.000000,1646897421.925655,0.000000
50.000000,16180.383108,27711.491610,35916.392316,40465.844031,-2485.379873,20718.368377,38454.701120,41620.177522,0.102000,0.962000,0.182000,192.000000,0.000000,0.000000,0.000000,0.000000,0.000000,0.000000,0.000000,0.000000,0.000000,1646897421.925671,0.000000
51.000000,16188.429736,27718.554761,35924.260130,40471.096691,-2477.310893,20719.351854,38456.913943,41616.243615,0.102000,0.962000,0.182000,192.000000,0.000000,0.000000,0.000000,0.000000,0.000000,0.000000,0.000000,0.000000,0.000000,1646897421.933792,0.000000
52.000000,16195.984625,27724.835601,35930.160991,40472.683665,-2475.254533,20716.356720,38429.063669,41612.488522,0.102000,0.962000,0.182000,192.000000,0.000000,0.000000,0.000000,0.000000,0.000000,0.000000,0.000000,0.000000,0.000000,1646897421.933809,0.000000
53.000000,16181.947730,27711.089279,35917.576959,40454.064662,-2488.397358,20703.102136,38409.215320,41600.798559,0.102000,0.962000,0.182000,192.000000,0.000000,0.000000,0.000000,0.000000,0.000000,0.000000,0.000000,0.000000,0.000000,1646897421.941629,0.000000
54.000000,16181.165419,27713.905598,35918.783953,40461.776014,-2485.424576,20707.058395,38465.876992,41602.094960,0.108000,0.970000,0.182000,192.000000,3.000000,96.000000,30.000000,80.000000,5.000000,176.000000,0.000000,0.000000,0.000000,1646897421.941641,0.000000
55.000000,16183.624111,27718.286540,35920.214465,40467.118081,-2473.198172,20705.449069,38447.548562,41604.061914,0.108000,0.970000,0.182000,192.000000,0.000000,0.000000,0.000000,0.000000,0.000000,0.000000,0.000000,0.000000,0.000000,1646897421.949091,0.000000
56.000000,16185.188733,27723.628607,35923.924854,40470.649656,-2466.313835,20707.997168,38462.725396,41606.900586,0.108000,0.970000,0.182000,192.000000,0.000000,0.000000,0.000000,0.000000,0.000000,0.000000,0.000000,0.000000,0.000000,1646897421.949108,0.000000
57.000000,16197.325730,27735.407977,35932.038538,40476.170537,-2469.510134,20717.474308,38470.906135,41607.548786,0.108000,0.970000,0.182000,192.000000,0.000000,0.000000,0.000000,0.000000,0.000000,0.000000,0.000000,0.000000,0.000000,1646897421.955575,0.000000
58.000000,16200.946713,27738.917200,35934.810154,40473.398921,-2475.276884,20725.140956,38476.181147,41613.248481,0.108000,0.970000,0.182000,192.000000,0.000000,0.000000,0.000000,0.000000,0.000000,0.000000,0.000000,0.000000,0.000000,1646897421.963344,0.000000
59.000000,16201.751375,27741.197078,35934.676043,40473.331865,-2473.712262,20728.136090,38480.271516,41624.804333,0.108000,0.970000,0.182000,192.000000,0.000000,0.000000,0.000000,0.000000,0.000000,0.000000,0.000000,0.000000,0.000000,1646897421.963361,0.000000
60.000000,16194.107079,27734.133927,35927.076450,40464.167650,-2471.767661,20723.956314,38469.229754,41634.549693,0.108000,0.970000,0.182000,192.000000,0.000000,0.000000,0.000000,0.000000,0.000000,0.000000,0.000000,0.000000,0.000000,1646897421.971536,0.000000
61.000000,16189.301454,27732.166974,35921.577921,40457.551534,-2477.668521,20714.657988,38439.792507,41627.575949,0.108000,0.970000,0.182000,192.000000,0.000000,0.000000,0.000000,0.000000,0.000000,0.000000,0.000000,0.000000,0.000000,1646897421.971554,0.000000
62.000000,16192.385994,27734.670369,35923.634282,40458.624418,-2491.392492,20710.813488,38428.393117,41606.073571,0.108000,0.970000,0.182000,192.000000,0.000000,0.000000,0.000000,0.000000,0.000000,0.000000,0.000000,0.000000,0.000000,1646897421.978727,0.000000
63.000000,16198.510372,27741.040616,35933.536104,40468.146261,-2497.919202,20719.038930,38441.625350,41605.626536,0.108000,0.970000,0.182000,192.000000,0.000000,0.000000,0.000000,0.000000,0.000000,0.000000,0.000000,0.000000,0.000000,1646897421.978743,0.000000
64.000000,16197.258675,27741.264134,35933.357290,40475.634095,-2483.457623,20731.801776,38467.419263,41627.799467,0.108000,0.966000,0.190000,192.000000,3.000000,96.000000,30.000000,48.000000,5.000000,240.000000,0.000000,0.000000,0.000000,1646897421.986124,0.000000
65.000000,16204.120660,27750.473052,35937.358253,40482.361970,-2476.036844,20734.282820,38450.767213,41637.947159,0.108000,0.966000,0.190000,192.000000,0.000000,0.000000,0.000000,0.000000,0.000000,0.000000,0.000000,0.000000,0.000000,1646897421.986158,0.000000
66.000000,16199.717367,27751.165956,35934.854857,40483.434854,-2473.801669,20732.315866,38458.724434,41627.821818,0.108000,0.966000,0.190000,192.000000,0.000000,0.000000,0.000000,0.000000,0.000000,0.000000,0.000000,0.000000,0.000000,1646897421.994140,0.000000
67.000000,16181.992433,27729.730633,35916.884055,40463.541801,-2491.861879,20710.813488,38429.108373,41602.765513,0.108000,0.966000,0.190000,192.000000,0.000000,0.000000,0.000000,0.000000,0.000000,0.000000,0.000000,0.000000,0.000000,1646897421.994157,0.000000
68.000000,16181.835971,27724.388567,35913.821866,40459.742005,-2506.010533,20705.829049,38421.419373,41588.996838,0.108000,0.966000,0.190000,192.000000,0.000000,0.000000,0.000000,0.000000,0.000000,0.000000,0.000000,0.000000,0.000000,1646897422.001321,0.000000
69.000000,16190.687262,27732.569305,35917.711069,40464.435871,-2498.075664,20714.456822,38431.008271,41593.400132,0.108000,0.966000,0.190000,192.000000,0.000000,0.000000,0.000000,0.000000,0.000000,0.000000,0.000000,0.000000,0.000000,1646897422.001338,0.000000
70.000000,16184.071146,27727.920142,35915.811171,40458.624418,-2484.754024,20716.893162,38443.793469,41611.437990,0.108000,0.966000,0.190000,192.000000,0.000000,0.000000,0.000000,0.000000,0.000000,0.000000,0.000000,0.000000,0.000000,1646897422.008646,0.000000
71.000000,16179.556093,27723.829773,35911.743154,40452.030653,-2491.928934,20705.918456,38440.217190,41607.705248,0.108000,0.966000,0.190000,192.000000,0.000000,0.000000,0.000000,0.000000,0.000000,0.000000,0.000000,0.000000,0.000000,1646897422.008656,0.000000
72.000000,16184.406422,27726.132003,35915.051212,40451.829487,-2506.681085,20697.402441,38418.424239,41577.105710,0.108000,0.966000,0.190000,192.000000,0.000000,0.000000,0.000000,0.000000,0.000000,0.000000,0.000000,0.000000,0.000000,1646897422.015908,0.000000
73.000000,16183.847628,27726.668444,35918.940415,40455.741043,-2504.200042,20714.792098,38467.039283,41614.410772,0.108000,0.966000,0.190000,192.000000,0.000000,0.000000,0.000000,0.000000,0.000000,0.000000,0.000000,0.000000,0.000000,1646897422.023756,0.000000
74.000000,16176.806829,27721.505192,35913.240720,40449.504906,-2505.943478,20712.802793,38453.583533,41625.586644,0.112000,0.968000,0.186000,192.000000,3.000000,128.000000,30.000000,64.000000,5.000000,208.000000,0.000000,0.000000,0.000000,1646897422.023773,0.000000
75.000000,16169.184884,27714.754965,35909.977366,40443.961673,-2494.700550,20712.534572,38451.281303,41633.208589,0.112000,0.968000,0.186000,192.000000,0.000000,0.000000,0.000000,0.000000,0.000000,0.000000,0.000000,0.000000,0.000000,1646897422.030902,0.000000
76.000000,16162.457009,27705.881322,35904.970575,40437.613778,-2493.806481,20705.337310,38427.968434,41621.362164,0.112000,0.968000,0.186000,192.000000,0.000000,0.000000,0.000000,0.000000,0.000000,0.000000,0.000000,0.000000,0.000000,1646897422.030918,0.000000
77.000000,16171.822390,27718.264189,35911.072601,40448.454374,-2489.134966,20719.262447,38452.622408,41637.209551,0.112000,0.968000,0.186000,192.000000,0.000000,0.000000,0.000000,0.000000,0.000000,0.000000,0.000000,0.000000,0.000000,1646897422.038267,0.000000
78.000000,16168.715497,27714.240875,35902.333069,40446.956807,-2498.165071,20714.568581,38447.548562,41628.022984,0.112000,0.968000,0.186000,192.000000,0.000000,0.000000,0.000000,0.000000,0.000000,0.000000,0.000000,0.000000,0.000000,1646897422.038283,0.000000
79.000000,16179.086707,27722.265151,35908.926834,40457.015092,-2502.434254,20716.401424,38450.498992,41602.251423,0.112000,0.968000,0.186000,192.000000,0.000000,0.000000,0.000000,0.000000,0.000000,0.000000,0.000000,0.000000,0.000000,1646897422.046327,0.000000
80.000000,16171.911797,27715.514924,35905.842293,40452.209467,-2488.799690,20712.333406,38453.918809,41599.792731,0.112000,0.968000,0.186000,192.000000,0.000000,0.000000,0.000000,0.000000,0.000000,0.000000,0.000000,0.000000,0.000000,1646897422.046344,0.000000
81.000000,16174.750468,27721.773412,35909.642090,40458.356197,-2477.668521,20717.921343,38458.322103,41622.211530,0.112000,0.968000,0.186000,192.000000,0.000000,0.000000,0.000000,0.000000,0.000000,0.000000,0.000000,0.000000,0.000000,1646897422.054436,0.000000
82.000000,16178.952596,27727.920142,35917.219331,40464.257057,-2477.154431,20720.335331,38462.010141,41615.707173,0.112000,0.968000,0.186000,192.000000,0.000000,0.000000,0.000000,0.000000,0.000000,0.000000,0.000000,0.000000,0.000000,1646897422.054453,0.000000
83.000000,16192.922436,27743.275791,35933.893732,40474.941191,-2479.300198,20732.584087,38474.303600,41618.814065,0.112000,0.968000,0.186000,192.000000,0.000000,0.000000,0.000000,0.000000,0.000000,0.000000,0.000000,0.000000,0.000000,1646897422.061019,0.000000
84.000000,16177.477381,27725.260285,35919.879189,40456.657464,-2478.227315,20722.838726,38454.634065,41615.237786,0.112000,0.962000,0.182000,192.000000,3.000000,128.000000,30.000000,16.000000,5.000000,176.000000,0.000000,0.000000,0.000000,1646897422.061031,0.000000
85.000000,16160.646517,27710.575188,35901.573110,40440.072470,-2480.686007,20706.991340,38426.023832,41602.832568,0.112000,0.962000,0.182000,192.000000,0.000000,0.000000,0.000000,0.000000,0.000000,0.000000,0.000000,0.000000,0.000000,1646897422.069068,0.000000
86.000000,16171.867093,27718.420651,35907.921005,40445.459240,-2479.411957,20718.010750,38444.844001,41623.843208,0.112000,0.962000,0.182000,192.000000,0.000000,0.000000,0.000000,0.000000,0.000000,0.000000,0.000000,0.000000,0.000000,1646897422.069107,0.000000
87.000000,16179.600797,27724.030939,35917.241683,40446.867400,-2483.077643,20726.794985,38453.650588,41626.704231,0.112000,0.962000,0.182000,192.000000,0.000000,0.000000,0.000000,0.000000,0.000000,0.000000,0.000000,0.000000,0.000000,1646897422.075935,0.000000
88.000000,16180.159590,27723.785069,35917.152276,40444.676929,-2487.011550,20729.030160,38460.601981,41626.592472,0.112000,0.962000,0.182000,192.000000,0.000000,0.000000,0.000000,0.000000,0.000000,0.000000,0.000000,0.000000,0.000000,1646897422.075951,0.000000
89.000000,16188.563846,27734.178631,35920.102706,40450.555438,-2486.720978,20729.566601,38451.907152,41611.482693,0.112000,0.962000,0.182000,192.000000,0.000000,0.000000,0.000000,0.000000,0.000000,0.000000,0.000000,0.000000,0.000000,1646897422.084178,0.000000
90.000000,16181.388936,27729.618875,35915.587654,40446.330958,-2474.226352,20724.246886,38439.457231,41606.632365,0.112000,0.962000,0.182000,192.000000,0.000000,0.000000,0.000000,0.000000,0.000000,0.000000,0.000000,0.000000,0.000000,1646897422.090651,0.000000
91.000000,16182.819448,27731.764642,35913.665404,40447.739118,-2464.950379,20722.704616,38440.619521,41604.933632,0.112000,0.962000,0.182000,192.000000,0.000000,0.000000,0.000000,0.000000,0.000000,0.000000,0.000000,0.000000,0.000000,1646897422.090669,0.000000
92.000000,16187.893294,27738.358407,35913.464238,40456.098670,-2470.583018,20731.377093,38483.087836,41626.547769,0.112000,0.962000,0.182000,192.000000,0.000000,0.000000,0.000000,0.000000,0.000000,0.000000,0.000000,0.000000,0.000000,1646897422.098704,0.000000
93.000000,16191.894256,27742.806404,35911.296119,40460.121984,-2480.283675,20730.483023,38484.652458,41632.493333,0.112000,0.962000,0.182000,192.000000,0.000000,0.000000,0.000000,0.000000,0.000000,0.000000,0.000000,0.000000,0.000000,1646897422.098721,0.000000
94.000000,16189.949654,27740.481823,35909.351517,40462.088938,-2481.513021,20721.363511,38461.585458,41623.552635,0.110000,0.966000,0.184000,192.000000,3.000000,112.000000,30.000000,48.000000,5.000000,192.000000,0.000000,0.000000,0.000000,1646897422.106725,0.000000
95.000000,16173.588177,27726.422575,35901.438999,40452.812964,-2471.857068,20708.578313,38447.705024,41617.271795,0.110000,0.966000,0.184000,192.000000,0.000000,0.000000,0.000000,0.000000,0.000000,0.000000,0.000000,0.000000,0.000000,1646897422.106741,0.000000
96.000000,16174.258730,27727.517811,35900.768447,40447.113269,-2466.693815,20708.801831,38433.846943,41622.613862,0.110000,0.966000,0.184000,192.000000,0.000000,0.000000,0.000000,0.000000,0.000000,0.000000,0.000000,0.000000,0.000000,1646897422.113805,0.000000
97.000000,16182.886503,27731.898753,35906.378735,40449.616665,-2478.316722,20717.809584,38451.460117,41611.415638,0.110000,0.966000,0.184000,192.000000,0.000000,0.000000,0.000000,0.000000,0.000000,0.000000,0.000000,0.000000,0.000000,1646897422.113817,0.000000
98.000000,16174.236378,27726.914314,35905.931700,40452.634150,-2477.154431,20725.364474,38472.873088,41620.535150,0.110000,0.966000,0.184000,192.000000,0.000000,0.000000,0.000000,0.000000,0.000000,0.000000,0.000000,0.000000,0.000000,1646897422.121272,0.000000
99.000000,16183.288834,27735.698549,35917.062869,40460.412557,-2466.179724,20729.834822,38464.379426,41623.999670,0.110000,0.966000,0.184000,192.000000,0.000000,0.000000,0.000000,0.000000,0.000000,0.000000,0.000000,0.000000,0.000000,1646897422.121288,0.000000
100.000000,16184.317015,27738.693683,35922.203770,40467.118081,-2455.272073,20732.606439,38486.373542,41628.313557,0.110000,0.966000,0.184000,192.000000,0.000000,0.000000,0.000000,0.000000,0.000000,0.000000,0.000000,0.000000,0.000000,1646897422.129331,0.000000
101.000000,16179.421983,27731.094090,35914.984156,40462.826546,-2457.708413,20722.056415,38473.342475,41617.517664,0.110000,0.966000,0.184000,192.000000,0.000000,0.000000,0.000000,0.000000,0.000000,0.000000,0.000000,0.000000,0.000000,1646897422.129348,0.000000
102.000000,16165.698012,27715.112593,35895.828711,40439.960711,-2477.445004,20705.493773,38452.890629,41600.373876,0.110000,0.966000,0.184000,192.000000,0.000000,0.000000,0.000000,0.000000,0.000000,0.000000,0.000000,0.000000,0.000000,1646897422.137319,0.000000
103.000000,16183.065317,27731.876401,35905.127037,40448.409670,-2484.441100,20713.115718,38456.533963,41593.981277,0.110000,0.966000,0.184000,192.000000,0.000000,0.000000,0.000000,0.000000,0.000000,0.000000,0.000000,0.000000,0.000000,1646897422.137336,0.000000
104.000000,16200.678492,27751.434177,35921.913197,40474.225935,-2468.616065,20731.891183,38465.519365,41606.453551,0.108000,0.968000,0.182000,192.000000,3.000000,96.000000,30.000000,64.000000,5.000000,176.000000,0.000000,0.000000,0.000000,1646897422.143446,0.000000
105.000000,16193.078899,27744.147509,35915.967633,40464.860554,-2461.485858,20731.712369,38480.942068,41616.333022,0.108000,0.968000,0.182000,192.000000,0.000000,0.000000,0.000000,0.000000,0.000000,0.000000,0.000000,0.000000,0.000000,1646897422.150851,0.000000
106.000000,16189.234399,27739.431291,35913.754811,40456.053967,-2458.334262,20728.851346,38495.694220,41610.521568,0.108000,0.968000,0.182000,192.000000,0.000000,0.000000,0.000000,0.000000,0.000000,0.000000,0.000000,0.000000,0.000000,1646897422.150868,0.000000
107.000000,16186.999224,27734.625666,35912.234892,40453.550572,-2465.330358,20726.727930,38482.752560,41609.873368,0.108000,0.968000,0.182000,192.000000,0.000000,0.000000,0.000000,0.000000,0.000000,0.000000,0.000000,0.000000,0.000000,1646897422.158850,0.000000
108.000000,16185.211085,27730.244724,35906.356383,40450.756604,-2468.861934,20718.860116,38474.862394,41602.810216,0.108000,0.968000,0.182000,192.000000,0.000000,0.000000,0.000000,0.000000,0.000000,0.000000,0.000000,0.000000,0.000000,1646897422.158866,0.000000
109.000000,16182.417116,27723.896828,35903.025973,40445.392185,-2469.845411,20717.675473,38476.762292,41604.665411,0.108000,0.968000,0.182000,192.000000,0.000000,0.000000,0.000000,0.000000,0.000000,0.000000,0.000000,0.000000,0.000000,1646897422.165845,0.000000
110.000000,16180.561922,27720.544066,35910.245587,40449.303740,-2458.557780,20732.561735,38486.999391,41622.658565,0.108000,0.968000,0.182000,192.000000,0.000000,0.000000,0.000000,0.000000,0.000000,0.000000,0.000000,0.000000,0.000000,1646897422.165864,0.000000
111.000000,16182.193599,27720.208790,35909.172703,40452.544743,-2454.579169,20732.114700,38488.049923,41627.061859,0.108000,0.968000,0.182000,192.000000,0.000000,0.000000,0.000000,0.000000,0.000000,0.000000,0.000000,0.000000,0.000000,1646897422.173547,0.000000
112.000000,16191.134297,27731.541125,35912.681927,40456.121022,-2463.184591,20727.577296,38479.891536,41614.276661,0.108000,0.968000,0.182000,192.000000,0.000000,0.000000,0.000000,0.000000,0.000000,0.000000,0.000000,0.000000,0.000000,1646897422.173564,0.000000
113.000000,16187.490962,27730.580000,35908.949185,40452.321226,-2463.206942,20727.040854,38515.162589,41617.919996,0.108000,0.968000,0.182000,192.000000,0.000000,0.000000,0.000000,0.000000,0.000000,0.000000,0.000000,0.000000,0.000000,1646897422.181573,0.000000
114.000000,16176.560959,27720.208790,35899.047363,40441.882961,-2457.507248,20720.581200,38501.438618,41632.649795,0.106000,0.970000,0.188000,192.000000,3.000000,80.000000,30.000000,80.000000,5.000000,224.000000,0.000000,0.000000,0.000000,1646897422.181589,0.000000
115.000000,16180.718384,27722.041633,35907.272805,40446.845048,-2458.043689,20722.257581,38490.955650,41617.338850,0.106000,0.970000,0.188000,192.000000,0.000000,0.000000,0.000000,0.000000,0.000000,0.000000,0.000000,0.000000,0.000000,1646897422.189529,0.000000
116.000000,16187.446259,27727.853087,35913.196017,40459.250266,-2452.455753,20731.131224,38501.080990,41615.997746,0.106000,0.970000,0.188000,192.000000,0.000000,0.000000,0.000000,0.000000,0.000000,0.000000,0.000000,0.000000,0.000000,1646897422.189541,0.000000
117.000000,16177.298567,27721.594598,35904.814113,40450.510734,-2455.003852,20725.610343,38472.291943,41622.658565,0.106000,0.970000,0.188000,192.000000,0.000000,0.000000,0.000000,0.000000,0.000000,0.000000,0.000000,0.000000,0.000000,1646897422.196189,0.000000
118.000000,16181.478343,27730.043558,35909.195055,40455.070490,-2463.855143,20726.906744,38459.707911,41618.501141,0.106000,0.970000,0.188000,192.000000,0.000000,0.000000,0.000000,0.000000,0.000000,0.000000,0.000000,0.000000,0.000000,1646897422.196205,0.000000
119.000000,16200.633788,27748.439044,35926.160029,40475.544688,-2448.253625,20748.811453,38513.977947,41627.732411,0.106000,0.970000,0.188000,192.000000,0.000000,0.000000,0.000000,0.000000,0.000000,0.000000,0.000000,0.000000,0.000000,1646897422.203224,0.000000
120.000000,16206.445242,27751.680047,35931.457392,40479.992685,-2435.557835,20748.498529,38504.724324,41620.535150,0.106000,0.970000,0.188000,192.000000,0.000000,0.000000,0.000000,0.000000,0.000000,0.000000,0.000000,0.000000,0.000000,1646897422.211132,0.000000
121.000000,16199.918532,27745.019227,35930.943302,40471.834299,-2432.607404,20750.443131,38515.631976,41633.834438,0.106000,0.970000,0.188000,192.000000,0.000000,0.000000,0.000000,0.000000,0.000000,0.000000,0.000000,0.000000,0.000000,1646897422.211144,0.000000
122.000000,16182.864151,27720.968750,35914.537122,40444.453412,-2458.513076,20729.991285,38502.533853,41613.695516,0.106000,0.970000,0.188000,192.000000,0.000000,0.000000,0.000000,0.000000,0.000000,0.000000,0.000000,0.000000,0.000000,1646897422.219072,0.000000
123.000000,16175.353965,27712.720956,35905.931700,40439.781897,-2470.024225,20719.754186,38477.902231,41600.373876,0.106000,0.970000,0.188000,192.000000,0.000000,0.000000,0.000000,0.000000,0.000000,0.000000,0.000000,0.000000,0.000000,1646897422.219089,0.000000
124.000000,16181.053660,27720.365253,35909.597386,40444.341653,-2472.527620,20718.614247,38467.598077,41595.992934,0.106000,0.964000,0.190000,192.000000,3.000000,80.000000,30.000000,32.000000,5.000000,240.000000,0.000000,0.000000,0.000000,1646897422.225869,0.000000
125.000000,16182.394765,27724.522677,35913.687755,40451.181287,-2461.687024,20722.570505,38465.094681,41602.854920,0.106000,0.964000,0.190000,192.000000,0.000000,0.000000,0.000000,0.000000,0.000000,0.000000,0.000000,0.000000,0.000000,1646897422.225885,0.000000
126.000000,16187.513314,27726.914314,35918.806305,40461.485441,-2456.859047,20724.962142,38497.549414,41602.698458,0.106000,0.964000,0.190000,192.000000,0.000000,0.000000,0.000000,0.000000,0.000000,0.000000,0.000000,0.000000,0.000000,1646897422.233779,0.000000
127.000000,16191.044890,27727.406052,35921.577921,40463.653560,-2461.463506,20727.242020,38510.379316,41596.305859,0.106000,0.964000,0.190000,192.000000,0.000000,0.000000,0.000000,0.000000,0.000000,0.000000,0.000000,0.000000,0.000000,1646897422.233796,0.000000
128.000000,16186.015747,27720.208790,35916.437020,40454.958732,-2470.739480,20724.693921,38503.986717,41591.589641,0.106000,0.964000,0.190000,192.000000,0.000000,0.000000,0.000000,0.000000,0.000000,0.000000,0.000000,0.000000,0.000000,1646897422.241691,0.000000
129.000000,16191.357814,27726.288465,35920.616796,40458.043272,-2457.440192,20733.053474,38505.439580,41599.300992,0.106000,0.964000,0.190000,192.000000,0.000000,0.000000,0.000000,0.000000,0.000000,0.000000,0.000000,0.000000,0.000000,1646897422.241717,0.000000
130.000000,16187.826239,27720.991101,35920.549741,40453.371758,-2446.040803,20733.947543,38504.433752,41608.398152,0.106000,0.964000,0.190000,192.000000,0.000000,0.000000,0.000000,0.000000,0.000000,0.000000,0.000000,0.000000,0.000000,1646897422.248996,0.000000
131.000000,16190.799021,27723.785069,35922.717860,40448.789650,-2450.824076,20732.069997,38507.987679,41599.189234,0.106000,0.964000,0.190000,192.000000,0.000000,0.000000,0.000000,0.000000,0.000000,0.000000,0.000000,0.000000,0.000000,1646897422.249013,0.000000
132.000000,16186.775707,27718.018319,35918.091049,40445.168667,-2460.748251,20726.727930,38496.543586,41597.423446,0.106000,0.964000,0.190000,192.000000,0.000000,0.000000,0.000000,0.000000,0.000000,0.000000,0.000000,0.000000,0.000000,1646897422.256491,0.000000
133.000000,16183.087669,27712.564494,35916.213502,40444.721633,-2468.101974,20725.677398,38496.163606,41597.579908,0.106000,0.964000,0.190000,192.000000,0.000000,0.000000,0.000000,0.000000,0.000000,0.000000,0.000000,0.000000,0.000000,1646897422.256508,0.000000
134.000000,16182.573579,27712.050404,35915.252377,40443.872266,-2462.268169,20725.587991,38489.569842,41589.913260,0.106000,0.962000,0.186000,192.000000,3.000000,80.000000,30.000000,16.000000,5.000000,208.000000,0.000000,0.000000,0.000000,1646897422.263503,0.000000
135.000000,16189.927303,27721.125212,35921.466162,40452.365929,-2451.137000,20725.744453,38487.245260,41582.090149,0.106000,0.962000,0.186000,192.000000,0.000000,0.000000,0.000000,0.000000,0.000000,0.000000,0.000000,0.000000,0.000000,1646897422.271517,0.000000
136.000000,16192.609512,27726.579037,35925.198904,40458.624418,-2444.476181,20732.427625,38501.684487,41601.089132,0.106000,0.962000,0.186000,192.000000,0.000000,0.000000,0.000000,0.000000,0.000000,0.000000,0.000000,0.000000,0.000000,1646897422.271534,0.000000
137.000000,16181.567750,27711.670424,35914.760639,40448.387319,-2451.740498,20726.862040,38498.979926,41613.114370,0.106000,0.962000,0.186000,192.000000,0.000000,0.000000,0.000000,0.000000,0.000000,0.000000,0.000000,0.000000,0.000000,1646897422.278444,0.000000
138.000000,16173.364660,27704.450810,35911.541988,40442.106478,-2464.257474,20718.234267,38489.838063,41605.492426,0.106000,0.962000,0.186000,192.000000,0.000000,0.000000,0.000000,0.000000,0.000000,0.000000,0.000000,0.000000,0.000000,1646897422.278456,0.000000
139.000000,16181.210122,27714.732613,35919.946244,40450.600141,-2458.915408,20724.939790,38499.650478,41600.731504,0.106000,0.962000,0.186000,192.000000,0.000000,0.000000,0.000000,0.000000,0.000000,0.000000,0.000000,0.000000,0.000000,1646897422.286087,0.000000
140.000000,16193.168306,27724.120346,35930.630378,40464.569982,-2444.118553,20734.931020,38518.560054,41599.680972,0.106000,0.962000,0.186000,192.000000,0.000000,0.000000,0.000000,0.000000,0.000000,0.000000,0.000000,0.000000,0.000000,1646897422.286104,0.000000
141.000000,16182.148896,27713.235046,35916.995813,40456.746871,-2443.403297,20726.839689,38501.058638,41613.315536,0.106000,0.962000,0.186000,192.000000,0.000000,0.000000,0.000000,0.000000,0.000000,0.000000,0.000000,0.000000,0.000000,1646897422.293950,0.000000
142.000000,16166.502674,27696.739459,35901.327241,40440.787726,-2454.981501,20712.132241,38472.046074,41616.802408,0.106000,0.962000,0.186000,192.000000,0.000000,0.000000,0.000000,0.000000,0.000000,0.000000,0.000000,0.000000,0.000000,1646897422.293968,0.000000
143.000000,16160.847683,27695.376002,35895.962822,40439.513676,-2473.935780,20706.968988,38501.505673,41607.749952,0.106000,0.962000,0.186000,192.000000,0.000000,0.000000,0.000000,0.000000,0.000000,0.000000,0.000000,0.000000,0.000000,1646897422.302142,0.000000
144.000000,16167.217930,27700.896883,35901.863682,40444.118135,-2474.382815,20713.987436,38516.034307,41603.927804,0.106000,0.962000,0.186000,192.000000,0.000000,0.000000,0.000000,0.000000,0.000000,0.000000,0.000000,0.000000,0.000000,1646897422.302158,0.000000
145.000000,16166.860302,27699.086392,35902.467180,40440.407746,-2461.396451,20719.418909,38502.511502,41610.298051,0.106000,0.966000,0.186000,192.000000,3.000000,80.000000,30.000000,48.000000,5.000000,208.000000,0.000000,0.000000,0.000000,1646897422.308547,0.000000
146.000000,16157.897253,27686.256490,35895.627546,40431.042365,-2460.480030,20713.339235,38493.213176,41616.735353,0.106000,0.966000,0.186000,192.000000,0.000000,0.000000,0.000000,0.000000,0.000000,0.000000,0.000000,0.000000,0.000000,1646897422.308564,0.000000
147.000000,16167.754372,27693.163180,35903.495360,40433.858685,-2468.750175,20717.116680,38501.684487,41614.500179,0.106000,0.966000,0.186000,192.000000,0.000000,0.000000,0.000000,0.000000,0.000000,0.000000,0.000000,0.000000,0.000000,1646897422.316429,0.000000
148.000000,16166.502674,27689.698659,35904.434133,40432.316414,-2468.280788,20715.619113,38487.848757,41609.247519,0.106000,0.966000,0.186000,192.000000,0.000000,0.000000,0.000000,0.000000,0.000000,0.000000,0.000000,0.000000,0.000000,1646897422.316436,0.000000
149.000000,16156.802017,27675.929985,35891.336011,40420.693507,-2466.447945,20703.102136,38491.581499,41601.536167,0.106000,0.966000,0.186000,192.000000,0.000000,0.000000,0.000000,0.000000,0.000000,0.000000,0.000000,0.000000,0.000000,1646897422.323897,0.000000
150.000000,16168.983718,27688.066982,35901.438999,40429.455391,-2460.167105,20708.958293,38488.720475,41587.946306,0.106000,0.966000,0.186000,192.000000,0.000000,0.000000,0.000000,0.000000,0.000000,0.000000,0.000000,0.000000,0.000000,1646897422.323931,0.000000
151.000000,16172.559997,27691.911482,35908.658613,40430.908254,-2457.306082,20711.618151,38464.781757,41578.804443,0.106000,0.966000,0.186000,192.000000,0.000000,0.000000,0.000000,0.000000,0.000000,0.000000,0.000000,0.000000,0.000000,1646897422.331023,0.000000
152.000000,16179.332576,27699.511075,35916.079392,40445.436888,-2462.201114,20725.856212,38484.652458,41594.852995,0.106000,0.966000,0.186000,192.000000,0.000000,0.000000,0.000000,0.000000,0.000000,0.000000,0.000000,0.000000,0.000000,1646897422.338285,0.000000
153.000000,16176.382145,27695.711278,35911.318470,40444.945150,-2461.731727,20733.992247,38506.445409,41620.378687,0.106000,0.966000,0.186000,192.000000,0.000000,0.000000,0.000000,0.000000,0.000000,0.000000,0.000000,0.000000,0.000000,1646897422.338296,0.000000
154.000000,16176.985643,27700.449848,35910.558511,40445.727461,-2451.360518,20736.205070,38483.624278,41625.631347,0.106000,0.966000,0.186000,192.000000,0.000000,0.000000,0.000000,0.000000,0.000000,0.000000,0.000000,0.000000,0.000000,1646897422.346551,0.000000
155.000000,16175.912759,27701.478028,35911.877264,40450.130755,-2444.073849,20740.317791,38490.575670,41624.491408,0.108000,0.962000,0.186000,192.000000,3.000000,96.000000,30.000000,16.000000,5.000000,208.000000,0.000000,0.000000,0.000000,1646897422.346569,0.000000
156.000000,16170.615395,27695.778334,35909.105648,40447.962636,-2441.615157,20745.749264,38516.861322,41625.608996,0.108000,0.962000,0.186000,192.000000,0.000000,0.000000,0.000000,0.000000,0.000000,0.000000,0.000000,0.000000,0.000000,1646897422.354477,0.000000
157.000000,16168.201407,27691.196226,35907.250453,40438.261978,-2460.211809,20737.590878,38475.577650,41612.756743,0.108000,0.962000,0.186000,192.000000,0.000000,0.000000,0.000000,0.000000,0.000000,0.000000,0.000000,0.000000,0.000000,1646897422.354495,0.000000
158.000000,16164.602776,27685.608290,35906.199921,40432.472877,-2462.156410,20735.042779,38469.117995,41619.641080,0.108000,0.962000,0.186000,192.000000,0.000000,0.000000,0.000000,0.000000,0.000000,0.000000,0.000000,0.000000,0.000000,1646897422.361040,0.000000
159.000000,16174.124619,27696.091258,35913.419534,40440.318339,-2455.540294,20741.435378,38506.333650,41614.254309,0.108000,0.962000,0.186000,192.000000,0.000000,0.000000,0.000000,0.000000,0.000000,0.000000,0.000000,0.000000,0.000000,1646897422.361056,0.000000
160.000000,16170.816561,27695.040726,35911.094953,40443.089955,-2439.178817,20743.290573,38536.687319,41621.071592,0.108000,0.962000,0.186000,192.000000,0.000000,0.000000,0.000000,0.000000,0.000000,0.000000,0.000000,0.000000,0.000000,1646897422.368865,0.000000
161.000000,16165.362735,27686.792932,35908.256281,40437.144391,-2444.878512,20734.662799,38512.234510,41606.855882,0.108000,0.962000,0.186000,192.000000,0.000000,0.000000,0.000000,0.000000,0.000000,0.000000,0.000000,0.000000,0.000000,1646897422.368876,0.000000
