%OpenBCI Raw EEG Data
%Number of channels = 8
%Sample Rate = 256 Hz
%Board = OpenBCI_GUI$BoardCytonSerial
%Channels = Fp1, Fp2, F3, F4, Fz, Pz, O1, O2
%Data recorded at AIMS Lab (http://aimsl.uiu.ac.bd) by Rana Depto (mail@ranadepto.com)
%Brainwaves were obtained via the Ultracortex Mark IV Headset using the OpenBCI Cyton Board
%Recording Application = ConcentrateToday (https://concentrate.today)
%Data type = RAW data with noise
%Day No = 3
%Subject ID = 7
%Session ID = 7
%Record starting timestamp (UTC+6) = 2022-03-20T09:41:19.484279
%Record ending timestamp (UTC+6)   = 2022-03-20T09:41:46.085931
%Recorded durations = ~26 seconds
Sample Index, EXG Channel 0, EXG Channel 1, EXG Channel 2, EXG Channel 3, EXG Channel 4, EXG Channel 5, EXG Channel 6, EXG Channel 7, Accel Channel 0, Accel Channel 1, Accel Channel 2, Other, Other, Other, Other, Other, Other, Other, Analog Channel 0, Analog Channel 1, Analog Channel 2, Timestamp, Timestamp (Formatted)
220.000000,35271.298620,20476.746020,4738.212197,7739.202111,3419.280460,52065.930017,29676.835796,29511.812867,0.128000,0.976000,0.032000,192.000000,0.000000,0.000000,0.000000,0.000000,0.000000,0.000000,0.000000,0.000000,0.000000,1647747679.489851,0.000000
221.000000,35266.895326,20471.023973,4734.501807,7732.608346,3414.765407,52062.487848,29678.623936,29515.657367,0.128000,0.976000,0.032000,192.000000,0.000000,0.000000,0.000000,0.000000,0.000000,0.000000,0.000000,0.000000,0.000000,1647747679.489857,0.000000
222.000000,35264.995428,20479.472933,4740.715592,7735.290555,3419.258108,52063.672491,29677.014610,29513.086917,0.128000,0.976000,0.032000,192.000000,0.000000,0.000000,0.000000,0.000000,0.000000,0.000000,0.000000,0.000000,0.000000,1647747679.499241,0.000000
223.000000,35274.249050,20489.710032,4748.091668,7741.884320,3424.935451,52063.985415,29681.931994,29521.938207,0.122000,0.972000,0.032000,192.000000,3.000000,208.000000,30.000000,96.000000,1.000000,0.000000,0.000000,0.000000,0.000000,1647747679.499245,0.000000
224.000000,35267.990561,20484.725593,4743.531912,7737.033991,3418.989887,52055.827028,29679.786227,29534.879867,0.122000,0.972000,0.032000,192.000000,0.000000,0.000000,0.000000,0.000000,0.000000,0.000000,0.000000,0.000000,0.000000,1647747679.505899,0.000000
225.000000,35271.812710,20487.765430,4746.817618,7739.157407,3422.588518,52056.519932,29671.627840,29526.296798,0.122000,0.972000,0.032000,192.000000,0.000000,0.000000,0.000000,0.000000,0.000000,0.000000,0.000000,0.000000,0.000000,1647747679.505907,0.000000
226.000000,35276.305410,20487.296043,4740.894406,7733.234195,3417.313506,52053.390688,29677.662811,29529.381338,0.122000,0.972000,0.032000,192.000000,0.000000,0.000000,0.000000,0.000000,0.000000,0.000000,0.000000,0.000000,0.000000,1647747679.513041,0.000000
227.000000,35273.712608,20479.651747,4730.254976,7725.142863,3408.238698,52043.488865,29699.008727,29565.680571,0.122000,0.972000,0.032000,192.000000,0.000000,0.000000,0.000000,0.000000,0.000000,0.000000,0.000000,0.000000,0.000000,1647747679.513046,0.000000
228.000000,35275.254878,20486.334918,4745.521217,7742.443114,3423.415533,52051.691956,29690.403305,29565.389999,0.122000,0.972000,0.032000,192.000000,0.000000,0.000000,0.000000,0.000000,0.000000,0.000000,0.000000,0.000000,0.000000,1647747679.520367,0.000000
229.000000,35270.225736,20478.601215,4739.687412,7736.564605,3417.335858,52044.718211,29686.983488,29565.814682,0.122000,0.972000,0.032000,192.000000,0.000000,0.000000,0.000000,0.000000,0.000000,0.000000,0.000000,0.000000,0.000000,1647747679.520375,0.000000
230.000000,35266.671809,20479.182360,4735.015897,7734.776465,3415.257146,52045.433467,29693.599605,29578.577528,0.122000,0.972000,0.032000,192.000000,0.000000,0.000000,0.000000,0.000000,0.000000,0.000000,0.000000,0.000000,0.000000,1647747679.528441,0.000000
231.000000,35265.844794,20483.451543,4730.210272,7732.787160,3413.513710,52044.114714,29699.679279,29596.973014,0.122000,0.972000,0.032000,192.000000,0.000000,0.000000,0.000000,0.000000,0.000000,0.000000,0.000000,0.000000,0.000000,1647747679.528448,0.000000
232.000000,35277.512405,20492.034613,4735.842912,7738.375096,3418.207576,52049.568540,29699.187541,29601.175141,0.122000,0.972000,0.032000,192.000000,0.000000,0.000000,0.000000,0.000000,0.000000,0.000000,0.000000,0.000000,0.000000,1647747679.535440,0.000000
233.000000,35291.884576,20493.219256,4739.150970,7740.587919,3420.509806,52054.843551,29699.299300,29614.452078,0.122000,0.984000,0.032000,192.000000,3.000000,208.000000,30.000000,192.000000,1.000000,0.000000,0.000000,0.000000,0.000000,1647747679.535446,0.000000
234.000000,35295.930242,20497.063756,4744.828313,7743.828922,3426.388315,52059.559770,29690.805637,29616.396679,0.122000,0.984000,0.032000,192.000000,0.000000,0.000000,0.000000,0.000000,0.000000,0.000000,0.000000,0.000000,0.000000,1647747679.542545,0.000000
235.000000,35280.440483,20497.287273,4745.834141,7743.940680,3427.997640,52058.486886,29686.312936,29619.503572,0.122000,0.984000,0.032000,192.000000,0.000000,0.000000,0.000000,0.000000,0.000000,0.000000,0.000000,0.000000,0.000000,1647747679.550012,0.000000
236.000000,35282.295678,20504.842163,4751.600892,7751.853198,3433.607928,52063.471325,29676.835796,29611.456944,0.122000,0.984000,0.032000,192.000000,0.000000,0.000000,0.000000,0.000000,0.000000,0.000000,0.000000,0.000000,0.000000,1647747679.550017,0.000000
237.000000,35286.229585,20497.041404,4741.430848,7745.259433,3425.382486,52060.431488,29683.474265,29622.074023,0.122000,0.984000,0.032000,192.000000,0.000000,0.000000,0.000000,0.000000,0.000000,0.000000,0.000000,0.000000,0.000000,1647747679.558039,0.000000
238.000000,35283.569727,20494.627415,4739.530950,7745.080619,3422.968498,52063.247807,29692.638480,29640.625970,0.122000,0.984000,0.032000,192.000000,0.000000,0.000000,0.000000,0.000000,0.000000,0.000000,0.000000,0.000000,0.000000,1647747679.558046,0.000000
239.000000,35270.806881,20485.642014,4730.836121,7735.089390,3414.810111,52056.229360,29693.040811,29652.293581,0.122000,0.984000,0.032000,192.000000,0.000000,0.000000,0.000000,0.000000,0.000000,0.000000,0.000000,0.000000,0.000000,1647747679.566022,0.000000
240.000000,35261.665018,20485.932587,4732.780723,7736.072866,3415.838291,52053.368336,29681.842587,29655.288715,0.122000,0.984000,0.032000,192.000000,0.000000,0.000000,0.000000,0.000000,0.000000,0.000000,0.000000,0.000000,0.000000,1647747679.566029,0.000000
241.000000,35269.242259,20493.487477,4735.440580,7741.504340,3420.666268,52057.637520,29673.304221,29660.049636,0.122000,0.984000,0.032000,192.000000,0.000000,0.000000,0.000000,0.000000,0.000000,0.000000,0.000000,0.000000,0.000000,1647747679.572607,0.000000
242.000000,35274.249050,20493.174552,4733.808903,7738.889186,3419.839253,52058.598645,29679.719171,29672.901889,0.122000,0.984000,0.032000,192.000000,0.000000,0.000000,0.000000,0.000000,0.000000,0.000000,0.000000,0.000000,0.000000,1647747679.572613,0.000000
243.000000,35276.998314,20497.264921,4736.133484,7741.683154,3422.320297,52054.441220,29681.417904,29682.826064,0.118000,0.984000,0.030000,192.000000,3.000000,176.000000,30.000000,192.000000,0.000000,240.000000,0.000000,0.000000,0.000000,1647747679.580718,0.000000
244.000000,35277.959440,20500.483573,4748.605758,7754.244835,3434.904329,52067.606398,29669.906756,29673.728904,0.118000,0.984000,0.030000,192.000000,0.000000,0.000000,0.000000,0.000000,0.000000,0.000000,0.000000,0.000000,0.000000,1647747679.580724,0.000000
245.000000,35279.747579,20497.868418,4750.550360,7752.769620,3437.005393,52069.841572,29667.649229,29670.130273,0.118000,0.984000,0.030000,192.000000,0.000000,0.000000,0.000000,0.000000,0.000000,0.000000,0.000000,0.000000,0.000000,1647747679.588618,0.000000
246.000000,35294.432675,20510.161878,4754.730136,7757.865817,3441.520446,52072.724947,29659.870822,29661.301334,0.118000,0.984000,0.030000,192.000000,0.000000,0.000000,0.000000,0.000000,0.000000,0.000000,0.000000,0.000000,0.000000,1647747679.588625,0.000000
247.000000,35296.667850,20516.174497,4757.792325,7761.084468,3444.202655,52080.995093,29663.245936,29665.816386,0.118000,0.984000,0.030000,192.000000,0.000000,0.000000,0.000000,0.000000,0.000000,0.000000,0.000000,0.000000,0.000000,1647747679.595314,0.000000
248.000000,35290.588175,20508.932532,4754.528970,7755.317718,3439.732306,52071.808526,29669.325610,29683.809541,0.118000,0.984000,0.030000,192.000000,0.000000,0.000000,0.000000,0.000000,0.000000,0.000000,0.000000,0.000000,0.000000,1647747679.595321,0.000000
249.000000,35290.007030,20507.233799,4753.500790,7753.708393,3438.458257,52075.585970,29671.717247,29695.477151,0.118000,0.984000,0.030000,192.000000,0.000000,0.000000,0.000000,0.000000,0.000000,0.000000,0.000000,0.000000,0.000000,1647747679.602226,0.000000
250.000000,35276.014838,20503.545762,4749.365717,7753.060192,3436.536007,52074.356624,29667.939802,29696.728849,0.118000,0.984000,0.030000,192.000000,0.000000,0.000000,0.000000,0.000000,0.000000,0.000000,0.000000,0.000000,0.000000,1647747679.610330,0.000000
251.000000,35281.647477,20509.804250,4749.991566,7756.502361,3437.944166,52081.442127,29670.800825,29698.941672,0.118000,0.984000,0.030000,192.000000,0.000000,0.000000,0.000000,0.000000,0.000000,0.000000,0.000000,0.000000,0.000000,1647747679.610335,0.000000
252.000000,35292.979812,20512.598218,4751.891464,7756.167085,3439.285271,52083.207915,29681.350849,29703.456724,0.118000,0.984000,0.030000,192.000000,0.000000,0.000000,0.000000,0.000000,0.000000,0.000000,0.000000,0.000000,0.000000,1647747679.618351,0.000000
253.000000,35284.821425,20496.750831,4743.576615,7740.990250,3429.741076,52071.495601,29690.559768,29717.314806,0.112000,0.974000,0.036000,192.000000,3.000000,128.000000,30.000000,112.000000,1.000000,32.000000,0.000000,0.000000,0.000000,1647747679.618355,0.000000
254.000000,35284.106169,20504.193962,4758.060546,7756.502361,3444.090896,52083.118508,29675.025305,29692.303204,0.112000,0.974000,0.036000,192.000000,0.000000,0.000000,0.000000,0.000000,0.000000,0.000000,0.000000,0.000000,0.000000,1647747679.625019,0.000000
255.000000,35291.817521,20504.685700,4757.032365,7753.574282,3441.229873,52079.229305,29671.024343,29682.244919,0.112000,0.974000,0.036000,192.000000,0.000000,0.000000,0.000000,0.000000,0.000000,0.000000,0.000000,0.000000,0.000000,1647747679.625024,0.000000
0.000000,35298.478341,20506.496192,4756.652386,7754.155428,3442.079239,52082.492659,29687.139951,29700.193369,0.112000,0.974000,0.036000,192.000000,0.000000,0.000000,0.000000,0.000000,0.000000,0.000000,0.000000,0.000000,0.000000,1647747679.632911,0.000000
1.000000,35297.561919,20514.833392,4758.440525,7762.380870,3444.761448,52082.962046,29690.068029,29702.853227,0.112000,0.974000,0.036000,192.000000,0.000000,0.000000,0.000000,0.000000,0.000000,0.000000,0.000000,0.000000,0.000000,1647747679.632922,0.000000
2.000000,35287.369524,20508.038462,4747.935205,7753.507227,3433.473818,52075.496563,29684.524797,29699.187541,0.112000,0.974000,0.036000,192.000000,0.000000,0.000000,0.000000,0.000000,0.000000,0.000000,0.000000,0.000000,0.000000,1647747679.640975,0.000000
3.000000,35286.855434,20502.606988,4741.900234,7744.946509,3425.516596,52071.003863,29689.665698,29708.731736,0.112000,0.974000,0.036000,192.000000,0.000000,0.000000,0.000000,0.000000,0.000000,0.000000,0.000000,0.000000,0.000000,1647747679.640994,0.000000
4.000000,35287.905966,20505.602122,4741.877883,7744.745343,3425.807169,52070.534476,29695.745372,29724.310902,0.112000,0.974000,0.036000,192.000000,0.000000,0.000000,0.000000,0.000000,0.000000,0.000000,0.000000,0.000000,0.000000,1647747679.648102,0.000000
5.000000,35280.753408,20510.653616,4747.354060,7751.093239,3431.328050,52070.757994,29684.569500,29716.398384,0.112000,0.974000,0.036000,192.000000,0.000000,0.000000,0.000000,0.000000,0.000000,0.000000,0.000000,0.000000,0.000000,1647747679.648108,0.000000
6.000000,35289.202367,20509.781898,4751.310319,7757.038803,3438.614719,52075.228342,29692.057334,29724.422660,0.112000,0.974000,0.036000,192.000000,0.000000,0.000000,0.000000,0.000000,0.000000,0.000000,0.000000,0.000000,0.000000,1647747679.655577,0.000000
7.000000,35290.856396,20499.902427,4741.430848,7748.321622,3428.668192,52065.170057,29700.059259,29731.172887,0.114000,0.974000,0.042000,192.000000,3.000000,144.000000,30.000000,112.000000,1.000000,80.000000,0.000000,0.000000,0.000000,1647747679.655584,0.000000
8.000000,35294.365620,20512.978198,4749.611586,7754.870684,3432.847969,52067.069956,29697.779381,29730.457631,0.114000,0.974000,0.042000,192.000000,0.000000,0.000000,0.000000,0.000000,0.000000,0.000000,0.000000,0.000000,0.000000,1647747679.662638,0.000000
9.000000,35297.271347,20528.378550,4758.932264,7760.235102,3440.916948,52079.028139,29689.911567,29724.042681,0.114000,0.974000,0.042000,192.000000,0.000000,0.000000,0.000000,0.000000,0.000000,0.000000,0.000000,0.000000,0.000000,1647747679.670644,0.000000
10.000000,35290.431713,20515.615704,4750.192732,7746.242910,3429.852835,52061.482020,29683.273099,29718.924131,0.114000,0.974000,0.042000,192.000000,0.000000,0.000000,0.000000,0.000000,0.000000,0.000000,0.000000,0.000000,0.000000,1647747679.670650,0.000000
11.000000,35297.986603,20513.626398,4751.176208,7749.618024,3432.758562,52073.373148,29695.454800,29729.451803,0.114000,0.974000,0.042000,192.000000,0.000000,0.000000,0.000000,0.000000,0.000000,0.000000,0.000000,0.000000,0.000000,1647747679.677785,0.000000
12.000000,35298.210120,20509.491326,4749.365717,7752.546102,3433.272652,52082.157383,29710.005785,29744.159251,0.114000,0.974000,0.042000,192.000000,0.000000,0.000000,0.000000,0.000000,0.000000,0.000000,0.000000,0.000000,0.000000,1647747679.677791,0.000000
13.000000,35296.556091,20512.955846,4759.088726,7763.476105,3442.638033,52083.945523,29701.936805,29736.693768,0.114000,0.974000,0.042000,192.000000,0.000000,0.000000,0.000000,0.000000,0.000000,0.000000,0.000000,0.000000,0.000000,1647747679.685207,0.000000
14.000000,35296.734905,20509.737195,4756.607682,7763.185532,3442.548626,52088.013540,29700.416887,29734.123317,0.114000,0.974000,0.042000,192.000000,0.000000,0.000000,0.000000,0.000000,0.000000,0.000000,0.000000,0.000000,0.000000,1647747679.685211,0.000000
15.000000,35301.518178,20515.459241,4757.233531,7764.079602,3444.470876,52090.136956,29696.684146,29743.242829,0.114000,0.974000,0.042000,192.000000,0.000000,0.000000,0.000000,0.000000,0.000000,0.000000,0.000000,0.000000,0.000000,1647747679.693246,0.000000
16.000000,35310.414172,20514.833392,4754.931301,7760.525675,3441.788666,52090.762805,29692.347907,29754.888088,0.114000,0.974000,0.042000,192.000000,0.000000,0.000000,0.000000,0.000000,0.000000,0.000000,0.000000,0.000000,0.000000,1647747679.693252,0.000000
17.000000,35303.127504,20510.653616,4752.785534,7758.178742,3438.905291,52091.075729,29708.619977,29762.442978,0.122000,0.974000,0.040000,192.000000,3.000000,208.000000,30.000000,112.000000,1.000000,64.000000,0.000000,0.000000,0.000000,1647747679.700488,0.000000
18.000000,35284.776722,20507.122041,4750.595063,7756.971748,3437.206559,52087.432395,29714.431431,29771.093103,0.122000,0.974000,0.040000,192.000000,0.000000,0.000000,0.000000,0.000000,0.000000,0.000000,0.000000,0.000000,0.000000,1647747679.700496,0.000000
19.000000,35280.798111,20514.207544,4759.088726,7764.794858,3445.208483,52097.334218,29690.448009,29744.271009,0.122000,0.974000,0.040000,192.000000,0.000000,0.000000,0.000000,0.000000,0.000000,0.000000,0.000000,0.000000,0.000000,1647747679.707815,0.000000
20.000000,35284.486149,20508.150221,4752.562017,7755.250663,3437.988870,52092.305075,29694.203102,29756.765635,0.122000,0.974000,0.040000,192.000000,0.000000,0.000000,0.000000,0.000000,0.000000,0.000000,0.000000,0.000000,0.000000,1647747679.707819,0.000000
21.000000,35280.284021,20500.416517,4745.923548,7744.387715,3430.679849,52086.158345,29696.751201,29769.729646,0.122000,0.974000,0.040000,192.000000,0.000000,0.000000,0.000000,0.000000,0.000000,0.000000,0.000000,0.000000,0.000000,1647747679.715903,0.000000
22.000000,35288.196538,20509.044291,4751.176208,7747.025221,3434.412591,52087.141822,29695.946538,29779.229138,0.122000,0.974000,0.040000,192.000000,0.000000,0.000000,0.000000,0.000000,0.000000,0.000000,0.000000,0.000000,0.000000,1647747679.715913,0.000000
23.000000,35292.286908,20512.687625,4761.301549,7756.502361,3444.850855,52088.549982,29686.938785,29769.528481,0.122000,0.974000,0.040000,192.000000,0.000000,0.000000,0.000000,0.000000,0.000000,0.000000,0.000000,0.000000,0.000000,1647747679.723099,0.000000
24.000000,35286.140178,20506.429137,4758.172304,7755.787105,3444.806152,52081.196258,29684.837721,29774.378809,0.122000,0.974000,0.040000,192.000000,0.000000,0.000000,0.000000,0.000000,0.000000,0.000000,0.000000,0.000000,0.000000,1647747679.730074,0.000000
25.000000,35279.948745,20495.677947,4748.963386,7746.801704,3435.574882,52070.020386,29688.257538,29786.404048,0.122000,0.974000,0.040000,192.000000,0.000000,0.000000,0.000000,0.000000,0.000000,0.000000,0.000000,0.000000,0.000000,1647747679.730080,0.000000
26.000000,35274.494919,20496.504962,4748.762220,7745.684117,3433.272652,52064.544209,29675.204119,29778.491530,0.122000,0.974000,0.040000,192.000000,0.000000,0.000000,0.000000,0.000000,0.000000,0.000000,0.000000,0.000000,0.000000,1647747679.737510,0.000000
27.000000,35289.962326,20520.041349,4770.711633,7766.337128,3455.937321,52084.526668,29672.074875,29770.310792,0.122000,0.974000,0.040000,192.000000,0.000000,0.000000,0.000000,0.000000,0.000000,0.000000,0.000000,0.000000,0.000000,1647747679.737514,0.000000
28.000000,35297.226643,20521.605971,4773.349139,7767.097088,3459.021861,52092.953276,29678.378067,29769.483777,0.124000,0.980000,0.044000,192.000000,3.000000,224.000000,30.000000,160.000000,1.000000,96.000000,0.000000,0.000000,0.000000,1647747679.745589,0.000000
29.000000,35296.354925,20516.174497,4763.693185,7757.821114,3449.410611,52084.973703,29681.484959,29776.435170,0.124000,0.980000,0.044000,192.000000,0.000000,0.000000,0.000000,0.000000,0.000000,0.000000,0.000000,0.000000,0.000000,1647747679.745593,0.000000
30.000000,35286.453102,20499.634206,4752.003223,7744.387715,3436.871283,52069.930979,29682.289622,29792.260205,0.124000,0.980000,0.044000,192.000000,0.000000,0.000000,0.000000,0.000000,0.000000,0.000000,0.000000,0.000000,0.000000,1647747679.753660,0.000000
31.000000,35298.701858,20501.735270,4749.700993,7746.958166,3437.273614,52074.311921,29683.854244,29802.385545,0.124000,0.980000,0.044000,192.000000,0.000000,0.000000,0.000000,0.000000,0.000000,0.000000,0.000000,0.000000,0.000000,1647747679.753664,0.000000
32.000000,35296.489036,20508.329035,4755.221874,7754.177779,3443.152123,52080.704520,29693.286680,29815.796592,0.124000,0.980000,0.044000,192.000000,0.000000,0.000000,0.000000,0.000000,0.000000,0.000000,0.000000,0.000000,0.000000,1647747679.760249,0.000000
33.000000,35287.347172,20510.921837,4759.938092,7755.809457,3448.181265,52088.102947,29683.630727,29800.105667,0.124000,0.980000,0.044000,192.000000,0.000000,0.000000,0.000000,0.000000,0.000000,0.000000,0.000000,0.000000,0.000000,1647747679.760254,0.000000
34.000000,35288.889443,20511.368872,4759.267540,7753.395468,3446.124905,52086.806546,29689.039849,29811.952092,0.124000,0.980000,0.044000,192.000000,0.000000,0.000000,0.000000,0.000000,0.000000,0.000000,0.000000,0.000000,0.000000,1647747679.768206,0.000000
35.000000,35295.483207,20517.292084,4771.404537,7763.498457,3455.199713,52089.041721,29680.970869,29809.828676,0.124000,0.980000,0.044000,192.000000,0.000000,0.000000,0.000000,0.000000,0.000000,0.000000,0.000000,0.000000,0.000000,1647747679.768211,0.000000
36.000000,35301.764047,20515.727462,4770.219895,7759.721012,3453.456277,52086.627732,29677.416942,29807.012356,0.124000,0.980000,0.044000,192.000000,0.000000,0.000000,0.000000,0.000000,0.000000,0.000000,0.000000,0.000000,0.000000,1647747679.776157,0.000000
37.000000,35297.718382,20511.368872,4759.781630,7750.154465,3443.576806,52079.542229,29681.194387,29812.063850,0.124000,0.980000,0.044000,192.000000,0.000000,0.000000,0.000000,0.000000,0.000000,0.000000,0.000000,0.000000,0.000000,1647747679.776160,0.000000
38.000000,35295.729076,20514.051081,4760.206313,7754.133076,3446.840161,52086.851250,29685.083590,29814.679005,0.126000,0.974000,0.036000,192.000000,3.000000,240.000000,30.000000,112.000000,1.000000,32.000000,0.000000,0.000000,0.000000,1647747679.783267,0.000000
39.000000,35293.605661,20509.290160,4758.731098,7754.378945,3447.153085,52082.090328,29677.372238,29804.620720,0.126000,0.974000,0.036000,192.000000,0.000000,0.000000,0.000000,0.000000,0.000000,0.000000,0.000000,0.000000,0.000000,1647747679.783271,0.000000
40.000000,35293.918585,20504.596294,4756.898255,7753.686041,3447.287196,52085.219572,29671.896061,29792.774295,0.126000,0.974000,0.036000,192.000000,0.000000,0.000000,0.000000,0.000000,0.000000,0.000000,0.000000,0.000000,0.000000,1647747679.789796,0.000000
41.000000,35293.672716,20495.968520,4743.509560,7745.192378,3436.334841,52083.967875,29684.457741,29813.024975,0.126000,0.974000,0.036000,192.000000,0.000000,0.000000,0.000000,0.000000,0.000000,0.000000,0.000000,0.000000,0.000000,1647747679.797794,0.000000
42.000000,35298.187768,20503.612817,4751.936168,7755.027146,3443.912082,52086.851250,29675.181767,29807.928778,0.126000,0.974000,0.036000,192.000000,0.000000,0.000000,0.000000,0.000000,0.000000,0.000000,0.000000,0.000000,0.000000,1647747679.797798,0.000000
43.000000,35299.104190,20507.099689,4752.472610,7755.474181,3445.923739,52093.512069,29671.381971,29800.485647,0.126000,0.974000,0.036000,192.000000,0.000000,0.000000,0.000000,0.000000,0.000000,0.000000,0.000000,0.000000,0.000000,1647747679.805851,0.000000
44.000000,35299.059486,20498.807192,4742.593139,7746.622890,3436.804227,52083.543191,29664.631744,29801.670289,0.126000,0.974000,0.036000,192.000000,0.000000,0.000000,0.000000,0.000000,0.000000,0.000000,0.000000,0.000000,0.000000,1647747679.805855,0.000000
45.000000,35304.982699,20502.003491,4744.895368,7750.333279,3439.084105,52080.816279,29652.762968,29793.802475,0.126000,0.974000,0.036000,192.000000,0.000000,0.000000,0.000000,0.000000,0.000000,0.000000,0.000000,0.000000,0.000000,1647747679.813765,0.000000
46.000000,35302.635765,20499.365985,4749.723345,7752.568454,3442.861550,52084.616075,29645.297485,29786.359344,0.126000,0.974000,0.036000,192.000000,0.000000,0.000000,0.000000,0.000000,0.000000,0.000000,0.000000,0.000000,0.000000,1647747679.813769,0.000000
47.000000,35300.624108,20502.450526,4749.052793,7751.048535,3442.593329,52080.391595,29645.565706,29792.483722,0.126000,0.974000,0.036000,192.000000,0.000000,0.000000,0.000000,0.000000,0.000000,0.000000,0.000000,0.000000,0.000000,1647747679.821736,0.000000
48.000000,35287.436579,20491.878151,4733.272461,7738.240986,3428.914062,52069.573351,29654.238183,29802.340842,0.126000,0.984000,0.032000,192.000000,3.000000,240.000000,30.000000,192.000000,1.000000,0.000000,0.000000,0.000000,0.000000,1647747679.821740,0.000000
49.000000,35288.196538,20495.610892,4739.173322,7745.661765,3436.759524,52081.308017,29656.965096,29807.459391,0.126000,0.984000,0.032000,192.000000,0.000000,0.000000,0.000000,0.000000,0.000000,0.000000,0.000000,0.000000,0.000000,1647747679.829887,0.000000
50.000000,35290.766989,20498.851895,4736.602871,7744.968861,3437.117152,52080.481002,29658.485014,29818.434098,0.126000,0.984000,0.032000,192.000000,0.000000,0.000000,0.000000,0.000000,0.000000,0.000000,0.000000,0.000000,0.000000,1647747679.829891,0.000000
51.000000,35300.355887,20507.144392,4745.096534,7752.568454,3443.755620,52084.951351,29659.937878,29826.972464,0.126000,0.984000,0.032000,192.000000,0.000000,0.000000,0.000000,0.000000,0.000000,0.000000,0.000000,0.000000,0.000000,1647747679.836944,0.000000
52.000000,35303.865111,20497.980177,4739.888577,7742.376058,3437.608890,52080.436299,29659.177918,29831.845144,0.126000,0.984000,0.032000,192.000000,0.000000,0.000000,0.000000,0.000000,0.000000,0.000000,0.000000,0.000000,0.000000,1647747679.836948,0.000000
53.000000,35304.379201,20501.757622,4746.974080,7747.941643,3443.688565,52086.292456,29656.585116,29836.762528,0.126000,0.984000,0.032000,192.000000,0.000000,0.000000,0.000000,0.000000,0.000000,0.000000,0.000000,0.000000,0.000000,1647747679.843137,0.000000
54.000000,35297.830140,20501.377642,4741.162627,7742.174893,3437.653594,52079.653988,29656.160433,29846.396130,0.126000,0.984000,0.032000,192.000000,0.000000,0.000000,0.000000,0.000000,0.000000,0.000000,0.000000,0.000000,0.000000,1647747679.843141,0.000000
55.000000,35291.348134,20498.561323,4744.336575,7746.689945,3441.073411,52082.090328,29652.762968,29847.156089,0.126000,0.984000,0.032000,192.000000,0.000000,0.000000,0.000000,0.000000,0.000000,0.000000,0.000000,0.000000,0.000000,1647747679.850092,0.000000
56.000000,35302.412248,20506.406785,4752.941996,7759.095163,3451.310510,52092.170965,29647.040921,29844.339769,0.126000,0.984000,0.032000,192.000000,0.000000,0.000000,0.000000,0.000000,0.000000,0.000000,0.000000,0.000000,0.000000,1647747679.858190,0.000000
57.000000,35309.788324,20504.372776,4752.159685,7760.793896,3453.836257,52095.076692,29650.617200,29852.431101,0.126000,0.984000,0.032000,192.000000,0.000000,0.000000,0.000000,0.000000,0.000000,0.000000,0.000000,0.000000,0.000000,1647747679.858194,0.000000
58.000000,35300.802922,20501.869381,4750.058621,7758.603425,3451.601082,52090.874564,29653.589982,29851.268810,0.126000,0.986000,0.034000,192.000000,3.000000,240.000000,30.000000,208.000000,1.000000,16.000000,0.000000,0.000000,0.000000,1647747679.865221,0.000000
59.000000,35285.380219,20502.003491,4747.644633,7748.992175,3445.275539,52086.135994,29647.555011,29838.908296,0.126000,0.986000,0.034000,192.000000,0.000000,0.000000,0.000000,0.000000,0.000000,0.000000,0.000000,0.000000,0.000000,1647747679.865226,0.000000
60.000000,35283.480320,20500.863552,4744.269519,7740.543215,3438.055925,52084.169040,29663.134177,29861.975296,0.126000,0.986000,0.034000,192.000000,0.000000,0.000000,0.000000,0.000000,0.000000,0.000000,0.000000,0.000000,0.000000,1647747679.872694,0.000000
61.000000,35277.914736,20501.109421,4743.509560,7739.872663,3436.513655,52074.714252,29671.583137,29870.960697,0.126000,0.986000,0.034000,192.000000,0.000000,0.000000,0.000000,0.000000,0.000000,0.000000,0.000000,0.000000,0.000000,1647747679.872698,0.000000
62.000000,35286.117826,20508.865477,4749.924511,7746.086448,3443.755620,52081.196258,29678.065142,29867.563232,0.126000,0.986000,0.034000,192.000000,0.000000,0.000000,0.000000,0.000000,0.000000,0.000000,0.000000,0.000000,0.000000,1647747679.880784,0.000000
63.000000,35281.558070,20498.963654,4744.761258,7739.984422,3438.726477,52078.581104,29681.753180,29882.650659,0.126000,0.986000,0.034000,192.000000,0.000000,0.000000,0.000000,0.000000,0.000000,0.000000,0.000000,0.000000,0.000000,1647747679.880788,0.000000
64.000000,35278.428826,20510.094823,4752.629072,7750.735611,3447.063678,52087.857078,29669.079741,29865.126892,0.126000,0.986000,0.034000,192.000000,0.000000,0.000000,0.000000,0.000000,0.000000,0.000000,0.000000,0.000000,0.000000,1647747679.888627,0.000000
65.000000,35281.088684,20505.020977,4746.191769,7748.813361,3443.085068,52083.051453,29669.683238,29871.608898,0.126000,0.986000,0.034000,192.000000,0.000000,0.000000,0.000000,0.000000,0.000000,0.000000,0.000000,0.000000,0.000000,1647747679.888636,0.000000
66.000000,35285.760198,20502.204657,4744.962423,7745.997041,3442.727440,52078.849325,29668.096264,29878.873215,0.126000,0.986000,0.034000,192.000000,0.000000,0.000000,0.000000,0.000000,0.000000,0.000000,0.000000,0.000000,0.000000,1647747679.895876,0.000000
67.000000,35293.650364,20508.127869,4757.412345,7756.368250,3454.953844,52084.683130,29664.274116,29872.659430,0.126000,0.986000,0.034000,192.000000,0.000000,0.000000,0.000000,0.000000,0.000000,0.000000,0.000000,0.000000,0.000000,1647747679.895880,0.000000
68.000000,35289.112960,20497.264921,4751.220912,7750.266224,3448.695355,52084.057282,29678.936860,29890.831398,0.130000,0.978000,0.034000,192.000000,4.000000,16.000000,30.000000,144.000000,1.000000,16.000000,0.000000,0.000000,0.000000,1647747679.903341,0.000000
69.000000,35271.857413,20499.544799,4748.717517,7747.695774,3444.649690,52079.922209,29675.070009,29899.258006,0.130000,0.978000,0.034000,192.000000,0.000000,0.000000,0.000000,0.000000,0.000000,0.000000,0.000000,0.000000,0.000000,1647747679.903345,0.000000
70.000000,35263.766082,20508.373738,4754.797191,7754.714221,3452.092821,52088.460575,29659.066160,29882.605956,0.130000,0.978000,0.034000,192.000000,0.000000,0.000000,0.000000,0.000000,0.000000,0.000000,0.000000,0.000000,0.000000,1647747679.911772,0.000000
71.000000,35264.034303,20509.737195,4755.043060,7753.462524,3452.249283,52096.686017,29660.049636,29881.913052,0.130000,0.978000,0.034000,192.000000,0.000000,0.000000,0.000000,0.000000,0.000000,0.000000,0.000000,0.000000,0.000000,1647747679.919816,0.000000
72.000000,35266.448291,20509.826602,4750.729174,7748.411029,3449.678832,52093.489718,29660.071988,29889.937328,0.130000,0.978000,0.034000,192.000000,0.000000,0.000000,0.000000,0.000000,0.000000,0.000000,0.000000,0.000000,0.000000,1647747679.919820,0.000000
73.000000,35269.912812,20517.649712,4758.284063,7757.418782,3460.117097,52096.909535,29648.538488,29871.273621,0.130000,0.978000,0.034000,192.000000,0.000000,0.000000,0.000000,0.000000,0.000000,0.000000,0.000000,0.000000,0.000000,1647747679.926093,0.000000
74.000000,35274.740788,20525.606933,4761.882694,7765.308948,3465.705033,52101.625753,29648.940819,29859.047217,0.130000,0.978000,0.034000,192.000000,0.000000,0.000000,0.000000,0.000000,0.000000,0.000000,0.000000,0.000000,0.000000,1647747679.926097,0.000000
75.000000,35259.563954,20528.087977,4758.596988,7762.380870,3461.547609,52093.757939,29654.372293,29852.140528,0.130000,0.978000,0.034000,192.000000,0.000000,0.000000,0.000000,0.000000,0.000000,0.000000,0.000000,0.000000,0.000000,1647747679.934341,0.000000
76.000000,35258.558125,20518.744948,4759.066374,7758.670480,3461.033518,52086.918305,29663.804729,29857.795520,0.130000,0.978000,0.034000,192.000000,0.000000,0.000000,0.000000,0.000000,0.000000,0.000000,0.000000,0.000000,0.000000,1647747679.934345,0.000000
77.000000,35254.557163,20512.955846,4763.089688,7756.569416,3464.810963,52088.549982,29667.917450,29864.210470,0.130000,0.978000,0.034000,192.000000,0.000000,0.000000,0.000000,0.000000,0.000000,0.000000,0.000000,0.000000,0.000000,1647747679.940965,0.000000
78.000000,35242.621332,20511.614741,4762.240322,7753.797800,3463.022824,52087.767671,29669.794997,29869.552537,0.134000,0.978000,0.026000,192.000000,4.000000,48.000000,30.000000,144.000000,0.000000,208.000000,0.000000,0.000000,0.000000,1647747679.940970,0.000000
79.000000,35228.830305,20502.249360,4753.634900,7744.879454,3455.110306,52079.296360,29669.392666,29874.894604,0.134000,0.978000,0.026000,192.000000,0.000000,0.000000,0.000000,0.000000,0.000000,0.000000,0.000000,0.000000,0.000000,1647747679.947539,0.000000
80.000000,35218.414392,20502.495230,4751.891464,7746.377021,3456.540818,52074.446031,29665.414055,29878.604994,0.134000,0.978000,0.026000,192.000000,0.000000,0.000000,0.000000,0.000000,0.000000,0.000000,0.000000,0.000000,0.000000,1647747679.947543,0.000000
81.000000,35211.954738,20513.671102,4756.361813,7754.669518,3464.207466,52082.738529,29665.659924,29876.861558,0.134000,0.978000,0.026000,192.000000,0.000000,0.000000,0.000000,0.000000,0.000000,0.000000,0.000000,0.000000,0.000000,1647747679.955648,0.000000
82.000000,35205.696250,20517.314436,4752.271444,7752.791971,3463.156934,52082.693825,29676.567576,29892.284261,0.134000,0.978000,0.026000,192.000000,0.000000,0.000000,0.000000,0.000000,0.000000,0.000000,0.000000,0.000000,0.000000,1647747679.955652,0.000000
83.000000,35196.666145,20522.544744,4753.076107,7756.278843,3465.682681,52083.118508,29673.840663,29897.492218,0.134000,0.978000,0.026000,192.000000,0.000000,0.000000,0.000000,0.000000,0.000000,0.000000,0.000000,0.000000,0.000000,1647747679.963567,0.000000
84.000000,35182.226918,20528.557364,4759.714575,7763.185532,3471.360024,52086.784194,29665.302296,29891.077267,0.134000,0.978000,0.026000,192.000000,0.000000,0.000000,0.000000,0.000000,0.000000,0.000000,0.000000,0.000000,0.000000,1647747679.963571,0.000000
85.000000,35174.068531,20529.317323,4762.709709,7766.605349,3473.595199,52092.282723,29658.373256,29878.202662,0.134000,0.978000,0.026000,192.000000,0.000000,0.000000,0.000000,0.000000,0.000000,0.000000,0.000000,0.000000,0.000000,1647747679.970672,0.000000
86.000000,35165.060778,20512.821735,4743.576615,7749.036878,3456.943149,52083.051453,29672.745427,29895.704078,0.134000,0.978000,0.026000,192.000000,0.000000,0.000000,0.000000,0.000000,0.000000,0.000000,0.000000,0.000000,0.000000,1647747679.977219,0.000000
87.000000,35147.760528,20513.134660,4742.816656,7746.868759,3454.618568,52084.012578,29685.150645,29914.591302,0.134000,0.978000,0.026000,192.000000,0.000000,0.000000,0.000000,0.000000,0.000000,0.000000,0.000000,0.000000,0.000000,1647747679.977223,0.000000
88.000000,35133.276598,20514.565172,4741.430848,7742.040782,3450.684661,52080.771575,29690.649175,29935.020797,0.132000,0.992000,0.026000,192.000000,4.000000,32.000000,31.000000,0.000000,0.000000,208.000000,0.000000,0.000000,0.000000,1647747679.985248,0.000000
89.000000,35112.087144,20510.385395,4740.425019,7739.872663,3448.114210,52072.859058,29679.652116,29931.668035,0.132000,0.992000,0.026000,192.000000,0.000000,0.000000,0.000000,0.000000,0.000000,0.000000,0.000000,0.000000,0.000000,1647747679.985253,0.000000
90.000000,35116.423382,20522.142413,4751.511485,7750.646204,3460.072393,52084.437261,29672.208985,29918.771078,0.132000,0.992000,0.026000,192.000000,0.000000,0.000000,0.000000,0.000000,0.000000,0.000000,0.000000,0.000000,0.000000,1647747679.993293,0.000000
91.000000,35113.607063,20522.500041,4747.935205,7745.706468,3458.127792,52082.537363,29685.552977,29930.014006,0.132000,0.992000,0.026000,192.000000,0.000000,0.000000,0.000000,0.000000,0.000000,0.000000,0.000000,0.000000,0.000000,1647747679.993298,0.000000
92.000000,35091.478836,20524.355236,4750.818580,7747.628718,3459.133620,52079.005787,29699.902797,29950.823480,0.132000,0.992000,0.026000,192.000000,0.000000,0.000000,0.000000,0.000000,0.000000,0.000000,0.000000,0.000000,0.000000,1647747680.000391,0.000000
93.000000,35074.916193,20529.384378,4759.312243,7752.121419,3465.906199,52079.028139,29691.610300,29941.703968,0.132000,0.992000,0.026000,192.000000,0.000000,0.000000,0.000000,0.000000,0.000000,0.000000,0.000000,0.000000,0.000000,1647747680.000395,0.000000
94.000000,35063.136824,20542.080169,4766.844781,7762.135000,3473.818716,52085.845421,29682.088456,29922.481468,0.132000,0.992000,0.026000,192.000000,0.000000,0.000000,0.000000,0.000000,0.000000,0.000000,0.000000,0.000000,0.000000,1647747680.007840,0.000000
95.000000,35045.546001,20537.878041,4758.641691,7758.156390,3466.263827,52084.347854,29691.275023,29920.670977,0.132000,0.992000,0.026000,192.000000,0.000000,0.000000,0.000000,0.000000,0.000000,0.000000,0.000000,0.000000,0.000000,1647747680.007845,0.000000
96.000000,35025.429431,20531.083111,4746.951729,7747.673422,3454.976196,52077.955255,29702.964986,29928.538791,0.132000,0.992000,0.026000,192.000000,0.000000,0.000000,0.000000,0.000000,0.000000,0.000000,0.000000,0.000000,0.000000,1647747680.015850,0.000000
97.000000,35008.956195,20540.426140,4753.657252,7753.395468,3463.492210,52088.348816,29706.429506,29930.215172,0.132000,0.992000,0.026000,192.000000,0.000000,0.000000,0.000000,0.000000,0.000000,0.000000,0.000000,0.000000,0.000000,1647747680.015854,0.000000
98.000000,34996.528625,20540.828471,4758.552284,7759.609253,3469.437774,52097.624790,29704.998994,29922.928503,0.132000,0.994000,0.030000,192.000000,4.000000,32.000000,31.000000,16.000000,0.000000,240.000000,0.000000,0.000000,0.000000,1647747680.024212,0.000000
99.000000,34977.328477,20537.609820,4753.433735,7753.954262,3465.369757,52091.165136,29706.988300,29923.979035,0.132000,0.994000,0.030000,192.000000,0.000000,0.000000,0.000000,0.000000,0.000000,0.000000,0.000000,0.000000,0.000000,1647747680.024221,0.000000
100.000000,34973.595735,20551.892585,4762.754412,7760.928006,3475.875077,52097.825956,29714.431431,29927.220038,0.132000,0.994000,0.030000,192.000000,0.000000,0.000000,0.000000,0.000000,0.000000,0.000000,0.000000,0.000000,0.000000,1647747680.030437,0.000000
101.000000,34965.862032,20555.066533,4755.244226,7754.870684,3472.209391,52095.814299,29717.292454,29933.009140,0.132000,0.994000,0.030000,192.000000,0.000000,0.000000,0.000000,0.000000,0.000000,0.000000,0.000000,0.000000,0.000000,1647747680.030452,0.000000
102.000000,34961.592848,20549.836224,4751.265615,7754.021317,3470.175382,52096.954238,29726.881352,29950.175279,0.132000,0.994000,0.030000,192.000000,0.000000,0.000000,0.000000,0.000000,0.000000,0.000000,0.000000,0.000000,0.000000,1647747680.037870,0.000000
103.000000,34950.841659,20539.666181,4747.018784,7751.652032,3466.286178,52094.450843,29733.139841,29963.273402,0.132000,0.994000,0.030000,192.000000,0.000000,0.000000,0.000000,0.000000,0.000000,0.000000,0.000000,0.000000,0.000000,1647747680.045634,0.000000
104.000000,34949.254686,20549.836224,4759.803982,7762.336166,3477.283237,52096.820128,29726.523724,29951.426977,0.132000,0.994000,0.030000,192.000000,0.000000,0.000000,0.000000,0.000000,0.000000,0.000000,0.000000,0.000000,0.000000,1647747680.045645,0.000000
105.000000,34931.373290,20544.136529,4746.795266,7750.690907,3465.570923,52083.520840,29739.867716,29967.833158,0.132000,0.994000,0.030000,192.000000,0.000000,0.000000,0.000000,0.000000,0.000000,0.000000,0.000000,0.000000,0.000000,1647747680.053703,0.000000
106.000000,34922.924331,20553.054875,4752.047926,7759.430439,3473.371681,52086.918305,29745.545059,29979.970155,0.132000,0.994000,0.030000,192.000000,0.000000,0.000000,0.000000,0.000000,0.000000,0.000000,0.000000,0.000000,0.000000,1647747680.053714,0.000000
107.000000,34921.829095,20559.179253,4754.573674,7764.392527,3478.132603,52090.047549,29737.565486,29967.676695,0.132000,0.994000,0.030000,192.000000,0.000000,0.000000,0.000000,0.000000,0.000000,0.000000,0.000000,0.000000,0.000000,1647747680.060473,0.000000
108.000000,34892.727124,20548.718637,4742.280214,7752.568454,3468.543705,52081.755052,29728.133050,29957.014913,0.128000,0.994000,0.026000,192.000000,4.000000,0.000000,31.000000,16.000000,0.000000,208.000000,0.000000,0.000000,0.000000,1647747680.060491,0.000000
109.000000,34867.603763,20549.858576,4739.307432,7749.707431,3466.710862,52082.269142,29737.744300,29969.509538,0.128000,0.994000,0.026000,192.000000,0.000000,0.000000,0.000000,0.000000,0.000000,0.000000,0.000000,0.000000,0.000000,1647747680.068541,0.000000
110.000000,34838.166516,20552.116102,4744.627147,7755.138904,3471.874114,52095.635485,29734.592704,29964.100416,0.128000,0.994000,0.026000,192.000000,0.000000,0.000000,0.000000,0.000000,0.000000,0.000000,0.000000,0.000000,0.000000,1647747680.068558,0.000000
111.000000,34818.385222,20546.841091,4741.810827,7749.081582,3467.649635,52094.584953,29742.438166,29966.849681,0.128000,0.994000,0.026000,192.000000,0.000000,0.000000,0.000000,0.000000,0.000000,0.000000,0.000000,0.000000,0.000000,1647747680.076320,0.000000
112.000000,34809.802152,20553.859538,4746.124714,7754.669518,3471.874114,52101.022256,29767.136844,29979.411361,0.128000,0.994000,0.026000,192.000000,0.000000,0.000000,0.000000,0.000000,0.000000,0.000000,0.000000,0.000000,0.000000,1647747680.076331,0.000000
113.000000,34795.340573,20564.923652,4756.182999,7763.073774,3479.339597,52111.393465,29770.981344,29978.494940,0.128000,0.994000,0.026000,192.000000,0.000000,0.000000,0.000000,0.000000,0.000000,0.000000,0.000000,0.000000,0.000000,1647747680.083189,0.000000
114.000000,34765.948029,20553.323096,4748.918682,7750.825018,3468.946036,52103.659761,29757.100911,29958.579535,0.128000,0.994000,0.026000,192.000000,0.000000,0.000000,0.000000,0.000000,0.000000,0.000000,0.000000,0.000000,0.000000,1647747680.083201,0.000000
115.000000,34753.028721,20553.747780,4746.303528,7746.913463,3466.912027,52103.548003,29761.258335,29957.104320,0.128000,0.994000,0.026000,192.000000,0.000000,0.000000,0.000000,0.000000,0.000000,0.000000,0.000000,0.000000,0.000000,1647747680.091177,0.000000
116.000000,34733.247427,20542.750721,4738.167493,7737.481026,3457.881922,52091.947447,29761.817129,29959.853585,0.128000,0.994000,0.026000,192.000000,0.000000,0.000000,0.000000,0.000000,0.000000,0.000000,0.000000,0.000000,0.000000,1647747680.091194,0.000000
117.000000,34712.572064,20536.179308,4738.413362,7737.838654,3457.345481,52092.372130,29776.725742,29979.701934,0.128000,0.994000,0.026000,192.000000,0.000000,0.000000,0.000000,0.000000,0.000000,0.000000,0.000000,0.000000,0.000000,1647747680.098238,0.000000
118.000000,34696.858787,20545.231765,4741.721420,7741.861968,3460.586484,52093.668532,29778.446827,29984.820483,0.128000,0.984000,0.032000,192.000000,4.000000,0.000000,30.000000,192.000000,1.000000,0.000000,0.000000,0.000000,0.000000,1647747680.106192,0.000000
119.000000,34682.620726,20557.882852,4753.567845,7752.322585,3472.119984,52106.230212,29769.237908,29974.002239,0.128000,0.984000,0.032000,192.000000,0.000000,0.000000,0.000000,0.000000,0.000000,0.000000,0.000000,0.000000,0.000000,1647747680.106209,0.000000
120.000000,34667.913278,20554.820663,4752.964348,7750.176817,3471.695301,52111.393465,29757.860870,29951.471681,0.128000,0.984000,0.032000,192.000000,0.000000,0.000000,0.000000,0.000000,0.000000,0.000000,0.000000,0.000000,0.000000,1647747680.112648,0.000000
121.000000,34656.558592,20551.646716,4749.052793,7746.421724,3468.856629,52106.990171,29757.525594,29942.486279,0.128000,0.984000,0.032000,192.000000,0.000000,0.000000,0.000000,0.000000,0.000000,0.000000,0.000000,0.000000,0.000000,1647747680.112665,0.000000
122.000000,34662.817080,20562.442608,4753.567845,7751.026183,3472.969350,52107.593668,29772.657725,29946.062558,0.128000,0.984000,0.032000,192.000000,0.000000,0.000000,0.000000,0.000000,0.000000,0.000000,0.000000,0.000000,0.000000,1647747680.120505,0.000000
123.000000,34637.649016,20563.157864,4752.159685,7750.601500,3470.287141,52110.477043,29783.319507,29950.465852,0.128000,0.984000,0.032000,192.000000,0.000000,0.000000,0.000000,0.000000,0.000000,0.000000,0.000000,0.000000,0.000000,1647747680.120516,0.000000
124.000000,34623.321548,20568.723448,4755.065412,7755.764753,3473.148164,52115.528538,29777.932737,29936.384253,0.128000,0.984000,0.032000,192.000000,0.000000,0.000000,0.000000,0.000000,0.000000,0.000000,0.000000,0.000000,0.000000,1647747680.128543,0.000000
125.000000,34621.242836,20567.404695,4758.641691,7759.519846,3476.947960,52121.116474,29784.057115,29927.667073,0.128000,0.984000,0.032000,192.000000,0.000000,0.000000,0.000000,0.000000,0.000000,0.000000,0.000000,0.000000,0.000000,1647747680.128549,0.000000
126.000000,34607.049478,20552.674896,4748.695165,7748.679250,3467.247303,52111.840500,29796.037650,29934.350244,0.128000,0.984000,0.032000,192.000000,0.000000,0.000000,0.000000,0.000000,0.000000,0.000000,0.000000,0.000000,0.000000,1647747680.135817,0.000000
127.000000,34605.127228,20550.104445,4743.554264,7740.967898,3459.670062,52096.686017,29805.984176,29950.041169,0.128000,0.984000,0.032000,192.000000,0.000000,0.000000,0.000000,0.000000,0.000000,0.000000,0.000000,0.000000,0.000000,1647747680.135828,0.000000
128.000000,34590.419780,20549.836224,4741.788476,7736.162273,3454.238588,52090.025197,29804.218388,29954.980904,0.128000,0.984000,0.032000,192.000000,0.000000,0.000000,0.000000,0.000000,0.000000,0.000000,0.000000,0.000000,0.000000,1647747680.144680,0.000000
129.000000,34580.696771,20562.241442,4752.338499,7746.019393,3463.223989,52105.224384,29805.693603,29940.251105,0.132000,0.976000,0.030000,192.000000,4.000000,32.000000,30.000000,128.000000,0.000000,240.000000,0.000000,0.000000,0.000000,1647747680.144702,0.000000
130.000000,34573.924193,20571.048030,4754.573674,7751.026183,3466.330882,52111.706389,29801.044440,29929.678730,0.132000,0.976000,0.030000,192.000000,0.000000,0.000000,0.000000,0.000000,0.000000,0.000000,0.000000,0.000000,0.000000,1647747680.151154,0.000000
131.000000,34570.437321,20565.348335,4747.488171,7746.533483,3460.251207,52107.370151,29808.934606,29942.642742,0.132000,0.976000,0.030000,192.000000,0.000000,0.000000,0.000000,0.000000,0.000000,0.000000,0.000000,0.000000,0.000000,1647747680.151165,0.000000
132.000000,34576.293478,20564.677783,4749.253958,7745.438247,3460.564132,52107.548965,29801.647937,29936.160736,0.132000,0.976000,0.030000,192.000000,0.000000,0.000000,0.000000,0.000000,0.000000,0.000000,0.000000,0.000000,0.000000,1647747680.158474,0.000000
133.000000,34577.276954,20562.956698,4744.448333,7738.129227,3455.155010,52104.665590,29796.037650,29936.853640,0.132000,0.976000,0.030000,192.000000,0.000000,0.000000,0.000000,0.000000,0.000000,0.000000,0.000000,0.000000,0.000000,1647747680.165574,0.000000
134.000000,34563.374169,20558.419294,4738.145141,7731.803683,3449.075335,52098.608267,29798.161065,29957.573707,0.132000,0.976000,0.030000,192.000000,0.000000,0.000000,0.000000,0.000000,0.000000,0.000000,0.000000,0.000000,0.000000,1647747680.165590,0.000000
135.000000,34556.400425,20570.042201,4750.393897,7744.968861,3462.575789,52115.506186,29782.850120,29947.135442,0.132000,0.976000,0.030000,192.000000,0.000000,0.000000,0.000000,0.000000,0.000000,0.000000,0.000000,0.000000,0.000000,1647747680.172923,0.000000
136.000000,34563.016541,20575.406620,4757.479400,7749.238044,3468.320187,52122.457578,29769.528481,29934.663169,0.132000,0.976000,0.030000,192.000000,0.000000,0.000000,0.000000,0.000000,0.000000,0.000000,0.000000,0.000000,0.000000,1647747680.172939,0.000000
137.000000,34569.744416,20573.372611,4754.171342,7744.275957,3463.648673,52121.652916,29781.933699,29951.874012,0.132000,0.976000,0.030000,192.000000,0.000000,0.000000,0.000000,0.000000,0.000000,0.000000,0.000000,0.000000,0.000000,1647747680.180972,0.000000
138.000000,34567.643352,20580.547521,4760.899217,7751.227349,3470.130678,52130.191282,29775.943431,29946.666056,0.132000,0.976000,0.030000,192.000000,0.000000,0.000000,0.000000,0.000000,0.000000,0.000000,0.000000,0.000000,0.000000,1647747680.180989,0.000000
139.000000,34547.236210,20576.457152,4754.976005,7744.678288,3464.051004,52125.184491,29774.714085,29950.555259,0.134000,0.966000,0.032000,192.000000,4.000000,48.000000,30.000000,48.000000,1.000000,0.000000,0.000000,0.000000,0.000000,1647747680.188399,0.000000
140.000000,34542.005902,20571.785637,4747.376412,7738.464503,3458.954806,52114.567413,29781.419609,29972.929355,0.134000,0.966000,0.032000,192.000000,0.000000,0.000000,0.000000,0.000000,0.000000,0.000000,0.000000,0.000000,0.000000,1647747680.188416,0.000000
141.000000,34528.214875,20565.884777,4743.844836,7734.620003,3454.506809,52105.000866,29770.690771,29978.740809,0.134000,0.966000,0.032000,192.000000,0.000000,0.000000,0.000000,0.000000,0.000000,0.000000,0.000000,0.000000,0.000000,1647747680.195385,0.000000
142.000000,34534.540419,20579.452286,4755.467743,7746.019393,3465.950902,52110.991134,29751.825899,29965.039189,0.134000,0.966000,0.032000,192.000000,0.000000,0.000000,0.000000,0.000000,0.000000,0.000000,0.000000,0.000000,0.000000,1647747680.195395,0.000000
143.000000,34536.641483,20588.705908,4763.670834,7755.161256,3475.025710,52123.083427,29734.950332,29944.386178,0.134000,0.966000,0.032000,192.000000,0.000000,0.000000,0.000000,0.000000,0.000000,0.000000,0.000000,0.000000,0.000000,1647747680.203783,0.000000
144.000000,34526.359680,20586.649547,4758.194656,7747.919291,3468.141373,52123.418703,29730.569390,29934.484355,0.134000,0.966000,0.032000,192.000000,0.000000,0.000000,0.000000,0.000000,0.000000,0.000000,0.000000,0.000000,0.000000,1647747680.203800,0.000000
145.000000,34508.657099,20584.816704,4750.170380,7740.789085,3460.407670,52121.719971,29735.799698,29946.509593,0.134000,0.966000,0.032000,192.000000,0.000000,0.000000,0.000000,0.000000,0.000000,0.000000,0.000000,0.000000,0.000000,1647747680.211603,0.000000
146.000000,34501.616299,20577.373573,4742.548435,7732.317773,3452.808076,52114.857985,29736.157326,29959.473605,0.134000,0.966000,0.032000,192.000000,0.000000,0.000000,0.000000,0.000000,0.000000,0.000000,0.000000,0.000000,0.000000,1647747680.211620,0.000000
147.000000,34506.600738,20577.954719,4746.147066,7737.346916,3458.261902,52115.237965,29729.742376,29961.418207,0.134000,0.966000,0.032000,192.000000,0.000000,0.000000,0.000000,0.000000,0.000000,0.000000,0.000000,0.000000,0.000000,1647747680.217803,0.000000
148.000000,34510.668756,20578.781733,4745.051830,7737.883358,3459.133620,52121.228233,29725.897876,29970.045980,0.134000,0.966000,0.032000,192.000000,0.000000,0.000000,0.000000,0.000000,0.000000,0.000000,0.000000,0.000000,0.000000,1647747680.225506,0.000000
149.000000,34491.915642,20570.109257,4737.586348,7727.847424,3449.768239,52111.929907,29714.118506,29988.642632,0.130000,0.964000,0.042000,192.000000,4.000000,16.000000,30.000000,32.000000,1.000000,80.000000,0.000000,0.000000,0.000000,1647747680.225523,0.000000
150.000000,34481.432674,20573.439666,4739.843874,7728.897956,3451.466972,52119.529500,29703.836704,29982.562957,0.130000,0.964000,0.042000,192.000000,0.000000,0.000000,0.000000,0.000000,0.000000,0.000000,0.000000,0.000000,0.000000,1647747680.233276,0.000000
151.000000,34482.617317,20575.630137,4739.866226,7729.009715,3451.735193,52130.839483,29702.205026,29985.401629,0.130000,0.964000,0.042000,192.000000,0.000000,0.000000,0.000000,0.000000,0.000000,0.000000,0.000000,0.000000,0.000000,1647747680.233292,0.000000
152.000000,34489.658116,20576.680669,4742.704897,7729.367343,3454.149181,52125.184491,29694.605433,29995.906949,0.130000,0.964000,0.042000,192.000000,0.000000,0.000000,0.000000,0.000000,0.000000,0.000000,0.000000,0.000000,0.000000,1647747680.241148,0.000000
153.000000,34502.733887,20590.762268,4752.159685,7742.666631,3463.894542,52124.826863,29682.289622,29991.928338,0.130000,0.964000,0.042000,192.000000,0.000000,0.000000,0.000000,0.000000,0.000000,0.000000,0.000000,0.000000,0.000000,1647747680.241160,0.000000
154.000000,34508.545340,20600.775850,4754.283101,7744.298308,3466.085013,52126.257375,29670.756122,29981.534777,0.130000,0.964000,0.042000,192.000000,0.000000,0.000000,0.000000,0.000000,0.000000,0.000000,0.000000,0.000000,0.000000,1647747680.247792,0.000000
155.000000,34500.565767,20591.566931,4748.605758,7734.396486,3457.904274,52115.193262,29661.122520,29985.938071,0.130000,0.964000,0.042000,192.000000,0.000000,0.000000,0.000000,0.000000,0.000000,0.000000,0.000000,0.000000,0.000000,1647747680.247803,0.000000
156.000000,34509.148837,20586.135457,4744.627147,7732.898919,3453.925664,52108.375979,29651.175994,29991.928338,0.130000,0.964000,0.042000,192.000000,0.000000,0.000000,0.000000,0.000000,0.000000,0.000000,0.000000,0.000000,0.000000,1647747680.255973,0.000000
157.000000,34508.880616,20587.096582,4739.709763,7733.211843,3450.707012,52099.524689,29641.207116,29996.845722,0.130000,0.964000,0.042000,192.000000,0.000000,0.000000,0.000000,0.000000,0.000000,0.000000,0.000000,0.000000,0.000000,1647747680.255984,0.000000
158.000000,34511.853398,20594.182085,4747.599929,7739.313869,3459.960635,52109.493567,29637.630837,29988.955556,0.130000,0.964000,0.042000,192.000000,0.000000,0.000000,0.000000,0.000000,0.000000,0.000000,0.000000,0.000000,0.000000,1647747680.264002,0.000000
159.000000,34512.188674,20590.672861,4750.773877,7741.236119,3463.268693,52111.728741,29631.126479,29984.216986,0.132000,0.966000,0.044000,192.000000,4.000000,32.000000,30.000000,48.000000,1.000000,96.000000,0.000000,0.000000,0.000000,1647747680.264017,0.000000
160.000000,34506.131352,20587.431858,4748.270482,7740.990250,3462.419327,52112.399293,29627.304331,29984.038172,0.132000,0.966000,0.044000,192.000000,0.000000,0.000000,0.000000,0.000000,0.000000,0.000000,0.000000,0.000000,0.000000,1647747680.270951,0.000000
161.000000,34506.421924,20590.806972,4747.734040,7740.476160,3461.033518,52109.337104,29628.310159,29991.369544,0.132000,0.966000,0.044000,192.000000,0.000000,0.000000,0.000000,0.000000,0.000000,0.000000,0.000000,0.000000,0.000000,1647747680.270968,0.000000
162.000000,34501.236320,20589.734088,4739.732115,7733.413009,3453.769201,52103.905631,29622.051671,30002.120734,0.132000,0.966000,0.044000,192.000000,0.000000,0.000000,0.000000,0.000000,0.000000,0.000000,0.000000,0.000000,0.000000,1647747680.277533,0.000000
163.000000,34500.431657,20601.021719,4749.321014,7745.751172,3464.453335,52123.999849,29613.826229,29998.142123,0.132000,0.966000,0.044000,192.000000,0.000000,0.000000,0.000000,0.000000,0.000000,0.000000,0.000000,0.000000,0.000000,1647747680.277545,0.000000
164.000000,34503.024459,20596.216094,4743.621319,7738.889186,3458.261902,52130.325393,29619.257703,30006.121696,0.132000,0.966000,0.044000,192.000000,0.000000,0.000000,0.000000,0.000000,0.000000,0.000000,0.000000,0.000000,0.000000,1647747680.285678,0.000000
165.000000,34495.603680,20588.616501,4730.858473,7727.310983,3446.683698,52126.525596,29624.175087,30026.774708,0.132000,0.966000,0.044000,192.000000,0.000000,0.000000,0.000000,0.000000,0.000000,0.000000,0.000000,0.000000,0.000000,1647747680.293480,0.000000
166.000000,34501.124561,20602.720452,4746.370583,7740.878492,3461.301739,52136.874454,29605.869008,30008.066298,0.132000,0.966000,0.044000,192.000000,0.000000,0.000000,0.000000,0.000000,0.000000,0.000000,0.000000,0.000000,0.000000,1647747680.293520,0.000000
167.000000,34518.357756,20614.656283,4750.885636,7745.952337,3466.621455,52136.874454,29610.004081,30011.799039,0.132000,0.966000,0.044000,192.000000,0.000000,0.000000,0.000000,0.000000,0.000000,0.000000,0.000000,0.000000,0.000000,1647747680.300722,0.000000
168.000000,34508.053602,20613.851620,4753.277272,7750.623852,3469.348367,52128.716067,29608.417107,30015.285911,0.132000,0.966000,0.044000,192.000000,0.000000,0.000000,0.000000,0.000000,0.000000,0.000000,0.000000,0.000000,0.000000,1647747680.300738,0.000000
169.000000,34499.984622,20602.139306,4743.129580,7739.090352,3459.178324,52118.926003,29608.640624,30029.635731,0.132000,0.976000,0.040000,192.000000,4.000000,32.000000,30.000000,128.000000,1.000000,64.000000,0.000000,0.000000,0.000000,1647747680.308177,0.000000
170.000000,34498.688221,20606.341434,4744.604796,7739.313869,3459.960635,52109.247698,29600.459886,30032.496754,0.132000,0.976000,0.040000,192.000000,0.000000,0.000000,0.000000,0.000000,0.000000,0.000000,0.000000,0.000000,0.000000,1647747680.308193,0.000000
171.000000,34504.320860,20610.431804,4744.940072,7737.749247,3460.698242,52109.180642,29606.561912,30040.163403,0.132000,0.976000,0.040000,192.000000,0.000000,0.000000,0.000000,0.000000,0.000000,0.000000,0.000000,0.000000,0.000000,1647747680.316086,0.000000
172.000000,34505.796076,20607.235504,4745.007127,7737.369268,3460.564132,52103.995038,29597.352993,30034.798984,0.132000,0.976000,0.040000,192.000000,0.000000,0.000000,0.000000,0.000000,0.000000,0.000000,0.000000,0.000000,0.000000,1647747680.316097,0.000000
173.000000,34503.024459,20597.914827,4738.882749,7731.356648,3452.428097,52096.194279,29598.269415,30042.666798,0.132000,0.976000,0.040000,192.000000,0.000000,0.000000,0.000000,0.000000,0.000000,0.000000,0.000000,0.000000,0.000000,1647747680.324658,0.000000
174.000000,34505.594910,20611.750556,4747.756391,7744.499474,3460.899408,52107.928945,29595.922482,30040.722196,0.132000,0.976000,0.040000,192.000000,0.000000,0.000000,0.000000,0.000000,0.000000,0.000000,0.000000,0.000000,0.000000,1647747680.324669,0.000000
175.000000,34503.516198,20616.332664,4748.896330,7747.002869,3463.358100,52115.640296,29594.357859,30039.761071,0.132000,0.976000,0.040000,192.000000,0.000000,0.000000,0.000000,0.000000,0.000000,0.000000,0.000000,0.000000,0.000000,1647747680.330959,0.000000
176.000000,34501.705706,20618.970170,4749.164551,7746.935814,3464.922722,52116.579070,29592.860293,30035.178964,0.132000,0.976000,0.040000,192.000000,0.000000,0.000000,0.000000,0.000000,0.000000,0.000000,0.000000,0.000000,0.000000,1647747680.330970,0.000000
177.000000,34518.491866,20623.596981,4759.133429,7755.787105,3472.723481,52122.792855,29597.397697,30036.296551,0.132000,0.976000,0.040000,192.000000,0.000000,0.000000,0.000000,0.000000,0.000000,0.000000,0.000000,0.000000,0.000000,1647747680.338873,0.000000
178.000000,34516.368451,20617.629065,4752.360851,7751.249701,3466.263827,52115.729703,29604.483200,30047.651237,0.132000,0.976000,0.040000,192.000000,0.000000,0.000000,0.000000,0.000000,0.000000,0.000000,0.000000,0.000000,0.000000,1647747680.338889,0.000000
179.000000,34506.488980,20626.592115,4751.667947,7754.311890,3467.671987,52122.144654,29606.763078,30048.791176,0.124000,0.972000,0.030000,192.000000,3.000000,224.000000,30.000000,96.000000,0.000000,240.000000,0.000000,0.000000,0.000000,1647747680.345913,0.000000
180.000000,34497.950613,20625.452176,4746.817618,7747.628718,3461.972292,52118.367209,29606.673671,30052.903897,0.124000,0.972000,0.030000,192.000000,0.000000,0.000000,0.000000,0.000000,0.000000,0.000000,0.000000,0.000000,0.000000,1647747680.352815,0.000000
181.000000,34492.228567,20626.681522,4743.576615,7744.812399,3460.631187,52118.635430,29601.890397,30056.547231,0.124000,0.972000,0.030000,192.000000,0.000000,0.000000,0.000000,0.000000,0.000000,0.000000,0.000000,0.000000,0.000000,1647747680.352827,0.000000
182.000000,34491.669773,20626.167432,4743.286043,7741.392582,3459.066565,52112.108721,29603.298557,30074.182758,0.124000,0.972000,0.030000,192.000000,0.000000,0.000000,0.000000,0.000000,0.000000,0.000000,0.000000,0.000000,0.000000,1647747680.360411,0.000000
183.000000,34505.438448,20633.364693,4751.757354,7744.745343,3466.330882,52113.382770,29595.564854,30073.243984,0.124000,0.972000,0.030000,192.000000,0.000000,0.000000,0.000000,0.000000,0.000000,0.000000,0.000000,0.000000,0.000000,1647747680.360428,0.000000
184.000000,34492.407381,20638.103263,4756.965310,7747.584015,3473.036405,52115.573241,29585.551272,30066.761978,0.124000,0.972000,0.030000,192.000000,0.000000,0.000000,0.000000,0.000000,0.000000,0.000000,0.000000,0.000000,0.000000,1647747680.368496,0.000000
185.000000,34482.796131,20643.266516,4759.938092,7750.355631,3477.685568,52120.691791,29581.952641,30064.951487,0.124000,0.972000,0.030000,192.000000,0.000000,0.000000,0.000000,0.000000,0.000000,0.000000,0.000000,0.000000,0.000000,1647747680.368507,0.000000
186.000000,34470.234450,20630.906001,4749.030441,7737.481026,3465.280350,52103.838575,29577.236423,30075.613269,0.124000,0.972000,0.030000,192.000000,0.000000,0.000000,0.000000,0.000000,0.000000,0.000000,0.000000,0.000000,0.000000,1647747680.376258,0.000000
187.000000,34470.905002,20640.383141,4759.111078,7748.433381,3473.885771,52112.958087,29569.949754,30065.331467,0.124000,0.972000,0.030000,192.000000,0.000000,0.000000,0.000000,0.000000,0.000000,0.000000,0.000000,0.000000,0.000000,1647747680.376266,0.000000
188.000000,34468.647476,20635.532813,4750.416249,7743.314832,3466.397937,52105.291439,29579.337487,30077.490816,0.124000,0.972000,0.030000,192.000000,0.000000,0.000000,0.000000,0.000000,0.000000,0.000000,0.000000,0.000000,0.000000,1647747680.382976,0.000000
189.000000,34460.086758,20639.891403,4753.053755,7746.399372,3468.588408,52104.576183,29576.945850,30076.417932,0.124000,0.986000,0.036000,192.000000,3.000000,224.000000,30.000000,208.000000,1.000000,32.000000,0.000000,0.000000,0.000000,1647747680.382991,0.000000
190.000000,34458.522136,20642.260688,4758.731098,7752.635509,3472.835240,52108.264221,29572.497853,30068.661877,0.124000,0.986000,0.036000,192.000000,0.000000,0.000000,0.000000,0.000000,0.000000,0.000000,0.000000,0.000000,0.000000,1647747680.391200,0.000000
191.000000,34465.987619,20641.947763,4755.758316,7750.534445,3470.644769,52112.846328,29578.085789,30079.815397,0.124000,0.986000,0.036000,192.000000,0.000000,0.000000,0.000000,0.000000,0.000000,0.000000,0.000000,0.000000,0.000000,1647747680.391217,0.000000
192.000000,34457.650418,20632.269458,4746.795266,7740.029125,3460.362966,52105.403197,29586.132417,30110.772563,0.124000,0.986000,0.036000,192.000000,0.000000,0.000000,0.000000,0.000000,0.000000,0.000000,0.000000,0.000000,0.000000,1647747680.399203,0.000000
193.000000,34450.542563,20643.668848,4755.467743,7751.674384,3472.231742,52114.075674,29573.280164,30105.452848,0.124000,0.986000,0.036000,192.000000,0.000000,0.000000,0.000000,0.000000,0.000000,0.000000,0.000000,0.000000,0.000000,1647747680.399237,0.000000
194.000000,34450.766081,20654.576499,4764.497848,7761.755021,3482.424138,52120.960012,29569.413313,30099.395525,0.124000,0.986000,0.036000,192.000000,0.000000,0.000000,0.000000,0.000000,0.000000,0.000000,0.000000,0.000000,0.000000,1647747680.406202,0.000000
195.000000,34446.675711,20660.209138,4768.409403,7764.347823,3486.983894,52123.441055,29566.060551,30092.377078,0.124000,0.986000,0.036000,192.000000,0.000000,0.000000,0.000000,0.000000,0.000000,0.000000,0.000000,0.000000,0.000000,1647747680.412540,0.000000
196.000000,34439.366691,20652.386028,4758.976967,7756.591768,3478.356120,52114.276840,29569.770941,30099.753153,0.124000,0.986000,0.036000,192.000000,0.000000,0.000000,0.000000,0.000000,0.000000,0.000000,0.000000,0.000000,0.000000,1647747680.412552,0.000000
197.000000,34434.985749,20647.043961,4751.667947,7750.556797,3472.768184,52106.073750,29578.197548,30123.736575,0.124000,0.986000,0.036000,192.000000,0.000000,0.000000,0.000000,0.000000,0.000000,0.000000,0.000000,0.000000,0.000000,1647747680.420648,0.000000
198.000000,34435.186915,20656.521101,4757.881732,7757.687003,3479.294894,52107.571317,29580.298612,30134.264247,0.124000,0.986000,0.036000,192.000000,0.000000,0.000000,0.000000,0.000000,0.000000,0.000000,0.000000,0.000000,0.000000,1647747680.420664,0.000000
199.000000,34428.190819,20660.790284,4763.804944,7761.285634,3483.541725,52108.130110,29575.917670,30130.553857,0.126000,0.982000,0.040000,192.000000,3.000000,240.000000,30.000000,176.000000,1.000000,64.000000,0.000000,0.000000,0.000000,1647747680.428814,0.000000
200.000000,34415.763249,20652.967173,4756.942958,7754.222483,3476.880905,52098.630619,29571.447321,30127.290502,0.126000,0.982000,0.040000,192.000000,0.000000,0.000000,0.000000,0.000000,0.000000,0.000000,0.000000,0.000000,0.000000,1647747680.428830,0.000000
201.000000,34429.241351,20659.315069,4763.335557,7760.011585,3484.256981,52105.202032,29568.027504,30118.707433,0.126000,0.982000,0.040000,192.000000,0.000000,0.000000,0.000000,0.000000,0.000000,0.000000,0.000000,0.000000,0.000000,1647747680.435843,0.000000
202.000000,34419.138362,20652.542490,4755.512447,7749.863893,3476.523277,52098.094177,29579.248080,30136.588828,0.126000,0.982000,0.040000,192.000000,0.000000,0.000000,0.000000,0.000000,0.000000,0.000000,0.000000,0.000000,0.000000,1647747680.435853,0.000000
203.000000,34396.697211,20641.947763,4746.795266,7741.616099,3468.119021,52086.270104,29589.149903,30161.823948,0.126000,0.982000,0.040000,192.000000,0.000000,0.000000,0.000000,0.000000,0.000000,0.000000,0.000000,0.000000,0.000000,1647747680.443413,0.000000
204.000000,34389.924632,20646.440464,4750.595063,7745.661765,3473.371681,52088.974665,29589.865159,30167.054256,0.126000,0.982000,0.040000,192.000000,0.000000,0.000000,0.000000,0.000000,0.000000,0.000000,0.000000,0.000000,0.000000,1647747680.443425,0.000000
205.000000,34394.037353,20654.174167,4755.668909,7749.416858,3479.071376,52090.494584,29592.167388,30173.916241,0.126000,0.982000,0.040000,192.000000,0.000000,0.000000,0.000000,0.000000,0.000000,0.000000,0.000000,0.000000,0.000000,1647747680.451481,0.000000
206.000000,34395.780789,20663.494845,4765.481325,7758.201093,3488.839089,52098.429453,29578.845749,30154.336113,0.126000,0.982000,0.040000,192.000000,0.000000,0.000000,0.000000,0.000000,0.000000,0.000000,0.000000,0.000000,0.000000,1647747680.451498,0.000000
207.000000,34401.480484,20662.086685,4767.202409,7757.016451,3489.956676,52102.028084,29578.242252,30143.763738,0.126000,0.982000,0.040000,192.000000,0.000000,0.000000,0.000000,0.000000,0.000000,0.000000,0.000000,0.000000,0.000000,1647747680.458707,0.000000
208.000000,34395.959603,20656.722266,4759.647520,7751.607329,3484.100519,52094.339084,29590.938043,30153.285581,0.126000,0.982000,0.040000,192.000000,0.000000,0.000000,0.000000,0.000000,0.000000,0.000000,0.000000,0.000000,0.000000,1647747680.458723,0.000000
209.000000,34393.657374,20662.600775,4765.280159,7759.072811,3491.811871,52103.033913,29594.223749,30155.945439,0.132000,0.986000,0.036000,192.000000,4.000000,32.000000,30.000000,208.000000,1.000000,32.000000,0.000000,0.000000,0.000000,1647747680.465239,0.000000
210.000000,34396.071362,20670.245072,4773.438546,7768.080565,3500.573754,52106.721950,29593.463790,30156.280715,0.132000,0.986000,0.036000,192.000000,0.000000,0.000000,0.000000,0.000000,0.000000,0.000000,0.000000,0.000000,0.000000,1647747680.472953,0.000000
211.000000,34403.290975,20672.703764,4772.656235,7768.706413,3502.227783,52097.781253,29596.101295,30156.951267,0.132000,0.986000,0.036000,192.000000,0.000000,0.000000,0.000000,0.000000,0.000000,0.000000,0.000000,0.000000,0.000000,1647747680.472968,0.000000
212.000000,34408.923615,20680.035136,4775.718424,7773.646149,3507.368685,52100.664628,29604.170275,30158.471186,0.132000,0.986000,0.036000,192.000000,0.000000,0.000000,0.000000,0.000000,0.000000,0.000000,0.000000,0.000000,0.000000,1647747680.480907,0.000000
213.000000,34398.865330,20672.301432,4764.140220,7761.218579,3496.729254,52098.272991,29616.754307,30180.174730,0.132000,0.986000,0.036000,192.000000,0.000000,0.000000,0.000000,0.000000,0.000000,0.000000,0.000000,0.000000,0.000000,1647747680.480923,0.000000
214.000000,34390.192853,20668.523987,4764.341386,7759.542198,3495.231687,52100.239944,29611.635758,30173.603317,0.132000,0.986000,0.036000,192.000000,0.000000,0.000000,0.000000,0.000000,0.000000,0.000000,0.000000,0.000000,0.000000,1647747680.488086,0.000000
215.000000,34393.299746,20666.489979,4758.574636,7756.636471,3487.788557,52096.686017,29613.960339,30174.810311,0.132000,0.986000,0.036000,192.000000,0.000000,0.000000,0.000000,0.000000,0.000000,0.000000,0.000000,0.000000,0.000000,1647747680.488102,0.000000
216.000000,34393.143284,20665.014763,4748.315185,7748.902768,3477.238533,52093.243848,29622.968092,30182.454608,0.132000,0.986000,0.036000,192.000000,0.000000,0.000000,0.000000,0.000000,0.000000,0.000000,0.000000,0.000000,0.000000,1647747680.495482,0.000000
217.000000,34405.392039,20682.694993,4758.060546,7760.816248,3489.688455,52110.924078,29631.215886,30187.886082,0.132000,0.986000,0.036000,192.000000,0.000000,0.000000,0.000000,0.000000,0.000000,0.000000,0.000000,0.000000,0.000000,1647747680.495494,0.000000
218.000000,34415.092697,20677.643499,4760.854514,7760.100992,3490.426062,52110.544099,29635.686235,30179.615936,0.132000,0.986000,0.036000,192.000000,0.000000,0.000000,0.000000,0.000000,0.000000,0.000000,0.000000,0.000000,0.000000,1647747680.503449,0.000000
219.000000,34400.765228,20670.848569,4759.155781,7758.961053,3488.257943,52105.827881,29639.374273,30176.441989,0.138000,0.990000,0.030000,192.000000,4.000000,80.000000,30.000000,240.000000,0.000000,240.000000,0.000000,0.000000,0.000000,1647747680.503459,0.000000
220.000000,34401.435781,20684.058450,4770.398709,7766.739460,3498.807967,52109.985305,29649.209040,30178.006611,0.138000,0.990000,0.030000,192.000000,0.000000,0.000000,0.000000,0.000000,0.000000,0.000000,0.000000,0.000000,0.000000,1647747680.512046,0.000000
221.000000,34408.409525,20696.284854,4778.333578,7775.344881,3508.642734,52117.428436,29645.878630,30150.670427,0.138000,0.990000,0.030000,192.000000,0.000000,0.000000,0.000000,0.000000,0.000000,0.000000,0.000000,0.000000,0.000000,1647747680.512058,0.000000
222.000000,34418.512513,20692.060374,4775.472555,7771.634492,3507.949830,52118.188395,29663.715322,30153.442043,0.138000,0.990000,0.030000,192.000000,0.000000,0.000000,0.000000,0.000000,0.000000,0.000000,0.000000,0.000000,0.000000,1647747680.518489,0.000000
223.000000,34416.120877,20689.668738,4768.789383,7765.867742,3502.071321,52111.482872,29686.335288,30169.065913,0.138000,0.990000,0.030000,192.000000,0.000000,0.000000,0.000000,0.000000,0.000000,0.000000,0.000000,0.000000,0.000000,1647747680.518506,0.000000
224.000000,34411.047031,20698.654139,4780.188773,7777.356538,3512.509586,52117.964878,29682.289622,30138.488726,0.138000,0.990000,0.030000,192.000000,0.000000,0.000000,0.000000,0.000000,0.000000,0.000000,0.000000,0.000000,0.000000,1647747680.525053,0.000000
225.000000,34420.211246,20699.592912,4784.703825,7777.311835,3515.102388,52120.200052,29696.885311,30129.883305,0.138000,0.990000,0.030000,192.000000,0.000000,0.000000,0.000000,0.000000,0.000000,0.000000,0.000000,0.000000,0.000000,1647747680.525060,0.000000
226.000000,34420.926502,20698.609435,4781.440470,7770.449849,3511.190833,52113.628639,29703.836704,30125.792936,0.138000,0.990000,0.030000,192.000000,0.000000,0.000000,0.000000,0.000000,0.000000,0.000000,0.000000,0.000000,0.000000,1647747680.533054,0.000000
227.000000,34415.517380,20698.005938,4774.444374,7760.302157,3504.015923,52107.973648,29714.945521,30129.659787,0.138000,0.990000,0.030000,192.000000,0.000000,0.000000,0.000000,0.000000,0.000000,0.000000,0.000000,0.000000,0.000000,1647747680.542576,0.000000
228.000000,34414.668013,20690.428697,4768.588217,7755.451829,3496.170461,52097.803604,29723.796812,30133.526639,0.138000,0.990000,0.030000,192.000000,0.000000,0.000000,0.000000,0.000000,0.000000,0.000000,0.000000,0.000000,0.000000,1647747680.542582,0.000000
229.000000,34413.438667,20688.282929,4763.670834,7754.848332,3491.342484,52089.332293,29727.216628,30129.145697,0.138000,0.990000,0.030000,192.000000,0.000000,0.000000,0.000000,0.000000,0.000000,0.000000,0.000000,0.000000,0.000000,1647747680.548882,0.000000
230.000000,34424.212208,20698.967063,4765.794249,7766.292425,3498.651504,52096.507203,29737.274913,30132.118479,0.140000,0.990000,0.032000,192.000000,4.000000,96.000000,30.000000,240.000000,1.000000,0.000000,0.000000,0.000000,0.000000,1647747680.548887,0.000000
231.000000,34424.815705,20699.302339,4761.346252,7764.504285,3497.109234,52092.595648,29736.559658,30128.519848,0.140000,0.990000,0.032000,192.000000,0.000000,0.000000,0.000000,0.000000,0.000000,0.000000,0.000000,0.000000,0.000000,1647747680.555637,0.000000
232.000000,34420.658281,20690.316938,4758.418174,7758.312852,3492.638885,52093.310904,29759.425492,30148.748177,0.140000,0.990000,0.032000,192.000000,0.000000,0.000000,0.000000,0.000000,0.000000,0.000000,0.000000,0.000000,0.000000,1647747680.555642,0.000000
233.000000,34409.013022,20687.344156,4767.068299,7764.414878,3501.221955,52105.157328,29765.661629,30148.457604,0.140000,0.990000,0.032000,192.000000,0.000000,0.000000,0.000000,0.000000,0.000000,0.000000,0.000000,0.000000,0.000000,1647747680.563574,0.000000
234.000000,34412.119915,20692.507409,4771.113964,7770.092222,3507.659257,52112.555756,29764.029952,30128.430441,0.140000,0.990000,0.032000,192.000000,0.000000,0.000000,0.000000,0.000000,0.000000,0.000000,0.000000,0.000000,0.000000,1647747680.563579,0.000000
235.000000,34399.044144,20686.695956,4761.189790,7758.715184,3496.997475,52102.385712,29771.830710,30127.692834,0.140000,0.990000,0.032000,192.000000,0.000000,0.000000,0.000000,0.000000,0.000000,0.000000,0.000000,0.000000,0.000000,1647747680.570569,0.000000
236.000000,34383.710847,20678.626976,4750.706822,7746.421724,3483.877001,52092.595648,29782.760713,30143.316703,0.140000,0.990000,0.032000,192.000000,0.000000,0.000000,0.000000,0.000000,0.000000,0.000000,0.000000,0.000000,0.000000,1647747680.570577,0.000000
237.000000,34386.169539,20681.465647,4751.824409,7745.639413,3484.748719,52098.116529,29779.542062,30152.637381,0.140000,0.990000,0.032000,192.000000,0.000000,0.000000,0.000000,0.000000,0.000000,0.000000,0.000000,0.000000,0.000000,1647747680.578369,0.000000
238.000000,34385.923670,20685.265444,4747.644633,7742.130189,3482.714711,52093.623828,29777.709219,30143.830793,0.140000,0.990000,0.032000,192.000000,0.000000,0.000000,0.000000,0.000000,0.000000,0.000000,0.000000,0.000000,0.000000,1647747680.578382,0.000000
239.000000,34386.840092,20690.875732,4752.964348,7749.215692,3489.174365,52098.518860,29783.788894,30139.829831,0.140000,0.990000,0.032000,192.000000,0.000000,0.000000,0.000000,0.000000,0.000000,0.000000,0.000000,0.000000,0.000000,1647747680.586592,0.000000
240.000000,34396.697211,20702.051604,4766.777726,7763.274939,3501.445472,52110.722913,29777.552757,30126.441136,0.136000,0.976000,0.028000,192.000000,4.000000,64.000000,30.000000,128.000000,0.000000,224.000000,0.000000,0.000000,0.000000,1647747680.586610,0.000000
241.000000,34405.816723,20701.425755,4762.910874,7761.777373,3497.444510,52109.381808,29768.813225,30122.350767,0.136000,0.976000,0.028000,192.000000,0.000000,0.000000,0.000000,0.000000,0.000000,0.000000,0.000000,0.000000,0.000000,1647747680.593387,0.000000
242.000000,34411.248197,20703.482116,4758.664043,7758.804591,3493.667065,52111.259355,29764.342876,30127.715186,0.136000,0.976000,0.028000,192.000000,0.000000,0.000000,0.000000,0.000000,0.000000,0.000000,0.000000,0.000000,0.000000,1647747680.600180,0.000000
243.000000,34406.688441,20702.163363,4752.718479,7753.708393,3488.392054,52103.324485,29752.831728,30130.375043,0.136000,0.976000,0.028000,192.000000,0.000000,0.000000,0.000000,0.000000,0.000000,0.000000,0.000000,0.000000,0.000000,1647747680.600193,0.000000
244.000000,34402.218092,20700.665796,4749.321014,7753.484875,3488.414405,52101.245773,29748.339027,30135.024206,0.136000,0.976000,0.028000,192.000000,0.000000,0.000000,0.000000,0.000000,0.000000,0.000000,0.000000,0.000000,0.000000,1647747680.608184,0.000000
245.000000,34402.396906,20702.051604,4750.907987,7756.368250,3493.242382,52105.671418,29741.633504,30143.272000,0.136000,0.976000,0.028000,192.000000,0.000000,0.000000,0.000000,0.000000,0.000000,0.000000,0.000000,0.000000,0.000000,1647747680.608196,0.000000
246.000000,34402.106333,20702.006901,4752.539665,7758.558721,3495.991647,52105.716122,29727.954236,30143.987256,0.136000,0.976000,0.028000,192.000000,0.000000,0.000000,0.000000,0.000000,0.000000,0.000000,0.000000,0.000000,0.000000,1647747680.616088,0.000000
247.000000,34403.603900,20707.930113,4763.380261,7769.488724,3506.787539,52108.912421,29714.543189,30147.541183,0.136000,0.976000,0.028000,192.000000,0.000000,0.000000,0.000000,0.000000,0.000000,0.000000,0.000000,0.000000,0.000000,1647747680.616099,0.000000
248.000000,34398.999441,20713.182773,4763.737889,7771.209809,3507.703961,52109.694732,29703.277910,30152.324456,0.136000,0.976000,0.028000,192.000000,0.000000,0.000000,0.000000,0.000000,0.000000,0.000000,0.000000,0.000000,0.000000,1647747680.623178,0.000000
249.000000,34384.560214,20717.697825,4762.665005,7770.002815,3506.720484,52103.346837,29683.653079,30149.172860,0.136000,0.976000,0.028000,192.000000,0.000000,0.000000,0.000000,0.000000,0.000000,0.000000,0.000000,0.000000,0.000000,1647747680.623187,0.000000
250.000000,34389.634060,20717.228439,4761.212142,7771.209809,3506.653429,52103.793872,29669.347962,30139.785128,0.132000,0.970000,0.032000,192.000000,4.000000,32.000000,30.000000,80.000000,1.000000,0.000000,0.000000,0.000000,0.000000,1647747680.630522,0.000000
251.000000,34377.362952,20713.585104,4755.870075,7767.030033,3502.808929,52103.749168,29669.839700,30140.902715,0.132000,0.970000,0.032000,192.000000,0.000000,0.000000,0.000000,0.000000,0.000000,0.000000,0.000000,0.000000,0.000000,1647747680.630527,0.000000
252.000000,34364.801272,20713.339235,4749.097496,7758.201093,3496.215164,52110.722913,29679.249785,30154.984314,0.132000,0.970000,0.032000,192.000000,0.000000,0.000000,0.000000,0.000000,0.000000,0.000000,0.000000,0.000000,0.000000,1647747680.638616,0.000000
253.000000,34357.469899,20711.014654,4737.005202,7740.520864,3482.267676,52101.759863,29681.663773,30171.010515,0.132000,0.970000,0.032000,192.000000,0.000000,0.000000,0.000000,0.000000,0.000000,0.000000,0.000000,0.000000,0.000000,1647747680.638621,0.000000
254.000000,34352.708978,20699.928188,4732.065467,7736.586957,3475.651559,52098.094177,29682.088456,30182.968698,0.132000,0.970000,0.032000,192.000000,0.000000,0.000000,0.000000,0.000000,0.000000,0.000000,0.000000,0.000000,0.000000,1647747680.646534,0.000000
255.000000,34336.436908,20690.428697,4727.461008,7735.022334,3470.711824,52087.968837,29671.516081,30185.159169,0.132000,0.970000,0.032000,192.000000,0.000000,0.000000,0.000000,0.000000,0.000000,0.000000,0.000000,0.000000,0.000000,1647747680.646540,0.000000
0.000000,34337.040405,20704.465592,4737.519293,7745.192378,3481.932400,52099.502337,29657.993276,30183.527492,0.132000,0.970000,0.032000,192.000000,0.000000,0.000000,0.000000,0.000000,0.000000,0.000000,0.000000,0.000000,0.000000,1647747680.652638,0.000000
1.000000,34356.709940,20723.308113,4754.461915,7758.826942,3496.684551,52102.497471,29643.978732,30180.420599,0.132000,0.970000,0.032000,192.000000,0.000000,0.000000,0.000000,0.000000,0.000000,0.000000,0.000000,0.000000,0.000000,1647747680.660113,0.000000
2.000000,34374.032542,20721.855250,4757.702918,7763.297291,3501.601935,52106.006695,29640.558915,30183.236919,0.132000,0.970000,0.032000,192.000000,0.000000,0.000000,0.000000,0.000000,0.000000,0.000000,0.000000,0.000000,0.000000,1647747680.660117,0.000000
3.000000,34378.078208,20722.704616,4760.675700,7769.153448,3506.586374,52113.829805,29633.786337,30178.028962,0.132000,0.970000,0.032000,192.000000,0.000000,0.000000,0.000000,0.000000,0.000000,0.000000,0.000000,0.000000,0.000000,1647747680.668186,0.000000
4.000000,34375.552461,20724.157479,4757.077069,7771.992120,3504.172385,52111.818148,29626.790241,30185.762666,0.132000,0.966000,0.036000,192.000000,4.000000,32.000000,30.000000,48.000000,1.000000,32.000000,0.000000,0.000000,0.000000,1647747680.668191,0.000000
5.000000,34381.453321,20728.113738,4761.301549,7776.864800,3506.742836,52110.275878,29609.713508,30176.933727,0.132000,0.966000,0.036000,192.000000,0.000000,0.000000,0.000000,0.000000,0.000000,0.000000,0.000000,0.000000,0.000000,1647747680.676499,0.000000
6.000000,34382.839129,20722.503450,4755.132467,7770.516905,3500.931382,52103.726817,29604.974938,30177.045486,0.132000,0.966000,0.036000,192.000000,0.000000,0.000000,0.000000,0.000000,0.000000,0.000000,0.000000,0.000000,0.000000,1647747680.676508,0.000000
7.000000,34381.073341,20717.451956,4748.873979,7763.632567,3493.778824,52095.479023,29600.839865,30186.947308,0.132000,0.966000,0.036000,192.000000,0.000000,0.000000,0.000000,0.000000,0.000000,0.000000,0.000000,0.000000,0.000000,1647747680.682815,0.000000
8.000000,34371.372684,20716.580238,4748.382240,7760.726841,3493.041216,52096.596610,29591.541540,30190.724753,0.132000,0.966000,0.036000,192.000000,0.000000,0.000000,0.000000,0.000000,0.000000,0.000000,0.000000,0.000000,0.000000,1647747680.682823,0.000000
9.000000,34359.056873,20722.302285,4749.768048,7762.202056,3496.505737,52103.212726,29578.443417,30189.294242,0.132000,0.966000,0.036000,192.000000,0.000000,0.000000,0.000000,0.000000,0.000000,0.000000,0.000000,0.000000,0.000000,1647747680.691231,0.000000
10.000000,34363.594277,20732.606439,4758.149953,7770.852181,3506.385208,52116.422607,29559.086807,30172.753951,0.132000,0.966000,0.036000,192.000000,0.000000,0.000000,0.000000,0.000000,0.000000,0.000000,0.000000,0.000000,0.000000,1647747680.691247,0.000000
11.000000,34367.416426,20728.985456,4754.752488,7766.001852,3501.490176,52113.159253,29550.883716,30169.602355,0.132000,0.966000,0.036000,192.000000,0.000000,0.000000,0.000000,0.000000,0.000000,0.000000,0.000000,0.000000,0.000000,1647747680.699201,0.000000
12.000000,34378.972278,20741.480081,4764.430793,7775.657806,3512.643696,52124.424532,29542.166536,30155.967791,0.132000,0.966000,0.036000,192.000000,0.000000,0.000000,0.000000,0.000000,0.000000,0.000000,0.000000,0.000000,0.000000,1647747680.699217,0.000000
13.000000,34378.838167,20732.539383,4753.456086,7765.063079,3502.987743,52115.662648,29545.407539,30165.221413,0.132000,0.966000,0.036000,192.000000,0.000000,0.000000,0.000000,0.000000,0.000000,0.000000,0.000000,0.000000,0.000000,1647747680.706251,0.000000
14.000000,34364.376588,20725.632694,4744.828313,7755.854160,3493.890583,52098.921192,29537.204449,30171.278736,0.134000,0.968000,0.044000,192.000000,4.000000,48.000000,30.000000,64.000000,1.000000,96.000000,0.000000,0.000000,0.000000,1647747680.706268,0.000000
15.000000,34360.509737,20722.928133,4743.755429,7754.267186,3492.929458,52092.685055,29532.823507,30169.065913,0.134000,0.968000,0.044000,192.000000,0.000000,0.000000,0.000000,0.000000,0.000000,0.000000,0.000000,0.000000,0.000000,1647747680.712640,0.000000
16.000000,34358.587487,20716.088500,4737.966327,7745.997041,3485.687493,52081.151555,29534.410481,30176.643154,0.134000,0.968000,0.044000,192.000000,0.000000,0.000000,0.000000,0.000000,0.000000,0.000000,0.000000,0.000000,0.000000,1647747680.722311,0.000000
17.000000,34354.988856,20710.075880,4732.288984,7736.564605,3478.177306,52071.205028,29536.846821,30194.770419,0.134000,0.968000,0.044000,192.000000,0.000000,0.000000,0.000000,0.000000,0.000000,0.000000,0.000000,0.000000,0.000000,1647747680.722327,0.000000
18.000000,34343.768280,20710.321749,4731.059638,7735.312907,3478.758452,52071.987339,29532.935266,30204.113448,0.134000,0.968000,0.044000,192.000000,0.000000,0.000000,0.000000,0.000000,0.000000,0.000000,0.000000,0.000000,0.000000,1647747680.728735,0.000000
19.000000,34333.642940,20717.250790,4737.251072,7744.007736,3487.609743,52076.077709,29515.098574,30192.490541,0.134000,0.968000,0.044000,192.000000,0.000000,0.000000,0.000000,0.000000,0.000000,0.000000,0.000000,0.000000,0.000000,1647747680.728746,0.000000
20.000000,34345.981103,20727.957276,4744.113057,7756.859989,3498.293876,52086.448918,29507.141353,30182.588718,0.134000,0.968000,0.044000,192.000000,0.000000,0.000000,0.000000,0.000000,0.000000,0.000000,0.000000,0.000000,0.000000,1647747680.735224,0.000000
21.000000,34347.858649,20731.287686,4740.313261,7755.541236,3496.684551,52087.030064,29510.069431,30187.908433,0.134000,0.968000,0.044000,192.000000,0.000000,0.000000,0.000000,0.000000,0.000000,0.000000,0.000000,0.000000,0.000000,1647747680.735235,0.000000
22.000000,34352.552516,20734.819261,4745.342403,7761.732669,3503.904164,52091.254543,29509.734155,30187.439047,0.134000,0.968000,0.044000,192.000000,0.000000,0.000000,0.000000,0.000000,0.000000,0.000000,0.000000,0.000000,0.000000,1647747680.743464,0.000000
23.000000,34348.976236,20720.983532,4737.407534,7753.395468,3496.393978,52081.553886,29519.300702,30200.693631,0.134000,0.968000,0.044000,192.000000,0.000000,0.000000,0.000000,0.000000,0.000000,0.000000,0.000000,0.000000,0.000000,1647747680.743481,0.000000
24.000000,34333.262960,20728.091386,4744.224816,7761.375041,3502.630115,52083.565543,29514.070393,30196.513855,0.140000,0.972000,0.044000,192.000000,4.000000,96.000000,30.000000,96.000000,1.000000,96.000000,0.000000,0.000000,0.000000,1647747680.751184,0.000000
25.000000,34340.795498,20727.532593,4741.207330,7758.491666,3499.210298,52089.645218,29522.921684,30209.835495,0.140000,0.972000,0.044000,192.000000,0.000000,0.000000,0.000000,0.000000,0.000000,0.000000,0.000000,0.000000,0.000000,1647747680.751195,0.000000
26.000000,34335.207562,20723.218706,4741.050868,7755.228311,3496.662199,52086.426566,29515.858533,30213.523533,0.140000,0.972000,0.044000,192.000000,0.000000,0.000000,0.000000,0.000000,0.000000,0.000000,0.000000,0.000000,0.000000,1647747680.759975,0.000000
27.000000,34345.377606,20726.683226,4747.108191,7758.469314,3501.981914,52093.936753,29517.221989,30212.718870,0.140000,0.972000,0.044000,192.000000,0.000000,0.000000,0.000000,0.000000,0.000000,0.000000,0.000000,0.000000,0.000000,1647747680.759992,0.000000
28.000000,34348.708016,20727.264372,4747.801095,7757.642300,3501.892507,52096.686017,29512.237550,30213.054146,0.140000,0.972000,0.044000,192.000000,0.000000,0.000000,0.000000,0.000000,0.000000,0.000000,0.000000,0.000000,0.000000,1647747680.766179,0.000000
29.000000,34337.643902,20719.195392,4736.066429,7744.253605,3489.420234,52084.996055,29517.780783,30227.247504,0.140000,0.972000,0.044000,192.000000,0.000000,0.000000,0.000000,0.000000,0.000000,0.000000,0.000000,0.000000,0.000000,1647747680.766195,0.000000
30.000000,34337.956826,20728.851346,4742.213159,7748.388678,3493.577658,52082.403252,29504.526198,30210.528399,0.140000,0.972000,0.044000,192.000000,0.000000,0.000000,0.000000,0.000000,0.000000,0.000000,0.000000,0.000000,0.000000,1647747680.772960,0.000000
31.000000,34344.997626,20737.389712,4739.598005,7748.768657,3494.203507,52083.386729,29498.491227,30209.075535,0.140000,0.972000,0.044000,192.000000,0.000000,0.000000,0.000000,0.000000,0.000000,0.000000,0.000000,0.000000,0.000000,1647747680.772976,0.000000
32.000000,34340.214353,20729.007808,4735.239415,7747.584015,3490.738987,52081.866811,29504.168571,30225.168791,0.140000,0.972000,0.044000,192.000000,0.000000,0.000000,0.000000,0.000000,0.000000,0.000000,0.000000,0.000000,0.000000,1647747680.781000,0.000000
33.000000,34338.448565,20728.359607,4740.782647,7754.043669,3495.969295,52087.655912,29503.095687,30224.118259,0.140000,0.972000,0.044000,192.000000,0.000000,0.000000,0.000000,0.000000,0.000000,0.000000,0.000000,0.000000,0.000000,1647747680.788233,0.000000
34.000000,34339.610856,20731.667665,4739.933281,7752.032012,3493.421196,52081.732700,29500.502884,30222.665396,0.144000,0.976000,0.042000,192.000000,4.000000,128.000000,30.000000,128.000000,1.000000,80.000000,0.000000,0.000000,0.000000,1647747680.788249,0.000000
35.000000,34342.740100,20733.679322,4739.218025,7750.869721,3492.750644,52079.430470,29501.799286,30222.821858,0.144000,0.976000,0.042000,192.000000,0.000000,0.000000,0.000000,0.000000,0.000000,0.000000,0.000000,0.000000,0.000000,1647747680.796912,0.000000
36.000000,34338.515620,20724.001017,4727.952746,7739.313869,3482.088862,52073.060223,29514.673890,30237.529306,0.144000,0.976000,0.042000,192.000000,0.000000,0.000000,0.000000,0.000000,0.000000,0.000000,0.000000,0.000000,0.000000,1647747680.796924,0.000000
37.000000,34335.721652,20716.580238,4724.331763,7737.302212,3479.741929,52075.742433,29520.977082,30247.408777,0.144000,0.976000,0.042000,192.000000,0.000000,0.000000,0.000000,0.000000,0.000000,0.000000,0.000000,0.000000,0.000000,1647747680.803619,0.000000
38.000000,34333.441774,20711.864020,4720.353153,7734.597651,3475.964484,52069.036909,29522.631111,30262.630315,0.144000,0.976000,0.042000,192.000000,0.000000,0.000000,0.000000,0.000000,0.000000,0.000000,0.000000,0.000000,0.000000,1647747680.803631,0.000000
39.000000,34335.609893,20718.189564,4723.102417,7740.319698,3478.870211,52066.421755,29511.254074,30258.741112,0.144000,0.976000,0.042000,192.000000,0.000000,0.000000,0.000000,0.000000,0.000000,0.000000,0.000000,0.000000,0.000000,1647747680.811469,0.000000
40.000000,34338.649731,20728.337256,4731.819598,7749.305099,3486.961542,52072.233209,29500.413477,30246.067672,0.144000,0.976000,0.042000,192.000000,0.000000,0.000000,0.000000,0.000000,0.000000,0.000000,0.000000,0.000000,0.000000,1647747680.811485,0.000000
41.000000,34346.606952,20731.332389,4741.564958,7755.004794,3494.091748,52079.631636,29495.786666,30237.261085,0.144000,0.976000,0.042000,192.000000,0.000000,0.000000,0.000000,0.000000,0.000000,0.000000,0.000000,0.000000,0.000000,1647747680.818144,0.000000
42.000000,34352.753681,20728.828994,4735.775856,7749.953300,3488.369702,52074.222514,29497.775972,30238.803356,0.144000,0.976000,0.042000,192.000000,0.000000,0.000000,0.000000,0.000000,0.000000,0.000000,0.000000,0.000000,0.000000,1647747680.818153,0.000000
43.000000,34348.350388,20730.371264,4733.764199,7745.952337,3485.374568,52070.445069,29497.172475,30240.703254,0.144000,0.976000,0.042000,192.000000,0.000000,0.000000,0.000000,0.000000,0.000000,0.000000,0.000000,0.000000,0.000000,1647747680.827665,0.000000
44.000000,34340.974312,20735.176889,4738.011031,7746.399372,3489.017902,52078.469345,29492.344498,30233.237771,0.140000,0.974000,0.042000,192.000000,4.000000,96.000000,30.000000,112.000000,1.000000,80.000000,0.000000,0.000000,0.000000,1647747680.827676,0.000000
45.000000,34342.293065,20730.058340,4735.529987,7745.527654,3487.833260,52076.904723,29489.461123,30239.250390,0.140000,0.974000,0.042000,192.000000,0.000000,0.000000,0.000000,0.000000,0.000000,0.000000,0.000000,0.000000,0.000000,1647747680.835513,0.000000
46.000000,34345.645827,20724.962142,4728.064505,7735.648183,3479.674873,52065.482982,29495.741963,30257.735283,0.140000,0.974000,0.042000,192.000000,0.000000,0.000000,0.000000,0.000000,0.000000,0.000000,0.000000,0.000000,0.000000,1647747680.835524,0.000000
47.000000,34341.577809,20733.858136,4735.127656,7743.784218,3486.313341,52071.182677,29495.451390,30252.639085,0.140000,0.974000,0.042000,192.000000,0.000000,0.000000,0.000000,0.000000,0.000000,0.000000,0.000000,0.000000,0.000000,1647747680.841826,0.000000
48.000000,34339.364986,20728.158442,4729.830292,7744.454771,3482.804118,52066.578217,29501.508713,30254.404873,0.140000,0.974000,0.042000,192.000000,0.000000,0.000000,0.000000,0.000000,0.000000,0.000000,0.000000,0.000000,0.000000,1647747680.848282,0.000000
49.000000,34335.609893,20725.856212,4725.762275,7742.823093,3479.361949,52060.140915,29501.016975,30256.505937,0.140000,0.974000,0.042000,192.000000,0.000000,0.000000,0.000000,0.000000,0.000000,0.000000,0.000000,0.000000,0.000000,1647747680.848299,0.000000
50.000000,34345.064681,20732.606439,4728.042153,7748.120457,3480.457184,52063.761898,29497.574806,30250.247449,0.140000,0.974000,0.042000,192.000000,0.000000,0.000000,0.000000,0.000000,0.000000,0.000000,0.000000,0.000000,0.000000,1647747680.855789,0.000000
51.000000,34350.920838,20736.316828,4728.936223,7751.227349,3482.111213,52067.069956,29497.619509,30243.944257,0.140000,0.974000,0.042000,192.000000,0.000000,0.000000,0.000000,0.000000,0.000000,0.000000,0.000000,0.000000,0.000000,1647747680.855800,0.000000
52.000000,34350.943190,20735.311000,4727.259842,7751.003832,3481.775937,52064.275988,29506.113172,30249.800414,0.140000,0.974000,0.042000,192.000000,0.000000,0.000000,0.000000,0.000000,0.000000,0.000000,0.000000,0.000000,0.000000,1647747680.864053,0.000000
53.000000,34365.024789,20746.710389,4738.793342,7763.185532,3495.119929,52075.653026,29514.271559,30254.404873,0.140000,0.974000,0.042000,192.000000,0.000000,0.000000,0.000000,0.000000,0.000000,0.000000,0.000000,0.000000,0.000000,1647747680.864069,0.000000
54.000000,34356.620533,20739.937811,4734.613566,7756.412954,3491.141318,52066.377052,29510.896446,30250.180393,0.144000,0.982000,0.046000,192.000000,4.000000,128.000000,30.000000,176.000000,1.000000,112.000000,0.000000,0.000000,0.000000,1647747680.870645,0.000000
55.000000,34359.056873,20740.004866,4732.020763,7752.769620,3489.174365,52062.711366,29511.879922,30249.018103,0.144000,0.982000,0.046000,192.000000,0.000000,0.000000,0.000000,0.000000,0.000000,0.000000,0.000000,0.000000,0.000000,1647747680.870662,0.000000
56.000000,34366.231783,20746.173948,4739.888577,7759.542198,3494.874060,52069.215723,29512.595178,30247.632295,0.144000,0.982000,0.046000,192.000000,0.000000,0.000000,0.000000,0.000000,0.000000,0.000000,0.000000,0.000000,0.000000,1647747680.878984,0.000000
57.000000,34378.413484,20747.135073,4741.207330,7758.536370,3494.941115,52076.323578,29518.138411,30254.561335,0.144000,0.982000,0.046000,192.000000,0.000000,0.000000,0.000000,0.000000,0.000000,0.000000,0.000000,0.000000,0.000000,1647747680.878994,0.000000
58.000000,34370.188042,20742.172985,4739.039211,7754.110724,3490.247248,52070.378014,29522.452298,30263.770254,0.144000,0.982000,0.046000,192.000000,0.000000,0.000000,0.000000,0.000000,0.000000,0.000000,0.000000,0.000000,0.000000,1647747680.886546,0.000000
59.000000,34369.808062,20747.246831,4745.856493,7759.162218,3496.125757,52071.473249,29511.924626,30241.664379,0.144000,0.982000,0.046000,192.000000,0.000000,0.000000,0.000000,0.000000,0.000000,0.000000,0.000000,0.000000,0.000000,1647747680.886563,0.000000
60.000000,34379.843996,20753.684134,4747.264653,7757.888169,3496.215164,52086.448918,29521.580579,30247.229963,0.144000,0.982000,0.046000,192.000000,0.000000,0.000000,0.000000,0.000000,0.000000,0.000000,0.000000,0.000000,0.000000,1647747680.893654,0.000000
61.000000,34381.989763,20752.879471,4741.944938,7756.524713,3493.801176,52090.606343,29528.040234,30254.382521,0.144000,0.982000,0.046000,192.000000,0.000000,0.000000,0.000000,0.000000,0.000000,0.000000,0.000000,0.000000,0.000000,1647747680.893665,0.000000
62.000000,34376.334772,20742.575317,4736.178188,7752.948434,3488.973199,52087.678264,29537.003283,30266.139539,0.144000,0.982000,0.046000,192.000000,0.000000,0.000000,0.000000,0.000000,0.000000,0.000000,0.000000,0.000000,0.000000,1647747680.900122,0.000000
63.000000,34376.513586,20747.068017,4736.871092,7755.429477,3491.923629,52089.153479,29539.506679,30268.821748,0.144000,0.982000,0.046000,192.000000,0.000000,0.000000,0.000000,0.000000,0.000000,0.000000,0.000000,0.000000,0.000000,1647747680.908257,0.000000
64.000000,34382.973240,20762.401314,4746.839970,7766.203018,3502.160728,52095.993113,29532.488231,30253.019065,0.136000,0.980000,0.044000,192.000000,4.000000,64.000000,30.000000,160.000000,1.000000,96.000000,0.000000,0.000000,0.000000,1647747680.908268,0.000000
65.000000,34381.900356,20759.339125,4742.570787,7760.145695,3496.259868,52091.455709,29534.611646,30248.347550,0.136000,0.980000,0.044000,192.000000,0.000000,0.000000,0.000000,0.000000,0.000000,0.000000,0.000000,0.000000,0.000000,1647747680.919039,0.000000
66.000000,34378.391132,20753.840596,4736.848740,7756.256492,3488.906144,52083.587895,29542.457109,30255.723626,0.136000,0.980000,0.044000,192.000000,0.000000,0.000000,0.000000,0.000000,0.000000,0.000000,0.000000,0.000000,0.000000,1647747680.919050,0.000000
67.000000,34377.340600,20753.170044,4735.529987,7755.608291,3488.392054,52079.586933,29550.123757,30257.422359,0.136000,0.980000,0.044000,192.000000,0.000000,0.000000,0.000000,0.000000,0.000000,0.000000,0.000000,0.000000,0.000000,1647747680.925478,0.000000
68.000000,34380.827472,20751.270145,4734.702973,7753.261358,3488.637923,52073.775479,29544.602876,30251.029760,0.136000,0.980000,0.044000,192.000000,0.000000,0.000000,0.000000,0.000000,0.000000,0.000000,0.000000,0.000000,0.000000,1647747680.925495,0.000000
69.000000,34377.295897,20754.354686,4740.425019,7754.781277,3491.253077,52072.590837,29538.612609,30239.943295,0.136000,0.980000,0.044000,192.000000,0.000000,0.000000,0.000000,0.000000,0.000000,0.000000,0.000000,0.000000,0.000000,1647747680.931879,0.000000
70.000000,34370.813891,20759.830863,4749.075144,7763.051422,3500.014961,52085.688959,29542.501812,30235.092966,0.136000,0.980000,0.044000,192.000000,0.000000,0.000000,0.000000,0.000000,0.000000,0.000000,0.000000,0.000000,0.000000,1647747680.931896,0.000000
71.000000,34367.505833,20754.622907,4745.454162,7757.575245,3495.209336,52084.124337,29548.715597,30245.061844,0.136000,0.980000,0.044000,192.000000,0.000000,0.000000,0.000000,0.000000,0.000000,0.000000,0.000000,0.000000,0.000000,1647747680.938635,0.000000
72.000000,34365.471824,20747.313887,4738.212197,7747.762829,3487.632094,52077.418813,29553.901202,30258.137615,0.136000,0.980000,0.044000,192.000000,0.000000,0.000000,0.000000,0.000000,0.000000,0.000000,0.000000,0.000000,0.000000,1647747680.938644,0.000000
73.000000,34366.097673,20750.197262,4738.994508,7751.987309,3490.940153,52080.033967,29548.737949,30256.237716,0.136000,0.980000,0.044000,192.000000,0.000000,0.000000,0.000000,0.000000,0.000000,0.000000,0.000000,0.000000,0.000000,1647747680.946977,0.000000
74.000000,34366.589411,20754.421741,4742.995470,7754.580111,3494.069397,52083.632598,29542.077129,30252.661437,0.136000,0.980000,0.044000,192.000000,0.000000,0.000000,0.000000,0.000000,0.000000,0.000000,0.000000,0.000000,0.000000,1647747680.946994,0.000000
75.000000,34371.909126,20753.795892,4740.536778,7752.389640,3492.705940,52083.878468,29546.011036,30260.059865,0.136000,0.984000,0.042000,192.000000,4.000000,64.000000,30.000000,192.000000,1.000000,80.000000,0.000000,0.000000,0.000000,1647747680.953288,0.000000
76.000000,34376.602993,20752.924174,4740.022688,7752.970785,3495.544612,52082.917343,29548.000341,30266.608926,0.136000,0.984000,0.042000,192.000000,0.000000,0.000000,0.000000,0.000000,0.000000,0.000000,0.000000,0.000000,0.000000,1647747680.953299,0.000000
77.000000,34381.274507,20761.954279,4749.946862,7765.040727,3507.905127,52094.272029,29544.625228,30259.366960,0.136000,0.984000,0.042000,192.000000,0.000000,0.000000,0.000000,0.000000,0.000000,0.000000,0.000000,0.000000,0.000000,1647747680.961963,0.000000
78.000000,34384.157882,20762.490721,4752.003223,7768.996986,3512.978973,52100.955200,29545.184022,30254.270763,0.136000,0.984000,0.042000,192.000000,0.000000,0.000000,0.000000,0.000000,0.000000,0.000000,0.000000,0.000000,0.000000,1647747680.968614,0.000000
79.000000,34378.614650,20751.828939,4738.256900,7755.652995,3498.450339,52084.236095,29551.263696,30266.005429,0.136000,0.984000,0.042000,192.000000,0.000000,0.000000,0.000000,0.000000,0.000000,0.000000,0.000000,0.000000,0.000000,1647747680.968630,0.000000
80.000000,34375.507757,20752.678305,4738.100438,7754.602463,3497.109234,52081.531534,29551.263696,30275.348458,0.136000,0.984000,0.042000,192.000000,0.000000,0.000000,0.000000,0.000000,0.000000,0.000000,0.000000,0.000000,0.000000,1647747680.976973,0.000000
81.000000,34386.393057,20761.127265,4747.152894,7762.291463,3506.765188,52089.935790,29552.716559,30269.179376,0.136000,0.984000,0.042000,192.000000,0.000000,0.000000,0.000000,0.000000,0.000000,0.000000,0.000000,0.000000,0.000000,1647747680.976984,0.000000
82.000000,34384.202586,20757.193358,4745.454162,7761.173875,3505.088807,52085.443090,29562.327810,30271.727475,0.136000,0.984000,0.042000,192.000000,0.000000,0.000000,0.000000,0.000000,0.000000,0.000000,0.000000,0.000000,0.000000,1647747680.986021,0.000000
83.000000,34391.265737,20770.537349,4756.361813,7774.048480,3515.728237,52092.483889,29555.666990,30255.254239,0.136000,0.984000,0.042000,192.000000,0.000000,0.000000,0.000000,0.000000,0.000000,0.000000,0.000000,0.000000,0.000000,1647747680.986036,0.000000
84.000000,34400.139380,20767.855140,4748.918682,7769.220503,3510.900260,52086.784194,29555.219955,30249.263972,0.136000,0.984000,0.042000,192.000000,0.000000,0.000000,0.000000,0.000000,0.000000,0.000000,0.000000,0.000000,0.000000,1647747680.992205,0.000000
85.000000,34386.393057,20758.310945,4740.670889,7758.044631,3499.903202,52072.255560,29562.819548,30249.375731,0.134000,0.982000,0.040000,192.000000,4.000000,48.000000,30.000000,176.000000,1.000000,64.000000,0.000000,0.000000,0.000000,1647747680.992222,0.000000
86.000000,34377.161786,20742.508262,4723.974135,7740.990250,3482.982931,52059.559770,29581.550310,30275.281403,0.134000,0.982000,0.040000,192.000000,0.000000,0.000000,0.000000,0.000000,0.000000,0.000000,0.000000,0.000000,0.000000,1647747680.999170,0.000000
87.000000,34381.207452,20752.275974,4734.837083,7753.171951,3494.024693,52070.601531,29571.648487,30273.493263,0.134000,0.982000,0.040000,192.000000,0.000000,0.000000,0.000000,0.000000,0.000000,0.000000,0.000000,0.000000,0.000000,1647747680.999181,0.000000
88.000000,34391.533958,20759.450884,4740.715592,7761.017413,3499.903202,52076.234171,29562.484272,30265.491338,0.134000,0.982000,0.040000,192.000000,0.000000,0.000000,0.000000,0.000000,0.000000,0.000000,0.000000,0.000000,0.000000,1647747681.005571,0.000000
89.000000,34399.021792,20766.871663,4742.324918,7766.448887,3505.044103,52080.972741,29567.647525,30271.079275,0.134000,0.982000,0.040000,192.000000,0.000000,0.000000,0.000000,0.000000,0.000000,0.000000,0.000000,0.000000,0.000000,1647747681.005580,0.000000
90.000000,34390.103446,20763.809474,4739.083915,7759.430439,3501.423121,52075.004825,29573.906013,30283.372734,0.134000,0.982000,0.040000,192.000000,0.000000,0.000000,0.000000,0.000000,0.000000,0.000000,0.000000,0.000000,0.000000,1647747681.013551,0.000000
91.000000,34381.430969,20755.628735,4734.233586,7752.590806,3495.924592,52066.064127,29572.006115,30292.112266,0.134000,0.982000,0.040000,192.000000,0.000000,0.000000,0.000000,0.000000,0.000000,0.000000,0.000000,0.000000,0.000000,1647747681.013562,0.000000
92.000000,34395.557272,20772.996041,4750.975043,7772.662672,3513.761284,52078.692863,29566.507586,30277.024839,0.134000,0.982000,0.040000,192.000000,0.000000,0.000000,0.000000,0.000000,0.000000,0.000000,0.000000,0.000000,0.000000,1647747681.020461,0.000000
93.000000,34396.518397,20774.135980,4754.640729,7776.618931,3516.890528,52080.548058,29567.692228,30272.599193,0.134000,0.982000,0.040000,192.000000,0.000000,0.000000,0.000000,0.000000,0.000000,0.000000,0.000000,0.000000,0.000000,1647747681.020471,0.000000
94.000000,34394.283222,20777.913425,4757.881732,7777.937684,3518.186929,52086.225401,29559.757359,30262.764426,0.134000,0.982000,0.040000,192.000000,0.000000,0.000000,0.000000,0.000000,0.000000,0.000000,0.000000,0.000000,0.000000,1647747681.028906,0.000000
95.000000,34390.639888,20772.124323,4754.685432,7773.087355,3512.934269,52082.984398,29562.908955,30263.949068,0.134000,0.982000,0.046000,192.000000,4.000000,48.000000,30.000000,176.000000,1.000000,112.000000,0.000000,0.000000,0.000000,1647747681.036800,0.000000
96.000000,34394.439685,20755.829901,4746.303528,7760.995062,3502.808929,52076.122412,29579.851577,30278.298888,0.134000,0.982000,0.046000,192.000000,0.000000,0.000000,0.000000,0.000000,0.000000,0.000000,0.000000,0.000000,0.000000,1647747681.036812,0.000000
97.000000,34387.220071,20753.192395,4743.889540,7756.971748,3500.193775,52074.937770,29583.114932,30282.791589,0.134000,0.982000,0.046000,192.000000,0.000000,0.000000,0.000000,0.000000,0.000000,0.000000,0.000000,0.000000,0.000000,1647747681.043476,0.000000
98.000000,34384.739028,20763.563605,4742.816656,7760.391564,3501.378417,52077.664683,29585.439513,30286.166702,0.134000,0.982000,0.046000,192.000000,0.000000,0.000000,0.000000,0.000000,0.000000,0.000000,0.000000,0.000000,0.000000,1647747681.043488,0.000000
99.000000,34392.919766,20776.617024,4753.076107,7776.261303,3513.895394,52088.661741,29574.554214,30266.273649,0.134000,0.982000,0.046000,192.000000,0.000000,0.000000,0.000000,0.000000,0.000000,0.000000,0.000000,0.000000,0.000000,1647747681.051940,0.000000
100.000000,34398.060667,20776.907596,4754.797191,7777.669463,3514.521243,52095.501375,29578.085789,30256.125958,0.134000,0.982000,0.046000,192.000000,0.000000,0.000000,0.000000,0.000000,0.000000,0.000000,0.000000,0.000000,0.000000,1647747681.051957,0.000000
101.000000,34392.919766,20763.563605,4745.632976,7768.527599,3504.217089,52083.923171,29587.205301,30269.760522,0.134000,0.982000,0.046000,192.000000,0.000000,0.000000,0.000000,0.000000,0.000000,0.000000,0.000000,0.000000,0.000000,1647747681.058103,0.000000
102.000000,34396.339583,20760.344954,4746.169418,7769.309910,3506.161690,52081.285665,29594.246101,30283.573900,0.134000,0.982000,0.046000,192.000000,0.000000,0.000000,0.000000,0.000000,0.000000,0.000000,0.000000,0.000000,0.000000,1647747681.058113,0.000000
103.000000,34394.484388,20752.834767,4740.559130,7759.676309,3501.624286,52069.685110,29602.940929,30302.148199,0.134000,0.982000,0.046000,192.000000,0.000000,0.000000,0.000000,0.000000,0.000000,0.000000,0.000000,0.000000,0.000000,1647747681.065980,0.000000
104.000000,34398.328888,20765.329393,4756.115944,7770.963940,3515.348257,52072.501430,29592.435609,30297.342574,0.134000,0.982000,0.046000,192.000000,0.000000,0.000000,0.000000,0.000000,0.000000,0.000000,0.000000,0.000000,0.000000,1647747681.065997,0.000000
105.000000,34410.801162,20775.633547,4765.436621,7778.071794,3523.216072,52081.106851,29577.370534,30280.735228,0.136000,0.984000,0.048000,192.000000,4.000000,64.000000,30.000000,192.000000,1.000000,128.000000,0.000000,0.000000,0.000000,1647747681.073817,0.000000
106.000000,34409.236540,20768.995079,4755.534799,7770.114573,3516.219975,52076.636502,29578.577528,30288.692449,0.136000,0.984000,0.048000,192.000000,0.000000,0.000000,0.000000,0.000000,0.000000,0.000000,0.000000,0.000000,0.000000,1647747681.073827,0.000000
107.000000,34405.995537,20765.731724,4753.813714,7766.739460,3514.588298,52073.060223,29577.594051,30290.301775,0.136000,0.984000,0.048000,192.000000,0.000000,0.000000,0.000000,0.000000,0.000000,0.000000,0.000000,0.000000,0.000000,1647747681.081013,0.000000
108.000000,34408.789505,20781.713221,4770.689281,7780.195210,3529.206339,52084.839593,29560.718484,30264.284344,0.136000,0.984000,0.048000,192.000000,0.000000,0.000000,0.000000,0.000000,0.000000,0.000000,0.000000,0.000000,0.000000,1647747681.081030,0.000000
109.000000,34408.141304,20766.514035,4755.758316,7759.966881,3511.995496,52073.708424,29562.663086,30270.475777,0.136000,0.984000,0.048000,192.000000,0.000000,0.000000,0.000000,0.000000,0.000000,0.000000,0.000000,0.000000,0.000000,1647747681.087547,0.000000
110.000000,34395.445513,20757.819206,4749.097496,7754.513056,3505.111159,52066.846438,29562.327810,30271.548661,0.136000,0.984000,0.048000,192.000000,0.000000,0.000000,0.000000,0.000000,0.000000,0.000000,0.000000,0.000000,0.000000,1647747681.095536,0.000000
111.000000,34392.025696,20757.394523,4744.671851,7751.272053,3501.624286,52070.735642,29576.923499,30278.365943,0.136000,0.984000,0.048000,192.000000,0.000000,0.000000,0.000000,0.000000,0.000000,0.000000,0.000000,0.000000,0.000000,1647747681.095546,0.000000
112.000000,34385.186062,20756.008715,4741.877883,7753.216654,3500.014961,52068.701633,29585.193644,30287.351345,0.136000,0.984000,0.048000,192.000000,0.000000,0.000000,0.000000,0.000000,0.000000,0.000000,0.000000,0.000000,0.000000,1647747681.103839,0.000000
113.000000,34386.191891,20761.775465,4746.705860,7759.497495,3505.133510,52065.505334,29589.127551,30289.608871,0.136000,0.984000,0.048000,192.000000,0.000000,0.000000,0.000000,0.000000,0.000000,0.000000,0.000000,0.000000,0.000000,1647747681.103855,0.000000
114.000000,34388.717638,20759.942622,4747.868150,7759.653957,3507.279278,52067.114659,29583.360801,30284.445618,0.136000,0.984000,0.048000,192.000000,0.000000,0.000000,0.000000,0.000000,0.000000,0.000000,0.000000,0.000000,0.000000,1647747681.110920,0.000000
115.000000,34389.343487,20753.840596,4745.476514,7755.809457,3504.641772,52060.543246,29572.699019,30279.595289,0.134000,0.982000,0.048000,192.000000,4.000000,48.000000,30.000000,176.000000,1.000000,128.000000,0.000000,0.000000,0.000000,1647747681.110935,0.000000
116.000000,34393.389153,20752.678305,4745.476514,7753.909559,3505.044103,52064.924188,29572.006115,30286.636089,0.134000,0.982000,0.048000,192.000000,0.000000,0.000000,0.000000,0.000000,0.000000,0.000000,0.000000,0.000000,0.000000,1647747681.118463,0.000000
117.000000,34392.919766,20752.030105,4748.046964,7756.681175,3507.055760,52074.602494,29569.301554,30292.827522,0.134000,0.982000,0.048000,192.000000,0.000000,0.000000,0.000000,0.000000,0.000000,0.000000,0.000000,0.000000,0.000000,1647747681.118480,0.000000
118.000000,34400.809932,20763.943584,4757.881732,7767.901751,3517.114045,52081.643293,29565.658220,30284.333859,0.134000,0.982000,0.048000,192.000000,0.000000,0.000000,0.000000,0.000000,0.000000,0.000000,0.000000,0.000000,0.000000,1647747681.126133,0.000000
119.000000,34400.675821,20766.312869,4749.812752,7765.241893,3512.263717,52078.849325,29559.287972,30279.997621,0.134000,0.982000,0.048000,192.000000,0.000000,0.000000,0.000000,0.000000,0.000000,0.000000,0.000000,0.000000,0.000000,1647747681.126144,0.000000
120.000000,34403.469789,20766.134055,4744.224816,7760.190399,3506.049932,52072.121450,29557.432778,30278.142426,0.134000,0.982000,0.048000,192.000000,0.000000,0.000000,0.000000,0.000000,0.000000,0.000000,0.000000,0.000000,0.000000,1647747681.135437,0.000000
121.000000,34414.086868,20763.295384,4744.470685,7761.218579,3506.072284,52071.942636,29549.788481,30274.610850,0.134000,0.982000,0.048000,192.000000,0.000000,0.000000,0.000000,0.000000,0.000000,0.000000,0.000000,0.000000,0.000000,1647747681.135445,0.000000
122.000000,34417.752554,20756.746323,4739.732115,7758.022280,3502.428949,52072.032043,29554.437644,30283.685658,0.134000,0.982000,0.048000,192.000000,0.000000,0.000000,0.000000,0.000000,0.000000,0.000000,0.000000,0.000000,0.000000,1647747681.141754,0.000000
123.000000,34421.664109,20759.584994,4740.872054,7758.134038,3503.881813,52067.941674,29557.119853,30285.339688,0.134000,0.982000,0.048000,192.000000,0.000000,0.000000,0.000000,0.000000,0.000000,0.000000,0.000000,0.000000,0.000000,1647747681.141766,0.000000
124.000000,34409.348298,20760.881395,4742.011993,7756.949396,3504.597068,52062.666662,29550.190812,30285.563205,0.134000,0.982000,0.048000,192.000000,0.000000,0.000000,0.000000,0.000000,0.000000,0.000000,0.000000,0.000000,0.000000,1647747681.148159,0.000000
125.000000,34412.879874,20769.486817,4748.404592,7761.486800,3510.453225,52065.818258,29537.025635,30275.281403,0.136000,0.978000,0.050000,192.000000,4.000000,64.000000,30.000000,144.000000,1.000000,144.000000,0.000000,0.000000,0.000000,1647747681.155820,0.000000
126.000000,34414.891531,20768.458637,4746.750563,7758.916349,3508.754493,52065.684148,29531.102423,30274.007353,0.136000,0.978000,0.050000,192.000000,0.000000,0.000000,0.000000,0.000000,0.000000,0.000000,0.000000,0.000000,0.000000,1647747681.155832,0.000000
127.000000,34420.390060,20768.525692,4749.231607,7758.603425,3509.559156,52068.344005,29532.175306,30274.610850,0.136000,0.978000,0.050000,192.000000,0.000000,0.000000,0.000000,0.000000,0.000000,0.000000,0.000000,0.000000,0.000000,1647747681.163210,0.000000
128.000000,34419.965377,20761.417837,4744.805961,7751.897902,3504.217089,52066.600569,29537.740891,30281.294022,0.136000,0.978000,0.050000,192.000000,0.000000,0.000000,0.000000,0.000000,0.000000,0.000000,0.000000,0.000000,0.000000,1647747681.163221,0.000000
129.000000,34411.985804,20758.467407,4744.135409,7754.222483,3503.658295,52064.119525,29529.090766,30281.942222,0.136000,0.978000,0.050000,192.000000,0.000000,0.000000,0.000000,0.000000,0.000000,0.000000,0.000000,0.000000,0.000000,1647747681.170643,0.000000
130.000000,34417.864313,20768.101009,4755.355985,7764.884265,3513.895394,52072.948465,29519.077184,30269.760522,0.136000,0.978000,0.050000,192.000000,0.000000,0.000000,0.000000,0.000000,0.000000,0.000000,0.000000,0.000000,0.000000,1647747681.170659,0.000000
131.000000,34426.447383,20770.514997,4756.428868,7765.867742,3516.510548,52076.167116,29527.235571,30275.862548,0.136000,0.978000,0.050000,192.000000,0.000000,0.000000,0.000000,0.000000,0.000000,0.000000,0.000000,0.000000,0.000000,1647747681.178412,0.000000
132.000000,34423.586359,20766.067000,4747.868150,7759.721012,3510.185004,52067.226418,29537.070338,30288.290118,0.136000,0.978000,0.050000,192.000000,0.000000,0.000000,0.000000,0.000000,0.000000,0.000000,0.000000,0.000000,0.000000,1647747681.178424,0.000000
133.000000,34409.482409,20753.237099,4737.318127,7750.400335,3499.746740,52058.620996,29541.093652,30301.768220,0.136000,0.978000,0.050000,192.000000,0.000000,0.000000,0.000000,0.000000,0.000000,0.000000,0.000000,0.000000,0.000000,1647747681.186724,0.000000
134.000000,34413.863351,20755.718142,4743.084877,7755.362422,3503.010095,52065.706499,29532.868210,30300.404763,0.136000,0.978000,0.050000,192.000000,0.000000,0.000000,0.000000,0.000000,0.000000,0.000000,0.000000,0.000000,0.000000,1647747681.186741,0.000000
135.000000,34417.283168,20758.400352,4743.911891,7757.910521,3504.798234,52065.550037,29528.017882,30299.533045,0.138000,0.974000,0.044000,192.000000,4.000000,80.000000,30.000000,112.000000,1.000000,96.000000,0.000000,0.000000,0.000000,1647747681.193138,0.000000
136.000000,34430.560104,20766.759904,4750.460953,7765.219541,3511.771978,52074.401328,29524.329844,30291.195845,0.138000,0.974000,0.044000,192.000000,0.000000,0.000000,0.000000,0.000000,0.000000,0.000000,0.000000,0.000000,0.000000,1647747681.193155,0.000000
137.000000,34439.590208,20761.619003,4744.202464,7762.157352,3506.809891,52069.349834,29531.862382,30304.003394,0.138000,0.974000,0.044000,192.000000,0.000000,0.000000,0.000000,0.000000,0.000000,0.000000,0.000000,0.000000,0.000000,1647747681.201030,0.000000
138.000000,34432.661168,20750.711352,4738.972156,7754.624814,3500.372589,52057.346947,29538.143222,30316.922702,0.138000,0.974000,0.044000,192.000000,0.000000,0.000000,0.000000,0.000000,0.000000,0.000000,0.000000,0.000000,0.000000,1647747681.201042,0.000000
139.000000,34432.974092,20760.032029,4746.527046,7758.022280,3506.362856,52071.048566,29539.305513,30316.073336,0.138000,0.974000,0.044000,192.000000,0.000000,0.000000,0.000000,0.000000,0.000000,0.000000,0.000000,0.000000,0.000000,1647747681.209598,0.000000
140.000000,34434.136383,20768.033954,4747.130543,7760.726841,3509.201528,52074.446031,29535.483365,30307.982005,0.138000,0.974000,0.044000,192.000000,0.000000,0.000000,0.000000,0.000000,0.000000,0.000000,0.000000,0.000000,0.000000,1647747681.216473,0.000000
141.000000,34429.554275,20756.880433,4734.054772,7747.829884,3496.729254,52057.346947,29537.584428,30318.464973,0.138000,0.974000,0.044000,192.000000,0.000000,0.000000,0.000000,0.000000,0.000000,0.000000,0.000000,0.000000,0.000000,1647747681.216484,0.000000
142.000000,34434.315197,20758.556814,4739.218025,7750.467390,3499.366760,52055.067069,29538.254981,30320.633092,0.138000,0.974000,0.044000,192.000000,0.000000,0.000000,0.000000,0.000000,0.000000,0.000000,0.000000,0.000000,0.000000,1647747681.222829,0.000000
143.000000,34433.108203,20750.599593,4730.702010,7743.270128,3490.873097,52049.903816,29546.681588,30343.364816,0.138000,0.974000,0.044000,192.000000,0.000000,0.000000,0.000000,0.000000,0.000000,0.000000,0.000000,0.000000,0.000000,1647747681.222839,0.000000
144.000000,34424.435726,20755.181701,4734.300641,7749.416858,3494.427025,52047.959214,29531.817678,30333.083014,0.138000,0.974000,0.044000,192.000000,0.000000,0.000000,0.000000,0.000000,0.000000,0.000000,0.000000,0.000000,0.000000,1647747681.230952,0.000000
145.000000,34430.001310,20771.029087,4749.902159,7762.090297,3508.039237,52062.532552,29519.591274,30309.591330,0.144000,0.974000,0.036000,192.000000,4.000000,128.000000,30.000000,112.000000,1.000000,32.000000,0.000000,0.000000,0.000000,1647747681.230968,0.000000
146.000000,34439.836078,20767.653974,4748.248130,7757.575245,3506.787539,52063.650139,29520.530047,30308.026708,0.144000,0.974000,0.036000,192.000000,0.000000,0.000000,0.000000,0.000000,0.000000,0.000000,0.000000,0.000000,0.000000,1647747681.238734,0.000000
147.000000,34446.988636,20765.441151,4748.650461,7761.777373,3510.319115,52063.940711,29517.534914,30311.826505,0.144000,0.974000,0.036000,192.000000,0.000000,0.000000,0.000000,0.000000,0.000000,0.000000,0.000000,0.000000,0.000000,1647747681.238745,0.000000
148.000000,34444.038206,20767.028125,4750.528008,7767.365309,3515.214147,52072.613188,29524.106327,30309.367813,0.144000,0.974000,0.036000,192.000000,0.000000,0.000000,0.000000,0.000000,0.000000,0.000000,0.000000,0.000000,0.000000,1647747681.245903,0.000000
149.000000,34440.193706,20757.215709,4741.319089,7758.581073,3505.804063,52069.975682,29536.377434,30323.516467,0.144000,0.974000,0.036000,192.000000,0.000000,0.000000,0.000000,0.000000,0.000000,0.000000,0.000000,0.000000,0.000000,1647747681.245919,0.000000
150.000000,34444.909924,20763.742419,4744.783609,7760.995062,3506.608725,52074.937770,29531.415347,30318.040290,0.144000,0.974000,0.036000,192.000000,0.000000,0.000000,0.000000,0.000000,0.000000,0.000000,0.000000,0.000000,0.000000,1647747681.253418,0.000000
151.000000,34435.321025,20757.305116,4738.770990,7753.529579,3499.232650,52075.518915,29537.785594,30327.450374,0.144000,0.974000,0.036000,192.000000,0.000000,0.000000,0.000000,0.000000,0.000000,0.000000,0.000000,0.000000,0.000000,1647747681.253435,0.000000
152.000000,34423.787525,20750.443131,4730.433790,7744.007736,3490.090786,52066.198238,29547.195679,30349.332732,0.144000,0.974000,0.036000,192.000000,0.000000,0.000000,0.000000,0.000000,0.000000,0.000000,0.000000,0.000000,0.000000,1647747681.261356,0.000000
153.000000,34426.827362,20765.172930,4741.542607,7754.066021,3501.736045,52071.406194,29539.685492,30339.006226,0.144000,0.974000,0.036000,192.000000,0.000000,0.000000,0.000000,0.000000,0.000000,0.000000,0.000000,0.000000,0.000000,1647747681.261367,0.000000
154.000000,34430.805973,20773.331317,4742.906063,7759.273977,3505.625249,52066.622921,29530.297760,30325.550476,0.144000,0.974000,0.036000,192.000000,0.000000,0.000000,0.000000,0.000000,0.000000,0.000000,0.000000,0.000000,0.000000,1647747681.268509,0.000000
155.000000,34434.181086,20769.442114,4742.906063,7755.831809,3503.479481,52062.376089,29522.005263,30316.475668,0.134000,0.972000,0.040000,192.000000,4.000000,48.000000,30.000000,96.000000,1.000000,64.000000,0.000000,0.000000,0.000000,1647747681.268526,0.000000
156.000000,34440.908961,20768.726858,4745.364755,7760.302157,3505.781711,52059.179790,29518.004300,30312.787630,0.134000,0.972000,0.040000,192.000000,0.000000,0.000000,0.000000,0.000000,0.000000,0.000000,0.000000,0.000000,0.000000,1647747681.276615,0.000000
157.000000,34444.507592,20762.401314,4734.568862,7748.209864,3493.443548,52050.887293,29519.613626,30323.516467,0.134000,0.972000,0.040000,192.000000,0.000000,0.000000,0.000000,0.000000,0.000000,0.000000,0.000000,0.000000,0.000000,1647747681.282983,0.000000
158.000000,34444.105261,20765.418800,4737.184016,7750.310928,3495.701074,52052.921301,29519.479515,30333.462993,0.134000,0.972000,0.040000,192.000000,0.000000,0.000000,0.000000,0.000000,0.000000,0.000000,0.000000,0.000000,0.000000,1647747681.282994,0.000000
159.000000,34434.158735,20754.511148,4740.000336,7751.495570,3500.461996,52061.146743,29524.463955,30334.290008,0.134000,0.972000,0.040000,192.000000,0.000000,0.000000,0.000000,0.000000,0.000000,0.000000,0.000000,0.000000,0.000000,1647747681.291310,0.000000
160.000000,34428.079060,20752.074808,4742.146104,7753.574282,3501.758397,52061.012633,29517.445507,30329.260865,0.134000,0.972000,0.040000,192.000000,0.000000,0.000000,0.000000,0.000000,0.000000,0.000000,0.000000,0.000000,0.000000,1647747681.291326,0.000000
161.000000,34442.026549,20762.378962,4749.075144,7761.598559,3509.201528,52069.908627,29509.622396,30312.273540,0.134000,0.972000,0.040000,192.000000,0.000000,0.000000,0.000000,0.000000,0.000000,0.000000,0.000000,0.000000,0.000000,1647747681.298373,0.000000
162.000000,34447.815650,20751.873642,4737.698106,7750.467390,3499.724388,52066.801735,29529.627207,30336.167554,0.134000,0.972000,0.040000,192.000000,0.000000,0.000000,0.000000,0.000000,0.000000,0.000000,0.000000,0.000000,0.000000,1647747681.298384,0.000000
163.000000,34444.351130,20746.866852,4731.953708,7743.895977,3493.309437,52060.744412,29531.772975,30345.532935,0.134000,0.972000,0.040000,192.000000,0.000000,0.000000,0.000000,0.000000,0.000000,0.000000,0.000000,0.000000,0.000000,1647747681.305794,0.000000
164.000000,34437.444441,20739.870756,4726.410476,7735.178797,3485.575734,52056.005842,29533.784632,30353.691322,0.134000,0.972000,0.040000,192.000000,0.000000,0.000000,0.000000,0.000000,0.000000,0.000000,0.000000,0.000000,0.000000,1647747681.305805,0.000000
165.000000,34452.263648,20751.091331,4739.173322,7746.913463,3498.629153,52065.326520,29522.049966,30336.435775,0.134000,0.972000,0.040000,192.000000,0.000000,0.000000,0.000000,0.000000,0.000000,0.000000,0.000000,0.000000,0.000000,1647747681.314994,0.000000
166.000000,34444.731110,20746.665686,4731.953708,7738.352744,3492.884754,52057.279892,29520.418289,30336.994569,0.126000,0.970000,0.036000,192.000000,3.000000,240.000000,30.000000,80.000000,1.000000,32.000000,0.000000,0.000000,0.000000,1647747681.315005,0.000000
167.000000,34439.925485,20751.985401,4733.853606,7742.733686,3494.896411,52056.542284,29522.407594,30343.208354,0.126000,0.970000,0.036000,192.000000,0.000000,0.000000,0.000000,0.000000,0.000000,0.000000,0.000000,0.000000,0.000000,1647747681.321583,0.000000
168.000000,34441.110127,20753.773541,4733.406572,7746.086448,3495.745778,52059.000976,29524.821582,30352.506680,0.126000,0.970000,0.036000,192.000000,0.000000,0.000000,0.000000,0.000000,0.000000,0.000000,0.000000,0.000000,0.000000,1647747681.321594,0.000000
