%OpenBCI Raw EEG Data
%Number of channels = 8
%Sample Rate = 256 Hz
%Board = OpenBCI_GUI$BoardCytonSerial
%Channels = Fp1, Fp2, F3, F4, Fz, Pz, O1, O2
%Data recorded at AIMS Lab (http://aimsl.uiu.ac.bd) by Rana Depto (mail@ranadepto.com)
%Brainwaves were obtained via the Ultracortex Mark IV Headset using the OpenBCI Cyton Board
%Recording Application = ConcentrateToday (https://concentrate.today)
%Data type = RAW data with noise
%Day No = 3
%Subject ID = 1
%Session ID = 7
%Record starting timestamp (UTC+6) = 2022-03-08T12:10:47.458309
%Record ending timestamp (UTC+6)   = 2022-03-08T12:11:13.369559
%Recorded durations = ~25 seconds
Sample Index, EXG Channel 0, EXG Channel 1, EXG Channel 2, EXG Channel 3, EXG Channel 4, EXG Channel 5, EXG Channel 6, EXG Channel 7, Accel Channel 0, Accel Channel 1, Accel Channel 2, Other, Other, Other, Other, Other, Other, Other, Analog Channel 0, Analog Channel 1, Analog Channel 2, Timestamp, Timestamp (Formatted)
219.000000,36991.712390,33398.021269,32092.165302,35305.295623,22784.630690,33879.254327,45919.379105,37067.194231,0.044000,0.926000,0.328000,192.000000,0.000000,0.000000,0.000000,0.000000,0.000000,0.000000,0.000000,0.000000,0.000000,1646719847.464325,0.000000
220.000000,37004.229367,33408.995975,32093.953442,35313.521065,22785.904740,33881.757722,45912.517120,37081.052313,0.044000,0.926000,0.328000,192.000000,0.000000,0.000000,0.000000,0.000000,0.000000,0.000000,0.000000,0.000000,0.000000,1646719847.464332,0.000000
221.000000,37004.117609,33416.148533,32091.606509,35310.347117,22796.208894,33882.920013,45919.490864,37098.061991,0.044000,0.926000,0.328000,192.000000,0.000000,0.000000,0.000000,0.000000,0.000000,0.000000,0.000000,0.000000,0.000000,1646719847.472198,0.000000
222.000000,36985.409198,33404.458571,32074.373314,35291.906928,22783.222530,33865.575059,45898.837852,37075.598487,0.044000,0.926000,0.328000,192.000000,0.000000,0.000000,0.000000,0.000000,0.000000,0.000000,0.000000,0.000000,0.000000,1646719847.472203,0.000000
223.000000,36969.181832,33389.281737,32064.717360,35282.318030,22760.781379,33850.465280,45884.242163,37053.626723,0.046000,0.924000,0.322000,192.000000,1.000000,112.000000,28.000000,224.000000,10.000000,16.000000,0.000000,0.000000,0.000000,1646719847.478735,0.000000
224.000000,36995.959222,33403.005708,32092.232358,35309.967138,22781.210873,33879.857824,45918.596794,37085.969697,0.046000,0.924000,0.322000,192.000000,0.000000,0.000000,0.000000,0.000000,0.000000,0.000000,0.000000,0.000000,0.000000,1646719847.478739,0.000000
225.000000,36986.795007,33390.846359,32084.945689,35299.819446,22781.702612,33870.961830,45912.383009,37076.045522,0.046000,0.924000,0.322000,192.000000,0.000000,0.000000,0.000000,0.000000,0.000000,0.000000,0.000000,0.000000,0.000000,1646719847.486833,0.000000
226.000000,36984.023390,33395.294356,32080.765913,35294.097399,22778.685126,33866.379722,45917.725076,37059.706397,0.046000,0.924000,0.322000,192.000000,0.000000,0.000000,0.000000,0.000000,0.000000,0.000000,0.000000,0.000000,0.000000,1646719847.486837,0.000000
227.000000,36982.659934,33403.296280,32078.195462,35290.923451,22777.835760,33869.620725,45917.993297,37082.058141,0.046000,0.924000,0.322000,192.000000,0.000000,0.000000,0.000000,0.000000,0.000000,0.000000,0.000000,0.000000,0.000000,1646719847.494868,0.000000
228.000000,36982.659934,33410.158266,32076.809654,35297.226643,22772.940728,33869.732484,45913.165321,37076.939592,0.046000,0.924000,0.322000,192.000000,0.000000,0.000000,0.000000,0.000000,0.000000,0.000000,0.000000,0.000000,0.000000,1646719847.494873,0.000000
229.000000,36987.420855,33406.492580,32086.555014,35304.982699,22775.175902,33873.219356,45915.244033,37092.339944,0.046000,0.924000,0.322000,192.000000,0.000000,0.000000,0.000000,0.000000,0.000000,0.000000,0.000000,0.000000,0.000000,1646719847.501861,0.000000
230.000000,36993.902861,33403.989184,32094.199311,35309.877731,22781.412039,33879.902527,45916.249861,37102.666450,0.046000,0.924000,0.322000,192.000000,0.000000,0.000000,0.000000,0.000000,0.000000,0.000000,0.000000,0.000000,0.000000,1646719847.501865,0.000000
231.000000,36986.124454,33405.442048,32087.538491,35301.898158,22785.681222,33874.471053,45913.545300,37094.619822,0.046000,0.924000,0.322000,192.000000,0.000000,0.000000,0.000000,0.000000,0.000000,0.000000,0.000000,0.000000,0.000000,1646719847.508418,0.000000
232.000000,36988.404332,33411.208798,32093.305241,35301.317012,22791.358565,33873.822853,45917.009821,37088.897775,0.046000,0.924000,0.322000,192.000000,0.000000,0.000000,0.000000,0.000000,0.000000,0.000000,0.000000,0.000000,0.000000,1646719847.516591,0.000000
233.000000,36973.853347,33391.852187,32076.340267,35282.474492,22765.274079,33854.019207,45895.328628,37054.185516,0.044000,0.924000,0.318000,192.000000,1.000000,96.000000,28.000000,224.000000,9.000000,240.000000,0.000000,0.000000,0.000000,1646719847.516599,0.000000
234.000000,36988.314925,33393.752085,32088.454913,35300.646460,22772.314879,33866.938516,45903.241146,37065.763720,0.044000,0.924000,0.318000,192.000000,0.000000,0.000000,0.000000,0.000000,0.000000,0.000000,0.000000,0.000000,0.000000,1646719847.524485,0.000000
235.000000,36994.953393,33399.451780,32099.071991,35308.983661,22790.643309,33876.616821,45910.885443,37090.708267,0.044000,0.924000,0.318000,192.000000,0.000000,0.000000,0.000000,0.000000,0.000000,0.000000,0.000000,0.000000,0.000000,1646719847.524495,0.000000
236.000000,36983.106969,33396.926033,32091.382991,35300.087667,22783.557806,33870.246574,45903.241146,37082.393418,0.044000,0.924000,0.318000,192.000000,0.000000,0.000000,0.000000,0.000000,0.000000,0.000000,0.000000,0.000000,0.000000,1646719847.531126,0.000000
237.000000,36980.424759,33397.618937,32089.125465,35294.052696,22778.282795,33867.005571,45904.939879,37072.424540,0.044000,0.924000,0.318000,192.000000,0.000000,0.000000,0.000000,0.000000,0.000000,0.000000,0.000000,0.000000,0.000000,1646719847.531132,0.000000
238.000000,36982.279954,33404.145647,32088.454913,35293.918585,22772.538396,33866.402074,45906.258631,37077.543089,0.044000,0.924000,0.318000,192.000000,0.000000,0.000000,0.000000,0.000000,0.000000,0.000000,0.000000,0.000000,0.000000,1646719847.539091,0.000000
239.000000,36984.358666,33394.623803,32080.989430,35297.181940,22764.491768,33866.714998,45910.617222,37075.844357,0.044000,0.924000,0.318000,192.000000,0.000000,0.000000,0.000000,0.000000,0.000000,0.000000,0.000000,0.000000,0.000000,1646719847.539095,0.000000
240.000000,36984.492777,33392.589795,32089.818369,35297.316050,22769.342097,33865.999742,45909.521986,37070.435234,0.044000,0.924000,0.318000,192.000000,0.000000,0.000000,0.000000,0.000000,0.000000,0.000000,0.000000,0.000000,0.000000,1646719847.547122,0.000000
241.000000,36988.113760,33402.491617,32094.199311,35304.982699,22779.825065,33871.520623,45906.638611,37073.296258,0.044000,0.924000,0.318000,192.000000,0.000000,0.000000,0.000000,0.000000,0.000000,0.000000,0.000000,0.000000,0.000000,1646719847.547126,0.000000
242.000000,36995.132207,33408.660699,32097.440314,35316.695013,22795.560693,33880.751894,45916.406323,37092.161130,0.044000,0.924000,0.318000,192.000000,0.000000,0.000000,0.000000,0.000000,0.000000,0.000000,0.000000,0.000000,0.000000,1646719847.554248,0.000000
243.000000,36995.020449,33411.007632,32102.111829,35319.623091,22792.811429,33883.635269,45925.928167,37089.702438,0.038000,0.930000,0.316000,192.000000,1.000000,48.000000,29.000000,16.000000,9.000000,224.000000,0.000000,0.000000,0.000000,1646719847.554252,0.000000
244.000000,36996.003925,33411.029984,32100.301337,35313.118734,22786.709402,33879.343734,45922.731867,37082.773397,0.038000,0.930000,0.316000,192.000000,0.000000,0.000000,0.000000,0.000000,0.000000,0.000000,0.000000,0.000000,0.000000,1646719847.561727,0.000000
245.000000,37002.061248,33417.713155,32099.563730,35313.766934,22795.404231,33876.370952,45910.326649,37074.167976,0.038000,0.930000,0.316000,192.000000,0.000000,0.000000,0.000000,0.000000,0.000000,0.000000,0.000000,0.000000,0.000000,1646719847.561731,0.000000
246.000000,36989.253698,33399.943519,32087.002049,35299.640632,22786.821161,33862.155242,45907.197405,37052.218563,0.038000,0.930000,0.316000,192.000000,0.000000,0.000000,0.000000,0.000000,0.000000,0.000000,0.000000,0.000000,0.000000,1646719847.568727,0.000000
247.000000,36994.886338,33405.442048,32097.373259,35311.375297,22796.387708,33879.544899,45928.342155,37091.423522,0.038000,0.930000,0.316000,192.000000,0.000000,0.000000,0.000000,0.000000,0.000000,0.000000,0.000000,0.000000,0.000000,1646719847.576723,0.000000
248.000000,36998.529672,33401.351679,32096.434485,35310.861207,22786.865865,33877.823815,45915.378143,37090.730618,0.038000,0.930000,0.316000,192.000000,0.000000,0.000000,0.000000,0.000000,0.000000,0.000000,0.000000,0.000000,0.000000,1646719847.576727,0.000000
249.000000,36994.595765,33393.841492,32088.790189,35299.171245,22775.913510,33862.445815,45897.362637,37054.029054,0.038000,0.930000,0.316000,192.000000,0.000000,0.000000,0.000000,0.000000,0.000000,0.000000,0.000000,0.000000,0.000000,1646719847.583995,0.000000
250.000000,37003.961146,33397.283661,32088.253747,35299.774742,22783.758972,33865.865632,45899.933088,37054.453737,0.038000,0.930000,0.316000,192.000000,0.000000,0.000000,0.000000,0.000000,0.000000,0.000000,0.000000,0.000000,0.000000,1646719847.583998,0.000000
251.000000,36996.562719,33414.092173,32087.359677,35298.970079,22783.781324,33880.729542,45932.633690,37087.355505,0.038000,0.930000,0.316000,192.000000,0.000000,0.000000,0.000000,0.000000,0.000000,0.000000,0.000000,0.000000,0.000000,1646719847.591285,0.000000
252.000000,36985.364495,33409.599472,32093.349945,35304.200388,22786.172961,33879.969583,45931.359641,37074.704418,0.038000,0.930000,0.316000,192.000000,0.000000,0.000000,0.000000,0.000000,0.000000,0.000000,0.000000,0.000000,0.000000,1646719847.591289,0.000000
253.000000,36971.551117,33390.265213,32074.328610,35287.660097,22773.611280,33863.630457,45904.626954,37073.139795,0.032000,0.934000,0.310000,192.000000,1.000000,0.000000,29.000000,48.000000,9.000000,176.000000,0.000000,0.000000,0.000000,1646719847.599478,0.000000
254.000000,36979.933021,33393.796789,32080.654154,35287.771855,22772.694859,33871.364161,45914.104094,37093.032848,0.032000,0.934000,0.310000,192.000000,0.000000,0.000000,0.000000,0.000000,0.000000,0.000000,0.000000,0.000000,0.000000,1646719847.599482,0.000000
255.000000,36993.455826,33392.120408,32094.333422,35302.032268,22779.310975,33879.433141,45917.412152,37098.151397,0.032000,0.934000,0.310000,192.000000,0.000000,0.000000,0.000000,0.000000,0.000000,0.000000,0.000000,0.000000,0.000000,1646719847.607443,0.000000
0.000000,36994.618117,33385.124312,32097.328555,35305.921472,22786.664699,33876.952097,45906.124521,37082.840453,0.032000,0.934000,0.310000,192.000000,0.000000,0.000000,0.000000,0.000000,0.000000,0.000000,0.000000,0.000000,0.000000,1646719847.607447,0.000000
1.000000,36994.685172,33392.075705,32097.485017,35309.453047,22794.867789,33875.074551,45906.593908,37065.875478,0.032000,0.934000,0.310000,192.000000,0.000000,0.000000,0.000000,0.000000,0.000000,0.000000,0.000000,0.000000,0.000000,1646719847.614011,0.000000
2.000000,36990.415989,33394.959080,32085.504482,35300.735867,22780.205045,33857.260210,45885.113881,37018.758001,0.032000,0.934000,0.310000,192.000000,0.000000,0.000000,0.000000,0.000000,0.000000,0.000000,0.000000,0.000000,0.000000,1646719847.614016,0.000000
3.000000,36994.484007,33406.671394,32092.411171,35307.530797,22775.444123,33876.281545,45910.170187,37079.152415,0.032000,0.934000,0.310000,192.000000,0.000000,0.000000,0.000000,0.000000,0.000000,0.000000,0.000000,0.000000,0.000000,1646719847.621994,0.000000
4.000000,37001.278937,33414.226283,32091.382991,35308.022536,22792.543208,33888.105618,45926.732829,37114.423467,0.032000,0.934000,0.310000,192.000000,0.000000,0.000000,0.000000,0.000000,0.000000,0.000000,0.000000,0.000000,0.000000,1646719847.621998,0.000000
5.000000,36999.379039,33407.677222,32093.037020,35306.077934,22797.415888,33882.920013,45925.637594,37086.863767,0.032000,0.934000,0.310000,192.000000,0.000000,0.000000,0.000000,0.000000,0.000000,0.000000,0.000000,0.000000,0.000000,1646719847.629070,0.000000
6.000000,37003.156484,33419.948330,32106.224550,35311.710574,22799.092269,33880.014286,45905.029286,37059.572287,0.032000,0.934000,0.310000,192.000000,0.000000,0.000000,0.000000,0.000000,0.000000,0.000000,0.000000,0.000000,0.000000,1646719847.629074,0.000000
7.000000,36996.942699,33417.377879,32096.836817,35298.947728,22786.664699,33863.719864,45876.731977,37038.941626,0.034000,0.932000,0.312000,192.000000,1.000000,16.000000,29.000000,32.000000,9.000000,192.000000,0.000000,0.000000,0.000000,1646719847.637302,0.000000
8.000000,37009.370269,33412.818123,32103.095305,35307.508446,22790.844475,33883.411751,45916.763951,37085.545014,0.034000,0.932000,0.312000,192.000000,0.000000,0.000000,0.000000,0.000000,0.000000,0.000000,0.000000,0.000000,0.000000,1646719847.643656,0.000000
9.000000,37011.516036,33402.804542,32110.538436,35313.096382,22797.192371,33894.140589,45939.741545,37115.362241,0.034000,0.932000,0.312000,192.000000,0.000000,0.000000,0.000000,0.000000,0.000000,0.000000,0.000000,0.000000,0.000000,1646719847.643660,0.000000
10.000000,37009.973766,33401.485789,32098.915529,35302.836931,22796.186542,33873.778149,45905.141044,37078.995952,0.034000,0.932000,0.312000,192.000000,0.000000,0.000000,0.000000,0.000000,0.000000,0.000000,0.000000,0.000000,0.000000,1646719847.651708,0.000000
11.000000,37016.925158,33410.314728,32106.023384,35313.833989,22803.450859,33882.808254,45903.285849,37081.655810,0.034000,0.932000,0.312000,192.000000,0.000000,0.000000,0.000000,0.000000,0.000000,0.000000,0.000000,0.000000,0.000000,1646719847.651712,0.000000
12.000000,36998.529672,33410.202969,32108.593834,35319.354870,22799.248731,33894.140589,45927.313975,37094.597470,0.034000,0.932000,0.312000,192.000000,0.000000,0.000000,0.000000,0.000000,0.000000,0.000000,0.000000,0.000000,0.000000,1646719847.659651,0.000000
13.000000,36994.618117,33418.294301,32111.812486,35321.500638,22797.952330,33901.047278,45940.345042,37097.592604,0.034000,0.932000,0.312000,192.000000,0.000000,0.000000,0.000000,0.000000,0.000000,0.000000,0.000000,0.000000,0.000000,1646719847.659655,0.000000
14.000000,36978.658972,33408.571292,32086.934994,35293.940937,22781.367335,33875.521585,45902.660001,37067.775377,0.034000,0.932000,0.312000,192.000000,0.000000,0.000000,0.000000,0.000000,0.000000,0.000000,0.000000,0.000000,0.000000,1646719847.666340,0.000000
15.000000,36988.538443,33414.315690,32082.464645,35290.342306,22778.752181,33876.281545,45903.911698,37060.555763,0.034000,0.932000,0.312000,192.000000,0.000000,0.000000,0.000000,0.000000,0.000000,0.000000,0.000000,0.000000,0.000000,1646719847.666344,0.000000
16.000000,36984.179853,33405.218530,32081.168244,35286.766027,22779.065106,33869.285449,45890.768873,37047.636455,0.034000,0.932000,0.312000,192.000000,0.000000,0.000000,0.000000,0.000000,0.000000,0.000000,0.000000,0.000000,0.000000,1646719847.674326,0.000000
17.000000,36992.114722,33412.147571,32090.131294,35298.768914,22778.081629,33880.170748,45909.991373,37060.891039,0.032000,0.928000,0.298000,192.000000,1.000000,0.000000,29.000000,0.000000,9.000000,80.000000,0.000000,0.000000,0.000000,1646719847.674330,0.000000
18.000000,36984.470425,33402.424562,32085.504482,35296.042001,22777.276966,33879.790769,45909.209062,37075.576136,0.032000,0.928000,0.298000,192.000000,0.000000,0.000000,0.000000,0.000000,0.000000,0.000000,0.000000,0.000000,0.000000,1646719847.682295,0.000000
19.000000,36978.591916,33399.898815,32089.080762,35297.874844,22781.546149,33879.299030,45898.726094,37072.268077,0.032000,0.928000,0.298000,192.000000,0.000000,0.000000,0.000000,0.000000,0.000000,0.000000,0.000000,0.000000,0.000000,1646719847.682299,0.000000
20.000000,36988.650201,33406.671394,32095.987451,35309.140123,22792.587911,33885.088132,45904.023457,37078.481862,0.032000,0.928000,0.298000,192.000000,0.000000,0.000000,0.000000,0.000000,0.000000,0.000000,0.000000,0.000000,0.000000,1646719847.689518,0.000000
21.000000,36995.512187,33416.752030,32101.553035,35313.968100,22801.416850,33892.352449,45922.128370,37088.160168,0.032000,0.928000,0.298000,192.000000,0.000000,0.000000,0.000000,0.000000,0.000000,0.000000,0.000000,0.000000,0.000000,1646719847.689522,0.000000
22.000000,36990.147768,33419.791868,32091.427695,35308.223702,22794.174885,33884.194062,45912.718286,37077.654848,0.032000,0.928000,0.298000,192.000000,0.000000,0.000000,0.000000,0.000000,0.000000,0.000000,0.000000,0.000000,0.000000,1646719847.695970,0.000000
23.000000,36986.347972,33409.398307,32077.502558,35300.959385,22783.647213,33877.063856,45904.358733,37073.229202,0.032000,0.928000,0.298000,192.000000,0.000000,0.000000,0.000000,0.000000,0.000000,0.000000,0.000000,0.000000,0.000000,1646719847.703931,0.000000
24.000000,36988.873719,33394.690859,32073.613354,35291.683411,22786.396478,33875.834510,45908.963193,37072.357484,0.032000,0.928000,0.298000,192.000000,0.000000,0.000000,0.000000,0.000000,0.000000,0.000000,0.000000,0.000000,0.000000,1646719847.703935,0.000000
25.000000,36982.995210,33394.042658,32070.551165,35280.842815,22777.724001,33874.269888,45907.197405,37066.255458,0.032000,0.928000,0.298000,192.000000,0.000000,0.000000,0.000000,0.000000,0.000000,0.000000,0.000000,0.000000,0.000000,1646719847.712008,0.000000
26.000000,37003.290594,33418.674280,32094.735753,35304.669774,22800.075746,33895.593452,45919.602623,37070.323476,0.032000,0.928000,0.298000,192.000000,0.000000,0.000000,0.000000,0.000000,0.000000,0.000000,0.000000,0.000000,0.000000,1646719847.712012,0.000000
27.000000,36985.096274,33405.866731,32091.561805,35304.334498,22793.481981,33882.584737,45905.252803,37045.468336,0.032000,0.928000,0.298000,192.000000,0.000000,0.000000,0.000000,0.000000,0.000000,0.000000,0.000000,0.000000,0.000000,1646719847.719251,0.000000
28.000000,36939.968102,33374.127254,32065.097340,35277.713570,22774.751219,33872.213527,45907.443274,37070.681104,0.036000,0.918000,0.304000,192.000000,1.000000,32.000000,28.000000,176.000000,9.000000,128.000000,0.000000,0.000000,0.000000,1646719847.719254,0.000000
29.000000,36948.953503,33372.540280,32068.025418,35278.451178,22768.403324,33876.236841,45907.733847,37085.723828,0.036000,0.918000,0.304000,192.000000,0.000000,0.000000,0.000000,0.000000,0.000000,0.000000,0.000000,0.000000,0.000000,1646719847.726598,0.000000
30.000000,36972.311076,33389.259385,32086.353849,35292.756294,22786.530588,33877.130911,45901.788283,37071.910449,0.036000,0.918000,0.304000,192.000000,0.000000,0.000000,0.000000,0.000000,0.000000,0.000000,0.000000,0.000000,0.000000,1646719847.726602,0.000000
31.000000,36972.132262,33390.153455,32086.063276,35294.142102,22787.849341,33874.940440,45902.302373,37064.355560,0.036000,0.918000,0.304000,192.000000,0.000000,0.000000,0.000000,0.000000,0.000000,0.000000,0.000000,0.000000,0.000000,1646719847.734704,0.000000
32.000000,36972.735759,33387.784170,32076.541433,35281.133387,22769.744428,33860.612972,45901.117730,37047.390586,0.036000,0.918000,0.304000,192.000000,0.000000,0.000000,0.000000,0.000000,0.000000,0.000000,0.000000,0.000000,0.000000,1646719847.734736,0.000000
33.000000,36972.311076,33390.555786,32074.954459,35281.200442,22761.653097,33854.622704,45903.799940,37052.509135,0.036000,0.918000,0.304000,192.000000,0.000000,0.000000,0.000000,0.000000,0.000000,0.000000,0.000000,0.000000,0.000000,1646719847.742665,0.000000
34.000000,36947.634750,33371.176824,32063.756235,35285.626088,22761.630745,33860.791786,45914.707591,37065.540202,0.036000,0.918000,0.304000,192.000000,0.000000,0.000000,0.000000,0.000000,0.000000,0.000000,0.000000,0.000000,0.000000,1646719847.742670,0.000000
35.000000,36949.355835,33376.518890,32069.590040,35294.611489,22777.321670,33865.329190,45920.340231,37066.702493,0.036000,0.918000,0.304000,192.000000,0.000000,0.000000,0.000000,0.000000,0.000000,0.000000,0.000000,0.000000,0.000000,1646719847.749244,0.000000
36.000000,36969.427701,33402.826894,32085.593889,35313.252844,22786.619995,33872.057065,45919.446161,37074.413845,0.036000,0.918000,0.304000,192.000000,0.000000,0.000000,0.000000,0.000000,0.000000,0.000000,0.000000,0.000000,0.000000,1646719847.749247,0.000000
37.000000,36970.455881,33405.486751,32081.861148,35315.219798,22774.192426,33862.535222,45917.389800,37052.889115,0.036000,0.918000,0.304000,192.000000,0.000000,0.000000,0.000000,0.000000,0.000000,0.000000,0.000000,0.000000,0.000000,1646719847.756281,0.000000
38.000000,36971.215841,33411.231150,32081.548224,35319.868960,22776.181731,33860.389454,45915.422847,37033.465449,0.030000,0.952000,0.304000,192.000000,0.000000,240.000000,29.000000,192.000000,9.000000,128.000000,0.000000,0.000000,0.000000,1646719847.764296,0.000000
39.000000,36968.332466,33407.252539,32078.731904,35323.892274,22776.405248,33873.688742,45928.856245,37096.497368,0.030000,0.952000,0.304000,192.000000,0.000000,0.000000,0.000000,0.000000,0.000000,0.000000,0.000000,0.000000,0.000000,1646719847.764299,0.000000
40.000000,36961.649294,33393.528568,32073.456892,35318.952539,22768.559786,33874.538109,45936.880521,37105.572177,0.030000,0.952000,0.304000,192.000000,0.000000,0.000000,0.000000,0.000000,0.000000,0.000000,0.000000,0.000000,0.000000,1646719847.772245,0.000000
41.000000,36960.777576,33391.561614,32070.819386,35311.509408,22762.547167,33868.704303,45916.406323,37095.916223,0.030000,0.952000,0.304000,192.000000,0.000000,0.000000,0.000000,0.000000,0.000000,0.000000,0.000000,0.000000,0.000000,1646719847.772248,0.000000
42.000000,36954.563791,33379.290507,32055.955476,35299.484169,22742.475300,33854.801518,45896.222698,37073.765644,0.030000,0.952000,0.304000,192.000000,0.000000,0.000000,0.000000,0.000000,0.000000,0.000000,0.000000,0.000000,0.000000,1646719847.778796,0.000000
43.000000,36978.167233,33396.031963,32077.167282,35310.503579,22748.532623,33874.873385,45920.854321,37087.109636,0.030000,0.952000,0.304000,192.000000,0.000000,0.000000,0.000000,0.000000,0.000000,0.000000,0.000000,0.000000,0.000000,1646719847.778806,0.000000
44.000000,36972.109911,33393.439161,32068.986543,35301.406419,22756.154568,33872.481748,45912.383009,37081.879328,0.030000,0.952000,0.304000,192.000000,0.000000,0.000000,0.000000,0.000000,0.000000,0.000000,0.000000,0.000000,0.000000,1646719847.786819,0.000000
45.000000,36977.809605,33406.470228,32071.936974,35306.659079,22767.442199,33883.925841,45915.601661,37085.768531,0.030000,0.952000,0.304000,192.000000,0.000000,0.000000,0.000000,0.000000,0.000000,0.000000,0.000000,0.000000,0.000000,1646719847.786823,0.000000
46.000000,36990.125417,33425.111583,32066.349037,35296.332573,22770.817312,33883.881138,45909.901966,37077.096054,0.030000,0.952000,0.304000,192.000000,0.000000,0.000000,0.000000,0.000000,0.000000,0.000000,0.000000,0.000000,0.000000,1646719847.794819,0.000000
47.000000,36992.517053,33423.010519,32061.521061,35295.997297,22763.754161,33883.635269,45906.996239,37073.497423,0.030000,0.952000,0.304000,192.000000,0.000000,0.000000,0.000000,0.000000,0.000000,0.000000,0.000000,0.000000,0.000000,1646719847.794823,0.000000
48.000000,36976.848480,33401.754010,32059.978790,35299.752390,22761.183710,33883.925841,45906.884480,37073.340961,0.030000,0.936000,0.308000,192.000000,0.000000,240.000000,29.000000,64.000000,9.000000,160.000000,0.000000,0.000000,0.000000,1646719847.801496,0.000000
49.000000,36963.459785,33394.467341,32059.040017,35300.355887,22765.743466,33877.555594,45902.838815,37068.669447,0.030000,0.936000,0.308000,192.000000,0.000000,0.000000,0.000000,0.000000,0.000000,0.000000,0.000000,0.000000,0.000000,1646719847.801500,0.000000
50.000000,36962.096329,33403.251577,32060.448177,35295.818483,22772.180769,33872.414693,45901.408303,37065.294333,0.030000,0.936000,0.308000,192.000000,0.000000,0.000000,0.000000,0.000000,0.000000,0.000000,0.000000,0.000000,0.000000,1646719847.809544,0.000000
51.000000,36970.768806,33404.391516,32059.822328,35293.024515,22773.477170,33866.156204,45899.284887,37063.953228,0.030000,0.936000,0.308000,192.000000,0.000000,0.000000,0.000000,0.000000,0.000000,0.000000,0.000000,0.000000,0.000000,1646719847.809548,0.000000
52.000000,36978.681323,33402.424562,32067.354866,35299.640632,22772.627803,33865.485652,45895.887422,37062.120385,0.030000,0.936000,0.308000,192.000000,0.000000,0.000000,0.000000,0.000000,0.000000,0.000000,0.000000,0.000000,0.000000,1646719847.816509,0.000000
53.000000,36969.181832,33399.965870,32070.685276,35303.351021,22767.285736,33862.691684,45895.172166,37060.689874,0.030000,0.936000,0.308000,192.000000,0.000000,0.000000,0.000000,0.000000,0.000000,0.000000,0.000000,0.000000,0.000000,1646719847.824530,0.000000
54.000000,36978.904841,33414.762725,32083.671639,35314.951577,22779.534492,33864.993914,45903.017629,37059.460528,0.030000,0.936000,0.308000,192.000000,0.000000,0.000000,0.000000,0.000000,0.000000,0.000000,0.000000,0.000000,0.000000,1646719847.824534,0.000000
55.000000,36980.156539,33421.580007,32078.016648,35315.130391,22789.592777,33860.277696,45904.448140,37051.279789,0.030000,0.936000,0.308000,192.000000,0.000000,0.000000,0.000000,0.000000,0.000000,0.000000,0.000000,0.000000,0.000000,1646719847.831127,0.000000
56.000000,36975.797948,33412.684013,32070.752331,35312.090553,22789.123391,33855.829699,45907.152701,37074.950287,0.030000,0.936000,0.308000,192.000000,0.000000,0.000000,0.000000,0.000000,0.000000,0.000000,0.000000,0.000000,0.000000,1646719847.831131,0.000000
57.000000,36971.215841,33399.988222,32078.977773,35313.051678,22783.781324,33853.795690,45906.415094,37081.253479,0.030000,0.936000,0.308000,192.000000,0.000000,0.000000,0.000000,0.000000,0.000000,0.000000,0.000000,0.000000,0.000000,1646719847.839076,0.000000
58.000000,36963.660951,33388.499425,32073.591003,35308.246053,22769.140931,33841.859858,45898.949611,37050.855106,0.032000,0.948000,0.302000,192.000000,1.000000,0.000000,29.000000,160.000000,9.000000,112.000000,0.000000,0.000000,0.000000,1646719847.839080,0.000000
59.000000,36956.888373,33382.352696,32065.432616,35306.502617,22758.054466,33826.660672,45885.426806,37007.313908,0.032000,0.948000,0.302000,192.000000,0.000000,0.000000,0.000000,0.000000,0.000000,0.000000,0.000000,0.000000,0.000000,1646719847.847229,0.000000
60.000000,36961.805756,33390.488731,32074.373314,35314.437486,22767.486902,33849.951190,45912.405361,37106.376839,0.032000,0.948000,0.302000,192.000000,0.000000,0.000000,0.000000,0.000000,0.000000,0.000000,0.000000,0.000000,0.000000,1646719847.847232,0.000000
61.000000,36964.823242,33396.501350,32079.178939,35322.528818,22770.079705,33859.674199,45925.771704,37138.272779,0.032000,0.948000,0.302000,192.000000,0.000000,0.000000,0.000000,0.000000,0.000000,0.000000,0.000000,0.000000,0.000000,1646719847.854257,0.000000
62.000000,36974.233326,33402.446914,32085.035096,35330.284873,22772.717210,33860.523565,45929.370335,37109.416677,0.032000,0.948000,0.302000,192.000000,0.000000,0.000000,0.000000,0.000000,0.000000,0.000000,0.000000,0.000000,0.000000,1646719847.854261,0.000000
63.000000,36963.839765,33382.576213,32064.091511,35302.300489,22748.622030,33838.350634,45904.425788,37069.541165,0.032000,0.948000,0.302000,192.000000,0.000000,0.000000,0.000000,0.000000,0.000000,0.000000,0.000000,0.000000,0.000000,1646719847.861695,0.000000
64.000000,36974.501547,33386.711286,32067.734846,35304.692126,22745.828062,33840.406995,45899.195480,37070.770511,0.032000,0.948000,0.302000,192.000000,0.000000,0.000000,0.000000,0.000000,0.000000,0.000000,0.000000,0.000000,0.000000,1646719847.861699,0.000000
65.000000,36985.543309,33405.062068,32083.202253,35317.387917,22762.547167,33856.164975,45914.417018,37087.623726,0.032000,0.948000,0.302000,192.000000,0.000000,0.000000,0.000000,0.000000,0.000000,0.000000,0.000000,0.000000,0.000000,1646719847.869771,0.000000
66.000000,36980.692980,33402.223397,32078.664849,35317.365565,22761.787207,33857.371969,45907.376219,37076.134929,0.032000,0.948000,0.302000,192.000000,0.000000,0.000000,0.000000,0.000000,0.000000,0.000000,0.000000,0.000000,0.000000,1646719847.869775,0.000000
67.000000,36983.285783,33399.161208,32076.653192,35316.940882,22755.662829,33852.320475,45896.803844,37050.653941,0.032000,0.948000,0.302000,192.000000,0.000000,0.000000,0.000000,0.000000,0.000000,0.000000,0.000000,0.000000,0.000000,1646719847.876700,0.000000
68.000000,36988.471387,33406.872559,32074.887404,35320.092478,22756.556899,33857.059044,45899.396646,37051.927990,0.030000,0.948000,0.290000,192.000000,0.000000,240.000000,29.000000,160.000000,9.000000,16.000000,0.000000,0.000000,0.000000,1646719847.876703,0.000000
69.000000,36996.272146,33411.544074,32075.177977,35322.931149,22762.301297,33865.105672,45901.721227,37082.035790,0.030000,0.948000,0.290000,192.000000,0.000000,0.000000,0.000000,0.000000,0.000000,0.000000,0.000000,0.000000,0.000000,1646719847.883877,0.000000
70.000000,36989.924251,33401.016402,32069.053599,35307.240225,22756.489844,33857.036693,45887.282000,37078.235993,0.030000,0.948000,0.290000,192.000000,0.000000,0.000000,0.000000,0.000000,0.000000,0.000000,0.000000,0.000000,0.000000,1646719847.891401,0.000000
71.000000,36999.110818,33411.678184,32080.743561,35311.241187,22766.905757,33864.658638,45897.809672,37076.313743,0.030000,0.948000,0.290000,192.000000,0.000000,0.000000,0.000000,0.000000,0.000000,0.000000,0.000000,0.000000,0.000000,1646719847.891405,0.000000
72.000000,36987.800835,33401.061106,32078.687200,35312.761106,22763.307126,33856.701417,45894.613373,37065.450795,0.030000,0.948000,0.290000,192.000000,0.000000,0.000000,0.000000,0.000000,0.000000,0.000000,0.000000,0.000000,0.000000,1646719847.899527,0.000000
73.000000,36990.885376,33401.463437,32085.057448,35315.979757,22755.819292,33858.266039,45897.764969,37062.276848,0.030000,0.948000,0.290000,192.000000,0.000000,0.000000,0.000000,0.000000,0.000000,0.000000,0.000000,0.000000,0.000000,1646719847.899530,0.000000
74.000000,36976.066169,33386.532472,32068.740674,35302.501655,22752.019495,33841.703396,45882.431672,37045.736557,0.030000,0.948000,0.290000,192.000000,0.000000,0.000000,0.000000,0.000000,0.000000,0.000000,0.000000,0.000000,0.000000,1646719847.907405,0.000000
75.000000,36973.272201,33392.746257,32061.655171,35303.708649,22750.343114,33842.351597,45884.733902,37047.636455,0.030000,0.948000,0.290000,192.000000,0.000000,0.000000,0.000000,0.000000,0.000000,0.000000,0.000000,0.000000,0.000000,1646719847.907409,0.000000
76.000000,36983.509300,33405.330289,32074.418017,35314.169266,22761.295469,33858.221335,45903.464663,37074.592659,0.030000,0.948000,0.290000,192.000000,0.000000,0.000000,0.000000,0.000000,0.000000,0.000000,0.000000,0.000000,0.000000,1646719847.914057,0.000000
77.000000,36957.268352,33377.547071,32051.127499,35284.374390,22735.434501,33833.545009,45883.035169,37052.866763,0.030000,0.948000,0.290000,192.000000,0.000000,0.000000,0.000000,0.000000,0.000000,0.000000,0.000000,0.000000,0.000000,1646719847.914062,0.000000
78.000000,36973.719236,33389.929937,32069.143006,35298.791265,22738.966076,33845.480841,45896.088588,37057.717092,0.040000,0.948000,0.286000,192.000000,1.000000,64.000000,29.000000,160.000000,8.000000,240.000000,0.000000,0.000000,0.000000,1646719847.922015,0.000000
79.000000,36986.459730,33403.542149,32073.501596,35305.876768,22747.258573,33849.124175,45893.607544,37061.136909,0.040000,0.948000,0.286000,192.000000,0.000000,0.000000,0.000000,0.000000,0.000000,0.000000,0.000000,0.000000,0.000000,1646719847.922018,0.000000
80.000000,36996.652126,33415.813257,32078.731904,35317.119696,22760.557861,33859.897716,45912.248899,37079.398284,0.040000,0.948000,0.286000,192.000000,0.000000,0.000000,0.000000,0.000000,0.000000,0.000000,0.000000,0.000000,0.000000,1646719847.930045,0.000000
81.000000,36984.760998,33398.378897,32076.630840,35307.307280,22754.746408,33850.666446,45905.163396,37065.271981,0.040000,0.948000,0.286000,192.000000,0.000000,0.000000,0.000000,0.000000,0.000000,0.000000,0.000000,0.000000,0.000000,1646719847.930049,0.000000
82.000000,36987.197338,33400.390554,32084.878634,35321.411231,22751.505405,33858.333094,45906.482149,37065.674313,0.040000,0.948000,0.286000,192.000000,0.000000,0.000000,0.000000,0.000000,0.000000,0.000000,0.000000,0.000000,0.000000,1646719847.936643,0.000000
83.000000,36984.023390,33409.621824,32078.620145,35320.628920,22746.878594,33845.190268,45890.925335,37020.948472,0.040000,0.948000,0.286000,192.000000,0.000000,0.000000,0.000000,0.000000,0.000000,0.000000,0.000000,0.000000,0.000000,1646719847.936646,0.000000
84.000000,36984.112797,33401.374030,32081.727038,35319.511332,22751.415998,33848.274809,45914.394666,37036.482935,0.040000,0.948000,0.286000,192.000000,0.000000,0.000000,0.000000,0.000000,0.000000,0.000000,0.000000,0.000000,0.000000,1646719847.943803,0.000000
85.000000,36988.024353,33399.563539,32079.089532,35310.861207,22746.766835,33851.046425,45912.740637,37071.284601,0.040000,0.948000,0.286000,192.000000,0.000000,0.000000,0.000000,0.000000,0.000000,0.000000,0.000000,0.000000,0.000000,1646719847.952138,0.000000
86.000000,36981.609402,33397.820103,32077.614317,35315.778591,22752.868861,33861.261172,45907.197405,37106.086267,0.040000,0.948000,0.286000,192.000000,0.000000,0.000000,0.000000,0.000000,0.000000,0.000000,0.000000,0.000000,0.000000,1646719847.952174,0.000000
87.000000,36986.571489,33393.059181,32084.386895,35322.305301,22755.238146,33865.820928,45901.922393,37106.622709,0.040000,0.948000,0.286000,192.000000,0.000000,0.000000,0.000000,0.000000,0.000000,0.000000,0.000000,0.000000,0.000000,1646719847.960083,0.000000
88.000000,36984.582184,33391.494559,32087.560843,35323.624053,22754.075856,33866.223260,45920.563748,37089.411865,0.046000,0.942000,0.272000,192.000000,1.000000,112.000000,29.000000,112.000000,8.000000,128.000000,0.000000,0.000000,0.000000,1646719847.960099,0.000000
89.000000,36987.800835,33396.568405,32083.828102,35320.315995,22752.824158,33861.417635,45914.998164,37075.754950,0.046000,0.942000,0.272000,192.000000,0.000000,0.000000,0.000000,0.000000,0.000000,0.000000,0.000000,0.000000,0.000000,1646719847.966711,0.000000
90.000000,37007.202149,33411.477019,32099.071991,35338.957350,22778.640423,33877.041504,45927.962175,37077.788958,0.046000,0.942000,0.272000,192.000000,0.000000,0.000000,0.000000,0.000000,0.000000,0.000000,0.000000,0.000000,0.000000,1646719847.966727,0.000000
91.000000,37000.764847,33397.596585,32087.605546,35330.039004,22773.968908,33863.786920,45908.605565,37037.913446,0.046000,0.942000,0.272000,192.000000,0.000000,0.000000,0.000000,0.000000,0.000000,0.000000,0.000000,0.000000,0.000000,1646719847.974742,0.000000
92.000000,37004.721106,33395.070838,32090.131294,35326.663891,22765.005859,33873.956963,45913.455893,37085.075627,0.046000,0.942000,0.272000,192.000000,0.000000,0.000000,0.000000,0.000000,0.000000,0.000000,0.000000,0.000000,0.000000,1646719847.974758,0.000000
93.000000,37020.367327,33413.309862,32107.945634,35343.092423,22774.482998,33897.314536,45941.417926,37117.195084,0.046000,0.942000,0.272000,192.000000,0.000000,0.000000,0.000000,0.000000,0.000000,0.000000,0.000000,0.000000,0.000000,1646719847.982595,0.000000
94.000000,37021.261397,33417.266121,32103.184712,35337.750356,22771.040830,33888.664411,45930.778495,37096.922052,0.046000,0.942000,0.272000,192.000000,0.000000,0.000000,0.000000,0.000000,0.000000,0.000000,0.000000,0.000000,0.000000,1646719847.982611,0.000000
95.000000,37000.988364,33403.385687,32091.003012,35316.493847,22763.038905,33875.543937,45907.666791,37078.280697,0.046000,0.942000,0.272000,192.000000,0.000000,0.000000,0.000000,0.000000,0.000000,0.000000,0.000000,0.000000,0.000000,1646719847.989956,0.000000
96.000000,37003.111780,33417.288472,32096.680355,35320.315995,22764.491768,33882.249460,45913.947632,37082.885156,0.046000,0.942000,0.272000,192.000000,0.000000,0.000000,0.000000,0.000000,0.000000,0.000000,0.000000,0.000000,0.000000,1646719847.989973,0.000000
97.000000,37007.112742,33428.106717,32092.612337,35328.317920,22763.441236,33878.963754,45906.415094,37075.330266,0.046000,0.942000,0.272000,192.000000,0.000000,0.000000,0.000000,0.000000,0.000000,0.000000,0.000000,0.000000,0.000000,1646719847.997130,0.000000
98.000000,36998.462617,33414.092173,32084.096323,35321.679452,22753.651172,33867.519661,45891.282963,37059.438176,0.050000,0.940000,0.274000,192.000000,1.000000,144.000000,29.000000,96.000000,8.000000,144.000000,0.000000,0.000000,0.000000,1646719847.997141,0.000000
99.000000,37016.232254,33410.560597,32095.518064,35335.314016,22763.888271,33879.410789,45906.526852,37067.529508,0.050000,0.940000,0.274000,192.000000,0.000000,0.000000,0.000000,0.000000,0.000000,0.000000,0.000000,0.000000,0.000000,1646719848.003959,0.000000
100.000000,37014.198245,33411.924054,32101.553035,35332.251827,22764.759989,33876.080379,45906.392742,37045.401281,0.050000,0.940000,0.274000,192.000000,0.000000,0.000000,0.000000,0.000000,0.000000,0.000000,0.000000,0.000000,0.000000,1646719848.012274,0.000000
101.000000,37003.402353,33409.375955,32096.725058,35319.734850,22756.735713,33869.598373,45904.358733,37049.379891,0.050000,0.940000,0.274000,192.000000,0.000000,0.000000,0.000000,0.000000,0.000000,0.000000,0.000000,0.000000,0.000000,1646719848.012286,0.000000
102.000000,37006.241024,33416.349699,32099.228454,35324.652234,22755.036981,33870.425388,45900.670695,37061.516888,0.050000,0.940000,0.274000,192.000000,0.000000,0.000000,0.000000,0.000000,0.000000,0.000000,0.000000,0.000000,0.000000,1646719848.019308,0.000000
103.000000,37019.205036,33424.105754,32112.617148,35337.839763,22768.269213,33883.255289,45906.884480,37082.460473,0.050000,0.940000,0.274000,192.000000,0.000000,0.000000,0.000000,0.000000,0.000000,0.000000,0.000000,0.000000,0.000000,1646719848.019325,0.000000
104.000000,37015.472295,33411.655833,32104.347003,35328.250865,22766.212853,33879.679010,45918.216815,37098.397267,0.050000,0.940000,0.274000,192.000000,0.000000,0.000000,0.000000,0.000000,0.000000,0.000000,0.000000,0.000000,0.000000,1646719848.026836,0.000000
105.000000,37010.689021,33399.943519,32101.240111,35321.634748,22764.491768,33872.213527,45917.903890,37084.315668,0.050000,0.940000,0.274000,192.000000,0.000000,0.000000,0.000000,0.000000,0.000000,0.000000,0.000000,0.000000,0.000000,1646719848.026854,0.000000
106.000000,37017.148676,33404.078591,32109.152628,35327.334443,22765.207024,33880.148397,45925.257614,37090.507101,0.050000,0.940000,0.274000,192.000000,0.000000,0.000000,0.000000,0.000000,0.000000,0.000000,0.000000,0.000000,0.000000,1646719848.035057,0.000000
107.000000,37009.727896,33403.452743,32100.815427,35320.025423,22755.349905,33875.789806,45921.681335,37080.381761,0.050000,0.940000,0.274000,192.000000,0.000000,0.000000,0.000000,0.000000,0.000000,0.000000,0.000000,0.000000,0.000000,1646719848.035092,0.000000
108.000000,37013.482989,33407.900740,32107.297433,35323.132315,22751.415998,33875.812158,45919.870844,37076.939592,0.040000,0.944000,0.282000,192.000000,1.000000,64.000000,29.000000,128.000000,8.000000,208.000000,0.000000,0.000000,0.000000,1646719848.042884,0.000000
109.000000,37003.692925,33396.881330,32098.781419,35310.235359,22749.449044,33865.731521,45913.925280,37076.246688,0.040000,0.944000,0.282000,192.000000,0.000000,0.000000,0.000000,0.000000,0.000000,0.000000,0.000000,0.000000,0.000000,1646719848.042901,0.000000
110.000000,36996.115684,33390.421675,32083.872805,35299.506521,22746.073931,33858.601315,45915.489902,37067.685970,0.040000,0.944000,0.282000,192.000000,0.000000,0.000000,0.000000,0.000000,0.000000,0.000000,0.000000,0.000000,0.000000,1646719848.049698,0.000000
111.000000,37000.720143,33393.349754,32084.096323,35301.138199,22746.677428,33861.171765,45919.669678,37081.365237,0.040000,0.944000,0.282000,192.000000,0.000000,0.000000,0.000000,0.000000,0.000000,0.000000,0.000000,0.000000,0.000000,1646719848.049714,0.000000
112.000000,36997.970879,33402.625728,32094.109904,35304.669774,22742.408245,33864.323361,45911.466588,37076.269040,0.040000,0.944000,0.282000,192.000000,0.000000,0.000000,0.000000,0.000000,0.000000,0.000000,0.000000,0.000000,0.000000,1646719848.057707,0.000000
113.000000,36992.293536,33411.231150,32097.462666,35306.502617,22741.178899,33869.553670,45928.409210,37088.607203,0.040000,0.944000,0.282000,192.000000,0.000000,0.000000,0.000000,0.000000,0.000000,0.000000,0.000000,0.000000,0.000000,1646719848.057723,0.000000
114.000000,36996.965050,33408.213664,32103.542340,35320.964196,22750.477225,33876.080379,45935.405306,37090.171825,0.040000,0.944000,0.282000,192.000000,0.000000,0.000000,0.000000,0.000000,0.000000,0.000000,0.000000,0.000000,0.000000,1646719848.064720,0.000000
115.000000,36990.348934,33381.033943,32086.398552,35296.645498,22740.351884,33854.086262,45910.438408,37062.232144,0.040000,0.944000,0.282000,192.000000,0.000000,0.000000,0.000000,0.000000,0.000000,0.000000,0.000000,0.000000,0.000000,1646719848.071772,0.000000
116.000000,37001.524806,33388.544129,32092.098247,35295.438504,22750.544280,33861.797614,45920.116713,37059.527583,0.040000,0.944000,0.282000,192.000000,0.000000,0.000000,0.000000,0.000000,0.000000,0.000000,0.000000,0.000000,0.000000,1646719848.071788,0.000000
117.000000,36999.267280,33391.047524,32094.244015,35303.105152,22754.142911,33868.994876,45925.034097,37069.943496,0.040000,0.944000,0.282000,192.000000,0.000000,0.000000,0.000000,0.000000,0.000000,0.000000,0.000000,0.000000,0.000000,1646719848.079360,0.000000
118.000000,36996.339201,33387.493597,32092.388820,35298.835969,22742.967039,33872.615859,45922.083667,37089.657735,0.034000,0.954000,0.288000,192.000000,1.000000,16.000000,29.000000,208.000000,9.000000,0.000000,0.000000,0.000000,0.000000,1646719848.079375,0.000000
119.000000,36999.803722,33395.093190,32098.759067,35309.341289,22744.598716,33878.002629,45922.687164,37092.742275,0.034000,0.954000,0.288000,192.000000,0.000000,0.000000,0.000000,0.000000,0.000000,0.000000,0.000000,0.000000,0.000000,1646719848.087285,0.000000
120.000000,36996.339201,33384.163187,32089.214872,35302.054620,22743.749350,33865.485652,45898.793149,37069.742330,0.034000,0.954000,0.288000,192.000000,0.000000,0.000000,0.000000,0.000000,0.000000,0.000000,0.000000,0.000000,0.000000,1646719848.087301,0.000000
121.000000,37002.441228,33387.225376,32088.164340,35303.775704,22749.940783,33875.074551,45930.063239,37081.924031,0.034000,0.954000,0.288000,192.000000,0.000000,0.000000,0.000000,0.000000,0.000000,0.000000,0.000000,0.000000,0.000000,1646719848.095315,0.000000
122.000000,37007.425667,33389.795827,32091.025363,35305.049754,22746.453911,33879.477844,45937.774591,37094.128083,0.034000,0.954000,0.288000,192.000000,0.000000,0.000000,0.000000,0.000000,0.000000,0.000000,0.000000,0.000000,0.000000,1646719848.095331,0.000000
123.000000,37013.170065,33397.529530,32092.947613,35308.961309,22748.510271,33879.187271,45925.503483,37089.188348,0.034000,0.954000,0.288000,192.000000,0.000000,0.000000,0.000000,0.000000,0.000000,0.000000,0.000000,0.000000,0.000000,1646719848.101933,0.000000
124.000000,37009.750248,33395.808446,32090.734791,35305.496789,22751.751274,33873.621687,45920.362582,37075.307915,0.034000,0.954000,0.288000,192.000000,0.000000,0.000000,0.000000,0.000000,0.000000,0.000000,0.000000,0.000000,0.000000,1646719848.101950,0.000000
125.000000,37009.325565,33396.344888,32089.125465,35309.587158,22761.250765,33875.052199,45916.607489,37064.981409,0.034000,0.954000,0.288000,192.000000,0.000000,0.000000,0.000000,0.000000,0.000000,0.000000,0.000000,0.000000,0.000000,1646719848.109893,0.000000
126.000000,37013.572396,33394.579100,32092.321765,35304.826236,22759.999068,33868.234917,45899.106073,37042.696719,0.034000,0.954000,0.288000,192.000000,0.000000,0.000000,0.000000,0.000000,0.000000,0.000000,0.000000,0.000000,0.000000,1646719848.109910,0.000000
127.000000,37013.103010,33394.489693,32089.930128,35304.558015,22749.314934,33875.901565,45912.673582,37067.641266,0.034000,0.954000,0.288000,192.000000,0.000000,0.000000,0.000000,0.000000,0.000000,0.000000,0.000000,0.000000,0.000000,1646719848.117930,0.000000
128.000000,37024.323586,33409.890045,32100.100172,35318.036117,22757.339210,33896.822798,45937.484019,37119.162037,0.032000,0.938000,0.288000,192.000000,1.000000,0.000000,29.000000,80.000000,9.000000,0.000000,0.000000,0.000000,0.000000,1646719848.117948,0.000000
129.000000,37017.349841,33400.390554,32093.618166,35308.134295,22754.366428,33889.044391,45933.639518,37107.293261,0.032000,0.938000,0.288000,192.000000,0.000000,0.000000,0.000000,0.000000,0.000000,0.000000,0.000000,0.000000,0.000000,1646719848.124888,0.000000
130.000000,37004.676402,33382.464454,32076.496729,35291.348134,22748.130291,33872.727617,45920.943728,37081.342886,0.032000,0.938000,0.288000,192.000000,0.000000,0.000000,0.000000,0.000000,0.000000,0.000000,0.000000,0.000000,0.000000,1646719848.124905,0.000000
131.000000,37011.694850,33374.194309,32066.997238,35278.428826,22741.648286,33869.263097,45915.266385,37075.352618,0.032000,0.938000,0.288000,192.000000,0.000000,0.000000,0.000000,0.000000,0.000000,0.000000,0.000000,0.000000,0.000000,1646719848.131423,0.000000
132.000000,37018.758001,33394.132065,32080.698857,35298.523044,22750.901908,33888.262080,45929.102114,37095.804464,0.032000,0.938000,0.288000,192.000000,0.000000,0.000000,0.000000,0.000000,0.000000,0.000000,0.000000,0.000000,0.000000,1646719848.139596,0.000000
133.000000,37009.437324,33390.667545,32081.704686,35298.880672,22746.699780,33895.034658,45929.727963,37095.424485,0.032000,0.938000,0.288000,192.000000,0.000000,0.000000,0.000000,0.000000,0.000000,0.000000,0.000000,0.000000,0.000000,1646719848.139612,0.000000
134.000000,37009.549082,33400.301147,32080.430636,35288.732980,22745.716303,33888.664411,45926.531664,37091.155301,0.032000,0.938000,0.288000,192.000000,0.000000,0.000000,0.000000,0.000000,0.000000,0.000000,0.000000,0.000000,0.000000,1646719848.147448,0.000000
135.000000,37010.443152,33390.846359,32096.680355,35294.477379,22764.201196,33896.040487,45932.968966,37096.027982,0.032000,0.938000,0.288000,192.000000,0.000000,0.000000,0.000000,0.000000,0.000000,0.000000,0.000000,0.000000,0.000000,1646719848.147464,0.000000
136.000000,37004.162312,33376.116559,32088.924299,35296.265518,22759.037943,33894.945251,45930.733792,37102.398229,0.032000,0.938000,0.288000,192.000000,0.000000,0.000000,0.000000,0.000000,0.000000,0.000000,0.000000,0.000000,0.000000,1646719848.154750,0.000000
137.000000,37003.111780,33367.287620,32088.834892,35294.164454,22750.700742,33896.353411,45928.945652,37096.273851,0.032000,0.938000,0.288000,192.000000,0.000000,0.000000,0.000000,0.000000,0.000000,0.000000,0.000000,0.000000,0.000000,1646719848.154766,0.000000
138.000000,37023.921254,33384.297298,32105.062259,35310.883559,22765.542300,33911.530246,45948.324615,37111.540092,0.032000,0.938000,0.288000,192.000000,0.000000,0.000000,0.000000,0.000000,0.000000,0.000000,0.000000,0.000000,0.000000,1646719848.162167,0.000000
139.000000,37009.817303,33377.211795,32086.689125,35292.242204,22752.913565,33891.547786,45926.755181,37088.227223,0.032000,0.938000,0.294000,192.000000,1.000000,0.000000,29.000000,80.000000,9.000000,48.000000,0.000000,0.000000,0.000000,1646719848.162183,0.000000
140.000000,37004.877568,33376.183614,32079.290697,35289.627050,22754.433483,33878.248498,45917.456855,37074.056217,0.032000,0.938000,0.294000,192.000000,0.000000,0.000000,0.000000,0.000000,0.000000,0.000000,0.000000,0.000000,0.000000,1646719848.170243,0.000000
141.000000,37007.313908,33376.496539,32082.531700,35301.205254,22763.910623,33882.964716,45929.325632,37083.645115,0.032000,0.938000,0.294000,192.000000,0.000000,0.000000,0.000000,0.000000,0.000000,0.000000,0.000000,0.000000,0.000000,1646719848.170259,0.000000
142.000000,37012.633623,33381.525681,32084.565709,35307.620204,22761.273117,33893.984126,45944.547170,37121.173694,0.032000,0.938000,0.294000,192.000000,0.000000,0.000000,0.000000,0.000000,0.000000,0.000000,0.000000,0.000000,0.000000,1646719848.177296,0.000000
143.000000,37011.761905,33379.894004,32076.630840,35302.076972,22755.707533,33886.384533,45938.825123,37106.667412,0.032000,0.938000,0.294000,192.000000,0.000000,0.000000,0.000000,0.000000,0.000000,0.000000,0.000000,0.000000,0.000000,1646719848.177312,0.000000
144.000000,37008.990289,33380.855129,32076.541433,35297.137236,22753.248841,33886.585699,45949.553961,37110.780133,0.032000,0.938000,0.294000,192.000000,0.000000,0.000000,0.000000,0.000000,0.000000,0.000000,0.000000,0.000000,0.000000,1646719848.184842,0.000000
145.000000,37004.296423,33370.439216,32077.502558,35291.303431,22757.853300,33875.454530,45944.301301,37094.329249,0.032000,0.938000,0.294000,192.000000,0.000000,0.000000,0.000000,0.000000,0.000000,0.000000,0.000000,0.000000,0.000000,1646719848.184859,0.000000
146.000000,36993.098199,33355.575306,32061.275191,35278.093550,22747.169166,33858.288390,45933.773629,37069.965848,0.032000,0.938000,0.294000,192.000000,0.000000,0.000000,0.000000,0.000000,0.000000,0.000000,0.000000,0.000000,0.000000,1646719848.191830,0.000000
147.000000,36986.750303,33354.748291,32062.281020,35279.032323,22731.142966,33862.669332,45926.039925,37080.404112,0.032000,0.938000,0.294000,192.000000,0.000000,0.000000,0.000000,0.000000,0.000000,0.000000,0.000000,0.000000,0.000000,1646719848.199895,0.000000
148.000000,36987.420855,33356.916411,32070.484110,35286.140178,22729.265419,33876.460359,45937.439315,37084.606240,0.032000,0.938000,0.294000,192.000000,0.000000,0.000000,0.000000,0.000000,0.000000,0.000000,0.000000,0.000000,0.000000,1646719848.199912,0.000000
149.000000,36992.338239,33362.102015,32067.734846,35287.213062,22738.496690,33876.840338,45931.672565,37081.655810,0.034000,0.946000,0.292000,192.000000,1.000000,16.000000,29.000000,144.000000,9.000000,32.000000,0.000000,0.000000,0.000000,1646719848.206978,0.000000
150.000000,37002.508283,33377.167091,32071.981677,35295.952594,22748.107940,33877.332077,45927.582196,37098.464322,0.034000,0.946000,0.292000,192.000000,0.000000,0.000000,0.000000,0.000000,0.000000,0.000000,0.000000,0.000000,0.000000,1646719848.207012,0.000000
151.000000,37014.444114,33389.214681,32069.768854,35302.255786,22752.354771,33878.695533,45936.478190,37104.052258,0.034000,0.946000,0.292000,192.000000,0.000000,0.000000,0.000000,0.000000,0.000000,0.000000,0.000000,0.000000,0.000000,1646719848.214534,0.000000
152.000000,37019.674423,33388.275908,32079.245994,35304.915643,22755.372257,33883.925841,45939.294510,37102.062953,0.034000,0.946000,0.292000,192.000000,0.000000,0.000000,0.000000,0.000000,0.000000,0.000000,0.000000,0.000000,0.000000,1646719848.214551,0.000000
153.000000,37016.299309,33387.672411,32082.822273,35303.172207,22750.521928,33884.998725,45932.231359,37086.372028,0.034000,0.946000,0.292000,192.000000,0.000000,0.000000,0.000000,0.000000,0.000000,0.000000,0.000000,0.000000,0.000000,1646719848.222522,0.000000
154.000000,37016.366365,33383.313821,32082.665811,35299.506521,22750.030190,33883.098827,45932.007841,37081.745217,0.034000,0.946000,0.292000,192.000000,0.000000,0.000000,0.000000,0.000000,0.000000,0.000000,0.000000,0.000000,0.000000,1646719848.222538,0.000000
155.000000,37017.685117,33379.849300,32087.627898,35302.322841,22758.032114,33886.451588,45935.472362,37088.920127,0.034000,0.946000,0.292000,192.000000,0.000000,0.000000,0.000000,0.000000,0.000000,0.000000,0.000000,0.000000,0.000000,1646719848.230479,0.000000
156.000000,37013.482989,33370.193347,32083.045791,35294.946765,22759.730847,33886.093961,45943.764859,37095.916223,0.034000,0.946000,0.292000,192.000000,0.000000,0.000000,0.000000,0.000000,0.000000,0.000000,0.000000,0.000000,0.000000,1646719848.230495,0.000000
157.000000,37017.416897,33366.929992,32070.081779,35283.726190,22743.279963,33874.113426,45924.698821,37085.343848,0.034000,0.946000,0.292000,192.000000,0.000000,0.000000,0.000000,0.000000,0.000000,0.000000,0.000000,0.000000,0.000000,1646719848.236946,0.000000
158.000000,37016.276958,33376.205966,32076.027343,35293.762123,22742.363541,33884.708152,45939.115696,37084.852110,0.034000,0.946000,0.292000,192.000000,0.000000,0.000000,0.000000,0.000000,0.000000,0.000000,0.000000,0.000000,0.000000,1646719848.236963,0.000000
159.000000,37006.777466,33381.168053,32078.262517,35305.921472,22759.283812,33899.303842,45946.491772,37095.715057,0.034000,0.946000,0.298000,192.000000,1.000000,16.000000,29.000000,144.000000,9.000000,80.000000,0.000000,0.000000,0.000000,1646719848.245106,0.000000
160.000000,37010.398449,33385.906623,32078.463683,35307.821370,22763.441236,33901.918996,45941.753202,37101.928842,0.034000,0.946000,0.298000,192.000000,0.000000,0.000000,0.000000,0.000000,0.000000,0.000000,0.000000,0.000000,0.000000,1646719848.245123,0.000000
161.000000,37009.817303,33381.905661,32071.489939,35306.010879,22759.484978,33895.034658,45929.929129,37099.067819,0.034000,0.946000,0.298000,192.000000,0.000000,0.000000,0.000000,0.000000,0.000000,0.000000,0.000000,0.000000,0.000000,1646719848.252125,0.000000
162.000000,37015.092315,33388.320612,32076.228508,35313.968100,22761.518986,33896.800446,45928.655079,37084.427426,0.034000,0.946000,0.298000,192.000000,0.000000,0.000000,0.000000,0.000000,0.000000,0.000000,0.000000,0.000000,0.000000,1646719848.260061,0.000000
163.000000,37003.447056,33377.256498,32069.925317,35302.792228,22751.930088,33893.224167,45935.919396,37090.305935,0.034000,0.946000,0.298000,192.000000,0.000000,0.000000,0.000000,0.000000,0.000000,0.000000,0.000000,0.000000,0.000000,1646719848.260077,0.000000
164.000000,37012.275995,33387.471245,32079.827139,35313.275196,22763.038905,33900.153208,45941.015594,37100.677145,0.034000,0.946000,0.298000,192.000000,0.000000,0.000000,0.000000,0.000000,0.000000,0.000000,0.000000,0.000000,0.000000,1646719848.266678,0.000000
165.000000,37009.124399,33376.205966,32065.499671,35306.569672,22760.870786,33892.419504,45934.645347,37099.134874,0.034000,0.946000,0.298000,192.000000,0.000000,0.000000,0.000000,0.000000,0.000000,0.000000,0.000000,0.000000,0.000000,1646719848.266694,0.000000
166.000000,37011.538388,33379.111693,32064.627953,35304.870940,22761.630745,33888.396190,45925.101152,37090.618860,0.034000,0.946000,0.298000,192.000000,0.000000,0.000000,0.000000,0.000000,0.000000,0.000000,0.000000,0.000000,0.000000,1646719848.274692,0.000000
167.000000,37025.821152,33397.708344,32082.285831,35322.931149,22765.162321,33904.735315,45949.285740,37112.680031,0.034000,0.946000,0.298000,192.000000,0.000000,0.000000,0.000000,0.000000,0.000000,0.000000,0.000000,0.000000,0.000000,1646719848.274708,0.000000
168.000000,37020.233216,33394.579100,32079.178939,35323.221722,22762.971850,33902.790714,45945.441240,37106.510950,0.034000,0.946000,0.298000,192.000000,0.000000,0.000000,0.000000,0.000000,0.000000,0.000000,0.000000,0.000000,0.000000,1646719848.282078,0.000000
169.000000,37012.901844,33387.359487,32077.636668,35318.259635,22763.552995,33901.069629,45937.193446,37097.659659,0.036000,0.934000,0.290000,192.000000,1.000000,32.000000,29.000000,48.000000,9.000000,16.000000,0.000000,0.000000,0.000000,1646719848.282094,0.000000
170.000000,37021.171990,33398.513007,32087.337325,35326.306263,22766.548129,33910.189141,45948.346966,37105.147493,0.036000,0.934000,0.290000,192.000000,0.000000,0.000000,0.000000,0.000000,0.000000,0.000000,0.000000,0.000000,0.000000,1646719848.290117,0.000000
171.000000,37020.814362,33397.507178,32090.198349,35321.590045,22770.459684,33908.736278,45943.541341,37099.224281,0.036000,0.934000,0.290000,192.000000,0.000000,0.000000,0.000000,0.000000,0.000000,0.000000,0.000000,0.000000,0.000000,1646719848.290152,0.000000
172.000000,37021.529617,33394.780266,32089.751314,35327.379147,22770.929071,33906.836379,45941.373222,37094.865691,0.036000,0.934000,0.290000,192.000000,0.000000,0.000000,0.000000,0.000000,0.000000,0.000000,0.000000,0.000000,0.000000,1646719848.298147,0.000000
173.000000,37026.759926,33396.121370,32086.778532,35330.173115,22767.442199,33905.539978,45936.947577,37082.527528,0.036000,0.934000,0.290000,192.000000,0.000000,0.000000,0.000000,0.000000,0.000000,0.000000,0.000000,0.000000,0.000000,1646719848.298163,0.000000
174.000000,37016.880455,33393.372106,32077.726075,35313.185789,22759.395571,33896.487522,45928.610376,37091.736447,0.036000,0.934000,0.290000,192.000000,0.000000,0.000000,0.000000,0.000000,0.000000,0.000000,0.000000,0.000000,0.000000,1646719848.304665,0.000000
175.000000,37006.978632,33381.905661,32079.961250,35310.682393,22765.050562,33890.676068,45920.273175,37080.962906,0.036000,0.934000,0.290000,192.000000,0.000000,0.000000,0.000000,0.000000,0.000000,0.000000,0.000000,0.000000,0.000000,1646719848.304681,0.000000
176.000000,37017.886283,33390.220510,32088.477264,35326.283911,22771.264347,33900.399077,45947.519952,37053.783185,0.036000,0.934000,0.290000,192.000000,0.000000,0.000000,0.000000,0.000000,0.000000,0.000000,0.000000,0.000000,0.000000,1646719848.311756,0.000000
177.000000,37015.896978,33386.420713,32078.977773,35321.210065,22757.160396,33898.812103,45942.200237,37070.994028,0.036000,0.934000,0.290000,192.000000,0.000000,0.000000,0.000000,0.000000,0.000000,0.000000,0.000000,0.000000,0.000000,1646719848.319497,0.000000
178.000000,37026.759926,33399.921167,32091.718267,35332.363586,22771.510216,33916.961720,45958.271141,37136.730508,0.036000,0.934000,0.290000,192.000000,0.000000,0.000000,0.000000,0.000000,0.000000,0.000000,0.000000,0.000000,0.000000,1646719848.319512,0.000000
179.000000,37034.381871,33411.991109,32102.469456,35346.445185,22782.775495,33928.070537,45964.574333,37154.813070,0.042000,0.932000,0.288000,192.000000,1.000000,80.000000,29.000000,32.000000,9.000000,0.000000,0.000000,0.000000,0.000000,1646719848.327706,0.000000
180.000000,37037.198190,33404.145647,32093.171131,35338.197391,22782.216702,33916.380574,45942.647271,37128.840343,0.042000,0.932000,0.288000,192.000000,0.000000,0.000000,0.000000,0.000000,0.000000,0.000000,0.000000,0.000000,0.000000,1646719848.327722,0.000000
181.000000,37039.075737,33402.357507,32086.778532,35336.386900,22779.087458,33916.335871,45946.938806,37119.050279,0.042000,0.932000,0.288000,192.000000,0.000000,0.000000,0.000000,0.000000,0.000000,0.000000,0.000000,0.000000,0.000000,1646719848.334371,0.000000
182.000000,37036.237065,33410.024155,32085.839759,35333.637635,22774.214777,33920.962682,45948.838705,37112.702383,0.042000,0.932000,0.288000,192.000000,0.000000,0.000000,0.000000,0.000000,0.000000,0.000000,0.000000,0.000000,0.000000,1646719848.334388,0.000000
183.000000,37027.877513,33402.737487,32084.163378,35325.211027,22769.900891,33913.832475,45938.601606,37084.539185,0.042000,0.932000,0.288000,192.000000,0.000000,0.000000,0.000000,0.000000,0.000000,0.000000,0.000000,0.000000,0.000000,1646719848.342302,0.000000
184.000000,37031.096164,33396.166074,32082.375238,35319.913664,22769.275042,33909.675051,45927.984527,37083.399246,0.042000,0.932000,0.288000,192.000000,0.000000,0.000000,0.000000,0.000000,0.000000,0.000000,0.000000,0.000000,0.000000,1646719848.342318,0.000000
185.000000,37043.031996,33400.614071,32090.913605,35326.954463,22779.445085,33914.972414,45932.857207,37100.945366,0.042000,0.932000,0.288000,192.000000,0.000000,0.000000,0.000000,0.000000,0.000000,0.000000,0.000000,0.000000,0.000000,1646719848.350212,0.000000
186.000000,37067.104824,33422.988167,32114.740564,35349.462670,22799.025214,33931.132726,45940.389745,37105.952156,0.042000,0.932000,0.288000,192.000000,0.000000,0.000000,0.000000,0.000000,0.000000,0.000000,0.000000,0.000000,0.000000,1646719848.350229,0.000000
187.000000,37060.980446,33422.541132,32108.638538,35342.041891,22792.722022,33922.773173,45935.762934,37104.409886,0.042000,0.932000,0.288000,192.000000,0.000000,0.000000,0.000000,0.000000,0.000000,0.000000,0.000000,0.000000,0.000000,1646719848.357484,0.000000
188.000000,37058.320589,33417.556693,32108.683241,35345.059376,22788.139914,33923.376670,45947.877580,37102.644098,0.042000,0.932000,0.288000,192.000000,0.000000,0.000000,0.000000,0.000000,0.000000,0.000000,0.000000,0.000000,0.000000,1646719848.357500,0.000000
189.000000,37068.468281,33430.476002,32115.813448,35352.927190,22798.131144,33925.254217,45945.776516,37106.421543,0.038000,0.940000,0.294000,192.000000,1.000000,48.000000,29.000000,96.000000,9.000000,48.000000,0.000000,0.000000,0.000000,1646719848.365007,0.000000
190.000000,37059.996970,33427.123240,32103.385878,35343.159478,22798.332310,33916.291167,45938.445144,37104.789866,0.038000,0.940000,0.294000,192.000000,0.000000,0.000000,0.000000,0.000000,0.000000,0.000000,0.000000,0.000000,0.000000,1646719848.365023,0.000000
191.000000,37061.338074,33433.113507,32105.509294,35345.908743,22796.790039,33916.671147,45943.206065,37110.243691,0.038000,0.940000,0.294000,192.000000,0.000000,0.000000,0.000000,0.000000,0.000000,0.000000,0.000000,0.000000,0.000000,1646719848.372042,0.000000
192.000000,37068.155356,33438.187353,32114.159419,35351.943714,22795.918321,33915.486504,45938.400440,37100.699496,0.038000,0.940000,0.294000,192.000000,0.000000,0.000000,0.000000,0.000000,0.000000,0.000000,0.000000,0.000000,0.000000,1646719848.372058,0.000000
193.000000,37074.972638,33439.573162,32122.787192,35361.622019,22798.019385,33915.888836,45933.013670,37086.774360,0.038000,0.940000,0.294000,192.000000,0.000000,0.000000,0.000000,0.000000,0.000000,0.000000,0.000000,0.000000,0.000000,1646719848.380100,0.000000
194.000000,37069.384702,33435.259275,32118.652119,35357.486946,22801.439202,33917.006423,45937.282853,37098.889005,0.038000,0.940000,0.294000,192.000000,0.000000,0.000000,0.000000,0.000000,0.000000,0.000000,0.000000,0.000000,0.000000,1646719848.386658,0.000000
195.000000,37069.943496,33438.835554,32121.021404,35361.487909,22808.010615,33920.292130,45939.942710,37106.823874,0.038000,0.940000,0.294000,192.000000,0.000000,0.000000,0.000000,0.000000,0.000000,0.000000,0.000000,0.000000,0.000000,1646719848.386674,0.000000
196.000000,37066.993066,33432.465307,32115.321710,35354.514164,22799.427545,33915.866484,45940.009766,37103.851092,0.038000,0.940000,0.294000,192.000000,0.000000,0.000000,0.000000,0.000000,0.000000,0.000000,0.000000,0.000000,0.000000,1646719848.394512,0.000000
197.000000,37057.605333,33424.217513,32106.850398,35345.528763,22788.408135,33905.562330,45920.206120,37079.487691,0.038000,0.940000,0.294000,192.000000,0.000000,0.000000,0.000000,0.000000,0.000000,0.000000,0.000000,0.000000,0.000000,1646719848.394528,0.000000
198.000000,37061.494537,33436.332159,32114.159419,35355.162365,22797.639405,33915.374746,45939.093344,37084.762703,0.038000,0.940000,0.294000,192.000000,0.000000,0.000000,0.000000,0.000000,0.000000,0.000000,0.000000,0.000000,0.000000,1646719848.402441,0.000000
199.000000,37046.764737,33422.854057,32104.615224,35350.937885,22797.572350,33916.715850,45961.489792,37111.294223,0.032000,0.944000,0.286000,192.000000,1.000000,0.000000,29.000000,128.000000,8.000000,240.000000,0.000000,0.000000,0.000000,1646719848.402451,0.000000
200.000000,37035.253589,33397.909510,32099.340212,35341.080766,22792.364394,33909.160961,45952.660853,37098.129046,0.032000,0.944000,0.286000,192.000000,0.000000,0.000000,0.000000,0.000000,0.000000,0.000000,0.000000,0.000000,0.000000,1646719848.409633,0.000000
201.000000,37031.274978,33391.986298,32095.607471,35336.521010,22779.892120,33905.003536,45938.825123,37107.606185,0.032000,0.944000,0.286000,192.000000,0.000000,0.000000,0.000000,0.000000,0.000000,0.000000,0.000000,0.000000,0.000000,1646719848.409649,0.000000
202.000000,37023.161295,33387.292431,32078.933070,35330.486039,22765.274079,33895.101714,45920.116713,37101.951194,0.032000,0.944000,0.286000,192.000000,0.000000,0.000000,0.000000,0.000000,0.000000,0.000000,0.000000,0.000000,0.000000,1646719848.417284,0.000000
203.000000,37027.944568,33390.421675,32088.477264,35328.004995,22763.754161,33899.728525,45933.550111,37103.292299,0.032000,0.944000,0.286000,192.000000,0.000000,0.000000,0.000000,0.000000,0.000000,0.000000,0.000000,0.000000,0.000000,1646719848.417300,0.000000
204.000000,37035.052423,33406.425525,32097.596776,35337.616245,22767.330440,33908.177484,45959.478135,37115.853979,0.032000,0.944000,0.286000,192.000000,0.000000,0.000000,0.000000,0.000000,0.000000,0.000000,0.000000,0.000000,0.000000,1646719848.425199,0.000000
205.000000,37027.206961,33392.031001,32092.187654,35333.548228,22764.983507,33898.186254,45956.952388,37106.332136,0.032000,0.944000,0.286000,192.000000,0.000000,0.000000,0.000000,0.000000,0.000000,0.000000,0.000000,0.000000,0.000000,1646719848.425215,0.000000
206.000000,37018.847408,33380.542204,32076.384971,35323.512295,22753.382951,33886.540995,45939.965062,37089.389514,0.032000,0.944000,0.286000,192.000000,0.000000,0.000000,0.000000,0.000000,0.000000,0.000000,0.000000,0.000000,0.000000,1646719848.433337,0.000000
207.000000,37031.766716,33396.724867,32096.009802,35339.896123,22755.171091,33895.951080,45947.207027,37087.690781,0.032000,0.944000,0.286000,192.000000,0.000000,0.000000,0.000000,0.000000,0.000000,0.000000,0.000000,0.000000,0.000000,1646719848.433354,0.000000
208.000000,37034.270112,33399.898815,32100.636613,35346.981626,22767.621013,33906.434048,45956.281836,37101.660621,0.032000,0.944000,0.286000,192.000000,0.000000,0.000000,0.000000,0.000000,0.000000,0.000000,0.000000,0.000000,0.000000,1646719848.439443,0.000000
209.000000,37029.866818,33387.515949,32092.522930,35339.024405,22772.694859,33898.946214,45945.217722,37098.844302,0.034000,0.952000,0.284000,192.000000,1.000000,16.000000,29.000000,192.000000,8.000000,224.000000,0.000000,0.000000,0.000000,1646719848.446942,0.000000
210.000000,37036.438231,33388.097094,32094.244015,35335.336368,22772.113713,33896.979260,45938.489847,37096.787941,0.034000,0.952000,0.284000,192.000000,0.000000,0.000000,0.000000,0.000000,0.000000,0.000000,0.000000,0.000000,0.000000,1646719848.446959,0.000000
211.000000,37029.688004,33384.878443,32087.180863,35323.646405,22764.849396,33888.575004,45928.789190,37073.676237,0.034000,0.952000,0.284000,192.000000,0.000000,0.000000,0.000000,0.000000,0.000000,0.000000,0.000000,0.000000,0.000000,1646719848.454817,0.000000
212.000000,37034.270112,33395.920205,32091.137122,35334.330539,22766.950460,33905.115295,45947.028213,37106.890930,0.034000,0.952000,0.284000,192.000000,0.000000,0.000000,0.000000,0.000000,0.000000,0.000000,0.000000,0.000000,0.000000,1646719848.454834,0.000000
213.000000,37043.009644,33405.263234,32094.623994,35344.947618,22772.538396,33912.603129,45955.320711,37120.570197,0.034000,0.952000,0.284000,192.000000,0.000000,0.000000,0.000000,0.000000,0.000000,0.000000,0.000000,0.000000,0.000000,1646719848.462745,0.000000
214.000000,37039.276903,33395.339059,32087.337325,35331.581274,22764.759989,33900.488484,45948.458725,37101.839435,0.034000,0.952000,0.284000,192.000000,0.000000,0.000000,0.000000,0.000000,0.000000,0.000000,0.000000,0.000000,0.000000,1646719848.462778,0.000000
215.000000,37027.989272,33380.050466,32089.773666,35323.378184,22762.502463,33896.375763,45936.500542,37089.903604,0.034000,0.952000,0.284000,192.000000,0.000000,0.000000,0.000000,0.000000,0.000000,0.000000,0.000000,0.000000,0.000000,1646719848.469275,0.000000
216.000000,37026.916388,33383.962021,32089.639555,35322.975853,22764.156492,33902.433086,45940.054469,37095.245671,0.034000,0.952000,0.284000,192.000000,0.000000,0.000000,0.000000,0.000000,0.000000,0.000000,0.000000,0.000000,0.000000,1646719848.469291,0.000000
217.000000,37029.218618,33382.911489,32095.518064,35329.301397,22761.094303,33909.116257,45952.482039,37095.312726,0.034000,0.952000,0.284000,192.000000,0.000000,0.000000,0.000000,0.000000,0.000000,0.000000,0.000000,0.000000,0.000000,1646719848.477396,0.000000
218.000000,37030.805591,33384.118484,32103.274119,35337.437432,22762.636574,33914.190103,45957.935865,37110.914244,0.034000,0.952000,0.284000,192.000000,0.000000,0.000000,0.000000,0.000000,0.000000,0.000000,0.000000,0.000000,0.000000,1646719848.477412,0.000000
219.000000,37036.505286,33393.930899,32103.452933,35343.382996,22773.387763,33920.515647,45961.780365,37120.324328,0.032000,0.960000,0.292000,192.000000,1.000000,0.000000,30.000000,0.000000,9.000000,32.000000,0.000000,0.000000,0.000000,1646719848.485456,0.000000
220.000000,37014.935853,33375.446007,32081.123541,35320.539513,22761.809559,33897.158074,45930.018536,37086.349676,0.032000,0.960000,0.292000,192.000000,0.000000,0.000000,0.000000,0.000000,0.000000,0.000000,0.000000,0.000000,0.000000,1646719848.485473,0.000000
221.000000,37015.695812,33358.928068,32077.770779,35312.559940,22755.372257,33894.051182,45934.421830,37088.629554,0.032000,0.960000,0.292000,192.000000,0.000000,0.000000,0.000000,0.000000,0.000000,0.000000,0.000000,0.000000,0.000000,1646719848.492654,0.000000
222.000000,37028.279844,33374.909565,32095.160436,35330.150763,22766.346963,33913.072516,45955.253655,37105.035735,0.032000,0.960000,0.292000,192.000000,0.000000,0.000000,0.000000,0.000000,0.000000,0.000000,0.000000,0.000000,0.000000,1646719848.492670,0.000000
223.000000,37021.887245,33377.815292,32101.418925,35330.888370,22761.630745,33911.798467,45951.275045,37099.827778,0.032000,0.960000,0.292000,192.000000,0.000000,0.000000,0.000000,0.000000,0.000000,0.000000,0.000000,0.000000,0.000000,1646719848.499190,0.000000
224.000000,37015.069963,33371.042713,32083.381067,35310.749449,22748.979658,33893.358277,45927.135161,37059.818156,0.032000,0.960000,0.292000,192.000000,0.000000,0.000000,0.000000,0.000000,0.000000,0.000000,0.000000,0.000000,0.000000,1646719848.507228,0.000000
225.000000,37029.442135,33379.044638,32095.942747,35325.322786,22770.236167,33911.150266,45945.016556,37089.568328,0.032000,0.960000,0.292000,192.000000,0.000000,0.000000,0.000000,0.000000,0.000000,0.000000,0.000000,0.000000,0.000000,1646719848.507245,0.000000
226.000000,37043.724900,33383.537338,32100.882483,35339.650254,22782.663737,33927.243522,45959.455783,37134.584741,0.032000,0.960000,0.292000,192.000000,0.000000,0.000000,0.000000,0.000000,0.000000,0.000000,0.000000,0.000000,0.000000,1646719848.515143,0.000000
227.000000,37039.053385,33377.949402,32101.977718,35342.041891,22774.103019,33929.590455,45955.410118,37129.466191,0.032000,0.960000,0.292000,192.000000,0.000000,0.000000,0.000000,0.000000,0.000000,0.000000,0.000000,0.000000,0.000000,1646719848.515160,0.000000
228.000000,37035.342996,33376.474187,32101.083648,35335.828106,22768.112751,33923.644891,45948.950463,37110.735430,0.032000,0.960000,0.292000,192.000000,0.000000,0.000000,0.000000,0.000000,0.000000,0.000000,0.000000,0.000000,0.000000,1646719848.522344,0.000000
229.000000,37028.704527,33364.068969,32092.947613,35317.074992,22753.427655,33897.426295,45912.785341,37052.173859,0.038000,0.942000,0.296000,192.000000,1.000000,48.000000,29.000000,112.000000,9.000000,64.000000,0.000000,0.000000,0.000000,1646719848.522362,0.000000
230.000000,37029.196266,33377.591774,32085.660945,35308.335460,22755.841643,33901.449609,45910.684277,37067.082473,0.038000,0.942000,0.296000,192.000000,0.000000,0.000000,0.000000,0.000000,0.000000,0.000000,0.000000,0.000000,0.000000,1646719848.529726,0.000000
231.000000,37035.007719,33398.065972,32092.724096,35316.069164,22769.766780,33922.907284,45945.240074,37130.852000,0.038000,0.942000,0.296000,192.000000,0.000000,0.000000,0.000000,0.000000,0.000000,0.000000,0.000000,0.000000,0.000000,1646719848.529743,0.000000
232.000000,37030.939702,33368.494614,32089.416038,35328.429678,22761.518986,33922.437897,45947.564655,37128.728584,0.038000,0.942000,0.296000,192.000000,0.000000,0.000000,0.000000,0.000000,0.000000,0.000000,0.000000,0.000000,0.000000,1646719848.539208,0.000000
233.000000,37052.732653,33381.458626,32112.706555,35348.702711,22777.344021,33943.090909,45968.329426,37134.361224,0.038000,0.942000,0.296000,192.000000,0.000000,0.000000,0.000000,0.000000,0.000000,0.000000,0.000000,0.000000,0.000000,1646719848.539224,0.000000
234.000000,37025.307062,33363.756044,32094.445180,35328.452030,22766.682239,33925.768307,45949.330443,37110.467209,0.038000,0.942000,0.296000,192.000000,0.000000,0.000000,0.000000,0.000000,0.000000,0.000000,0.000000,0.000000,0.000000,1646719848.545444,0.000000
235.000000,37035.812382,33385.571347,32109.934939,35338.689129,22782.306109,33933.770231,45953.778440,37108.433200,0.038000,0.942000,0.296000,192.000000,0.000000,0.000000,0.000000,0.000000,0.000000,0.000000,0.000000,0.000000,0.000000,1646719848.545478,0.000000
236.000000,37033.733670,33383.090303,32102.827084,35334.174077,22776.494655,33926.550618,45941.842609,37099.157226,0.038000,0.942000,0.296000,192.000000,0.000000,0.000000,0.000000,0.000000,0.000000,0.000000,0.000000,0.000000,0.000000,1646719848.552365,0.000000
237.000000,37033.823077,33375.535414,32100.927186,35329.547266,22764.983507,33926.215342,45936.098210,37099.268985,0.038000,0.942000,0.296000,192.000000,0.000000,0.000000,0.000000,0.000000,0.000000,0.000000,0.000000,0.000000,0.000000,1646719848.552382,0.000000
238.000000,37033.219580,33377.144739,32091.472398,35333.481173,22765.497597,33920.515647,45936.768763,37085.679124,0.038000,0.942000,0.296000,192.000000,0.000000,0.000000,0.000000,0.000000,0.000000,0.000000,0.000000,0.000000,0.000000,1646719848.559582,0.000000
239.000000,37026.916388,33382.017420,32093.841683,35334.799926,22765.095266,33923.376670,45939.830952,37100.118351,0.038000,0.942000,0.296000,192.000000,0.000000,0.000000,0.000000,0.000000,0.000000,0.000000,0.000000,0.000000,0.000000,1646719848.567247,0.000000
240.000000,37029.308025,33389.818178,32098.580253,35335.537533,22772.694859,33931.691519,45936.209969,37105.102790,0.048000,0.930000,0.292000,192.000000,1.000000,128.000000,29.000000,16.000000,9.000000,32.000000,0.000000,0.000000,0.000000,1646719848.567264,0.000000
241.000000,37035.030071,33386.063085,32099.139047,35337.906818,22771.577271,33931.020967,45932.030193,37098.419618,0.048000,0.930000,0.292000,192.000000,0.000000,0.000000,0.000000,0.000000,0.000000,0.000000,0.000000,0.000000,0.000000,1646719848.574546,0.000000
242.000000,37054.990179,33392.813312,32106.917454,35347.160440,22775.153551,33940.051072,45950.336272,37104.052258,0.048000,0.930000,0.292000,192.000000,0.000000,0.000000,0.000000,0.000000,0.000000,0.000000,0.000000,0.000000,0.000000,1646719848.574557,0.000000
243.000000,37057.270057,33396.255481,32108.236207,35343.897086,22779.802713,33940.676920,45946.670585,37108.835531,0.048000,0.930000,0.292000,192.000000,0.000000,0.000000,0.000000,0.000000,0.000000,0.000000,0.000000,0.000000,0.000000,1646719848.582118,0.000000
244.000000,37049.782222,33396.456646,32099.519026,35345.171135,22781.657908,33932.540886,45936.411135,37093.032848,0.048000,0.930000,0.292000,192.000000,0.000000,0.000000,0.000000,0.000000,0.000000,0.000000,0.000000,0.000000,0.000000,1646719848.582136,0.000000
245.000000,37050.229257,33390.824007,32101.933015,35348.322731,22784.541283,33925.880066,45924.296489,37083.175729,0.048000,0.930000,0.292000,192.000000,0.000000,0.000000,0.000000,0.000000,0.000000,0.000000,0.000000,0.000000,0.000000,1646719848.590069,0.000000
246.000000,37020.210865,33365.410073,32083.783398,35320.941844,22771.599623,33909.473885,45911.980678,37070.748159,0.048000,0.930000,0.292000,192.000000,0.000000,0.000000,0.000000,0.000000,0.000000,0.000000,0.000000,0.000000,0.000000,1646719848.590086,0.000000
247.000000,37024.927083,33366.550012,32091.986488,35331.044833,22763.865920,33929.970435,45943.697803,37092.585813,0.048000,0.930000,0.292000,192.000000,0.000000,0.000000,0.000000,0.000000,0.000000,0.000000,0.000000,0.000000,0.000000,1646719848.598131,0.000000
248.000000,37018.199208,33352.088434,32082.084666,35312.559940,22747.616201,33914.525379,45927.023402,37077.319572,0.048000,0.930000,0.292000,192.000000,0.000000,0.000000,0.000000,0.000000,0.000000,0.000000,0.000000,0.000000,0.000000,1646719848.598149,0.000000
249.000000,37016.232254,33357.721073,32091.137122,35323.109963,22759.954364,33928.472868,45937.126391,37089.344810,0.048000,0.930000,0.292000,192.000000,0.000000,0.000000,0.000000,0.000000,0.000000,0.000000,0.000000,0.000000,0.000000,1646719848.604665,0.000000
250.000000,37008.364440,33359.240992,32097.954404,35332.050661,22767.464550,33935.111336,45946.201199,37091.110598,0.064000,0.926000,0.308000,192.000000,2.000000,0.000000,28.000000,240.000000,9.000000,160.000000,0.000000,0.000000,0.000000,1646719848.604681,0.000000
251.000000,37003.156484,33357.743425,32092.165302,35325.680414,22769.342097,33934.932522,45946.916455,37105.326307,0.064000,0.926000,0.308000,192.000000,0.000000,0.000000,0.000000,0.000000,0.000000,0.000000,0.000000,0.000000,0.000000,1646719848.612781,0.000000
252.000000,36998.239100,33361.520870,32086.622070,35320.070126,22757.383914,33928.405813,45934.153609,37104.856921,0.064000,0.926000,0.308000,192.000000,0.000000,0.000000,0.000000,0.000000,0.000000,0.000000,0.000000,0.000000,0.000000,1646719848.612797,0.000000
253.000000,37011.650146,33368.762835,32090.310108,35324.853399,22760.669620,33929.948083,45932.030193,37100.006592,0.064000,0.926000,0.308000,192.000000,0.000000,0.000000,0.000000,0.000000,0.000000,0.000000,0.000000,0.000000,0.000000,1646719848.619770,0.000000
254.000000,37016.902806,33358.168108,32096.255672,35329.323748,22767.129274,33932.205609,45928.789190,37096.340906,0.064000,0.926000,0.308000,192.000000,0.000000,0.000000,0.000000,0.000000,0.000000,0.000000,0.000000,0.000000,0.000000,1646719848.619787,0.000000
255.000000,37018.869760,33359.822137,32095.294547,35324.831048,22778.103981,33928.271702,45929.280928,37083.935688,0.064000,0.926000,0.308000,192.000000,0.000000,0.000000,0.000000,0.000000,0.000000,0.000000,0.000000,0.000000,0.000000,1646719848.627669,0.000000
0.000000,37019.473257,33370.662733,32092.813503,35329.368452,22781.881426,33937.726490,45952.727908,37105.706287,0.064000,0.926000,0.308000,192.000000,0.000000,0.000000,0.000000,0.000000,0.000000,0.000000,0.000000,0.000000,0.000000,1646719848.634403,0.000000
1.000000,37016.411068,33372.808501,32085.437427,35326.395670,22772.448989,33934.150211,45950.246865,37104.633403,0.064000,0.926000,0.308000,192.000000,0.000000,0.000000,0.000000,0.000000,0.000000,0.000000,0.000000,0.000000,0.000000,1646719848.634437,0.000000
2.000000,37008.878530,33354.614181,32081.101189,35314.504542,22759.842606,33921.387365,45933.483056,37093.368124,0.064000,0.926000,0.308000,192.000000,0.000000,0.000000,0.000000,0.000000,0.000000,0.000000,0.000000,0.000000,0.000000,1646719848.642478,0.000000
3.000000,37000.966013,33343.550067,32082.107017,35320.718327,22762.547167,33919.196894,45935.204141,37092.675220,0.064000,0.926000,0.308000,192.000000,0.000000,0.000000,0.000000,0.000000,0.000000,0.000000,0.000000,0.000000,0.000000,1646719848.642495,0.000000
4.000000,36992.382943,33363.197251,32085.459779,35328.586141,22771.197292,33913.430144,45925.727001,37074.860880,0.068000,0.926000,0.312000,192.000000,2.000000,32.000000,28.000000,240.000000,9.000000,192.000000,0.000000,0.000000,0.000000,1646719848.650360,0.000000
5.000000,36993.165254,33350.881440,32098.759067,35332.318882,22770.392629,33918.861618,45934.578292,37074.838528,0.068000,0.926000,0.312000,192.000000,0.000000,0.000000,0.000000,0.000000,0.000000,0.000000,0.000000,0.000000,0.000000,1646719848.650376,0.000000
6.000000,36995.445132,33337.246875,32093.551110,35333.592931,22768.626841,33924.650720,45939.428620,37100.923014,0.068000,0.926000,0.312000,192.000000,0.000000,0.000000,0.000000,0.000000,0.000000,0.000000,0.000000,0.000000,0.000000,1646719848.657385,0.000000
7.000000,37004.922271,33351.104957,32106.336308,35336.096327,22771.241995,33930.797449,45943.787210,37117.105677,0.068000,0.926000,0.312000,192.000000,0.000000,0.000000,0.000000,0.000000,0.000000,0.000000,0.000000,0.000000,0.000000,1646719848.657402,0.000000
8.000000,37003.447056,33360.380931,32105.576349,35337.280969,22773.253652,33933.546714,45953.353757,37118.849113,0.068000,0.926000,0.312000,192.000000,0.000000,0.000000,0.000000,0.000000,0.000000,0.000000,0.000000,0.000000,0.000000,1646719848.664889,0.000000
9.000000,36994.774579,33363.197251,32087.605546,35328.027347,22771.733734,33918.302824,45928.878597,37087.556671,0.068000,0.926000,0.312000,192.000000,0.000000,0.000000,0.000000,0.000000,0.000000,0.000000,0.000000,0.000000,0.000000,1646719848.664905,0.000000
10.000000,36987.197338,33363.063140,32080.967078,35317.723193,22764.223547,33910.077382,45919.781437,37078.347752,0.068000,0.926000,0.312000,192.000000,0.000000,0.000000,0.000000,0.000000,0.000000,0.000000,0.000000,0.000000,0.000000,1646719848.672954,0.000000
11.000000,36995.109856,33358.883364,32098.513198,35325.836876,22764.402361,33924.650720,45940.613263,37103.985203,0.068000,0.926000,0.312000,192.000000,0.000000,0.000000,0.000000,0.000000,0.000000,0.000000,0.000000,0.000000,0.000000,1646719848.672971,0.000000
12.000000,36997.389733,33343.415957,32101.977718,35332.274179,22768.224510,33927.355281,45943.831914,37101.682973,0.068000,0.926000,0.312000,192.000000,0.000000,0.000000,0.000000,0.000000,0.000000,0.000000,0.000000,0.000000,0.000000,1646719848.680907,0.000000
13.000000,37007.626832,33348.556858,32104.436410,35339.560847,22775.891158,33927.690557,45946.156495,37107.717944,0.068000,0.926000,0.312000,192.000000,0.000000,0.000000,0.000000,0.000000,0.000000,0.000000,0.000000,0.000000,0.000000,1646719848.680924,0.000000
14.000000,37018.825056,33351.596695,32101.441276,35338.756184,22777.969870,33921.767345,45942.893141,37094.731581,0.066000,0.932000,0.304000,192.000000,2.000000,16.000000,29.000000,32.000000,9.000000,128.000000,0.000000,0.000000,0.000000,1646719848.687107,0.000000
15.000000,37008.632661,33342.387777,32094.020497,35321.970024,22766.995164,33906.568158,45925.414076,37072.670409,0.066000,0.932000,0.304000,192.000000,0.000000,0.000000,0.000000,0.000000,0.000000,0.000000,0.000000,0.000000,0.000000,1646719848.694672,0.000000
16.000000,37009.414972,33359.375102,32105.553997,35334.621112,22772.091362,33913.810124,45926.621071,37074.972638,0.066000,0.932000,0.304000,192.000000,0.000000,0.000000,0.000000,0.000000,0.000000,0.000000,0.000000,0.000000,0.000000,1646719848.694688,0.000000
17.000000,37014.377059,33366.818233,32105.665756,35330.284873,22770.482036,33909.563292,45917.658021,37068.825909,0.066000,0.932000,0.304000,192.000000,0.000000,0.000000,0.000000,0.000000,0.000000,0.000000,0.000000,0.000000,0.000000,1646719848.702481,0.000000
18.000000,37018.378022,33364.605411,32099.653137,35321.478286,22774.013612,33918.056955,45939.518027,37096.877348,0.066000,0.932000,0.304000,192.000000,0.000000,0.000000,0.000000,0.000000,0.000000,0.000000,0.000000,0.000000,0.000000,1646719848.702498,0.000000
19.000000,37020.881417,33358.212812,32100.591910,35322.975853,22776.829931,33924.024871,45953.353757,37118.066802,0.066000,0.932000,0.304000,192.000000,0.000000,0.000000,0.000000,0.000000,0.000000,0.000000,0.000000,0.000000,0.000000,1646719848.709640,0.000000
20.000000,37019.607367,33351.440233,32103.341175,35317.723193,22775.153551,33914.972414,45949.911588,37103.247595,0.066000,0.932000,0.304000,192.000000,0.000000,0.000000,0.000000,0.000000,0.000000,0.000000,0.000000,0.000000,0.000000,1646719848.709656,0.000000
21.000000,37020.568492,33350.724977,32095.138084,35319.958367,22766.414018,33912.133743,45937.908702,37097.659659,0.066000,0.932000,0.304000,192.000000,0.000000,0.000000,0.000000,0.000000,0.000000,0.000000,0.000000,0.000000,0.000000,1646719848.717194,0.000000
22.000000,37004.966975,33344.578248,32093.327593,35311.911739,22750.030190,33906.143475,45922.262481,37079.934726,0.066000,0.932000,0.304000,192.000000,0.000000,0.000000,0.000000,0.000000,0.000000,0.000000,0.000000,0.000000,0.000000,1646719848.717229,0.000000
23.000000,36995.020449,33341.113727,32092.813503,35315.063335,22754.880518,33905.383516,45919.490864,37070.055255,0.066000,0.932000,0.304000,192.000000,0.000000,0.000000,0.000000,0.000000,0.000000,0.000000,0.000000,0.000000,0.000000,1646719848.725248,0.000000
24.000000,37009.325565,33349.093300,32110.381974,35332.117716,22768.336268,33926.908246,45959.142859,37104.812217,0.054000,0.926000,0.300000,192.000000,1.000000,176.000000,28.000000,240.000000,9.000000,96.000000,0.000000,0.000000,0.000000,1646719848.725264,0.000000
25.000000,37005.637527,33348.355692,32102.111829,35323.556998,22773.655984,33917.520513,45948.168152,37099.268985,0.054000,0.926000,0.300000,192.000000,0.000000,0.000000,0.000000,0.000000,0.000000,0.000000,0.000000,0.000000,0.000000,1646719848.733267,0.000000
26.000000,37002.731800,33346.925181,32093.864035,35316.024460,22758.099170,33907.261063,45937.841646,37089.434217,0.054000,0.926000,0.300000,192.000000,0.000000,0.000000,0.000000,0.000000,0.000000,0.000000,0.000000,0.000000,0.000000,1646719848.733283,0.000000
27.000000,37016.679289,33363.867803,32108.347965,35325.613359,22767.218681,33914.100696,45940.590911,37085.880290,0.054000,0.926000,0.300000,192.000000,0.000000,0.000000,0.000000,0.000000,0.000000,0.000000,0.000000,0.000000,0.000000,1646719848.739864,0.000000
28.000000,37007.760943,33354.301256,32098.155570,35319.377222,22765.430542,33914.592435,45946.245902,37108.321441,0.054000,0.926000,0.300000,192.000000,0.000000,0.000000,0.000000,0.000000,0.000000,0.000000,0.000000,0.000000,0.000000,1646719848.739881,0.000000
29.000000,37011.963071,33353.988332,32101.597738,35318.125524,22766.056391,33916.738202,45946.156495,37113.641156,0.054000,0.926000,0.300000,192.000000,0.000000,0.000000,0.000000,0.000000,0.000000,0.000000,0.000000,0.000000,0.000000,1646719848.746878,0.000000
30.000000,37008.565606,33350.389701,32099.675488,35315.599777,22760.736675,33909.742106,45939.518027,37102.554691,0.054000,0.926000,0.300000,192.000000,0.000000,0.000000,0.000000,0.000000,0.000000,0.000000,0.000000,0.000000,0.000000,1646719848.754901,0.000000
31.000000,37015.025260,33358.145757,32101.083648,35314.661004,22755.975754,33911.016156,45941.909664,37102.509988,0.054000,0.926000,0.300000,192.000000,0.000000,0.000000,0.000000,0.000000,0.000000,0.000000,0.000000,0.000000,0.000000,1646719848.754917,0.000000
32.000000,37008.811475,33360.895021,32085.526834,35303.351021,22754.165262,33900.197911,45926.419905,37089.948307,0.054000,0.926000,0.300000,192.000000,0.000000,0.000000,0.000000,0.000000,0.000000,0.000000,0.000000,0.000000,0.000000,1646719848.762832,0.000000
33.000000,37009.973766,33359.129233,32094.288718,35314.281024,22760.177882,33907.104600,45934.600643,37094.217490,0.054000,0.926000,0.300000,192.000000,0.000000,0.000000,0.000000,0.000000,0.000000,0.000000,0.000000,0.000000,0.000000,1646719848.762848,0.000000
34.000000,37020.948472,33360.000951,32106.135143,35323.624053,22767.576309,33914.748897,45944.189542,37096.452665,0.046000,0.928000,0.304000,192.000000,1.000000,112.000000,29.000000,0.000000,9.000000,128.000000,0.000000,0.000000,0.000000,1646719848.769333,0.000000
35.000000,37006.419838,33348.780376,32096.300375,35311.822332,22760.177882,33903.260100,45931.471399,37087.847243,0.046000,0.928000,0.304000,192.000000,0.000000,0.000000,0.000000,0.000000,0.000000,0.000000,0.000000,0.000000,0.000000,1646719848.769349,0.000000
36.000000,36996.182739,33349.316817,32096.121561,35305.496789,22749.247879,33897.269833,45928.051582,37086.170862,0.046000,0.928000,0.304000,192.000000,0.000000,0.000000,0.000000,0.000000,0.000000,0.000000,0.000000,0.000000,0.000000,1646719848.777379,0.000000
37.000000,36995.825111,33347.998065,32092.835855,35306.435562,22741.558879,33897.761571,45938.288681,37092.362296,0.046000,0.928000,0.304000,192.000000,0.000000,0.000000,0.000000,0.000000,0.000000,0.000000,0.000000,0.000000,0.000000,1646719848.777395,0.000000
38.000000,36995.288670,33343.639474,32089.371334,35304.602719,22744.688123,33895.705211,45937.841646,37093.256365,0.046000,0.928000,0.304000,192.000000,0.000000,0.000000,0.000000,0.000000,0.000000,0.000000,0.000000,0.000000,0.000000,1646719848.785529,0.000000
39.000000,36989.767789,33344.533544,32083.626936,35303.194559,22752.287716,33889.357315,45927.805713,37083.086322,0.046000,0.928000,0.304000,192.000000,0.000000,0.000000,0.000000,0.000000,0.000000,0.000000,0.000000,0.000000,0.000000,1646719848.785545,0.000000
40.000000,36995.556890,33350.993198,32081.972907,35304.870940,22750.007838,33882.584737,45912.405361,37058.275885,0.046000,0.928000,0.304000,192.000000,0.000000,0.000000,0.000000,0.000000,0.000000,0.000000,0.000000,0.000000,0.000000,1646719848.792137,0.000000
41.000000,37003.625870,33358.123405,32085.571538,35312.314071,22751.013667,33893.604147,45938.713364,37085.209737,0.046000,0.928000,0.304000,192.000000,0.000000,0.000000,0.000000,0.000000,0.000000,0.000000,0.000000,0.000000,0.000000,1646719848.792155,0.000000
42.000000,37011.314870,33360.291524,32096.456837,35321.433582,22755.819292,33904.109467,45953.778440,37108.187331,0.046000,0.928000,0.304000,192.000000,0.000000,0.000000,0.000000,0.000000,0.000000,0.000000,0.000000,0.000000,0.000000,1646719848.799993,0.000000
43.000000,37010.443152,33353.407187,32098.289680,35314.862170,22755.394608,33897.269833,45938.311033,37092.027020,0.046000,0.928000,0.304000,192.000000,0.000000,0.000000,0.000000,0.000000,0.000000,0.000000,0.000000,0.000000,0.000000,1646719848.800028,0.000000
44.000000,37023.340109,33361.386759,32106.515122,35320.964196,22764.223547,33907.015193,45943.988376,37117.865636,0.038000,0.940000,0.302000,192.000000,1.000000,48.000000,29.000000,96.000000,9.000000,112.000000,0.000000,0.000000,0.000000,1646719848.807093,0.000000
45.000000,37010.979594,33340.174954,32097.730887,35309.922434,22753.472358,33895.995783,45940.032117,37096.877348,0.038000,0.940000,0.302000,192.000000,0.000000,0.000000,0.000000,0.000000,0.000000,0.000000,0.000000,0.000000,0.000000,1646719848.815054,0.000000
46.000000,37013.438286,33340.890210,32098.267329,35310.704745,22756.266326,33899.013269,45941.060298,37099.000764,0.038000,0.940000,0.302000,192.000000,0.000000,0.000000,0.000000,0.000000,0.000000,0.000000,0.000000,0.000000,0.000000,1646719848.815070,0.000000
47.000000,37045.691853,33367.041751,32120.596721,35331.447164,22772.650155,33923.533132,45961.422737,37131.701366,0.038000,0.940000,0.302000,192.000000,0.000000,0.000000,0.000000,0.000000,0.000000,0.000000,0.000000,0.000000,0.000000,1646719848.821829,0.000000
48.000000,37029.419783,33357.497556,32113.868846,35313.632824,22763.195367,33907.395173,45949.218684,37106.488598,0.038000,0.940000,0.302000,192.000000,0.000000,0.000000,0.000000,0.000000,0.000000,0.000000,0.000000,0.000000,0.000000,1646719848.821845,0.000000
49.000000,37014.958205,33354.860050,32093.551110,35300.445294,22752.757103,33896.219301,45940.568559,37098.710191,0.038000,0.940000,0.302000,192.000000,0.000000,0.000000,0.000000,0.000000,0.000000,0.000000,0.000000,0.000000,0.000000,1646719848.829752,0.000000
50.000000,37005.279899,33341.985445,32079.290697,35300.579405,22746.900946,33890.988993,45929.884425,37087.131987,0.038000,0.940000,0.302000,192.000000,0.000000,0.000000,0.000000,0.000000,0.000000,0.000000,0.000000,0.000000,0.000000,1646719848.829768,0.000000
51.000000,37007.582129,33333.670596,32084.230433,35303.686297,22743.034094,33897.292185,45934.757106,37101.235938,0.038000,0.940000,0.302000,192.000000,0.000000,0.000000,0.000000,0.000000,0.000000,0.000000,0.000000,0.000000,0.000000,1646719848.837698,0.000000
52.000000,37013.125362,33334.408204,32088.678430,35301.898158,22743.637591,33899.125028,45947.229379,37100.923014,0.038000,0.940000,0.302000,192.000000,0.000000,0.000000,0.000000,0.000000,0.000000,0.000000,0.000000,0.000000,0.000000,1646719848.837714,0.000000
53.000000,37015.204074,33339.996140,32087.493788,35294.790303,22744.643419,33899.996746,45948.279911,37092.988145,0.038000,0.940000,0.302000,192.000000,0.000000,0.000000,0.000000,0.000000,0.000000,0.000000,0.000000,0.000000,0.000000,1646719848.844690,0.000000
54.000000,37002.776504,33340.666692,32085.303317,35295.013821,22751.639515,33896.576929,45941.909664,37088.383685,0.024000,0.938000,0.306000,192.000000,0.000000,192.000000,29.000000,80.000000,9.000000,144.000000,0.000000,0.000000,0.000000,1646719848.844706,0.000000
55.000000,37018.109801,33345.382910,32092.992317,35307.776667,22768.403324,33901.784885,45931.694917,37088.338982,0.024000,0.938000,0.306000,192.000000,0.000000,0.000000,0.000000,0.000000,0.000000,0.000000,0.000000,0.000000,0.000000,1646719848.852389,0.000000
56.000000,37023.183647,33348.914486,32093.886387,35312.828161,22768.112751,33910.189141,45950.917417,37100.453627,0.024000,0.938000,0.306000,192.000000,0.000000,0.000000,0.000000,0.000000,0.000000,0.000000,0.000000,0.000000,0.000000,1646719848.852405,0.000000
57.000000,37031.163219,33353.317780,32102.111829,35321.724155,22764.625879,33919.196894,45961.310978,37113.462342,0.024000,0.938000,0.306000,192.000000,0.000000,0.000000,0.000000,0.000000,0.000000,0.000000,0.000000,0.000000,0.000000,1646719848.860282,0.000000
58.000000,37030.962054,33344.533544,32101.485980,35316.583254,22760.267289,33911.686708,45947.899931,37103.024078,0.024000,0.938000,0.306000,192.000000,0.000000,0.000000,0.000000,0.000000,0.000000,0.000000,0.000000,0.000000,0.000000,1646719848.860298,0.000000
59.000000,37012.119533,33330.250779,32095.160436,35303.663946,22761.183710,33900.019097,45931.806675,37084.047447,0.024000,0.938000,0.306000,192.000000,0.000000,0.000000,0.000000,0.000000,0.000000,0.000000,0.000000,0.000000,0.000000,1646719848.867437,0.000000
60.000000,36994.148731,33318.091430,32078.061352,35290.364658,22752.712399,33890.676068,45919.803789,37078.750083,0.024000,0.938000,0.306000,192.000000,0.000000,0.000000,0.000000,0.000000,0.000000,0.000000,0.000000,0.000000,0.000000,1646719848.867453,0.000000
61.000000,37010.085524,33337.828021,32086.398552,35305.720306,22757.473321,33901.449609,45943.518990,37083.756874,0.024000,0.938000,0.306000,192.000000,0.000000,0.000000,0.000000,0.000000,0.000000,0.000000,0.000000,0.000000,0.000000,1646719848.874592,0.000000
62.000000,37023.362461,33357.251687,32095.763933,35323.802867,22760.960193,33915.240635,45954.225475,37093.099903,0.024000,0.938000,0.306000,192.000000,0.000000,0.000000,0.000000,0.000000,0.000000,0.000000,0.000000,0.000000,0.000000,1646719848.882073,0.000000
63.000000,37026.849333,33370.506271,32111.007823,35322.931149,22766.548129,33919.934502,45949.464554,37110.221339,0.024000,0.938000,0.306000,192.000000,0.000000,0.000000,0.000000,0.000000,0.000000,0.000000,0.000000,0.000000,0.000000,1646719848.882090,0.000000
64.000000,37030.805591,33369.254573,32100.189579,35313.722231,22772.493693,33916.402926,45951.342100,37113.127066,0.022000,0.936000,0.308000,192.000000,0.000000,176.000000,29.000000,64.000000,9.000000,160.000000,0.000000,0.000000,0.000000,1646719848.889982,0.000000
65.000000,37035.544161,33355.418844,32102.625919,35313.006975,22771.644327,33913.720717,45946.938806,37097.771418,0.022000,0.936000,0.308000,192.000000,0.000000,0.000000,0.000000,0.000000,0.000000,0.000000,0.000000,0.000000,0.000000,1646719848.890016,0.000000
66.000000,37020.702603,33349.026245,32100.323689,35322.193542,22760.714324,33911.552597,45934.824161,37093.122255,0.022000,0.936000,0.308000,192.000000,0.000000,0.000000,0.000000,0.000000,0.000000,0.000000,0.000000,0.000000,0.000000,1646719848.898166,0.000000
67.000000,37009.191455,33338.252704,32085.616241,35312.671699,22749.985486,33900.488484,45929.392687,37083.265136,0.022000,0.936000,0.308000,192.000000,0.000000,0.000000,0.000000,0.000000,0.000000,0.000000,0.000000,0.000000,0.000000,1646719848.898182,0.000000
68.000000,37026.402298,33354.569477,32095.003974,35317.834952,22761.586042,33909.585644,45943.183713,37093.636345,0.022000,0.936000,0.308000,192.000000,0.000000,0.000000,0.000000,0.000000,0.000000,0.000000,0.000000,0.000000,0.000000,1646719848.904694,0.000000
69.000000,37032.325510,33368.829890,32098.200273,35319.064298,22767.509254,33914.011289,45948.391670,37105.907453,0.022000,0.936000,0.308000,192.000000,0.000000,0.000000,0.000000,0.000000,0.000000,0.000000,0.000000,0.000000,0.000000,1646719848.904710,0.000000
70.000000,37022.893074,33346.478146,32082.822273,35304.535664,22752.086550,33902.589548,45931.896082,37100.923014,0.022000,0.936000,0.308000,192.000000,0.000000,0.000000,0.000000,0.000000,0.000000,0.000000,0.000000,0.000000,0.000000,1646719848.912726,0.000000
71.000000,37018.735649,33341.180782,32084.521006,35304.200388,22746.163338,33903.193045,45938.959234,37093.792807,0.022000,0.936000,0.308000,192.000000,0.000000,0.000000,0.000000,0.000000,0.000000,0.000000,0.000000,0.000000,0.000000,1646719848.912743,0.000000
72.000000,37013.997080,33343.192439,32078.418979,35290.454065,22742.318838,33895.928728,45926.419905,37075.933763,0.022000,0.936000,0.308000,192.000000,0.000000,0.000000,0.000000,0.000000,0.000000,0.000000,0.000000,0.000000,0.000000,1646719848.920670,0.000000
73.000000,37029.039804,33356.447024,32093.484055,35303.127504,22750.968963,33906.076420,45935.204141,37091.579985,0.022000,0.936000,0.308000,192.000000,0.000000,0.000000,0.000000,0.000000,0.000000,0.000000,0.000000,0.000000,0.000000,1646719848.920687,0.000000
74.000000,37023.608330,33347.349864,32081.861148,35300.489998,22751.527757,33906.299938,45937.506370,37095.871520,0.034000,0.924000,0.308000,192.000000,1.000000,16.000000,28.000000,224.000000,9.000000,160.000000,0.000000,0.000000,0.000000,1646719848.927268,0.000000
75.000000,37020.166161,33344.846469,32080.028305,35304.781533,22749.627858,33906.858731,45941.462629,37102.889967,0.034000,0.924000,0.308000,192.000000,0.000000,0.000000,0.000000,0.000000,0.000000,0.000000,0.000000,0.000000,0.000000,1646719848.927284,0.000000
76.000000,37017.036917,33335.637550,32079.871843,35299.662983,22742.520004,33899.549711,45930.174998,37089.210700,0.034000,0.924000,0.308000,192.000000,0.000000,0.000000,0.000000,0.000000,0.000000,0.000000,0.000000,0.000000,0.000000,1646719848.934388,0.000000
77.000000,37010.331394,33327.412108,32082.576404,35294.387972,22732.372312,33898.052144,45927.269271,37082.974563,0.034000,0.924000,0.308000,192.000000,0.000000,0.000000,0.000000,0.000000,0.000000,0.000000,0.000000,0.000000,0.000000,1646719848.942340,0.000000
78.000000,37021.373155,33334.721128,32088.678430,35301.138199,22746.118634,33905.741144,45937.953405,37085.477958,0.034000,0.924000,0.308000,192.000000,0.000000,0.000000,0.000000,0.000000,0.000000,0.000000,0.000000,0.000000,0.000000,1646719848.942356,0.000000
79.000000,37024.211827,33337.135117,32090.332459,35300.646460,22751.013667,33901.874292,45930.756143,37070.122310,0.034000,0.924000,0.308000,192.000000,0.000000,0.000000,0.000000,0.000000,0.000000,0.000000,0.000000,0.000000,0.000000,1646719848.950423,0.000000
80.000000,37011.180760,33335.682253,32085.906814,35296.042001,22749.024361,33893.671202,45923.514178,37047.368234,0.034000,0.924000,0.308000,192.000000,0.000000,0.000000,0.000000,0.000000,0.000000,0.000000,0.000000,0.000000,0.000000,1646719848.950439,0.000000
81.000000,37013.952376,33349.808556,32086.689125,35299.037135,22744.531661,33910.010327,45944.189542,37092.831682,0.034000,0.924000,0.308000,192.000000,0.000000,0.000000,0.000000,0.000000,0.000000,0.000000,0.000000,0.000000,0.000000,1646719848.957067,0.000000
82.000000,37014.488818,33345.695835,32081.861148,35290.141140,22740.441291,33909.920920,45938.713364,37118.558540,0.034000,0.924000,0.308000,192.000000,0.000000,0.000000,0.000000,0.000000,0.000000,0.000000,0.000000,0.000000,0.000000,1646719848.957084,0.000000
83.000000,37047.100013,33347.483974,32102.044773,35318.997242,22760.401399,33927.779964,45953.085536,37123.855904,0.034000,0.924000,0.308000,192.000000,0.000000,0.000000,0.000000,0.000000,0.000000,0.000000,0.000000,0.000000,0.000000,1646719848.964907,0.000000
84.000000,37041.221504,33344.622951,32104.279948,35326.328615,22773.723039,33921.007385,45934.622995,37090.797674,0.034000,0.924000,0.308000,192.000000,0.000000,0.000000,0.000000,0.000000,0.000000,0.000000,0.000000,0.000000,0.000000,1646719848.964923,0.000000
85.000000,37021.663728,33344.667655,32096.680355,35321.634748,22768.336268,33917.274644,45940.412097,37082.080493,0.030000,0.934000,0.314000,192.000000,0.000000,240.000000,29.000000,48.000000,9.000000,208.000000,0.000000,0.000000,0.000000,1646719848.972940,0.000000
86.000000,37028.972748,33346.925181,32098.222625,35315.510370,22757.898004,33928.472868,45972.576257,37113.283528,0.030000,0.934000,0.314000,192.000000,0.000000,0.000000,0.000000,0.000000,0.000000,0.000000,0.000000,0.000000,0.000000,1646719848.972976,0.000000
87.000000,37023.049536,33336.352806,32093.953442,35304.066277,22750.097245,33920.292130,45958.852286,37119.676127,0.030000,0.934000,0.314000,192.000000,0.000000,0.000000,0.000000,0.000000,0.000000,0.000000,0.000000,0.000000,0.000000,1646719848.980005,0.000000
88.000000,37029.598597,33356.022341,32095.629823,35312.559940,22758.836777,33921.208551,45952.638501,37106.645060,0.030000,0.934000,0.314000,192.000000,0.000000,0.000000,0.000000,0.000000,0.000000,0.000000,0.000000,0.000000,0.000000,1646719848.980021,0.000000
89.000000,37031.990234,33352.893097,32096.501541,35307.486094,22767.665716,33917.319348,45944.480115,37092.541110,0.030000,0.934000,0.314000,192.000000,0.000000,0.000000,0.000000,0.000000,0.000000,0.000000,0.000000,0.000000,0.000000,1646719848.987662,0.000000
90.000000,37040.752118,33350.076777,32104.235244,35310.525931,22769.565614,33920.537999,45940.456801,37086.595546,0.030000,0.934000,0.314000,192.000000,0.000000,0.000000,0.000000,0.000000,0.000000,0.000000,0.000000,0.000000,0.000000,1646719848.987679,0.000000
91.000000,37036.862914,33352.021379,32108.482076,35323.042908,22772.001955,33924.963644,45940.546207,37083.242784,0.030000,0.934000,0.314000,192.000000,0.000000,0.000000,0.000000,0.000000,0.000000,0.000000,0.000000,0.000000,0.000000,1646719848.994535,0.000000
92.000000,37042.964940,33361.342056,32111.566616,35343.271237,22769.811484,33935.267798,45944.189542,37123.207703,0.030000,0.934000,0.314000,192.000000,0.000000,0.000000,0.000000,0.000000,0.000000,0.000000,0.000000,0.000000,0.000000,1646719849.002370,0.000000
93.000000,37047.010606,33379.066989,32106.470419,35324.965158,22768.626841,33933.166734,45951.006824,37127.298072,0.030000,0.934000,0.314000,192.000000,0.000000,0.000000,0.000000,0.000000,0.000000,0.000000,0.000000,0.000000,0.000000,1646719849.002379,0.000000
94.000000,37032.817248,33349.249762,32090.198349,35307.977832,22763.508292,33922.504952,45955.477173,37105.169845,0.030000,0.934000,0.314000,192.000000,0.000000,0.000000,0.000000,0.000000,0.000000,0.000000,0.000000,0.000000,0.000000,1646719849.009626,0.000000
95.000000,37024.077716,33321.064212,32091.405343,35313.833989,22761.586042,33924.337795,45958.069975,37106.645060,0.032000,0.932000,0.310000,192.000000,1.000000,0.000000,29.000000,32.000000,9.000000,176.000000,0.000000,0.000000,0.000000,1646719849.009642,0.000000
96.000000,37021.708431,33324.282864,32095.629823,35313.521065,22760.267289,33924.270740,45952.660853,37103.851092,0.032000,0.932000,0.310000,192.000000,0.000000,0.000000,0.000000,0.000000,0.000000,0.000000,0.000000,0.000000,0.000000,1646719849.016951,0.000000
97.000000,37032.571379,33348.132175,32105.062259,35327.870885,22770.035001,33936.340682,45953.130240,37108.790828,0.032000,0.932000,0.310000,192.000000,0.000000,0.000000,0.000000,0.000000,0.000000,0.000000,0.000000,0.000000,0.000000,1646719849.016962,0.000000
98.000000,37044.082528,33370.282754,32120.328500,35336.096327,22778.841588,33945.683711,45955.365414,37110.869540,0.032000,0.932000,0.310000,192.000000,0.000000,0.000000,0.000000,0.000000,0.000000,0.000000,0.000000,0.000000,0.000000,1646719849.025235,0.000000
99.000000,37040.215676,33363.845451,32112.550093,35330.910722,22779.422734,33939.916961,45956.438298,37097.033810,0.032000,0.932000,0.310000,192.000000,0.000000,0.000000,0.000000,0.000000,0.000000,0.000000,0.000000,0.000000,0.000000,1646719849.025251,0.000000
100.000000,37033.264283,33350.881440,32099.295509,35322.908798,22769.543263,33927.891723,45947.475248,37077.118406,0.032000,0.932000,0.310000,192.000000,0.000000,0.000000,0.000000,0.000000,0.000000,0.000000,0.000000,0.000000,0.000000,1646719849.033287,0.000000
101.000000,37038.606350,33349.517983,32087.918471,35308.670736,22759.641440,33917.408755,45934.354774,37091.132950,0.032000,0.932000,0.310000,192.000000,0.000000,0.000000,0.000000,0.000000,0.000000,0.000000,0.000000,0.000000,0.000000,1646719849.033302,0.000000
102.000000,37062.567420,33381.123350,32113.399460,35325.367490,22766.659888,33929.746917,45941.261463,37099.358392,0.032000,0.932000,0.310000,192.000000,0.000000,0.000000,0.000000,0.000000,0.000000,0.000000,0.000000,0.000000,0.000000,1646719849.039925,0.000000
103.000000,37038.651054,33383.805559,32111.454858,35323.400536,22775.622937,33931.959740,45943.809562,37090.887081,0.032000,0.932000,0.310000,192.000000,0.000000,0.000000,0.000000,0.000000,0.000000,0.000000,0.000000,0.000000,0.000000,1646719849.039941,0.000000
104.000000,37007.179798,33339.638512,32090.824198,35300.802922,22764.447065,33913.385441,45930.376164,37078.191290,0.032000,0.932000,0.310000,192.000000,0.000000,0.000000,0.000000,0.000000,0.000000,0.000000,0.000000,0.000000,0.000000,1646719849.047868,0.000000
105.000000,36999.021411,33301.215863,32082.598756,35294.723248,22756.780417,33902.030754,45917.590966,37078.951249,0.036000,0.930000,0.312000,192.000000,1.000000,32.000000,29.000000,16.000000,9.000000,192.000000,0.000000,0.000000,0.000000,1646719849.047885,0.000000
106.000000,37017.886283,33321.444192,32097.127390,35311.688222,22764.067085,33920.247426,45945.821219,37112.143590,0.036000,0.930000,0.312000,192.000000,0.000000,0.000000,0.000000,0.000000,0.000000,0.000000,0.000000,0.000000,0.000000,1646719849.054972,0.000000
107.000000,37034.873609,33344.332378,32105.241073,35318.080821,22766.883405,33929.255179,45954.940731,37110.243691,0.036000,0.930000,0.312000,192.000000,0.000000,0.000000,0.000000,0.000000,0.000000,0.000000,0.000000,0.000000,0.000000,1646719849.062084,0.000000
108.000000,37042.719071,33351.149660,32107.655061,35313.990452,22766.704591,33931.937388,45957.019443,37107.539130,0.036000,0.930000,0.312000,192.000000,0.000000,0.000000,0.000000,0.000000,0.000000,0.000000,0.000000,0.000000,0.000000,1646719849.062101,0.000000
109.000000,37027.139905,33331.927160,32100.770724,35300.869978,22762.368353,33910.792638,45933.863036,37058.231182,0.036000,0.930000,0.312000,192.000000,0.000000,0.000000,0.000000,0.000000,0.000000,0.000000,0.000000,0.000000,0.000000,1646719849.069328,0.000000
110.000000,37033.688966,33334.408204,32107.878579,35304.379201,22759.842606,33912.267853,45931.918434,37056.219525,0.036000,0.930000,0.312000,192.000000,0.000000,0.000000,0.000000,0.000000,0.000000,0.000000,0.000000,0.000000,0.000000,1646719849.069344,0.000000
111.000000,37043.076699,33349.562687,32120.619073,35310.056545,22757.674486,33931.311540,45949.173981,37111.696555,0.036000,0.930000,0.312000,192.000000,0.000000,0.000000,0.000000,0.000000,0.000000,0.000000,0.000000,0.000000,0.000000,1646719849.077474,0.000000
112.000000,37034.583036,33332.061271,32101.240111,35293.829178,22747.504443,33927.511743,45952.638501,37122.805372,0.036000,0.930000,0.312000,192.000000,0.000000,0.000000,0.000000,0.000000,0.000000,0.000000,0.000000,0.000000,0.000000,1646719849.077490,0.000000
113.000000,37020.926120,33317.599692,32080.900023,35278.808806,22739.234297,33918.146362,45943.384879,37104.543996,0.036000,0.930000,0.312000,192.000000,0.000000,0.000000,0.000000,0.000000,0.000000,0.000000,0.000000,0.000000,0.000000,1646719849.085512,0.000000
114.000000,37022.714260,33312.615253,32090.533625,35283.569727,22740.955382,33921.253255,45946.804696,37104.253424,0.036000,0.930000,0.312000,192.000000,0.000000,0.000000,0.000000,0.000000,0.000000,0.000000,0.000000,0.000000,0.000000,1646719849.085529,0.000000
115.000000,37005.637527,33297.192549,32070.752331,35271.410378,22729.444233,33909.630347,45934.913568,37085.589717,0.036000,0.926000,0.310000,192.000000,1.000000,32.000000,28.000000,240.000000,9.000000,176.000000,0.000000,0.000000,0.000000,1646719849.093456,0.000000
116.000000,37015.785219,33307.653166,32078.575442,35279.121730,22731.165317,33917.922845,45938.735716,37085.120330,0.036000,0.926000,0.310000,192.000000,0.000000,0.000000,0.000000,0.000000,0.000000,0.000000,0.000000,0.000000,0.000000,1646719849.093472,0.000000
117.000000,37017.908635,33318.426707,32091.986488,35284.866129,22740.150719,33923.756650,45936.813466,37081.186423,0.036000,0.926000,0.310000,192.000000,0.000000,0.000000,0.000000,0.000000,0.000000,0.000000,0.000000,0.000000,0.000000,1646719849.100155,0.000000
118.000000,37012.968899,33311.542369,32083.358715,35279.054675,22739.167242,33914.480676,45930.197350,37071.396359,0.036000,0.926000,0.310000,192.000000,0.000000,0.000000,0.000000,0.000000,0.000000,0.000000,0.000000,0.000000,0.000000,1646719849.100171,0.000000
119.000000,37014.377059,33306.066192,32078.530738,35277.624163,22740.508347,33914.592435,45932.767800,37074.212679,0.036000,0.926000,0.310000,192.000000,0.000000,0.000000,0.000000,0.000000,0.000000,0.000000,0.000000,0.000000,0.000000,1646719849.108239,0.000000
120.000000,37012.879492,33308.323718,32078.396628,35279.926393,22740.709512,33915.955891,45937.372260,37075.732598,0.036000,0.926000,0.310000,192.000000,0.000000,0.000000,0.000000,0.000000,0.000000,0.000000,0.000000,0.000000,0.000000,1646719849.108256,0.000000
121.000000,37004.408181,33309.150733,32080.296526,35279.412303,22736.797957,33916.246464,45940.345042,37081.476996,0.036000,0.926000,0.310000,192.000000,0.000000,0.000000,0.000000,0.000000,0.000000,0.000000,0.000000,0.000000,0.000000,1646719849.115288,0.000000
122.000000,36994.841635,33309.620119,32074.418017,35276.059541,22726.225582,33911.262025,45934.600643,37078.705380,0.036000,0.926000,0.310000,192.000000,0.000000,0.000000,0.000000,0.000000,0.000000,0.000000,0.000000,0.000000,0.000000,1646719849.115305,0.000000
123.000000,36976.714370,33290.554081,32060.001142,35263.408454,22722.582248,33896.442818,45925.905815,37072.111615,0.036000,0.926000,0.310000,192.000000,0.000000,0.000000,0.000000,0.000000,0.000000,0.000000,0.000000,0.000000,0.000000,1646719849.121805,0.000000
124.000000,36974.479195,33273.186776,32068.517157,35275.277230,22734.942762,33905.987013,45934.757106,37080.404112,0.036000,0.926000,0.310000,192.000000,0.000000,0.000000,0.000000,0.000000,0.000000,0.000000,0.000000,0.000000,0.000000,1646719849.129841,0.000000
125.000000,36975.753245,33277.970049,32071.869918,35270.739826,22727.209059,33909.652699,45932.946614,37079.890022,0.042000,0.940000,0.314000,192.000000,1.000000,80.000000,29.000000,96.000000,9.000000,208.000000,0.000000,0.000000,0.000000,1646719849.129858,0.000000
126.000000,36983.486948,33285.144959,32062.549241,35262.872012,22717.173125,33906.679917,45932.477228,37086.908470,0.042000,0.940000,0.314000,192.000000,0.000000,0.000000,0.000000,0.000000,0.000000,0.000000,0.000000,0.000000,0.000000,1646719849.137812,0.000000
127.000000,36995.601594,33288.140093,32076.854357,35269.622239,22725.420919,33910.367955,45940.009766,37088.271926,0.042000,0.940000,0.314000,192.000000,0.000000,0.000000,0.000000,0.000000,0.000000,0.000000,0.000000,0.000000,0.000000,1646719849.137828,0.000000
128.000000,36982.928155,33286.016677,32070.394703,35274.830195,22721.732881,33906.434048,45933.326594,37069.876441,0.042000,0.940000,0.314000,192.000000,0.000000,0.000000,0.000000,0.000000,0.000000,0.000000,0.000000,0.000000,0.000000,1646719849.144913,0.000000
129.000000,36976.088521,33287.268375,32072.741636,35273.869070,22725.532678,33904.668260,45929.549149,37062.723883,0.042000,0.940000,0.314000,192.000000,0.000000,0.000000,0.000000,0.000000,0.000000,0.000000,0.000000,0.000000,0.000000,1646719849.144947,0.000000
130.000000,36978.189585,33271.443340,32068.830081,35268.169375,22732.595829,33912.245502,45937.104039,37084.807406,0.042000,0.940000,0.314000,192.000000,0.000000,0.000000,0.000000,0.000000,0.000000,0.000000,0.000000,0.000000,0.000000,1646719849.152323,0.000000
131.000000,36973.719236,33261.273296,32054.212040,35255.674750,22711.808707,33890.787827,45907.376219,37059.840507,0.042000,0.940000,0.314000,192.000000,0.000000,0.000000,0.000000,0.000000,0.000000,0.000000,0.000000,0.000000,0.000000,1646719849.152340,0.000000
132.000000,36997.300327,33293.571567,32072.361657,35274.472567,22728.438405,33909.339775,45914.931108,37069.608220,0.042000,0.940000,0.314000,192.000000,0.000000,0.000000,0.000000,0.000000,0.000000,0.000000,0.000000,0.000000,0.000000,1646719849.160304,0.000000
133.000000,37009.526731,33300.880587,32093.774628,35288.867091,22742.363541,33928.405813,45932.723097,37091.289412,0.042000,0.940000,0.314000,192.000000,0.000000,0.000000,0.000000,0.000000,0.000000,0.000000,0.000000,0.000000,0.000000,1646719849.160321,0.000000
134.000000,37005.369306,33287.268375,32074.574479,35274.696085,22736.015646,33924.091926,45949.889237,37090.440046,0.042000,0.940000,0.314000,192.000000,0.000000,0.000000,0.000000,0.000000,0.000000,0.000000,0.000000,0.000000,0.000000,1646719849.168392,0.000000
135.000000,36981.698809,33269.185814,32034.386043,35236.832230,22712.076928,33892.017173,45928.096286,37063.550897,0.042000,0.938000,0.320000,192.000000,1.000000,80.000000,29.000000,80.000000,10.000000,0.000000,0.000000,0.000000,0.000000,1646719849.168410,0.000000
136.000000,36990.147768,33288.832997,32064.382084,35264.123710,22721.688178,33904.735315,45938.847475,37087.891947,0.042000,0.938000,0.320000,192.000000,0.000000,0.000000,0.000000,0.000000,0.000000,0.000000,0.000000,0.000000,0.000000,1646719849.175570,0.000000
137.000000,36997.568547,33296.030259,32092.277061,35288.777684,22738.206117,33918.414583,45941.060298,37081.901679,0.042000,0.938000,0.320000,192.000000,0.000000,0.000000,0.000000,0.000000,0.000000,0.000000,0.000000,0.000000,0.000000,1646719849.175586,0.000000
138.000000,37011.024298,33290.710543,32100.346041,35292.599832,22750.119597,33933.189086,45954.292530,37087.646078,0.042000,0.938000,0.320000,192.000000,0.000000,0.000000,0.000000,0.000000,0.000000,0.000000,0.000000,0.000000,0.000000,1646719849.182103,0.000000
139.000000,37011.493684,33283.714447,32094.400477,35287.280117,22746.744483,33933.680824,45968.240019,37108.790828,0.042000,0.938000,0.320000,192.000000,0.000000,0.000000,0.000000,0.000000,0.000000,0.000000,0.000000,0.000000,0.000000,1646719849.189883,0.000000
140.000000,36998.864949,33279.065285,32088.454913,35280.194614,22738.630800,33923.689595,45959.254618,37109.483732,0.042000,0.938000,0.320000,192.000000,0.000000,0.000000,0.000000,0.000000,0.000000,0.000000,0.000000,0.000000,0.000000,1646719849.189900,0.000000
141.000000,36989.074885,33276.696000,32069.478282,35268.169375,22727.857259,33905.517626,45935.405306,37074.078569,0.042000,0.938000,0.320000,192.000000,0.000000,0.000000,0.000000,0.000000,0.000000,0.000000,0.000000,0.000000,0.000000,1646719849.197119,0.000000
142.000000,36983.285783,33260.602744,32062.862165,35252.411396,22706.891323,33895.392286,45928.498617,37077.565441,0.042000,0.938000,0.320000,192.000000,0.000000,0.000000,0.000000,0.000000,0.000000,0.000000,0.000000,0.000000,0.000000,1646719849.197135,0.000000
143.000000,37014.689984,33291.001116,32101.106000,35286.922489,22734.383969,33921.186199,45946.759992,37098.777246,0.042000,0.938000,0.320000,192.000000,0.000000,0.000000,0.000000,0.000000,0.000000,0.000000,0.000000,0.000000,0.000000,1646719849.204480,0.000000
144.000000,37024.234179,33305.797971,32109.800829,35291.795169,22751.371294,33932.138554,45952.347929,37100.833607,0.042000,0.938000,0.320000,192.000000,0.000000,0.000000,0.000000,0.000000,0.000000,0.000000,0.000000,0.000000,0.000000,1646719849.204490,0.000000
145.000000,37006.375135,33304.456866,32089.639555,35289.381181,22743.056445,33921.119144,45940.389745,37080.113540,0.048000,0.930000,0.314000,192.000000,1.000000,128.000000,29.000000,16.000000,9.000000,208.000000,0.000000,0.000000,0.000000,1646719849.212698,0.000000
146.000000,37007.135094,33302.333451,32081.078837,35282.161567,22738.384931,33915.218284,45930.957309,37076.760778,0.048000,0.930000,0.314000,192.000000,0.000000,0.000000,0.000000,0.000000,0.000000,0.000000,0.000000,0.000000,0.000000,1646719849.212715,0.000000
147.000000,37027.609292,33322.651186,32090.421866,35284.843777,22740.284829,33926.550618,45944.100135,37091.132950,0.048000,0.930000,0.314000,192.000000,0.000000,0.000000,0.000000,0.000000,0.000000,0.000000,0.000000,0.000000,0.000000,1646719849.220656,0.000000
148.000000,37025.083545,33323.299387,32084.431599,35274.539623,22733.489899,33923.667243,45937.685184,37096.095037,0.048000,0.930000,0.314000,192.000000,0.000000,0.000000,0.000000,0.000000,0.000000,0.000000,0.000000,0.000000,0.000000,1646719849.220672,0.000000
149.000000,37036.929969,33352.580172,32086.599718,35280.865166,22745.783358,33925.455383,45944.368356,37096.251499,0.048000,0.930000,0.314000,192.000000,0.000000,0.000000,0.000000,0.000000,0.000000,0.000000,0.000000,0.000000,0.000000,1646719849.227190,0.000000
150.000000,37040.707414,33354.860050,32099.921358,35286.184881,22754.008800,33925.902417,45945.262426,37089.076589,0.048000,0.930000,0.314000,192.000000,0.000000,0.000000,0.000000,0.000000,0.000000,0.000000,0.000000,0.000000,0.000000,1646719849.227225,0.000000
151.000000,37036.013548,33320.728936,32105.352832,35300.534701,22756.243975,33932.093851,45949.442202,37099.201929,0.048000,0.930000,0.314000,192.000000,0.000000,0.000000,0.000000,0.000000,0.000000,0.000000,0.000000,0.000000,0.000000,1646719849.235344,0.000000
152.000000,37031.230275,33305.485047,32104.771686,35298.970079,22759.909661,33923.488429,45942.423754,37083.913336,0.048000,0.930000,0.314000,192.000000,0.000000,0.000000,0.000000,0.000000,0.000000,0.000000,0.000000,0.000000,0.000000,1646719849.235361,0.000000
153.000000,37022.557798,33295.315003,32088.007878,35284.843777,22741.469472,33902.343679,45917.143931,37053.067929,0.048000,0.930000,0.314000,192.000000,0.000000,0.000000,0.000000,0.000000,0.000000,0.000000,0.000000,0.000000,0.000000,1646719849.242337,0.000000
154.000000,37037.980501,33309.441305,32093.327593,35286.967193,22749.091416,33907.618690,45927.604547,37080.270002,0.048000,0.930000,0.314000,192.000000,0.000000,0.000000,0.000000,0.000000,0.000000,0.000000,0.000000,0.000000,0.000000,1646719849.250224,0.000000
155.000000,37022.401336,33313.777544,32090.824198,35275.590155,22744.822233,33900.890815,45929.280928,37071.306952,0.046000,0.930000,0.314000,192.000000,1.000000,112.000000,29.000000,16.000000,9.000000,208.000000,0.000000,0.000000,0.000000,1646719849.250242,0.000000
156.000000,37005.682231,33303.048706,32089.751314,35280.216966,22735.948591,33892.128932,45920.943728,37045.915371,0.046000,0.930000,0.314000,192.000000,0.000000,0.000000,0.000000,0.000000,0.000000,0.000000,0.000000,0.000000,0.000000,1646719849.256914,0.000000
157.000000,37020.970824,33318.694928,32105.822218,35297.874844,22744.933992,33911.306728,45938.601606,37086.461435,0.046000,0.930000,0.314000,192.000000,0.000000,0.000000,0.000000,0.000000,0.000000,0.000000,0.000000,0.000000,0.000000,1646719849.256931,0.000000
158.000000,37020.836713,33322.718242,32099.720192,35295.885539,22750.365466,33910.122086,45936.321728,37102.912319,0.046000,0.930000,0.314000,192.000000,0.000000,0.000000,0.000000,0.000000,0.000000,0.000000,0.000000,0.000000,0.000000,1646719849.264905,0.000000
159.000000,37034.471278,33342.164259,32110.493733,35300.154722,22763.150664,33911.999632,45951.230341,37091.803502,0.046000,0.930000,0.314000,192.000000,0.000000,0.000000,0.000000,0.000000,0.000000,0.000000,0.000000,0.000000,0.000000,1646719849.264924,0.000000
160.000000,37035.275940,33333.290617,32100.055468,35296.891367,22756.847472,33909.920920,45949.151629,37082.259307,0.046000,0.930000,0.314000,192.000000,0.000000,0.000000,0.000000,0.000000,0.000000,0.000000,0.000000,0.000000,0.000000,1646719849.272953,0.000000
161.000000,37017.506303,33291.314041,32087.002049,35287.324820,22739.636629,33894.542920,45923.380068,37070.122310,0.046000,0.930000,0.314000,192.000000,0.000000,0.000000,0.000000,0.000000,0.000000,0.000000,0.000000,0.000000,0.000000,1646719849.272969,0.000000
162.000000,37031.319682,33310.938872,32109.376146,35306.815542,22749.806672,33910.256196,45934.243016,37073.408016,0.046000,0.930000,0.314000,192.000000,0.000000,0.000000,0.000000,0.000000,0.000000,0.000000,0.000000,0.000000,0.000000,1646719849.280113,0.000000
