%OpenBCI Raw EEG Data
%Number of channels = 8
%Sample Rate = 256 Hz
%Board = OpenBCI_GUI$BoardCytonSerial
%Channels = Fp1, Fp2, F3, F4, Fz, Pz, O1, O2
%Data recorded at AIMS Lab (http://aimsl.uiu.ac.bd) by Rana Depto (mail@ranadepto.com)
%Brainwaves were obtained via the Ultracortex Mark IV Headset using the OpenBCI Cyton Board
%Recording Application = ConcentrateToday (https://concentrate.today)
%Data type = RAW data with noise
%Day No = 3
%Subject ID = 8
%Session ID = 7
%Record starting timestamp (UTC+6) = 2022-03-20T10:13:28.831491
%Record ending timestamp (UTC+6)   = 2022-03-20T10:13:54.723240
%Recorded durations = ~25 seconds
Sample Index, EXG Channel 0, EXG Channel 1, EXG Channel 2, EXG Channel 3, EXG Channel 4, EXG Channel 5, EXG Channel 6, EXG Channel 7, Accel Channel 0, Accel Channel 1, Accel Channel 2, Other, Other, Other, Other, Other, Other, Other, Analog Channel 0, Analog Channel 1, Analog Channel 2, Timestamp, Timestamp (Formatted)
219.000000,20079.980204,7798.098957,6750.763267,25065.670915,-20907.084156,21850.595993,11544.139569,10773.809048,-0.060000,0.954000,0.228000,192.000000,0.000000,0.000000,0.000000,0.000000,0.000000,0.000000,0.000000,0.000000,0.000000,1647749608.832418,0.000000
220.000000,20085.724602,7810.571231,6752.618462,25068.487235,-20901.697386,21853.836996,11547.425276,10776.044223,-0.060000,0.954000,0.228000,192.000000,0.000000,0.000000,0.000000,0.000000,0.000000,0.000000,0.000000,0.000000,0.000000,1647749608.832427,0.000000
221.000000,20088.943254,7815.354504,6751.187951,25069.493064,-20900.825667,21854.507548,11545.681840,10774.390194,-0.060000,0.954000,0.228000,192.000000,0.000000,0.000000,0.000000,0.000000,0.000000,0.000000,0.000000,0.000000,0.000000,1647749608.840366,0.000000
222.000000,20093.078326,7809.475995,6750.025660,25067.436703,-20899.931598,21853.836996,11544.430142,10770.836266,-0.060000,0.954000,0.228000,192.000000,0.000000,0.000000,0.000000,0.000000,0.000000,0.000000,0.000000,0.000000,0.000000,1647749608.840372,0.000000
223.000000,20088.272701,7805.139757,6746.605843,25064.888604,-20903.954912,21849.903089,11542.731409,10767.058822,-0.066000,0.954000,0.234000,192.000000,253.000000,240.000000,29.000000,208.000000,7.000000,80.000000,0.000000,0.000000,0.000000,1647749608.848370,0.000000
224.000000,20086.261044,7808.872498,6749.243349,25064.642735,-20902.099717,21849.903089,11541.569119,10765.695365,-0.066000,0.954000,0.234000,192.000000,0.000000,0.000000,0.000000,0.000000,0.000000,0.000000,0.000000,0.000000,0.000000,1647749608.848375,0.000000
225.000000,20088.607977,7808.313705,6751.836151,25061.669953,-20900.356281,21850.819510,11542.619651,10766.880008,-0.066000,0.954000,0.234000,192.000000,0.000000,0.000000,0.000000,0.000000,0.000000,0.000000,0.000000,0.000000,0.000000,1647749608.855513,0.000000
226.000000,20086.931597,7803.753949,6746.941119,25059.323020,-20904.603112,21845.544499,11537.366991,10761.806162,-0.066000,0.954000,0.234000,192.000000,0.000000,0.000000,0.000000,0.000000,0.000000,0.000000,0.000000,0.000000,0.000000,1647749608.855517,0.000000
227.000000,20093.950044,7810.146548,6746.918767,25062.586375,-20901.362109,21849.634868,11541.971450,10763.728412,-0.066000,0.954000,0.234000,192.000000,0.000000,0.000000,0.000000,0.000000,0.000000,0.000000,0.000000,0.000000,0.000000,1647749608.862057,0.000000
228.000000,20099.448574,7820.517757,6752.149076,25068.084904,-20896.556484,21855.960412,11547.782904,10766.812952,-0.066000,0.954000,0.234000,192.000000,0.000000,0.000000,0.000000,0.000000,0.000000,0.000000,0.000000,0.000000,0.000000,1647749608.862062,0.000000
229.000000,20093.190085,7811.420597,6751.769096,25069.224843,-20897.048223,21856.787426,11547.760552,10768.757554,-0.066000,0.954000,0.234000,192.000000,0.000000,0.000000,0.000000,0.000000,0.000000,0.000000,0.000000,0.000000,0.000000,1647749608.870093,0.000000
230.000000,20085.970472,7801.362312,6752.976090,25067.392000,-20897.808182,21859.871967,11549.079305,10771.059784,-0.066000,0.954000,0.234000,192.000000,0.000000,0.000000,0.000000,0.000000,0.000000,0.000000,0.000000,0.000000,0.000000,1647749608.878111,0.000000
231.000000,20090.954911,7803.731597,6748.639852,25061.267622,-20901.138592,21859.044952,11547.626441,10768.489333,-0.066000,0.954000,0.234000,192.000000,0.000000,0.000000,0.000000,0.000000,0.000000,0.000000,0.000000,0.000000,0.000000,1647749608.878117,0.000000
232.000000,20088.585626,7807.464338,6743.543654,25058.496005,-20902.792621,21852.808816,11540.585642,10763.862522,-0.066000,0.954000,0.234000,192.000000,0.000000,0.000000,0.000000,0.000000,0.000000,0.000000,0.000000,0.000000,0.000000,1647749608.885156,0.000000
233.000000,20095.693480,7811.174728,6749.198645,25062.295802,-20898.791659,21853.613478,11540.295069,10765.427144,-0.066000,0.954000,0.234000,192.000000,0.000000,0.000000,0.000000,0.000000,0.000000,0.000000,0.000000,0.000000,0.000000,1647749608.885162,0.000000
234.000000,20091.714870,7803.441024,6746.672898,25061.938174,-20904.491354,21849.880737,11536.584680,10761.314423,-0.066000,0.956000,0.234000,192.000000,253.000000,240.000000,29.000000,224.000000,7.000000,80.000000,0.000000,0.000000,0.000000,1647749608.892637,0.000000
235.000000,20081.969509,7796.824908,6743.700116,25060.373552,-20907.844115,21848.494929,11535.332982,10759.593339,-0.066000,0.956000,0.234000,192.000000,0.000000,0.000000,0.000000,0.000000,0.000000,0.000000,0.000000,0.000000,0.000000,1647749608.892647,0.000000
236.000000,20085.031698,7801.004684,6744.549482,25061.982877,-20906.905342,21852.227670,11538.641040,10762.722583,-0.066000,0.956000,0.234000,192.000000,0.000000,0.000000,0.000000,0.000000,0.000000,0.000000,0.000000,0.000000,0.000000,1647749608.900708,0.000000
237.000000,20083.668242,7798.143661,6735.653488,25054.450340,-20914.102604,21842.549365,11531.913165,10755.592377,-0.066000,0.956000,0.234000,192.000000,0.000000,0.000000,0.000000,0.000000,0.000000,0.000000,0.000000,0.000000,0.000000,1647749608.900713,0.000000
238.000000,20091.401946,7805.027998,6743.588357,25056.260831,-20905.698348,21843.845766,11532.382552,10757.648737,-0.066000,0.956000,0.234000,192.000000,0.000000,0.000000,0.000000,0.000000,0.000000,0.000000,0.000000,0.000000,0.000000,1647749608.907699,0.000000
239.000000,20090.507876,7806.190289,6739.743857,25055.634982,-20911.107470,21836.849670,11526.191119,10752.932519,-0.066000,0.956000,0.234000,192.000000,0.000000,0.000000,0.000000,0.000000,0.000000,0.000000,0.000000,0.000000,0.000000,1647749608.907703,0.000000
240.000000,20090.038489,7805.497385,6734.826474,25053.600973,-20915.846040,21831.641714,11523.061874,10748.238653,-0.066000,0.956000,0.234000,192.000000,0.000000,0.000000,0.000000,0.000000,0.000000,0.000000,0.000000,0.000000,0.000000,1647749608.915211,0.000000
241.000000,20090.843152,7795.148527,6735.385267,25050.449377,-20914.124955,21834.323923,11524.961773,10746.450513,-0.066000,0.956000,0.234000,192.000000,0.000000,0.000000,0.000000,0.000000,0.000000,0.000000,0.000000,0.000000,0.000000,1647749608.915216,0.000000
242.000000,20085.478733,7797.696626,6740.347354,25051.768130,-20907.888819,21840.962391,11530.259136,10749.624461,-0.066000,0.956000,0.234000,192.000000,0.000000,0.000000,0.000000,0.000000,0.000000,0.000000,0.000000,0.000000,0.000000,1647749608.923267,0.000000
243.000000,20084.294091,7803.396321,6743.834227,25052.215165,-20904.983092,21842.571717,11533.790712,10755.905301,-0.066000,0.956000,0.234000,192.000000,0.000000,0.000000,0.000000,0.000000,0.000000,0.000000,0.000000,0.000000,0.000000,1647749608.923271,0.000000
244.000000,20087.266873,7798.031902,6744.482427,25054.472691,-20905.743051,21843.979877,11536.204700,10759.146304,-0.062000,0.954000,0.242000,192.000000,254.000000,16.000000,29.000000,208.000000,7.000000,144.000000,0.000000,0.000000,0.000000,1647749608.930186,0.000000
245.000000,20091.245483,7804.759777,6743.208378,25058.697171,-20900.468040,21852.093560,11542.910223,10763.951929,-0.062000,0.954000,0.242000,192.000000,0.000000,0.000000,0.000000,0.000000,0.000000,0.000000,0.000000,0.000000,0.000000,1647749608.937399,0.000000
246.000000,20091.714870,7805.810309,6743.074267,25055.858500,-20902.479697,21849.523109,11539.780979,10763.057859,-0.062000,0.954000,0.242000,192.000000,0.000000,0.000000,0.000000,0.000000,0.000000,0.000000,0.000000,0.000000,0.000000,1647749608.937403,0.000000
247.000000,20093.368899,7804.692722,6746.561139,25053.422159,-20904.893685,21846.170347,11538.663392,10762.901397,-0.062000,0.954000,0.242000,192.000000,0.000000,0.000000,0.000000,0.000000,0.000000,0.000000,0.000000,0.000000,0.000000,1647749608.944899,0.000000
248.000000,20090.262007,7796.601390,6742.873102,25049.085921,-20910.526325,21839.598935,11536.428217,10760.085077,-0.062000,0.954000,0.242000,192.000000,0.000000,0.000000,0.000000,0.000000,0.000000,0.000000,0.000000,0.000000,0.000000,1647749608.944903,0.000000
249.000000,20088.719736,7797.607219,6743.186026,25049.376494,-20910.459269,21839.867156,11540.518587,10761.001499,-0.062000,0.954000,0.242000,192.000000,0.000000,0.000000,0.000000,0.000000,0.000000,0.000000,0.000000,0.000000,0.000000,1647749608.953020,0.000000
250.000000,20084.472905,7799.529469,6739.900320,25046.426063,-20916.360130,21837.699036,11540.607994,10760.487409,-0.062000,0.954000,0.242000,192.000000,0.000000,0.000000,0.000000,0.000000,0.000000,0.000000,0.000000,0.000000,0.000000,1647749608.953024,0.000000
251.000000,20083.400021,7793.963885,6732.099561,25038.245325,-20921.456328,21834.435682,11537.612860,10760.979147,-0.062000,0.954000,0.242000,192.000000,0.000000,0.000000,0.000000,0.000000,0.000000,0.000000,0.000000,0.000000,0.000000,1647749608.960933,0.000000
252.000000,20088.026832,7793.874478,6732.703058,25042.246287,-20915.913095,21841.275315,11544.094866,10771.395060,-0.062000,0.954000,0.242000,192.000000,0.000000,0.000000,0.000000,0.000000,0.000000,0.000000,0.000000,0.000000,0.000000,1647749608.960939,0.000000
253.000000,20086.573969,7792.175745,6731.764285,25049.912935,-20914.124955,21841.543536,11541.122084,10769.383403,-0.062000,0.954000,0.242000,192.000000,0.000000,0.000000,0.000000,0.000000,0.000000,0.000000,0.000000,0.000000,0.000000,1647749608.967659,0.000000
254.000000,20089.055012,7801.786995,6740.302651,25056.730218,-20907.955874,21845.186871,11543.021982,10769.271644,-0.064000,0.952000,0.240000,192.000000,254.000000,0.000000,29.000000,192.000000,7.000000,128.000000,0.000000,0.000000,0.000000,1647749608.967664,0.000000
255.000000,20081.835399,7800.781167,6742.336660,25062.698133,-20906.458307,21845.432740,11543.536072,10766.857656,-0.064000,0.952000,0.240000,192.000000,0.000000,0.000000,0.000000,0.000000,0.000000,0.000000,0.000000,0.000000,0.000000,1647749608.975645,0.000000
0.000000,20090.887855,7808.157242,6745.823532,25066.788503,-20901.250351,21850.216013,11544.899529,10766.142400,-0.064000,0.952000,0.240000,192.000000,0.000000,0.000000,0.000000,0.000000,0.000000,0.000000,0.000000,0.000000,0.000000,1647749608.975649,0.000000
1.000000,20104.567123,7817.544975,6748.662203,25071.191796,-20897.048223,21853.278202,11542.619651,10763.884874,-0.064000,0.952000,0.240000,192.000000,0.000000,0.000000,0.000000,0.000000,0.000000,0.000000,0.000000,0.000000,0.000000,1647749608.983666,0.000000
2.000000,20097.034585,7811.621763,6744.616538,25069.761285,-20900.691557,21854.284031,11540.339773,10764.890702,-0.064000,0.952000,0.240000,192.000000,0.000000,0.000000,0.000000,0.000000,0.000000,0.000000,0.000000,0.000000,0.000000,1647749608.983673,0.000000
3.000000,20081.075440,7797.763681,6741.934328,25068.509587,-20905.541886,21850.238365,11535.690610,10763.795467,-0.064000,0.952000,0.240000,192.000000,0.000000,0.000000,0.000000,0.000000,0.000000,0.000000,0.000000,0.000000,0.000000,1647749608.990770,0.000000
4.000000,20081.120143,7794.857954,6743.141323,25064.530976,-20902.502048,21849.411350,11536.048238,10764.890702,-0.064000,0.952000,0.240000,192.000000,0.000000,0.000000,0.000000,0.000000,0.000000,0.000000,0.000000,0.000000,0.000000,1647749608.997323,0.000000
5.000000,20090.262007,7803.642190,6744.258910,25062.206395,-20900.736261,21853.032333,11538.953965,10772.378537,-0.064000,0.952000,0.240000,192.000000,0.000000,0.000000,0.000000,0.000000,0.000000,0.000000,0.000000,0.000000,0.000000,1647749608.997348,0.000000
6.000000,20093.100678,7803.999818,6738.648622,25056.976087,-20906.145383,21848.517281,11539.021020,10773.250255,-0.064000,0.952000,0.240000,192.000000,0.000000,0.000000,0.000000,0.000000,0.000000,0.000000,0.000000,0.000000,0.000000,1647749609.005394,0.000000
7.000000,20091.647815,7802.278734,6739.296822,25056.372590,-20905.720700,21851.132435,11547.760552,10777.184162,-0.064000,0.952000,0.240000,192.000000,0.000000,0.000000,0.000000,0.000000,0.000000,0.000000,0.000000,0.000000,0.000000,1647749609.005400,0.000000
8.000000,20083.444724,7795.260286,6734.111218,25053.757436,-20912.761499,21846.170347,11543.536072,10773.071441,-0.056000,0.954000,0.236000,192.000000,254.000000,64.000000,29.000000,208.000000,7.000000,96.000000,0.000000,0.000000,0.000000,1647749609.013324,0.000000
9.000000,20093.525361,7796.646094,6738.358049,25051.723427,-20908.134688,21848.629039,11547.715848,10773.943159,-0.056000,0.954000,0.236000,192.000000,0.000000,0.000000,0.000000,0.000000,0.000000,0.000000,0.000000,0.000000,0.000000,1647749609.013331,0.000000
10.000000,20091.446649,7791.125213,6739.497988,25055.433816,-20907.195915,21850.640696,11550.845093,10777.295921,-0.056000,0.954000,0.236000,192.000000,0.000000,0.000000,0.000000,0.000000,0.000000,0.000000,0.000000,0.000000,0.000000,1647749609.019951,0.000000
11.000000,20089.434992,7801.965809,6739.140360,25057.601936,-20906.033624,21851.713580,11551.985032,10782.861505,-0.056000,0.954000,0.236000,192.000000,0.000000,0.000000,0.000000,0.000000,0.000000,0.000000,0.000000,0.000000,0.000000,1647749609.019955,0.000000
12.000000,20082.282434,7797.651922,6732.524244,25053.757436,-20913.052072,21840.180080,11538.998668,10771.797391,-0.056000,0.954000,0.236000,192.000000,0.000000,0.000000,0.000000,0.000000,0.000000,0.000000,0.000000,0.000000,0.000000,1647749609.027899,0.000000
13.000000,20081.522474,7797.875440,6734.312383,25053.265697,-20911.532153,21839.464824,11536.607031,10769.159886,-0.056000,0.954000,0.236000,192.000000,0.000000,0.000000,0.000000,0.000000,0.000000,0.000000,0.000000,0.000000,0.000000,1647749609.027903,0.000000
14.000000,20080.717812,7798.590696,6735.675840,25052.148110,-20911.107470,21837.877850,11534.304802,10767.863484,-0.056000,0.954000,0.236000,192.000000,0.000000,0.000000,0.000000,0.000000,0.000000,0.000000,0.000000,0.000000,0.000000,1647749609.036010,0.000000
15.000000,20086.998652,7800.378835,6738.782732,25050.292915,-20909.364034,21839.353065,11534.081284,10767.125877,-0.056000,0.954000,0.236000,192.000000,0.000000,0.000000,0.000000,0.000000,0.000000,0.000000,0.000000,0.000000,0.000000,1647749609.036014,0.000000
16.000000,20092.340719,7801.876402,6741.219072,25052.148110,-20906.033624,21842.415254,11533.567194,10768.444630,-0.056000,0.954000,0.236000,192.000000,0.000000,0.000000,0.000000,0.000000,0.000000,0.000000,0.000000,0.000000,0.000000,1647749609.043107,0.000000
17.000000,20100.052071,7809.297181,6745.398849,25055.322058,-20900.937426,21841.878813,11531.220261,10771.328005,-0.056000,0.954000,0.236000,192.000000,0.000000,0.000000,0.000000,0.000000,0.000000,0.000000,0.000000,0.000000,0.000000,1647749609.043111,0.000000
18.000000,20103.226018,7814.952173,6745.264738,25057.825453,-20902.524400,21837.006132,11526.280525,10769.025775,-0.058000,0.954000,0.234000,192.000000,254.000000,48.000000,29.000000,208.000000,7.000000,80.000000,0.000000,0.000000,0.000000,1647749609.049575,0.000000
19.000000,20107.562257,7815.533318,6745.890587,25061.960526,-20898.791659,21841.409426,11531.622592,10773.071441,-0.058000,0.954000,0.234000,192.000000,0.000000,0.000000,0.000000,0.000000,0.000000,0.000000,0.000000,0.000000,0.000000,1647749609.057592,0.000000
20.000000,20097.749841,7802.725768,6740.861445,25060.485311,-20902.524400,21838.503699,11529.968563,10769.808086,-0.058000,0.954000,0.234000,192.000000,0.000000,0.000000,0.000000,0.000000,0.000000,0.000000,0.000000,0.000000,0.000000,1647749609.057596,0.000000
21.000000,20090.373765,7796.959018,6737.396924,25061.692305,-20905.296016,21837.028484,11530.125026,10768.981072,-0.058000,0.954000,0.234000,192.000000,0.000000,0.000000,0.000000,0.000000,0.000000,0.000000,0.000000,0.000000,0.000000,1647749609.065536,0.000000
22.000000,20091.267835,7801.921106,6740.146189,25061.021752,-20904.625464,21840.291839,11536.159997,10772.713813,-0.058000,0.954000,0.234000,192.000000,0.000000,0.000000,0.000000,0.000000,0.000000,0.000000,0.000000,0.000000,0.000000,1647749609.065546,0.000000
23.000000,20097.146344,7802.703417,6742.269604,25065.268584,-20905.005444,21842.392903,11538.216357,10775.194857,-0.058000,0.954000,0.234000,192.000000,0.000000,0.000000,0.000000,0.000000,0.000000,0.000000,0.000000,0.000000,0.000000,1647749609.072709,0.000000
24.000000,20095.581722,7799.887097,6734.982936,25063.145168,-20909.654607,21837.564926,11531.376723,10768.623444,-0.058000,0.954000,0.234000,192.000000,0.000000,0.000000,0.000000,0.000000,0.000000,0.000000,0.000000,0.000000,0.000000,1647749609.072714,0.000000
25.000000,20085.277568,7799.618876,6726.824549,25056.059665,-20914.974322,21833.496908,11527.666334,10765.293034,-0.058000,0.954000,0.234000,192.000000,0.000000,0.000000,0.000000,0.000000,0.000000,0.000000,0.000000,0.000000,0.000000,1647749609.080290,0.000000
26.000000,20086.238693,7798.478937,6728.411523,25054.271526,-20914.057900,21832.736949,11527.308706,10767.014118,-0.058000,0.954000,0.234000,192.000000,0.000000,0.000000,0.000000,0.000000,0.000000,0.000000,0.000000,0.000000,0.000000,1647749609.080294,0.000000
27.000000,20086.082230,7788.264190,6727.003363,25051.902241,-20917.522421,21827.238420,11523.352447,10760.487409,-0.058000,0.954000,0.234000,192.000000,0.000000,0.000000,0.000000,0.000000,0.000000,0.000000,0.000000,0.000000,0.000000,1647749609.088319,0.000000
28.000000,20089.032661,7796.914315,6730.512587,25052.572793,-20915.063729,21825.897315,11522.257211,10757.089944,-0.058000,0.956000,0.232000,192.000000,254.000000,48.000000,29.000000,224.000000,7.000000,64.000000,0.000000,0.000000,0.000000,1647749609.088323,0.000000
29.000000,20095.000576,7812.962867,6743.655413,25058.518357,-20905.139554,21835.776786,11533.678953,10766.634138,-0.058000,0.956000,0.232000,192.000000,0.000000,0.000000,0.000000,0.000000,0.000000,0.000000,0.000000,0.000000,0.000000,1647749609.096369,0.000000
30.000000,20087.937425,7804.245687,6738.648622,25053.310401,-20911.152173,21830.010036,11529.879156,10760.777981,-0.058000,0.956000,0.232000,192.000000,0.000000,0.000000,0.000000,0.000000,0.000000,0.000000,0.000000,0.000000,0.000000,1647749609.096373,0.000000
31.000000,20093.570065,7803.709245,6740.816741,25052.639848,-20905.184258,21836.268525,11535.578851,10765.628310,-0.058000,0.956000,0.232000,192.000000,0.000000,0.000000,0.000000,0.000000,0.000000,0.000000,0.000000,0.000000,0.000000,1647749609.102910,0.000000
32.000000,20089.993786,7799.685931,6742.247253,25057.445473,-20901.585627,21841.588240,11539.512758,10774.636063,-0.058000,0.956000,0.232000,192.000000,0.000000,0.000000,0.000000,0.000000,0.000000,0.000000,0.000000,0.000000,0.000000,1647749609.102915,0.000000
33.000000,20089.837323,7803.552783,6742.202549,25061.357029,-20900.132763,21842.661124,11537.814026,10776.357147,-0.058000,0.956000,0.232000,192.000000,0.000000,0.000000,0.000000,0.000000,0.000000,0.000000,0.000000,0.000000,0.000000,1647749609.109817,0.000000
34.000000,20091.938387,7806.212641,6739.833264,25061.960526,-20900.132763,21843.286972,11539.333944,10776.535961,-0.058000,0.956000,0.232000,192.000000,0.000000,0.000000,0.000000,0.000000,0.000000,0.000000,0.000000,0.000000,0.000000,1647749609.109821,0.000000
35.000000,20090.664338,7808.693684,6739.073305,25060.708828,-20901.585627,21842.661124,11539.937441,10778.413508,-0.058000,0.956000,0.232000,192.000000,0.000000,0.000000,0.000000,0.000000,0.000000,0.000000,0.000000,0.000000,0.000000,1647749609.117941,0.000000
36.000000,20094.464135,7806.771434,6737.799256,25053.466863,-20905.094851,21839.286010,11538.484578,10776.245389,-0.058000,0.956000,0.232000,192.000000,0.000000,0.000000,0.000000,0.000000,0.000000,0.000000,0.000000,0.000000,0.000000,1647749609.125938,0.000000
37.000000,20097.302806,7795.215582,6728.344468,25044.123834,-20915.533115,21828.735987,11531.108502,10770.277473,-0.058000,0.956000,0.232000,192.000000,0.000000,0.000000,0.000000,0.000000,0.000000,0.000000,0.000000,0.000000,0.000000,1647749609.125943,0.000000
38.000000,20095.335853,7793.226277,6725.617555,25047.677761,-20916.717758,21827.618400,11529.789749,10768.578740,-0.052000,0.952000,0.224000,192.000000,254.000000,96.000000,29.000000,192.000000,7.000000,0.000000,0.000000,0.000000,0.000000,1647749609.132603,0.000000
39.000000,20079.287300,7791.684007,6721.638944,25048.236555,-20918.818822,21827.327827,11526.280525,10765.650662,-0.052000,0.952000,0.224000,192.000000,0.000000,0.000000,0.000000,0.000000,0.000000,0.000000,0.000000,0.000000,0.000000,1647749609.132608,0.000000
40.000000,20082.058916,7799.462414,6729.305593,25054.539747,-20912.046243,21833.429853,11530.370895,10770.255121,-0.052000,0.952000,0.224000,192.000000,0.000000,0.000000,0.000000,0.000000,0.000000,0.000000,0.000000,0.000000,0.000000,1647749609.140552,0.000000
41.000000,20092.653643,7805.050350,6736.346392,25058.518357,-20905.072499,21836.447339,11531.220261,10772.713813,-0.052000,0.952000,0.224000,192.000000,0.000000,0.000000,0.000000,0.000000,0.000000,0.000000,0.000000,0.000000,0.000000,1647749609.140557,0.000000
42.000000,20084.227036,7796.668446,6733.708886,25054.740912,-20909.498144,21831.082920,11526.548746,10766.477676,-0.052000,0.952000,0.224000,192.000000,0.000000,0.000000,0.000000,0.000000,0.000000,0.000000,0.000000,0.000000,0.000000,1647749609.148647,0.000000
43.000000,20078.236768,7788.934742,6735.161750,25052.081055,-20909.565200,21828.400711,11524.514738,10766.120048,-0.052000,0.952000,0.224000,192.000000,0.000000,0.000000,0.000000,0.000000,0.000000,0.000000,0.000000,0.000000,0.000000,1647749609.148660,0.000000
44.000000,20086.149286,7791.125213,6739.408581,25056.506700,-20908.179391,21826.947847,11524.760607,10767.662319,-0.052000,0.952000,0.224000,192.000000,0.000000,0.000000,0.000000,0.000000,0.000000,0.000000,0.000000,0.000000,0.000000,1647749609.155308,0.000000
45.000000,20090.418469,7790.812289,6736.994593,25050.538784,-20911.532153,21824.802080,11523.352447,10767.081173,-0.052000,0.952000,0.224000,192.000000,0.000000,0.000000,0.000000,0.000000,0.000000,0.000000,0.000000,0.000000,0.000000,1647749609.155316,0.000000
46.000000,20087.646852,7783.816193,6732.859520,25046.806043,-20913.186182,21824.422100,11525.185290,10766.276511,-0.052000,0.952000,0.224000,192.000000,0.000000,0.000000,0.000000,0.000000,0.000000,0.000000,0.000000,0.000000,0.000000,1647749609.163178,0.000000
47.000000,20085.702251,7782.944475,6729.752628,25044.816738,-20917.097737,21822.253981,11525.006476,10761.895569,-0.052000,0.952000,0.224000,192.000000,0.000000,0.000000,0.000000,0.000000,0.000000,0.000000,0.000000,0.000000,0.000000,1647749609.163185,0.000000
48.000000,20089.367937,7796.534335,6736.055820,25049.756473,-20909.632255,21829.987684,11533.924822,10768.422278,-0.052000,0.952000,0.228000,192.000000,254.000000,96.000000,29.000000,192.000000,7.000000,32.000000,0.000000,0.000000,0.000000,1647749609.171235,0.000000
49.000000,20085.858713,7794.790899,6735.429971,25046.738988,-20911.174525,21828.199545,11529.543880,10764.957758,-0.052000,0.952000,0.228000,192.000000,0.000000,0.000000,0.000000,0.000000,0.000000,0.000000,0.000000,0.000000,0.000000,1647749609.171241,0.000000
50.000000,20088.585626,7791.460489,6734.714715,25050.404674,-20908.201743,21831.351141,11528.783921,10766.701194,-0.052000,0.952000,0.228000,192.000000,0.000000,0.000000,0.000000,0.000000,0.000000,0.000000,0.000000,0.000000,0.000000,1647749609.178436,0.000000
51.000000,20085.568140,7791.616951,6734.111218,25048.594183,-20909.565200,21830.658237,11528.269831,10766.343566,-0.052000,0.952000,0.228000,192.000000,0.000000,0.000000,0.000000,0.000000,0.000000,0.000000,0.000000,0.000000,0.000000,1647749609.184941,0.000000
52.000000,20081.164847,7786.230181,6728.322116,25045.397883,-20916.449537,21821.181097,11520.714941,10757.469923,-0.052000,0.952000,0.228000,192.000000,0.000000,0.000000,0.000000,0.000000,0.000000,0.000000,0.000000,0.000000,0.000000,1647749609.184969,0.000000
53.000000,20087.132762,7788.867687,6730.289069,25048.124796,-20915.264894,21820.979931,11521.184328,10754.877121,-0.052000,0.952000,0.228000,192.000000,0.000000,0.000000,0.000000,0.000000,0.000000,0.000000,0.000000,0.000000,0.000000,1647749609.192787,0.000000
54.000000,20098.219228,7796.623742,6735.966413,25053.444511,-20907.687653,21831.574658,11530.952040,10764.980109,-0.052000,0.952000,0.228000,192.000000,0.000000,0.000000,0.000000,0.000000,0.000000,0.000000,0.000000,0.000000,0.000000,1647749609.192792,0.000000
55.000000,20105.237675,7806.972600,6742.537825,25056.797273,-20899.193990,21839.755397,11538.484578,10773.853752,-0.052000,0.952000,0.228000,192.000000,0.000000,0.000000,0.000000,0.000000,0.000000,0.000000,0.000000,0.000000,0.000000,1647749609.200944,0.000000
56.000000,20084.115277,7789.717053,6734.155921,25050.963467,-20909.319330,21828.400711,11527.062837,10762.722583,-0.052000,0.952000,0.228000,192.000000,0.000000,0.000000,0.000000,0.000000,0.000000,0.000000,0.000000,0.000000,0.000000,1647749609.200951,0.000000
57.000000,20087.691556,7792.913353,6740.392058,25052.729255,-20905.385423,21832.468728,11528.850976,10763.840170,-0.052000,0.952000,0.228000,192.000000,0.000000,0.000000,0.000000,0.000000,0.000000,0.000000,0.000000,0.000000,0.000000,1647749609.208008,0.000000
58.000000,20087.713908,7796.824908,6741.174369,25057.825453,-20905.586589,21832.893411,11526.816967,10762.744935,-0.058000,0.954000,0.232000,192.000000,254.000000,48.000000,29.000000,208.000000,7.000000,64.000000,0.000000,0.000000,0.000000,1647749609.208012,0.000000
59.000000,20082.058916,7793.919181,6738.179235,25059.188909,-20907.553543,21832.848708,11526.392284,10764.510723,-0.058000,0.954000,0.232000,192.000000,0.000000,0.000000,0.000000,0.000000,0.000000,0.000000,0.000000,0.000000,0.000000,1647749609.215492,0.000000
60.000000,20084.115277,7792.175745,6742.023735,25060.865290,-20903.574932,21836.715560,11527.889851,10767.639967,-0.058000,0.954000,0.232000,192.000000,0.000000,0.000000,0.000000,0.000000,0.000000,0.000000,0.000000,0.000000,0.000000,1647749609.215497,0.000000
61.000000,20091.379594,7792.935704,6742.359011,25060.708828,-20902.457345,21833.988647,11525.073531,10764.398964,-0.058000,0.954000,0.232000,192.000000,0.000000,0.000000,0.000000,0.000000,0.000000,0.000000,0.000000,0.000000,0.000000,1647749609.223412,0.000000
62.000000,20094.642948,7792.958056,6742.940157,25061.580546,-20898.679900,21837.833147,11530.169729,10769.450458,-0.058000,0.954000,0.232000,192.000000,0.000000,0.000000,0.000000,0.000000,0.000000,0.000000,0.000000,0.000000,0.000000,1647749609.223417,0.000000
63.000000,20104.477716,7807.374931,6752.618462,25066.967317,-20890.141534,21845.835071,11541.613822,10780.961607,-0.058000,0.954000,0.232000,192.000000,0.000000,0.000000,0.000000,0.000000,0.000000,0.000000,0.000000,0.000000,0.000000,1647749609.230582,0.000000
64.000000,20101.013196,7814.795710,6749.824494,25065.559157,-20894.723641,21840.425949,11538.931613,10777.720604,-0.058000,0.954000,0.232000,192.000000,0.000000,0.000000,0.000000,0.000000,0.000000,0.000000,0.000000,0.000000,0.000000,1647749609.230587,0.000000
65.000000,20092.340719,7806.592620,6736.815779,25052.818662,-20906.055976,21829.741815,11527.755741,10769.271644,-0.058000,0.954000,0.232000,192.000000,0.000000,0.000000,0.000000,0.000000,0.000000,0.000000,0.000000,0.000000,0.000000,1647749609.237073,0.000000
66.000000,20090.887855,7803.396321,6736.838131,25046.426063,-20904.200781,21828.557173,11525.922898,10768.087002,-0.058000,0.954000,0.232000,192.000000,0.000000,0.000000,0.000000,0.000000,0.000000,0.000000,0.000000,0.000000,0.000000,1647749609.245148,0.000000
67.000000,20084.808181,7796.400225,6740.593224,25048.929459,-20903.396118,21829.853574,11526.347581,10768.936368,-0.058000,0.954000,0.232000,192.000000,0.000000,0.000000,0.000000,0.000000,0.000000,0.000000,0.000000,0.000000,0.000000,1647749609.245153,0.000000
68.000000,20083.400021,7787.034844,6739.140360,25055.299706,-20905.027795,21829.205373,11527.442816,10768.154057,-0.066000,0.954000,0.224000,192.000000,253.000000,240.000000,29.000000,208.000000,7.000000,0.000000,0.000000,0.000000,0.000000,1647749609.253187,0.000000
69.000000,20082.908283,7785.961960,6732.881872,25051.924592,-20908.358205,21824.869135,11525.252345,10763.102563,-0.066000,0.954000,0.224000,192.000000,0.000000,0.000000,0.000000,0.000000,0.000000,0.000000,0.000000,0.000000,0.000000,1647749609.253192,0.000000
70.000000,20081.567178,7790.655826,6732.814817,25045.710808,-20905.117202,21827.059606,11527.934555,10763.661356,-0.066000,0.954000,0.224000,192.000000,0.000000,0.000000,0.000000,0.000000,0.000000,0.000000,0.000000,0.000000,0.000000,1647749609.260168,0.000000
71.000000,20093.950044,7803.306914,6746.739953,25058.496005,-20892.890798,21839.308362,11541.882043,10775.641891,-0.066000,0.954000,0.224000,192.000000,0.000000,0.000000,0.000000,0.000000,0.000000,0.000000,0.000000,0.000000,0.000000,1647749609.260173,0.000000
72.000000,20088.272701,7797.048425,6742.381363,25062.027581,-20902.390290,21831.082920,11536.607031,10768.712851,-0.066000,0.954000,0.224000,192.000000,0.000000,0.000000,0.000000,0.000000,0.000000,0.000000,0.000000,0.000000,0.000000,1647749609.267799,0.000000
73.000000,20086.462210,7797.093129,6741.040259,25059.635944,-20906.994749,21828.780690,11533.433084,10766.589435,-0.066000,0.954000,0.224000,192.000000,0.000000,0.000000,0.000000,0.000000,0.000000,0.000000,0.000000,0.000000,0.000000,1647749609.267805,0.000000
74.000000,20092.161905,7803.709245,6744.124799,25057.244308,-20903.552580,21830.345312,11532.024924,10769.606920,-0.066000,0.954000,0.224000,192.000000,0.000000,0.000000,0.000000,0.000000,0.000000,0.000000,0.000000,0.000000,0.000000,1647749609.275806,0.000000
75.000000,20099.202704,7812.493481,6750.427991,25058.943040,-20894.790696,21839.822452,11537.322287,10777.966473,-0.066000,0.954000,0.224000,192.000000,0.000000,0.000000,0.000000,0.000000,0.000000,0.000000,0.000000,0.000000,0.000000,1647749609.275810,0.000000
76.000000,20100.230885,7806.078530,6754.294843,25065.447398,-20892.488467,21842.772882,11538.976316,10777.966473,-0.066000,0.954000,0.224000,192.000000,0.000000,0.000000,0.000000,0.000000,0.000000,0.000000,0.000000,0.000000,0.000000,1647749609.283700,0.000000
77.000000,20091.647815,7796.199059,6745.331793,25060.239441,-20902.613807,21834.010998,11528.202776,10766.790601,-0.066000,0.954000,0.224000,192.000000,0.000000,0.000000,0.000000,0.000000,0.000000,0.000000,0.000000,0.000000,0.000000,1647749609.283706,0.000000
78.000000,20089.032661,7804.513908,6742.649584,25051.432854,-20905.474830,21832.200507,11523.419502,10764.778944,-0.066000,0.954000,0.224000,192.000000,0.000000,0.000000,0.000000,0.000000,0.000000,0.000000,0.000000,0.000000,0.000000,1647749609.290494,0.000000
79.000000,20084.741126,7804.759777,6740.861445,25049.018866,-20906.748880,21832.222859,11525.095883,10766.768249,-0.062000,0.948000,0.226000,192.000000,254.000000,16.000000,29.000000,160.000000,7.000000,16.000000,0.000000,0.000000,0.000000,1647749609.290498,0.000000
80.000000,20081.544826,7795.193231,6743.007212,25055.724389,-20901.160944,21838.280182,11532.673124,10773.406717,-0.062000,0.948000,0.226000,192.000000,0.000000,0.000000,0.000000,0.000000,0.000000,0.000000,0.000000,0.000000,0.000000,1647749609.297546,0.000000
81.000000,20084.048222,7779.569361,6741.219072,25057.177252,-20903.664339,21837.252001,11531.980220,10774.792525,-0.062000,0.948000,0.226000,192.000000,0.000000,0.000000,0.000000,0.000000,0.000000,0.000000,0.000000,0.000000,0.000000,1647749609.305518,0.000000
82.000000,20088.362108,7779.234085,6743.230729,25055.165595,-20903.239656,21836.894374,11531.220261,10774.345490,-0.062000,0.948000,0.226000,192.000000,0.000000,0.000000,0.000000,0.000000,0.000000,0.000000,0.000000,0.000000,0.000000,1647749609.305523,0.000000
83.000000,20088.719736,7789.158260,6748.773962,25058.451302,-20900.043356,21840.023618,11535.623555,10779.218171,-0.062000,0.948000,0.226000,192.000000,0.000000,0.000000,0.000000,0.000000,0.000000,0.000000,0.000000,0.000000,0.000000,1647749609.313590,0.000000
84.000000,20088.093887,7796.780204,6746.896416,25056.573755,-20899.641025,21837.564926,11536.987011,10780.402813,-0.062000,0.948000,0.226000,192.000000,0.000000,0.000000,0.000000,0.000000,0.000000,0.000000,0.000000,0.000000,0.000000,1647749609.313596,0.000000
85.000000,20087.937425,7796.109652,6749.019831,25056.909031,-20897.338795,21842.482310,11542.217319,10781.229828,-0.062000,0.948000,0.226000,192.000000,0.000000,0.000000,0.000000,0.000000,0.000000,0.000000,0.000000,0.000000,0.000000,1647749609.320029,0.000000
86.000000,20086.037527,7792.220449,6749.466866,25057.691343,-20897.025871,21842.303496,11541.122084,10779.084060,-0.062000,0.948000,0.226000,192.000000,0.000000,0.000000,0.000000,0.000000,0.000000,0.000000,0.000000,0.000000,0.000000,1647749609.320039,0.000000
87.000000,20090.262007,7797.227239,6751.858503,25064.687439,-20893.337833,21843.085807,11539.356296,10777.810011,-0.062000,0.948000,0.226000,192.000000,0.000000,0.000000,0.000000,0.000000,0.000000,0.000000,0.000000,0.000000,0.000000,1647749609.328108,0.000000
88.000000,20090.463172,7796.333170,6749.265700,25066.274412,-20892.197894,21841.409426,11534.684781,10773.898455,-0.062000,0.948000,0.226000,192.000000,0.000000,0.000000,0.000000,0.000000,0.000000,0.000000,0.000000,0.000000,0.000000,1647749609.328112,0.000000
89.000000,20094.285321,7798.143661,6753.490180,25070.163616,-20889.739202,21843.778711,11536.003534,10774.501952,-0.066000,0.946000,0.228000,192.000000,253.000000,240.000000,29.000000,144.000000,7.000000,32.000000,0.000000,0.000000,0.000000,1647749609.336076,0.000000
90.000000,20090.418469,7793.896829,6752.171427,25068.487235,-20891.773211,21841.610592,11534.304802,10774.859580,-0.066000,0.946000,0.228000,192.000000,0.000000,0.000000,0.000000,0.000000,0.000000,0.000000,0.000000,0.000000,0.000000,1647749609.336082,0.000000
91.000000,20088.518570,7794.366216,6750.964433,25068.286069,-20891.415583,21841.521185,11534.528319,10775.574836,-0.066000,0.946000,0.228000,192.000000,0.000000,0.000000,0.000000,0.000000,0.000000,0.000000,0.000000,0.000000,0.000000,1647749609.343057,0.000000
92.000000,20082.349489,7794.790899,6749.511570,25068.107255,-20895.282435,21839.084844,11530.370895,10769.986900,-0.066000,0.946000,0.228000,192.000000,0.000000,0.000000,0.000000,0.000000,0.000000,0.000000,0.000000,0.000000,0.000000,1647749609.343061,0.000000
93.000000,20075.174579,7797.026074,6738.805084,25061.871119,-20904.781926,21829.518298,11520.960810,10761.672051,-0.066000,0.946000,0.228000,192.000000,0.000000,0.000000,0.000000,0.000000,0.000000,0.000000,0.000000,0.000000,0.000000,1647749609.350789,0.000000
94.000000,20087.222169,7800.155318,6738.559215,25059.859462,-20903.619636,21829.942981,11523.017171,10764.466019,-0.066000,0.946000,0.228000,192.000000,0.000000,0.000000,0.000000,0.000000,0.000000,0.000000,0.000000,0.000000,0.000000,1647749609.350794,0.000000
95.000000,20084.919940,7795.237934,6735.273508,25052.729255,-20905.430127,21832.334618,11526.124063,10769.919845,-0.066000,0.946000,0.228000,192.000000,0.000000,0.000000,0.000000,0.000000,0.000000,0.000000,0.000000,0.000000,0.000000,1647749609.358007,0.000000
96.000000,20077.476809,7786.744271,6731.026677,25052.572793,-20911.867429,21828.579525,11523.553613,10767.259987,-0.066000,0.946000,0.228000,192.000000,0.000000,0.000000,0.000000,0.000000,0.000000,0.000000,0.000000,0.000000,0.000000,1647749609.358019,0.000000
97.000000,20081.142495,7786.476050,6728.947965,25054.271526,-20913.946141,21826.344350,11526.571098,10766.522380,-0.066000,0.946000,0.228000,192.000000,0.000000,0.000000,0.000000,0.000000,0.000000,0.000000,0.000000,0.000000,0.000000,1647749609.365966,0.000000
98.000000,20084.249387,7791.281675,6727.450398,25051.969296,-20914.415528,21826.165536,11531.019095,10769.383403,-0.066000,0.946000,0.228000,192.000000,0.000000,0.000000,0.000000,0.000000,0.000000,0.000000,0.000000,0.000000,0.000000,1647749609.372860,0.000000
99.000000,20081.723640,7796.869611,6731.585471,25051.812834,-20911.152173,21828.087786,11535.221223,10773.563179,-0.062000,0.942000,0.230000,192.000000,254.000000,16.000000,29.000000,112.000000,7.000000,48.000000,0.000000,0.000000,0.000000,1647749609.372869,0.000000
100.000000,20073.162922,7783.637379,6727.562157,25046.850746,-20916.673054,21824.533859,11531.734351,10768.422278,-0.062000,0.942000,0.230000,192.000000,0.000000,0.000000,0.000000,0.000000,0.000000,0.000000,0.000000,0.000000,0.000000,1647749609.380558,0.000000
101.000000,20063.171692,7776.663634,6717.794444,25040.301685,-20922.395101,21819.169440,11525.475863,10759.928615,-0.062000,0.942000,0.230000,192.000000,0.000000,0.000000,0.000000,0.000000,0.000000,0.000000,0.000000,0.000000,0.000000,1647749609.380570,0.000000
102.000000,20071.888873,7788.867687,6730.065552,25051.209337,-20908.559371,21827.797214,11530.884985,10769.428106,-0.062000,0.942000,0.230000,192.000000,0.000000,0.000000,0.000000,0.000000,0.000000,0.000000,0.000000,0.000000,0.000000,1647749609.388585,0.000000
103.000000,20075.979242,7794.299161,6735.899357,25056.618459,-20904.513705,21830.300609,11531.287316,10773.205551,-0.062000,0.942000,0.230000,192.000000,0.000000,0.000000,0.000000,0.000000,0.000000,0.000000,0.000000,0.000000,0.000000,1647749609.388596,0.000000
104.000000,20075.733373,7790.655826,6733.284203,25060.060627,-20907.285322,21826.210240,11525.744084,10771.752688,-0.062000,0.942000,0.230000,192.000000,0.000000,0.000000,0.000000,0.000000,0.000000,0.000000,0.000000,0.000000,0.000000,1647749609.395699,0.000000
105.000000,20079.108486,7793.181574,6736.033468,25059.635944,-20905.675996,21828.490118,11527.085188,10773.563179,-0.062000,0.942000,0.230000,192.000000,0.000000,0.000000,0.000000,0.000000,0.000000,0.000000,0.000000,0.000000,0.000000,1647749609.395711,0.000000
106.000000,20081.008384,7799.998856,6735.988764,25060.954697,-20905.072499,21832.044045,11525.386456,10771.864447,-0.062000,0.942000,0.230000,192.000000,0.000000,0.000000,0.000000,0.000000,0.000000,0.000000,0.000000,0.000000,0.000000,1647749609.403167,0.000000
107.000000,20081.097791,7798.501289,6734.200625,25061.267622,-20908.313502,21834.100405,11521.631363,10768.645795,-0.062000,0.942000,0.230000,192.000000,0.000000,0.000000,0.000000,0.000000,0.000000,0.000000,0.000000,0.000000,0.000000,1647749609.403185,0.000000
108.000000,20078.907320,7786.878382,6732.546596,25056.707866,-20913.275589,21832.289914,11520.647886,10765.002461,-0.062000,0.942000,0.230000,192.000000,0.000000,0.000000,0.000000,0.000000,0.000000,0.000000,0.000000,0.000000,0.000000,1647749609.411284,0.000000
109.000000,20076.985070,7787.727748,6733.820645,25055.702037,-20912.113298,21831.686417,11521.296086,10764.667185,-0.058000,0.942000,0.236000,192.000000,254.000000,48.000000,29.000000,112.000000,7.000000,96.000000,0.000000,0.000000,0.000000,1647749609.411302,0.000000
110.000000,20072.514721,7792.131042,6734.714715,25059.613593,-20909.207572,21832.066397,11521.609011,10763.504894,-0.058000,0.942000,0.236000,192.000000,0.000000,0.000000,0.000000,0.000000,0.000000,0.000000,0.000000,0.000000,0.000000,1647749609.419067,0.000000
111.000000,20073.632309,7792.756890,6733.395962,25057.557232,-20906.458307,21833.720426,11525.252345,10760.532112,-0.058000,0.942000,0.236000,192.000000,0.000000,0.000000,0.000000,0.000000,0.000000,0.000000,0.000000,0.000000,0.000000,1647749609.419076,0.000000
112.000000,20084.741126,7800.334132,6733.217148,25057.378418,-20904.737223,21830.859403,11526.861671,10757.984013,-0.058000,0.942000,0.236000,192.000000,0.000000,0.000000,0.000000,0.000000,0.000000,0.000000,0.000000,0.000000,0.000000,1647749609.425384,0.000000
113.000000,20083.668242,7796.534335,6736.033468,25059.725351,-20901.965606,21832.736949,11529.432121,10759.146304,-0.058000,0.942000,0.236000,192.000000,0.000000,0.000000,0.000000,0.000000,0.000000,0.000000,0.000000,0.000000,0.000000,1647749609.433015,0.000000
114.000000,20069.720753,7785.894905,6733.105389,25056.909031,-20905.430127,21831.485251,11530.303839,10760.599167,-0.058000,0.942000,0.236000,192.000000,0.000000,0.000000,0.000000,0.000000,0.000000,0.000000,0.000000,0.000000,0.000000,1647749609.433030,0.000000
115.000000,20081.053088,7795.193231,6737.329869,25056.841976,-20901.384461,21838.257830,11537.881081,10767.796429,-0.058000,0.942000,0.236000,192.000000,0.000000,0.000000,0.000000,0.000000,0.000000,0.000000,0.000000,0.000000,0.000000,1647749609.440929,0.000000
116.000000,20081.120143,7796.355521,6738.738029,25056.461997,-20900.982130,21839.934211,11539.803331,10774.054918,-0.058000,0.942000,0.236000,192.000000,0.000000,0.000000,0.000000,0.000000,0.000000,0.000000,0.000000,0.000000,0.000000,1647749609.440941,0.000000
117.000000,20084.137629,7806.167937,6735.675840,25061.401732,-20901.876199,21834.189812,11532.583717,10772.579702,-0.058000,0.942000,0.236000,192.000000,0.000000,0.000000,0.000000,0.000000,0.000000,0.000000,0.000000,0.000000,0.000000,1647749609.448783,0.000000
118.000000,20090.887855,7803.597486,6734.334735,25065.201529,-20899.641025,21834.279219,11531.488482,10774.345490,-0.058000,0.942000,0.236000,192.000000,0.000000,0.000000,0.000000,0.000000,0.000000,0.000000,0.000000,0.000000,0.000000,1647749609.448792,0.000000
119.000000,20087.468038,7796.355521,6733.574776,25064.396866,-20898.188162,21836.804967,11533.924822,10777.474734,-0.064000,0.950000,0.234000,192.000000,254.000000,0.000000,29.000000,176.000000,7.000000,80.000000,0.000000,0.000000,0.000000,1647749609.455405,0.000000
120.000000,20087.892722,7802.077568,6733.775942,25065.894433,-20898.411679,21838.906031,11535.087113,10779.665205,-0.064000,0.950000,0.234000,192.000000,0.000000,0.000000,0.000000,0.000000,0.000000,0.000000,0.000000,0.000000,0.000000,1647749609.455416,0.000000
121.000000,20082.595358,7794.321512,6727.740971,25058.540709,-20904.893685,21836.782615,11532.360200,10777.184162,-0.064000,0.950000,0.234000,192.000000,0.000000,0.000000,0.000000,0.000000,0.000000,0.000000,0.000000,0.000000,0.000000,1647749609.463545,0.000000
122.000000,20079.801390,7787.772451,6722.756532,25050.896412,-20914.482583,21828.378359,11524.514738,10767.707022,-0.064000,0.950000,0.234000,192.000000,0.000000,0.000000,0.000000,0.000000,0.000000,0.000000,0.000000,0.000000,0.000000,1647749609.463557,0.000000
123.000000,20083.221207,7797.830736,6730.400828,25053.511566,-20908.849944,21834.435682,11528.739217,10770.791563,-0.064000,0.950000,0.234000,192.000000,0.000000,0.000000,0.000000,0.000000,0.000000,0.000000,0.000000,0.000000,0.000000,1647749609.471386,0.000000
124.000000,20090.932559,7801.071739,6740.034430,25062.474616,-20898.344624,21845.745664,11538.238709,10780.715737,-0.064000,0.950000,0.234000,192.000000,0.000000,0.000000,0.000000,0.000000,0.000000,0.000000,0.000000,0.000000,0.000000,1647749609.471397,0.000000
125.000000,20086.149286,7799.373007,6738.179235,25062.519319,-20900.803316,21842.415254,11534.237747,10777.586493,-0.064000,0.950000,0.234000,192.000000,0.000000,0.000000,0.000000,0.000000,0.000000,0.000000,0.000000,0.000000,0.000000,1647749609.478168,0.000000
126.000000,20090.932559,7802.502251,6737.821607,25063.927479,-20897.070574,21847.802025,11537.255232,10778.525266,-0.064000,0.950000,0.234000,192.000000,0.000000,0.000000,0.000000,0.000000,0.000000,0.000000,0.000000,0.000000,0.000000,1647749609.478186,0.000000
127.000000,20088.876198,7802.166975,6732.367782,25068.531939,-20898.679900,21847.399693,11534.818892,10774.881932,-0.064000,0.950000,0.234000,192.000000,0.000000,0.000000,0.000000,0.000000,0.000000,0.000000,0.000000,0.000000,0.000000,1647749609.485055,0.000000
128.000000,20095.827591,7809.498347,6739.565043,25075.930366,-20891.728507,21851.870042,11539.445703,10777.765307,-0.064000,0.950000,0.234000,192.000000,0.000000,0.000000,0.000000,0.000000,0.000000,0.000000,0.000000,0.000000,0.000000,1647749609.493135,0.000000
129.000000,20090.619634,7805.072702,6739.140360,25076.220939,-20893.874275,21846.393865,11532.002572,10773.943159,-0.066000,0.954000,0.232000,192.000000,253.000000,240.000000,29.000000,208.000000,7.000000,64.000000,0.000000,0.000000,0.000000,1647749609.493160,0.000000
130.000000,20092.072498,7800.177670,6738.335697,25069.582471,-20893.538999,21842.750531,11531.220261,10772.870275,-0.066000,0.954000,0.232000,192.000000,0.000000,0.000000,0.000000,0.000000,0.000000,0.000000,0.000000,0.000000,0.000000,1647749609.501138,0.000000
131.000000,20088.496219,7803.306914,6735.675840,25064.776846,-20898.054051,21835.687379,11526.302877,10768.466981,-0.066000,0.954000,0.232000,192.000000,0.000000,0.000000,0.000000,0.000000,0.000000,0.000000,0.000000,0.000000,0.000000,1647749609.501148,0.000000
132.000000,20093.525361,7814.303972,6740.973203,25067.749628,-20893.762516,21839.576583,11530.862633,10773.317310,-0.066000,0.954000,0.232000,192.000000,0.000000,0.000000,0.000000,0.000000,0.000000,0.000000,0.000000,0.000000,0.000000,1647749609.507882,0.000000
133.000000,20086.037527,7803.664542,6738.872139,25069.023677,-20897.584665,21837.095539,11525.945249,10771.126839,-0.066000,0.954000,0.232000,192.000000,0.000000,0.000000,0.000000,0.000000,0.000000,0.000000,0.000000,0.000000,0.000000,1647749609.507894,0.000000
134.000000,20082.483599,7800.132966,6734.938232,25066.207357,-20900.579798,21833.161632,11519.619706,10767.014118,-0.066000,0.954000,0.232000,192.000000,0.000000,0.000000,0.000000,0.000000,0.000000,0.000000,0.000000,0.000000,0.000000,1647749609.515828,0.000000
135.000000,20082.550655,7803.552783,6733.820645,25063.100465,-20902.613807,21833.608667,11519.262078,10764.220150,-0.066000,0.954000,0.232000,192.000000,0.000000,0.000000,0.000000,0.000000,0.000000,0.000000,0.000000,0.000000,0.000000,1647749609.515837,0.000000
136.000000,20079.779038,7799.171841,6727.159825,25057.289011,-20907.464136,21833.631019,11521.899584,10763.728412,-0.066000,0.954000,0.232000,192.000000,0.000000,0.000000,0.000000,0.000000,0.000000,0.000000,0.000000,0.000000,0.000000,1647749609.523944,0.000000
137.000000,20081.075440,7806.234992,6725.371686,25059.971220,-20907.084156,21838.034312,11526.481691,10769.070479,-0.066000,0.954000,0.232000,192.000000,0.000000,0.000000,0.000000,0.000000,0.000000,0.000000,0.000000,0.000000,0.000000,1647749609.523955,0.000000
138.000000,20087.356280,7811.420597,6733.910052,25068.800160,-20901.652682,21846.907955,11534.729485,10778.771136,-0.066000,0.954000,0.232000,192.000000,0.000000,0.000000,0.000000,0.000000,0.000000,0.000000,0.000000,0.000000,0.000000,1647749609.530811,0.000000
139.000000,20081.678937,7804.223335,6729.797331,25064.978011,-20909.520496,21841.521185,11530.952040,10775.731298,-0.062000,0.950000,0.234000,192.000000,254.000000,16.000000,29.000000,176.000000,7.000000,80.000000,0.000000,0.000000,0.000000,1647749609.530822,0.000000
140.000000,20079.868445,7796.444928,6729.618517,25056.484348,-20911.152173,21842.772882,11535.601203,10778.547618,-0.062000,0.950000,0.234000,192.000000,0.000000,0.000000,0.000000,0.000000,0.000000,0.000000,0.000000,0.000000,0.000000,1647749609.538479,0.000000
141.000000,20077.521512,7787.034844,6724.052933,25052.684552,-20915.242543,21840.180080,11539.065723,10779.955778,-0.062000,0.950000,0.234000,192.000000,0.000000,0.000000,0.000000,0.000000,0.000000,0.000000,0.000000,0.000000,0.000000,1647749609.538490,0.000000
142.000000,20079.287300,7789.225315,6722.711828,25051.924592,-20913.946141,21839.688342,11544.966584,10782.012139,-0.062000,0.950000,0.234000,192.000000,0.000000,0.000000,0.000000,0.000000,0.000000,0.000000,0.000000,0.000000,0.000000,1647749609.545595,0.000000
143.000000,20082.573006,7793.315684,6728.433875,25058.183081,-20908.291150,21844.561022,11553.057915,10786.527191,-0.062000,0.950000,0.234000,192.000000,0.000000,0.000000,0.000000,0.000000,0.000000,0.000000,0.000000,0.000000,0.000000,1647749609.553423,0.000000
144.000000,20078.527341,7792.399262,6722.734180,25056.283183,-20911.554505,21838.548403,11550.889796,10784.783755,-0.062000,0.950000,0.234000,192.000000,0.000000,0.000000,0.000000,0.000000,0.000000,0.000000,0.000000,0.000000,0.000000,1647749609.553432,0.000000
145.000000,20077.186236,7789.135908,6716.386284,25051.432854,-20914.594342,21830.926458,11544.586604,10779.195819,-0.062000,0.950000,0.234000,192.000000,0.000000,0.000000,0.000000,0.000000,0.000000,0.000000,0.000000,0.000000,0.000000,1647749609.560855,0.000000
146.000000,20078.907320,7795.684969,6725.394037,25053.198642,-20908.626426,21832.491080,11541.323249,10778.122935,-0.062000,0.950000,0.234000,192.000000,0.000000,0.000000,0.000000,0.000000,0.000000,0.000000,0.000000,0.000000,0.000000,1647749609.560871,0.000000
147.000000,20077.029774,7798.478937,6724.991706,25056.149072,-20909.207572,21828.803042,11536.070590,10775.328967,-0.062000,0.950000,0.234000,192.000000,0.000000,0.000000,0.000000,0.000000,0.000000,0.000000,0.000000,0.000000,0.000000,1647749609.568036,0.000000
148.000000,20083.020041,7810.235955,6728.612689,25063.145168,-20903.843153,21832.893411,11536.651735,10777.251217,-0.062000,0.950000,0.234000,192.000000,0.000000,0.000000,0.000000,0.000000,0.000000,0.000000,0.000000,0.000000,0.000000,1647749609.568046,0.000000
149.000000,20081.053088,7804.402149,6725.170520,25059.859462,-20907.754708,21828.758339,11528.828624,10768.802258,-0.064000,0.954000,0.236000,192.000000,254.000000,0.000000,29.000000,208.000000,7.000000,96.000000,0.000000,0.000000,0.000000,1647749609.576383,0.000000
150.000000,20078.259120,7794.902658,6719.470825,25050.024694,-20912.873258,21826.947847,11524.850014,10764.130743,-0.064000,0.954000,0.236000,192.000000,0.000000,0.000000,0.000000,0.000000,0.000000,0.000000,0.000000,0.000000,0.000000,1647749609.576417,0.000000
151.000000,20070.123085,7789.270018,6713.659372,25047.945982,-20919.422319,21825.450280,11523.084226,10764.890702,-0.064000,0.954000,0.236000,192.000000,0.000000,0.000000,0.000000,0.000000,0.000000,0.000000,0.000000,0.000000,0.000000,1647749609.583237,0.000000
152.000000,20069.430181,7786.431347,6711.804177,25047.118967,-20921.322217,21824.310341,11521.720770,10764.734240,-0.064000,0.954000,0.236000,192.000000,0.000000,0.000000,0.000000,0.000000,0.000000,0.000000,0.000000,0.000000,0.000000,1647749609.583247,0.000000
153.000000,20074.012288,7789.515887,6715.872194,25050.091749,-20915.868391,21830.054740,11527.643982,10769.919845,-0.064000,0.954000,0.236000,192.000000,0.000000,0.000000,0.000000,0.000000,0.000000,0.000000,0.000000,0.000000,0.000000,1647749609.590653,0.000000
154.000000,20069.139608,7792.041635,6715.648677,25049.331790,-20917.343607,21827.037254,11524.782959,10767.595263,-0.064000,0.954000,0.236000,192.000000,0.000000,0.000000,0.000000,0.000000,0.000000,0.000000,0.000000,0.000000,0.000000,1647749609.590667,0.000000
155.000000,20072.112390,7794.880306,6718.017962,25048.393017,-20915.734281,21831.597010,11529.230956,10769.204589,-0.064000,0.954000,0.236000,192.000000,0.000000,0.000000,0.000000,0.000000,0.000000,0.000000,0.000000,0.000000,0.000000,1647749609.598659,0.000000
156.000000,20073.386439,7799.998856,6721.482482,25045.330828,-20915.555467,21836.581449,11533.790712,10776.781830,-0.064000,0.954000,0.236000,192.000000,0.000000,0.000000,0.000000,0.000000,0.000000,0.000000,0.000000,0.000000,0.000000,1647749609.598669,0.000000
157.000000,20069.497236,7795.349693,6722.644773,25047.342485,-20916.002502,21838.414292,11539.177482,10780.559275,-0.064000,0.954000,0.236000,192.000000,0.000000,0.000000,0.000000,0.000000,0.000000,0.000000,0.000000,0.000000,0.000000,1647749609.605813,0.000000
158.000000,20064.132817,7779.792879,6714.642848,25051.589316,-20922.283342,21833.541612,11537.612860,10777.273569,-0.064000,0.954000,0.236000,192.000000,0.000000,0.000000,0.000000,0.000000,0.000000,0.000000,0.000000,0.000000,0.000000,1647749609.605825,0.000000
159.000000,20068.536111,7777.781222,6714.955773,25050.628191,-20922.015121,21832.535783,11536.092941,10775.954816,-0.066000,0.958000,0.230000,192.000000,253.000000,240.000000,29.000000,240.000000,7.000000,48.000000,0.000000,0.000000,0.000000,1647749609.612916,0.000000
160.000000,20071.978280,7785.291408,6713.592316,25045.487290,-20920.003464,21833.809833,11536.159997,10778.882894,-0.066000,0.958000,0.230000,192.000000,0.000000,0.000000,0.000000,0.000000,0.000000,0.000000,0.000000,0.000000,0.000000,1647749609.620305,0.000000
161.000000,20079.153190,7804.692722,6721.594241,25050.494081,-20911.040415,21842.817586,11544.631308,10788.315331,-0.066000,0.958000,0.230000,192.000000,0.000000,0.000000,0.000000,0.000000,0.000000,0.000000,0.000000,0.000000,0.000000,1647749609.620311,0.000000
162.000000,20080.248425,7805.586792,6720.320191,25056.551404,-20912.090947,21839.934211,11540.943270,10786.951874,-0.066000,0.958000,0.230000,192.000000,0.000000,0.000000,0.000000,0.000000,0.000000,0.000000,0.000000,0.000000,0.000000,1647749609.628465,0.000000
163.000000,20077.946195,7801.898754,6717.973258,25053.533918,-20913.767328,21835.262696,11534.148340,10783.912037,-0.066000,0.958000,0.230000,192.000000,0.000000,0.000000,0.000000,0.000000,0.000000,0.000000,0.000000,0.000000,0.000000,1647749609.628484,0.000000
164.000000,20073.028812,7794.589733,6715.380456,25049.711770,-20916.024854,21833.563964,11530.281488,10777.541790,-0.066000,0.958000,0.230000,192.000000,0.000000,0.000000,0.000000,0.000000,0.000000,0.000000,0.000000,0.000000,0.000000,1647749609.636381,0.000000
165.000000,20071.061858,7789.270018,6710.127796,25045.666104,-20918.818822,21830.814699,11526.079360,10773.630234,-0.066000,0.958000,0.230000,192.000000,0.000000,0.000000,0.000000,0.000000,0.000000,0.000000,0.000000,0.000000,0.000000,1647749609.636391,0.000000
166.000000,20069.251367,7785.537277,6710.060741,25046.537822,-20919.511726,21825.539687,11519.954982,10768.489333,-0.066000,0.958000,0.230000,192.000000,0.000000,0.000000,0.000000,0.000000,0.000000,0.000000,0.000000,0.000000,0.000000,1647749609.643312,0.000000
167.000000,20068.357297,7780.284617,6710.463072,25045.643752,-20919.735243,21823.528030,11519.172671,10766.477676,-0.066000,0.958000,0.230000,192.000000,0.000000,0.000000,0.000000,0.000000,0.000000,0.000000,0.000000,0.000000,0.000000,1647749609.643329,0.000000
168.000000,20067.396172,7777.758870,6706.082130,25042.738026,-20923.870316,21820.398786,11516.713979,10765.650662,-0.066000,0.958000,0.230000,192.000000,0.000000,0.000000,0.000000,0.000000,0.000000,0.000000,0.000000,0.000000,0.000000,1647749609.650974,0.000000
169.000000,20078.952024,7789.046501,6705.724502,25041.441624,-20920.718720,21823.103347,11521.184328,10767.505856,-0.066000,0.958000,0.230000,192.000000,0.000000,0.000000,0.000000,0.000000,0.000000,0.000000,0.000000,0.000000,0.000000,1647749609.650983,0.000000
170.000000,20082.081268,7797.048425,6706.506813,25044.056778,-20917.567124,21828.445414,11529.119197,10771.260950,-0.060000,0.964000,0.224000,192.000000,254.000000,32.000000,30.000000,32.000000,7.000000,0.000000,0.000000,0.000000,0.000000,1647749609.659044,0.000000
171.000000,20081.231902,7798.948324,6713.547613,25049.845880,-20911.755671,21837.050836,11540.228014,10780.738089,-0.060000,0.964000,0.224000,192.000000,0.000000,0.000000,0.000000,0.000000,0.000000,0.000000,0.000000,0.000000,0.000000,1647749609.659070,0.000000
172.000000,20074.928710,7793.628608,6710.954810,25050.404674,-20916.695406,21832.356969,11536.629383,10776.804182,-0.060000,0.964000,0.224000,192.000000,0.000000,0.000000,0.000000,0.000000,0.000000,0.000000,0.000000,0.000000,0.000000,1647749609.666272,0.000000
173.000000,20082.774172,7800.065911,6712.318267,25049.175328,-20915.019025,21834.994475,11537.769322,10778.927598,-0.060000,0.964000,0.224000,192.000000,0.000000,0.000000,0.000000,0.000000,0.000000,0.000000,0.000000,0.000000,0.000000,1647749609.666285,0.000000
174.000000,20090.552579,7805.698550,6719.224956,25052.595145,-20906.927694,21843.532842,11544.296032,10789.164697,-0.060000,0.964000,0.224000,192.000000,0.000000,0.000000,0.000000,0.000000,0.000000,0.000000,0.000000,0.000000,0.000000,1647749609.672704,0.000000
175.000000,20081.947158,7794.768547,6715.201642,25048.862403,-20910.325159,21844.449263,11541.882043,10789.432918,-0.060000,0.964000,0.224000,192.000000,0.000000,0.000000,0.000000,0.000000,0.000000,0.000000,0.000000,0.000000,0.000000,1647749609.680674,0.000000
176.000000,20073.609957,7786.163126,6712.988819,25045.330828,-20912.113298,21844.829243,11537.948136,10782.749746,-0.060000,0.964000,0.224000,192.000000,0.000000,0.000000,0.000000,0.000000,0.000000,0.000000,0.000000,0.000000,0.000000,1647749609.680684,0.000000
177.000000,20084.316443,7791.661655,6716.743912,25050.069398,-20907.508839,21847.757321,11535.757665,10781.363938,-0.060000,0.964000,0.224000,192.000000,0.000000,0.000000,0.000000,0.000000,0.000000,0.000000,0.000000,0.000000,0.000000,1647749609.689356,0.000000
178.000000,20091.848980,7788.711225,6719.739046,25058.138377,-20906.570066,21848.271411,11531.197909,10782.928560,-0.060000,0.964000,0.224000,192.000000,0.000000,0.000000,0.000000,0.000000,0.000000,0.000000,0.000000,0.000000,0.000000,1647749609.689363,0.000000
179.000000,20076.426277,7778.921161,6720.051970,25051.857537,-20909.632255,21849.545461,11529.230956,10782.280360,-0.060000,0.964000,0.224000,192.000000,0.000000,0.000000,0.000000,0.000000,0.000000,0.000000,0.000000,0.000000,0.000000,1647749609.695938,0.000000
180.000000,20067.820855,7781.111632,6716.565098,25044.190889,-20916.069557,21845.164519,11526.593450,10777.161810,-0.062000,0.966000,0.228000,192.000000,254.000000,16.000000,30.000000,48.000000,7.000000,32.000000,0.000000,0.000000,0.000000,1647749609.695944,0.000000
181.000000,20078.259120,7793.293332,6720.454302,25044.056778,-20912.090947,21848.025542,11530.750874,10777.139458,-0.062000,0.966000,0.228000,192.000000,0.000000,0.000000,0.000000,0.000000,0.000000,0.000000,0.000000,0.000000,0.000000,1647749609.703867,0.000000
182.000000,20085.210512,7792.511021,6722.689476,25045.487290,-20910.503973,21851.713580,11532.516662,10780.000482,-0.062000,0.966000,0.228000,192.000000,0.000000,0.000000,0.000000,0.000000,0.000000,0.000000,0.000000,0.000000,0.000000,1647749609.703875,0.000000
183.000000,20087.177466,7787.459527,6721.795407,25047.118967,-20910.302807,21853.479368,11532.896642,10780.022833,-0.062000,0.966000,0.228000,192.000000,0.000000,0.000000,0.000000,0.000000,0.000000,0.000000,0.000000,0.000000,0.000000,1647749609.710650,0.000000
184.000000,20085.858713,7788.353597,6723.091808,25050.628191,-20907.441784,21856.519205,11535.198872,10781.162772,-0.062000,0.966000,0.228000,192.000000,0.000000,0.000000,0.000000,0.000000,0.000000,0.000000,0.000000,0.000000,0.000000,1647749609.710667,0.000000
185.000000,20086.126934,7793.069815,6722.935346,25051.745779,-20906.614769,21854.954583,11536.495273,10780.492220,-0.062000,0.966000,0.228000,192.000000,0.000000,0.000000,0.000000,0.000000,0.000000,0.000000,0.000000,0.000000,0.000000,1647749609.718610,0.000000
186.000000,20084.070573,7798.166013,6720.878985,25049.890584,-20908.022929,21852.764112,11533.522491,10775.507781,-0.062000,0.966000,0.228000,192.000000,0.000000,0.000000,0.000000,0.000000,0.000000,0.000000,0.000000,0.000000,0.000000,1647749609.718619,0.000000
187.000000,20080.471942,7792.220449,6720.834282,25043.430930,-20910.593380,21851.355952,11534.483616,10773.920807,-0.062000,0.966000,0.228000,192.000000,0.000000,0.000000,0.000000,0.000000,0.000000,0.000000,0.000000,0.000000,0.000000,1647749609.726737,0.000000
188.000000,20085.456381,7788.890039,6725.125816,25044.839089,-20905.877162,21858.128531,11540.295069,10779.709909,-0.062000,0.966000,0.228000,192.000000,0.000000,0.000000,0.000000,0.000000,0.000000,0.000000,0.000000,0.000000,0.000000,1647749609.726754,0.000000
189.000000,20072.514721,7773.802611,6713.882889,25039.407616,-20917.410662,21846.349161,11526.794616,10769.137534,-0.062000,0.966000,0.228000,192.000000,0.000000,0.000000,0.000000,0.000000,0.000000,0.000000,0.000000,0.000000,0.000000,1647749609.733569,0.000000
190.000000,20064.356335,7766.426535,6710.172499,25030.399863,-20922.909191,21839.107196,11514.076473,10758.542807,-0.064000,0.958000,0.222000,192.000000,254.000000,0.000000,29.000000,240.000000,6.000000,240.000000,0.000000,0.000000,0.000000,1647749609.740368,0.000000
191.000000,20068.983146,7773.892018,6714.642848,25029.684607,-20919.243505,21845.320981,11514.121176,10763.393135,-0.064000,0.958000,0.222000,192.000000,0.000000,0.000000,0.000000,0.000000,0.000000,0.000000,0.000000,0.000000,0.000000,1647749609.740379,0.000000
192.000000,20073.654660,7779.636416,6713.435854,25031.115118,-20920.294037,21845.544499,11513.249458,10766.589435,-0.064000,0.958000,0.222000,192.000000,0.000000,0.000000,0.000000,0.000000,0.000000,0.000000,0.000000,0.000000,0.000000,1647749609.748332,0.000000
193.000000,20079.711983,7775.613102,6713.480558,25030.466918,-20918.863525,21849.925441,11520.223203,10771.216246,-0.064000,0.958000,0.222000,192.000000,0.000000,0.000000,0.000000,0.000000,0.000000,0.000000,0.000000,0.000000,0.000000,1647749609.748370,0.000000
194.000000,20080.516646,7786.073719,6717.012133,25035.630171,-20912.448575,21854.932231,11523.866537,10775.999519,-0.064000,0.958000,0.222000,192.000000,0.000000,0.000000,0.000000,0.000000,0.000000,0.000000,0.000000,0.000000,0.000000,1647749609.756375,0.000000
195.000000,20089.524399,7796.511983,6721.415427,25043.073302,-20909.855772,21855.871005,11522.391322,10774.725470,-0.064000,0.958000,0.222000,192.000000,0.000000,0.000000,0.000000,0.000000,0.000000,0.000000,0.000000,0.000000,0.000000,1647749609.756387,0.000000
196.000000,20084.092925,7791.549896,6718.107369,25034.736101,-20917.164793,21845.164519,11514.568211,10765.516551,-0.064000,0.958000,0.222000,192.000000,0.000000,0.000000,0.000000,0.000000,0.000000,0.000000,0.000000,0.000000,0.000000,1647749609.762975,0.000000
197.000000,20082.997690,7793.449794,6719.560232,25039.117043,-20913.566162,21847.712618,11518.613877,10766.969415,-0.064000,0.958000,0.222000,192.000000,0.000000,0.000000,0.000000,0.000000,0.000000,0.000000,0.000000,0.000000,0.000000,1647749609.762987,0.000000
198.000000,20079.533169,7783.726786,6717.928555,25044.749683,-20916.002502,21843.644600,11516.982200,10764.086040,-0.064000,0.958000,0.222000,192.000000,0.000000,0.000000,0.000000,0.000000,0.000000,0.000000,0.000000,0.000000,0.000000,1647749609.770982,0.000000
199.000000,20083.288262,7782.676254,6718.308534,25045.040255,-20915.957798,21842.303496,11516.959848,10763.884874,-0.064000,0.958000,0.222000,192.000000,0.000000,0.000000,0.000000,0.000000,0.000000,0.000000,0.000000,0.000000,0.000000,1647749609.770993,0.000000
200.000000,20084.361146,7785.246704,6718.085017,25043.565040,-20913.342644,21843.666952,11517.026903,10765.270682,-0.066000,0.952000,0.232000,192.000000,253.000000,240.000000,29.000000,192.000000,7.000000,64.000000,0.000000,0.000000,0.000000,1647749609.779032,0.000000
201.000000,20085.165809,7787.526582,6717.772093,25044.079130,-20913.432051,21843.309324,11512.400092,10762.677880,-0.066000,0.952000,0.232000,192.000000,0.000000,0.000000,0.000000,0.000000,0.000000,0.000000,0.000000,0.000000,0.000000,1647749609.779044,0.000000
202.000000,20084.115277,7790.767585,6718.219127,25048.236555,-20911.599208,21848.293763,11512.444796,10764.778944,-0.066000,0.952000,0.232000,192.000000,0.000000,0.000000,0.000000,0.000000,0.000000,0.000000,0.000000,0.000000,0.000000,1647749609.785989,0.000000
203.000000,20081.433067,7788.711225,6716.900375,25045.107310,-20914.370825,21850.014848,11511.930706,10766.567083,-0.066000,0.952000,0.232000,192.000000,0.000000,0.000000,0.000000,0.000000,0.000000,0.000000,0.000000,0.000000,0.000000,1647749609.785999,0.000000
204.000000,20081.835399,7785.872553,6712.474729,25040.100520,-20919.131746,21849.478406,11512.243630,10767.975243,-0.066000,0.952000,0.232000,192.000000,0.000000,0.000000,0.000000,0.000000,0.000000,0.000000,0.000000,0.000000,0.000000,1647749609.792934,0.000000
205.000000,20083.064745,7786.766623,6711.893584,25034.490232,-20920.763424,21850.864214,11515.976371,10769.629272,-0.066000,0.952000,0.232000,192.000000,0.000000,0.000000,0.000000,0.000000,0.000000,0.000000,0.000000,0.000000,0.000000,1647749609.800570,0.000000
206.000000,20081.768344,7786.967789,6708.004380,25032.143299,-20925.278476,21848.785502,11515.775206,10769.472810,-0.066000,0.952000,0.232000,192.000000,0.000000,0.000000,0.000000,0.000000,0.000000,0.000000,0.000000,0.000000,0.000000,1647749609.800583,0.000000
207.000000,20082.528303,7790.678178,6713.100578,25033.864383,-20920.383444,21852.674705,11521.787825,10774.501952,-0.066000,0.952000,0.232000,192.000000,0.000000,0.000000,0.000000,0.000000,0.000000,0.000000,0.000000,0.000000,0.000000,1647749609.808564,0.000000
208.000000,20080.941329,7790.722882,6716.609802,25037.619476,-20916.628351,21854.664010,11526.705209,10774.524304,-0.066000,0.952000,0.232000,192.000000,0.000000,0.000000,0.000000,0.000000,0.000000,0.000000,0.000000,0.000000,0.000000,1647749609.808577,0.000000
209.000000,20086.909245,7789.895867,6721.482482,25043.721502,-20911.755671,21858.352048,11533.589546,10777.206514,-0.066000,0.952000,0.232000,192.000000,0.000000,0.000000,0.000000,0.000000,0.000000,0.000000,0.000000,0.000000,0.000000,1647749609.815573,0.000000
210.000000,20087.535094,7789.426480,6719.359066,25046.560174,-20910.347511,21858.530862,11534.796540,10777.027700,-0.060000,0.952000,0.236000,192.000000,254.000000,32.000000,29.000000,192.000000,7.000000,96.000000,0.000000,0.000000,0.000000,1647749609.815585,0.000000
211.000000,20087.758611,7797.204888,6721.393075,25049.622363,-20907.955874,21856.563909,11531.019095,10774.524304,-0.060000,0.952000,0.236000,192.000000,0.000000,0.000000,0.000000,0.000000,0.000000,0.000000,0.000000,0.000000,0.000000,1647749609.823332,0.000000
212.000000,20094.285321,7796.847260,6726.869253,25047.543651,-20905.452479,21855.938060,11527.442816,10772.669109,-0.060000,0.952000,0.236000,192.000000,0.000000,0.000000,0.000000,0.000000,0.000000,0.000000,0.000000,0.000000,0.000000,1647749609.823345,0.000000
213.000000,20092.117201,7789.895867,6727.405694,25049.711770,-20908.872295,21852.719409,11523.195985,10771.082136,-0.060000,0.952000,0.236000,192.000000,0.000000,0.000000,0.000000,0.000000,0.000000,0.000000,0.000000,0.000000,0.000000,1647749609.831481,0.000000
214.000000,20092.452478,7794.187402,6722.957697,25049.801177,-20909.967531,21848.316115,11518.479767,10767.707022,-0.060000,0.952000,0.236000,192.000000,0.000000,0.000000,0.000000,0.000000,0.000000,0.000000,0.000000,0.000000,0.000000,1647749609.831506,0.000000
215.000000,20101.080251,7807.643152,6729.886738,25051.365799,-20900.736261,21855.021638,11522.033694,10772.177371,-0.060000,0.952000,0.236000,192.000000,0.000000,0.000000,0.000000,0.000000,0.000000,0.000000,0.000000,0.000000,0.000000,1647749609.839236,0.000000
216.000000,20101.370824,7805.855013,6732.434837,25053.466863,-20897.852885,21855.468673,11520.513775,10775.172505,-0.060000,0.952000,0.236000,192.000000,0.000000,0.000000,0.000000,0.000000,0.000000,0.000000,0.000000,0.000000,0.000000,1647749609.839247,0.000000
217.000000,20101.683748,7805.989123,6732.859520,25053.265697,-20898.322272,21851.534766,11514.188232,10773.607883,-0.060000,0.952000,0.236000,192.000000,0.000000,0.000000,0.000000,0.000000,0.000000,0.000000,0.000000,0.000000,0.000000,1647749609.845978,0.000000
218.000000,20091.625463,7797.204888,6724.812892,25049.555308,-20908.246447,21843.488138,11504.487575,10767.639967,-0.060000,0.952000,0.236000,192.000000,0.000000,0.000000,0.000000,0.000000,0.000000,0.000000,0.000000,0.000000,0.000000,1647749609.845989,0.000000
219.000000,20087.423335,7789.381777,6719.560232,25047.230726,-20914.504935,21842.303496,11505.068720,10767.617615,-0.060000,0.952000,0.236000,192.000000,0.000000,0.000000,0.000000,0.000000,0.000000,0.000000,0.000000,0.000000,0.000000,1647749609.853240,0.000000
220.000000,20088.831495,7788.264190,6716.676857,25041.352217,-20917.567124,21843.354028,11507.438005,10767.014118,-0.062000,0.954000,0.234000,192.000000,254.000000,16.000000,29.000000,208.000000,7.000000,80.000000,0.000000,0.000000,0.000000,1647749609.853257,0.000000
221.000000,20087.691556,7791.214620,6716.609802,25040.368741,-20916.136612,21843.778711,11509.293200,10766.589435,-0.062000,0.954000,0.234000,192.000000,0.000000,0.000000,0.000000,0.000000,0.000000,0.000000,0.000000,0.000000,0.000000,1647749609.860939,0.000000
222.000000,20073.721716,7791.438137,6706.931496,25036.546592,-20924.429110,21833.876888,11501.715958,10759.638042,-0.062000,0.954000,0.234000,192.000000,0.000000,0.000000,0.000000,0.000000,0.000000,0.000000,0.000000,0.000000,0.000000,1647749609.868013,0.000000
223.000000,20074.504027,7788.040672,6707.624401,25038.379435,-20922.708025,21838.794272,11507.773281,10766.008290,-0.062000,0.954000,0.234000,192.000000,0.000000,0.000000,0.000000,0.000000,0.000000,0.000000,0.000000,0.000000,0.000000,1647749609.868027,0.000000
224.000000,20073.520550,7781.312797,6701.790595,25034.490232,-20927.200726,21834.860365,11508.309723,10763.728412,-0.062000,0.954000,0.234000,192.000000,0.000000,0.000000,0.000000,0.000000,0.000000,0.000000,0.000000,0.000000,0.000000,1647749609.875642,0.000000
225.000000,20080.740163,7786.029015,6700.851822,25029.751662,-20924.786738,21836.179118,11512.042464,10764.689537,-0.062000,0.954000,0.234000,192.000000,0.000000,0.000000,0.000000,0.000000,0.000000,0.000000,0.000000,0.000000,0.000000,1647749609.875651,0.000000
226.000000,20079.756687,7784.464393,6700.941229,25030.444566,-20925.323179,21834.838013,11511.260153,10763.281377,-0.062000,0.954000,0.234000,192.000000,0.000000,0.000000,0.000000,0.000000,0.000000,0.000000,0.000000,0.000000,0.000000,1647749609.883605,0.000000
227.000000,20075.934538,7789.247667,6701.902354,25031.830374,-20923.825613,21836.268525,11512.556554,10761.828513,-0.062000,0.954000,0.234000,192.000000,0.000000,0.000000,0.000000,0.000000,0.000000,0.000000,0.000000,0.000000,0.000000,1647749609.883612,0.000000
228.000000,20078.706155,7790.007626,6706.439758,25036.568944,-20921.881011,21836.156766,11509.516717,10756.978185,-0.062000,0.954000,0.234000,192.000000,0.000000,0.000000,0.000000,0.000000,0.000000,0.000000,0.000000,0.000000,0.000000,1647749609.891845,0.000000
229.000000,20073.654660,7782.631550,6706.707979,25033.238534,-20922.976246,21834.592144,11508.644999,10756.709964,-0.062000,0.954000,0.234000,192.000000,0.000000,0.000000,0.000000,0.000000,0.000000,0.000000,0.000000,0.000000,0.000000,1647749609.891862,0.000000
230.000000,20080.829570,7786.900733,6708.831395,25029.706958,-20918.081214,21843.711656,11515.931668,10766.589435,-0.060000,0.958000,0.232000,192.000000,254.000000,32.000000,29.000000,240.000000,7.000000,64.000000,0.000000,0.000000,0.000000,1647749609.898171,0.000000
231.000000,20081.813047,7786.029015,6712.541784,25031.048063,-20917.567124,21844.941002,11516.199889,10766.231807,-0.060000,0.958000,0.232000,192.000000,0.000000,0.000000,0.000000,0.000000,0.000000,0.000000,0.000000,0.000000,0.000000,1647749609.898182,0.000000
232.000000,20085.456381,7783.167992,6716.498043,25034.065549,-20919.489374,21841.990571,11510.835470,10760.956795,-0.060000,0.958000,0.232000,192.000000,0.000000,0.000000,0.000000,0.000000,0.000000,0.000000,0.000000,0.000000,0.000000,1647749609.906392,0.000000
233.000000,20076.515684,7777.870629,6708.026732,25033.394996,-20927.759520,21837.028484,11503.682912,10755.324156,-0.060000,0.958000,0.232000,192.000000,0.000000,0.000000,0.000000,0.000000,0.000000,0.000000,0.000000,0.000000,0.000000,1647749609.906409,0.000000
234.000000,20074.995765,7780.061100,6702.014113,25031.830374,-20929.659418,21834.838013,11503.057063,10755.525321,-0.060000,0.958000,0.232000,192.000000,0.000000,0.000000,0.000000,0.000000,0.000000,0.000000,0.000000,0.000000,0.000000,1647749609.914161,0.000000
235.000000,20083.601187,7793.740367,6709.859575,25040.122871,-20919.668188,21844.158690,11509.941400,10766.857656,-0.060000,0.958000,0.232000,192.000000,0.000000,0.000000,0.000000,0.000000,0.000000,0.000000,0.000000,0.000000,0.000000,1647749609.914183,0.000000
236.000000,20083.802352,7792.488669,6710.574831,25041.821604,-20920.651665,21845.008057,11509.695531,10769.718679,-0.060000,0.958000,0.232000,192.000000,0.000000,0.000000,0.000000,0.000000,0.000000,0.000000,0.000000,0.000000,0.000000,1647749609.921450,0.000000
237.000000,20077.476809,7782.005701,6711.178328,25037.731235,-20919.824650,21846.885603,11510.902525,10771.238598,-0.060000,0.958000,0.232000,192.000000,0.000000,0.000000,0.000000,0.000000,0.000000,0.000000,0.000000,0.000000,0.000000,1647749609.928136,0.000000
238.000000,20082.148323,7786.766623,6719.739046,25041.866307,-20912.515630,21853.211147,11517.272772,10775.664243,-0.060000,0.958000,0.232000,192.000000,0.000000,0.000000,0.000000,0.000000,0.000000,0.000000,0.000000,0.000000,0.000000,1647749609.928154,0.000000
239.000000,20081.634233,7785.827850,6721.527186,25045.219069,-20913.052072,21852.898223,11518.457415,10775.574836,-0.060000,0.958000,0.232000,192.000000,0.000000,0.000000,0.000000,0.000000,0.000000,0.000000,0.000000,0.000000,0.000000,1647749609.935865,0.000000
240.000000,20076.470980,7778.608236,6717.772093,25042.805081,-20916.896572,21848.316115,11515.372874,10770.948025,-0.056000,0.950000,0.232000,192.000000,254.000000,64.000000,29.000000,176.000000,7.000000,64.000000,0.000000,0.000000,0.000000,1647749609.935875,0.000000
241.000000,20081.030736,7786.721919,6720.253136,25046.381360,-20912.493278,21848.897260,11518.055084,10770.188066,-0.056000,0.950000,0.232000,192.000000,0.000000,0.000000,0.000000,0.000000,0.000000,0.000000,0.000000,0.000000,0.000000,1647749609.943888,0.000000
242.000000,20089.658509,7792.511021,6728.031543,25049.644715,-20904.826630,21854.887528,11525.833491,10776.804182,-0.056000,0.950000,0.232000,192.000000,0.000000,0.000000,0.000000,0.000000,0.000000,0.000000,0.000000,0.000000,0.000000,1647749609.943902,0.000000
243.000000,20090.932559,7787.772451,6729.909090,25055.299706,-20900.579798,21858.240289,11527.241650,10778.055880,-0.056000,0.950000,0.232000,192.000000,0.000000,0.000000,0.000000,0.000000,0.000000,0.000000,0.000000,0.000000,0.000000,1647749609.951271,0.000000
244.000000,20085.702251,7780.061100,6727.383343,25052.036351,-20905.430127,21854.596955,11524.090055,10774.010214,-0.056000,0.950000,0.232000,192.000000,0.000000,0.000000,0.000000,0.000000,0.000000,0.000000,0.000000,0.000000,0.000000,1647749609.951288,0.000000
245.000000,20076.873312,7772.394451,6721.862462,25045.867270,-20907.598246,21855.558080,11525.967601,10772.758516,-0.056000,0.950000,0.232000,192.000000,0.000000,0.000000,0.000000,0.000000,0.000000,0.000000,0.000000,0.000000,0.000000,1647749609.958540,0.000000
246.000000,20076.023945,7770.092222,6717.280354,25045.889621,-20910.258104,21851.646525,11520.446720,10766.924711,-0.056000,0.950000,0.232000,192.000000,0.000000,0.000000,0.000000,0.000000,0.000000,0.000000,0.000000,0.000000,0.000000,1647749609.958552,0.000000
247.000000,20077.208588,7774.897847,6715.894546,25041.531031,-20911.353339,21848.249060,11516.401054,10765.628310,-0.056000,0.950000,0.232000,192.000000,0.000000,0.000000,0.000000,0.000000,0.000000,0.000000,0.000000,0.000000,0.000000,1647749609.966511,0.000000
248.000000,20078.884969,7782.698605,6724.119988,25044.213241,-20906.927694,21852.965278,11522.301915,10769.249293,-0.056000,0.950000,0.232000,192.000000,0.000000,0.000000,0.000000,0.000000,0.000000,0.000000,0.000000,0.000000,0.000000,1647749609.966517,0.000000
249.000000,20082.461248,7781.603370,6723.315325,25044.324999,-20908.089984,21855.736894,11523.911241,10769.942197,-0.056000,0.950000,0.232000,192.000000,0.000000,0.000000,0.000000,0.000000,0.000000,0.000000,0.000000,0.000000,0.000000,1647749609.973931,0.000000
250.000000,20083.332966,7778.250608,6725.282279,25046.850746,-20907.710005,21858.240289,11523.799482,10769.070479,-0.054000,0.952000,0.230000,192.000000,254.000000,80.000000,29.000000,192.000000,7.000000,48.000000,0.000000,0.000000,0.000000,1647749609.973948,0.000000
251.000000,20079.488466,7776.708338,6722.488311,25048.795348,-20910.414566,21854.015810,11519.105616,10765.248330,-0.054000,0.952000,0.230000,192.000000,0.000000,0.000000,0.000000,0.000000,0.000000,0.000000,0.000000,0.000000,0.000000,1647749609.980109,0.000000
252.000000,20074.414620,7771.880361,6712.184156,25042.290991,-20917.678883,21845.008057,11509.673179,10757.246406,-0.054000,0.952000,0.230000,192.000000,0.000000,0.000000,0.000000,0.000000,0.000000,0.000000,0.000000,0.000000,0.000000,1647749609.988249,0.000000
253.000000,20081.567178,7775.814268,6711.066569,25039.966409,-20915.890743,21846.729141,11511.483671,10759.414525,-0.054000,0.952000,0.230000,192.000000,0.000000,0.000000,0.000000,0.000000,0.000000,0.000000,0.000000,0.000000,0.000000,1647749609.988260,0.000000
254.000000,20092.296015,7783.078585,6723.583546,25050.091749,-20902.926731,21857.502682,11523.955944,10770.098659,-0.054000,0.952000,0.230000,192.000000,0.000000,0.000000,0.000000,0.000000,0.000000,0.000000,0.000000,0.000000,0.000000,1647749609.996312,0.000000
255.000000,20090.172600,7778.719995,6722.130683,25048.951810,-20906.860638,21855.491025,11521.340790,10769.584569,-0.054000,0.952000,0.230000,192.000000,0.000000,0.000000,0.000000,0.000000,0.000000,0.000000,0.000000,0.000000,0.000000,1647749609.996329,0.000000
0.000000,20092.117201,7784.062062,6727.718619,25050.024694,-20903.329063,21860.743685,11524.626496,10773.518476,-0.054000,0.952000,0.230000,192.000000,0.000000,0.000000,0.000000,0.000000,0.000000,0.000000,0.000000,0.000000,0.000000,1647749610.003271,0.000000
1.000000,20085.143457,7782.899771,6722.242441,25047.230726,-20906.882990,21855.871005,11519.552650,10765.471848,-0.054000,0.952000,0.230000,192.000000,0.000000,0.000000,0.000000,0.000000,0.000000,0.000000,0.000000,0.000000,0.000000,1647749610.003289,0.000000
2.000000,20085.814009,7781.312797,6715.559270,25044.548517,-20911.733319,21851.065380,11517.630400,10761.292071,-0.054000,0.952000,0.230000,192.000000,0.000000,0.000000,0.000000,0.000000,0.000000,0.000000,0.000000,0.000000,0.000000,1647749610.011094,0.000000
3.000000,20079.153190,7776.037786,6713.033523,25043.363874,-20916.091909,21849.299592,11517.138662,10761.604996,-0.054000,0.952000,0.230000,192.000000,0.000000,0.000000,0.000000,0.000000,0.000000,0.000000,0.000000,0.000000,0.000000,1647749610.011112,0.000000
4.000000,20078.527341,7779.323492,6711.111273,25038.647656,-20918.237676,21849.299592,11516.266944,10765.740069,-0.054000,0.952000,0.230000,192.000000,0.000000,0.000000,0.000000,0.000000,0.000000,0.000000,0.000000,0.000000,0.000000,1647749610.018847,0.000000
5.000000,20084.249387,7783.749137,6711.647715,25041.575735,-20917.656531,21850.998324,11518.926802,10771.260950,-0.060000,0.950000,0.224000,192.000000,254.000000,32.000000,29.000000,176.000000,7.000000,0.000000,0.000000,0.000000,0.000000,1647749610.018859,0.000000
6.000000,20076.359222,7778.854105,6712.094749,25041.843956,-20918.327083,21852.339429,11520.893755,10774.971339,-0.060000,0.950000,0.224000,192.000000,0.000000,0.000000,0.000000,0.000000,0.000000,0.000000,0.000000,0.000000,0.000000,1647749610.027150,0.000000
7.000000,20075.822780,7770.382794,6710.574831,25042.290991,-20920.763424,21848.293763,11514.679970,10771.998557,-0.060000,0.950000,0.224000,192.000000,0.000000,0.000000,0.000000,0.000000,0.000000,0.000000,0.000000,0.000000,0.000000,1647749610.027166,0.000000
8.000000,20084.405850,7774.227294,6713.860537,25044.302648,-20914.728453,21851.020676,11517.004552,10773.630234,-0.060000,0.950000,0.224000,192.000000,0.000000,0.000000,0.000000,0.000000,0.000000,0.000000,0.000000,0.000000,0.000000,1647749610.033363,0.000000
9.000000,20087.400983,7783.279751,6723.985878,25051.432854,-20905.340720,21861.213071,11524.470034,10780.112240,-0.060000,0.950000,0.224000,192.000000,0.000000,0.000000,0.000000,0.000000,0.000000,0.000000,0.000000,0.000000,0.000000,1647749610.033372,0.000000
10.000000,20085.702251,7780.284617,6722.085979,25051.678723,-20910.168697,21857.972069,11518.703284,10776.714775,-0.060000,0.950000,0.224000,192.000000,0.000000,0.000000,0.000000,0.000000,0.000000,0.000000,0.000000,0.000000,0.000000,1647749610.040349,0.000000
11.000000,20084.852884,7778.407070,6722.622421,25050.784654,-20911.263932,21853.457016,11514.009418,10771.149191,-0.060000,0.950000,0.224000,192.000000,0.000000,0.000000,0.000000,0.000000,0.000000,0.000000,0.000000,0.000000,0.000000,1647749610.048451,0.000000
12.000000,20085.679899,7785.202001,6723.248270,25049.577659,-20909.095813,21850.975973,11511.550726,10765.874179,-0.060000,0.950000,0.224000,192.000000,0.000000,0.000000,0.000000,0.000000,0.000000,0.000000,0.000000,0.000000,0.000000,1647749610.048459,0.000000
13.000000,20085.188161,7783.302102,6720.409598,25048.482424,-20912.895609,21843.555193,11505.113423,10757.648737,-0.060000,0.950000,0.224000,192.000000,0.000000,0.000000,0.000000,0.000000,0.000000,0.000000,0.000000,0.000000,0.000000,1647749610.056814,0.000000
14.000000,20075.129876,7766.068908,6707.490290,25037.619476,-20924.272647,21830.814699,11494.384586,10747.456342,-0.060000,0.950000,0.224000,192.000000,0.000000,0.000000,0.000000,0.000000,0.000000,0.000000,0.000000,0.000000,0.000000,1647749610.056831,0.000000
15.000000,20078.862617,7776.306006,6705.836261,25031.584505,-20922.775081,21833.519260,11500.553668,10751.658470,-0.064000,0.948000,0.222000,192.000000,254.000000,0.000000,29.000000,160.000000,6.000000,240.000000,0.000000,0.000000,0.000000,1647749610.063091,0.000000
16.000000,20091.156076,7786.274884,6719.962564,25043.877964,-20909.207572,21845.075112,11513.517679,10763.482542,-0.064000,0.948000,0.222000,192.000000,0.000000,0.000000,0.000000,0.000000,0.000000,0.000000,0.000000,0.000000,0.000000,1647749610.063102,0.000000
17.000000,20092.474829,7785.179649,6722.085979,25052.751607,-20905.564237,21850.014848,11518.636229,10769.025775,-0.064000,0.948000,0.222000,192.000000,0.000000,0.000000,0.000000,0.000000,0.000000,0.000000,0.000000,0.000000,0.000000,1647749610.071148,0.000000
18.000000,20096.922826,7790.745233,6728.500930,25062.698133,-20897.539961,21855.491025,11521.273735,10771.551522,-0.064000,0.948000,0.222000,192.000000,0.000000,0.000000,0.000000,0.000000,0.000000,0.000000,0.000000,0.000000,0.000000,1647749610.071159,0.000000
19.000000,20094.084155,7790.231143,6729.685572,25069.023677,-20895.036566,21857.256813,11519.932630,10773.607883,-0.064000,0.948000,0.222000,192.000000,0.000000,0.000000,0.000000,0.000000,0.000000,0.000000,0.000000,0.000000,0.000000,1647749610.079260,0.000000
20.000000,20088.496219,7783.458565,6725.215223,25057.065494,-20901.429165,21851.557118,11511.997761,10770.053955,-0.064000,0.948000,0.222000,192.000000,0.000000,0.000000,0.000000,0.000000,0.000000,0.000000,0.000000,0.000000,0.000000,1647749610.079277,0.000000
21.000000,20090.217303,7787.258361,6726.802197,25058.004267,-20899.126935,21854.149920,11513.003589,10772.311482,-0.064000,0.948000,0.222000,192.000000,0.000000,0.000000,0.000000,0.000000,0.000000,0.000000,0.000000,0.000000,0.000000,1647749610.086142,0.000000
22.000000,20087.758611,7793.181574,6727.159825,25057.534880,-20897.785830,21855.334563,11513.852956,10771.730336,-0.064000,0.948000,0.222000,192.000000,0.000000,0.000000,0.000000,0.000000,0.000000,0.000000,0.000000,0.000000,0.000000,1647749610.086161,0.000000
23.000000,20098.196876,7798.277771,6730.423180,25062.944003,-20889.918016,21863.224728,11520.893755,10779.374633,-0.064000,0.948000,0.222000,192.000000,0.000000,0.000000,0.000000,0.000000,0.000000,0.000000,0.000000,0.000000,0.000000,1647749610.093900,0.000000
24.000000,20099.828553,7790.991103,6728.500930,25063.301630,-20893.360185,21861.682458,11518.926802,10778.949950,-0.064000,0.948000,0.222000,192.000000,0.000000,0.000000,0.000000,0.000000,0.000000,0.000000,0.000000,0.000000,0.000000,1647749610.093917,0.000000
25.000000,20089.166771,7788.085376,6721.594241,25060.194738,-20900.110412,21854.731066,11514.121176,10774.770173,-0.070000,0.954000,0.222000,192.000000,253.000000,208.000000,29.000000,208.000000,6.000000,240.000000,0.000000,0.000000,0.000000,1647749610.100837,0.000000
26.000000,20084.964643,7789.381777,6719.224956,25053.645677,-20904.647816,21846.282106,11511.103691,10769.696327,-0.070000,0.954000,0.222000,192.000000,0.000000,0.000000,0.000000,0.000000,0.000000,0.000000,0.000000,0.000000,0.000000,1647749610.100846,0.000000
27.000000,20091.401946,7788.688873,6719.135549,25052.326924,-20904.267836,21845.790368,11514.009418,10770.121011,-0.070000,0.954000,0.222000,192.000000,0.000000,0.000000,0.000000,0.000000,0.000000,0.000000,0.000000,0.000000,0.000000,1647749610.109109,0.000000
28.000000,20097.906303,7790.231143,6722.778883,25055.702037,-20899.171638,21851.244193,11520.111444,10774.658415,-0.070000,0.954000,0.222000,192.000000,0.000000,0.000000,0.000000,0.000000,0.000000,0.000000,0.000000,0.000000,0.000000,1647749610.115404,0.000000
29.000000,20095.961701,7789.739405,6721.795407,25057.646639,-20900.825667,21851.065380,11520.290258,10772.870275,-0.070000,0.954000,0.222000,192.000000,0.000000,0.000000,0.000000,0.000000,0.000000,0.000000,0.000000,0.000000,0.000000,1647749610.115415,0.000000
30.000000,20093.793582,7792.622780,6716.900375,25059.054799,-20904.401947,21850.350124,11522.480729,10773.272607,-0.070000,0.954000,0.222000,192.000000,0.000000,0.000000,0.000000,0.000000,0.000000,0.000000,0.000000,0.000000,0.000000,1647749610.123492,0.000000
31.000000,20094.195914,7794.366216,6717.146244,25059.680648,-20904.960740,21852.138263,11525.587621,10777.206514,-0.070000,0.954000,0.222000,192.000000,0.000000,0.000000,0.000000,0.000000,0.000000,0.000000,0.000000,0.000000,0.000000,1647749610.123504,0.000000
32.000000,20087.669204,7791.125213,6712.474729,25058.518357,-20909.431089,21848.673743,11522.167804,10778.547618,-0.070000,0.954000,0.222000,192.000000,0.000000,0.000000,0.000000,0.000000,0.000000,0.000000,0.000000,0.000000,0.000000,1647749610.131352,0.000000
33.000000,20082.416544,7780.441079,6706.842090,25051.052874,-20917.008330,21844.181042,11516.535165,10777.295921,-0.070000,0.954000,0.222000,192.000000,0.000000,0.000000,0.000000,0.000000,0.000000,0.000000,0.000000,0.000000,0.000000,1647749610.131362,0.000000
34.000000,20079.086134,7774.383756,6699.980104,25040.346389,-20922.439804,21836.737911,11512.176575,10771.104487,-0.070000,0.954000,0.222000,192.000000,0.000000,0.000000,0.000000,0.000000,0.000000,0.000000,0.000000,0.000000,0.000000,1647749610.138822,0.000000
35.000000,20089.278530,7787.392472,6708.362008,25042.492156,-20912.202705,21846.282106,11523.575964,10782.839153,-0.074000,0.954000,0.220000,192.000000,253.000000,176.000000,29.000000,208.000000,6.000000,224.000000,0.000000,0.000000,0.000000,1647749610.138833,0.000000
36.000000,20092.072498,7790.991103,6713.324095,25053.645677,-20909.408737,21851.892394,11528.202776,10790.952836,-0.074000,0.954000,0.220000,192.000000,0.000000,0.000000,0.000000,0.000000,0.000000,0.000000,0.000000,0.000000,0.000000,1647749610.146192,0.000000
37.000000,20094.553541,7791.728710,6712.362970,25054.495043,-20911.442746,21849.679571,11529.610935,10790.058767,-0.074000,0.954000,0.220000,192.000000,0.000000,0.000000,0.000000,0.000000,0.000000,0.000000,0.000000,0.000000,0.000000,1647749610.146203,0.000000
38.000000,20093.704175,7779.390547,6706.551517,25049.778825,-20916.293075,21842.191737,11525.162938,10780.425165,-0.074000,0.954000,0.220000,192.000000,0.000000,0.000000,0.000000,0.000000,0.000000,0.000000,0.000000,0.000000,0.000000,1647749610.154148,0.000000
39.000000,20091.938387,7780.329320,6703.131700,25047.431892,-20915.846040,21839.978914,11522.816005,10778.525266,-0.074000,0.954000,0.220000,192.000000,0.000000,0.000000,0.000000,0.000000,0.000000,0.000000,0.000000,0.000000,0.000000,1647749610.154158,0.000000
40.000000,20085.523437,7779.167030,6701.790595,25048.683590,-20915.689578,21838.749568,11522.771302,10777.944121,-0.074000,0.954000,0.220000,192.000000,0.000000,0.000000,0.000000,0.000000,0.000000,0.000000,0.000000,0.000000,0.000000,1647749610.162244,0.000000
41.000000,20085.143457,7778.518829,6700.918877,25048.951810,-20918.751767,21835.374455,11524.335924,10772.937330,-0.074000,0.954000,0.220000,192.000000,0.000000,0.000000,0.000000,0.000000,0.000000,0.000000,0.000000,0.000000,0.000000,1647749610.162261,0.000000
42.000000,20093.570065,7788.755928,6708.272601,25051.634020,-20912.560333,21839.822452,11528.918031,10773.764345,-0.074000,0.954000,0.220000,192.000000,0.000000,0.000000,0.000000,0.000000,0.000000,0.000000,0.000000,0.000000,0.000000,1647749610.168051,0.000000
43.000000,20084.919940,7786.878382,6708.272601,25050.069398,-20913.767328,21838.749568,11525.520566,10772.937330,-0.074000,0.954000,0.220000,192.000000,0.000000,0.000000,0.000000,0.000000,0.000000,0.000000,0.000000,0.000000,0.000000,1647749610.175651,0.000000
44.000000,20087.803315,7789.247667,6709.792520,25049.510604,-20912.135650,21841.387074,11523.195985,10773.697290,-0.074000,0.954000,0.220000,192.000000,0.000000,0.000000,0.000000,0.000000,0.000000,0.000000,0.000000,0.000000,0.000000,1647749610.175657,0.000000
45.000000,20077.968547,7777.982387,6701.790595,25043.743854,-20920.428147,21834.145109,11512.288333,10764.510723,-0.070000,0.958000,0.224000,192.000000,253.000000,208.000000,29.000000,240.000000,7.000000,0.000000,0.000000,0.000000,0.000000,1647749610.183545,0.000000
46.000000,20081.008384,7776.998911,6704.159880,25041.128700,-20919.221153,21834.838013,11512.802424,10764.220150,-0.070000,0.958000,0.224000,192.000000,0.000000,0.000000,0.000000,0.000000,0.000000,0.000000,0.000000,0.000000,0.000000,1647749610.183551,0.000000
47.000000,20085.456381,7780.508134,6704.048121,25039.899354,-20921.031644,21834.301571,11512.958886,10764.734240,-0.070000,0.958000,0.224000,192.000000,0.000000,0.000000,0.000000,0.000000,0.000000,0.000000,0.000000,0.000000,0.000000,1647749610.192059,0.000000
48.000000,20080.941329,7768.527599,6699.018979,25030.511621,-20926.798395,21831.284086,11510.433139,10760.554464,-0.070000,0.958000,0.224000,192.000000,0.000000,0.000000,0.000000,0.000000,0.000000,0.000000,0.000000,0.000000,0.000000,1647749610.192071,0.000000
49.000000,20088.540922,7774.897847,6703.042293,25033.886735,-20919.265857,21839.889507,11517.988028,10768.712851,-0.070000,0.958000,0.224000,192.000000,0.000000,0.000000,0.000000,0.000000,0.000000,0.000000,0.000000,0.000000,0.000000,1647749610.198607,0.000000
50.000000,20090.038489,7777.758870,6702.483499,25041.531031,-20916.561296,21843.935173,11523.754778,10774.569008,-0.070000,0.958000,0.224000,192.000000,0.000000,0.000000,0.000000,0.000000,0.000000,0.000000,0.000000,0.000000,0.000000,1647749610.198617,0.000000
51.000000,20086.573969,7779.144678,6704.741026,25046.895450,-20913.297941,21850.104254,11530.437950,10782.615636,-0.070000,0.958000,0.224000,192.000000,0.000000,0.000000,0.000000,0.000000,0.000000,0.000000,0.000000,0.000000,0.000000,1647749610.206397,0.000000
52.000000,20089.367937,7785.000835,6703.086996,25047.968334,-20913.409700,21848.025542,11529.499177,10781.453345,-0.070000,0.958000,0.224000,192.000000,0.000000,0.000000,0.000000,0.000000,0.000000,0.000000,0.000000,0.000000,0.000000,1647749610.206411,0.000000
53.000000,20089.055012,7784.911428,6703.198755,25050.225860,-20910.772194,21850.171310,11532.784883,10785.119031,-0.070000,0.958000,0.224000,192.000000,0.000000,0.000000,0.000000,0.000000,0.000000,0.000000,0.000000,0.000000,0.000000,1647749610.214349,0.000000
54.000000,20089.211475,7786.006664,6703.310514,25049.711770,-20908.246447,21852.205318,11534.796540,10787.421261,-0.070000,0.958000,0.224000,192.000000,0.000000,0.000000,0.000000,0.000000,0.000000,0.000000,0.000000,0.000000,0.000000,1647749610.214360,0.000000
55.000000,20091.536056,7787.101899,6701.812947,25051.432854,-20911.800374,21848.740798,11531.242613,10784.023796,-0.074000,0.958000,0.230000,192.000000,253.000000,176.000000,29.000000,240.000000,7.000000,48.000000,0.000000,0.000000,0.000000,1647749610.221058,0.000000
56.000000,20084.182332,7780.508134,6698.303723,25050.225860,-20913.789679,21847.466749,11528.180424,10781.319235,-0.074000,0.958000,0.230000,192.000000,0.000000,0.000000,0.000000,0.000000,0.000000,0.000000,0.000000,0.000000,0.000000,1647749610.221070,0.000000
57.000000,20090.954911,7783.704434,6703.422273,25054.316229,-20908.984054,21849.925441,11529.901508,10782.615636,-0.074000,0.958000,0.230000,192.000000,0.000000,0.000000,0.000000,0.000000,0.000000,0.000000,0.000000,0.000000,0.000000,1647749610.228282,0.000000
58.000000,20089.770268,7786.498402,6704.785729,25052.148110,-20910.369862,21846.684438,11523.397150,10777.430031,-0.074000,0.958000,0.230000,192.000000,0.000000,0.000000,0.000000,0.000000,0.000000,0.000000,0.000000,0.000000,0.000000,1647749610.236040,0.000000
59.000000,20092.608940,7788.755928,6707.445587,25049.644715,-20907.084156,21850.707752,11527.375761,10781.162772,-0.074000,0.958000,0.230000,192.000000,0.000000,0.000000,0.000000,0.000000,0.000000,0.000000,0.000000,0.000000,0.000000,1647749610.236051,0.000000
60.000000,20092.564236,7784.129117,6704.696322,25051.455206,-20909.878124,21849.120778,11527.889851,10779.978130,-0.074000,0.958000,0.230000,192.000000,0.000000,0.000000,0.000000,0.000000,0.000000,0.000000,0.000000,0.000000,0.000000,1647749610.244477,0.000000
61.000000,20090.038489,7776.261303,6699.130738,25049.756473,-20914.102604,21844.941002,11522.190156,10778.793487,-0.074000,0.958000,0.230000,192.000000,0.000000,0.000000,0.000000,0.000000,0.000000,0.000000,0.000000,0.000000,0.000000,1647749610.244493,0.000000
62.000000,20086.328100,7778.697643,6694.570982,25048.348313,-20915.108432,21843.666952,11519.977334,10777.340624,-0.074000,0.958000,0.230000,192.000000,0.000000,0.000000,0.000000,0.000000,0.000000,0.000000,0.000000,0.000000,0.000000,1647749610.250773,0.000000
63.000000,20089.345585,7784.196172,6695.219182,25046.157842,-20912.336816,21847.623211,11526.638153,10777.161810,-0.074000,0.958000,0.230000,192.000000,0.000000,0.000000,0.000000,0.000000,0.000000,0.000000,0.000000,0.000000,0.000000,1647749610.250784,0.000000
64.000000,20096.296978,7782.542143,6702.125871,25048.571831,-20907.754708,21856.519205,11535.400037,10783.733223,-0.074000,0.958000,0.230000,192.000000,0.000000,0.000000,0.000000,0.000000,0.000000,0.000000,0.000000,0.000000,0.000000,1647749610.259052,0.000000
65.000000,20092.564236,7784.844373,6703.981066,25052.639848,-20907.218266,21856.720371,11531.041447,10782.615636,-0.068000,0.960000,0.228000,192.000000,253.000000,224.000000,30.000000,0.000000,7.000000,32.000000,0.000000,0.000000,0.000000,1647749610.259086,0.000000
66.000000,20094.039451,7791.505193,6707.892622,25058.563061,-20903.999615,21856.474502,11529.588584,10780.067537,-0.068000,0.960000,0.228000,192.000000,0.000000,0.000000,0.000000,0.000000,0.000000,0.000000,0.000000,0.000000,0.000000,1647749610.266783,0.000000
67.000000,20096.989882,7794.455623,6708.674933,25062.273450,-20903.306711,21856.362743,11530.013267,10778.078232,-0.068000,0.960000,0.228000,192.000000,0.000000,0.000000,0.000000,0.000000,0.000000,0.000000,0.000000,0.000000,0.000000,1647749610.266794,0.000000
68.000000,20090.262007,7792.488669,6702.349389,25058.786578,-20908.268798,21849.143129,11524.514738,10772.199723,-0.068000,0.960000,0.228000,192.000000,0.000000,0.000000,0.000000,0.000000,0.000000,0.000000,0.000000,0.000000,0.000000,1647749610.274059,0.000000
69.000000,20080.874274,7785.984312,6699.935400,25052.081055,-20909.744014,21845.812720,11520.781996,10768.757554,-0.068000,0.960000,0.228000,192.000000,0.000000,0.000000,0.000000,0.000000,0.000000,0.000000,0.000000,0.000000,0.000000,1647749610.274070,0.000000
70.000000,20086.305748,7784.531448,6704.271639,25050.158805,-20906.078327,21845.209222,11521.296086,10768.891665,-0.068000,0.960000,0.228000,192.000000,0.000000,0.000000,0.000000,0.000000,0.000000,0.000000,0.000000,0.000000,0.000000,1647749610.281342,0.000000
71.000000,20089.032661,7779.949341,6703.802252,25052.237517,-20908.626426,21842.057626,11515.842261,10767.841133,-0.068000,0.960000,0.228000,192.000000,0.000000,0.000000,0.000000,0.000000,0.000000,0.000000,0.000000,0.000000,0.000000,1647749610.281352,0.000000
72.000000,20091.469001,7790.789937,6705.411578,25058.831282,-20906.123031,21848.249060,11517.831566,10775.373671,-0.068000,0.960000,0.228000,192.000000,0.000000,0.000000,0.000000,0.000000,0.000000,0.000000,0.000000,0.000000,0.000000,1647749610.288226,0.000000
73.000000,20087.490390,7794.589733,6700.225973,25055.813796,-20910.481621,21847.131472,11514.970543,10776.513609,-0.068000,0.960000,0.228000,192.000000,0.000000,0.000000,0.000000,0.000000,0.000000,0.000000,0.000000,0.000000,0.000000,1647749610.296183,0.000000
74.000000,20088.898550,7791.125213,6701.455319,25048.795348,-20909.565200,21850.193661,11515.529336,10776.133630,-0.068000,0.960000,0.228000,192.000000,0.000000,0.000000,0.000000,0.000000,0.000000,0.000000,0.000000,0.000000,0.000000,1647749610.296189,0.000000
75.000000,20084.092925,7778.027091,6692.291104,25043.050950,-20920.204630,21840.247135,11506.856860,10767.505856,-0.066000,0.956000,0.230000,192.000000,253.000000,240.000000,29.000000,224.000000,7.000000,48.000000,0.000000,0.000000,0.000000,1647749610.303304,0.000000
76.000000,20085.054050,7768.192323,6693.095767,25038.647656,-20918.863525,21842.079978,11510.053159,10766.902359,-0.066000,0.956000,0.230000,192.000000,0.000000,0.000000,0.000000,0.000000,0.000000,0.000000,0.000000,0.000000,0.000000,1647749610.303309,0.000000
77.000000,20089.055012,7778.004739,6695.889735,25043.520337,-20912.247409,21847.623211,11516.132833,10773.518476,-0.066000,0.956000,0.230000,192.000000,0.000000,0.000000,0.000000,0.000000,0.000000,0.000000,0.000000,0.000000,0.000000,1647749610.310970,0.000000
78.000000,20098.085117,7797.070777,6701.924706,25049.488252,-20904.267836,21852.026505,11519.977334,10775.105450,-0.066000,0.956000,0.230000,192.000000,0.000000,0.000000,0.000000,0.000000,0.000000,0.000000,0.000000,0.000000,0.000000,1647749610.310975,0.000000
79.000000,20099.895608,7796.020245,6706.998552,25055.791444,-20902.814973,21849.634868,11517.228069,10774.412545,-0.066000,0.956000,0.230000,192.000000,0.000000,0.000000,0.000000,0.000000,0.000000,0.000000,0.000000,0.000000,0.000000,1647749610.318840,0.000000
80.000000,20102.175486,7789.113556,6702.841127,25058.294840,-20905.139554,21845.723313,11513.383569,10772.490295,-0.066000,0.956000,0.230000,192.000000,0.000000,0.000000,0.000000,0.000000,0.000000,0.000000,0.000000,0.000000,0.000000,1647749610.318845,0.000000
81.000000,20105.148268,7789.940571,6708.898450,25061.401732,-20901.160944,21849.478406,11519.127967,10773.563179,-0.066000,0.956000,0.230000,192.000000,0.000000,0.000000,0.000000,0.000000,0.000000,0.000000,0.000000,0.000000,0.000000,1647749610.326106,0.000000
82.000000,20100.789678,7791.169917,6711.066569,25064.195700,-20898.478734,21853.211147,11523.620668,10777.295921,-0.066000,0.956000,0.230000,192.000000,0.000000,0.000000,0.000000,0.000000,0.000000,0.000000,0.000000,0.000000,0.000000,1647749610.326110,0.000000
83.000000,20097.056937,7788.621818,6708.071435,25060.060627,-20901.585627,21851.601821,11520.178499,10776.424202,-0.066000,0.956000,0.230000,192.000000,0.000000,0.000000,0.000000,0.000000,0.000000,0.000000,0.000000,0.000000,0.000000,1647749610.333618,0.000000
84.000000,20094.777059,7785.693739,6701.812947,25056.551404,-20903.552580,21847.287935,11516.646924,10774.904284,-0.066000,0.956000,0.230000,192.000000,0.000000,0.000000,0.000000,0.000000,0.000000,0.000000,0.000000,0.000000,0.000000,1647749610.333624,0.000000
85.000000,20090.954911,7785.358463,6697.320246,25055.478520,-20906.592418,21845.857423,11516.646924,10776.647720,-0.068000,0.950000,0.228000,192.000000,253.000000,224.000000,29.000000,176.000000,7.000000,32.000000,0.000000,0.000000,0.000000,1647749610.341909,0.000000
86.000000,20082.908283,7782.698605,6688.826583,25051.231688,-20918.125918,21835.262696,11510.455490,10771.506819,-0.068000,0.950000,0.228000,192.000000,0.000000,0.000000,0.000000,0.000000,0.000000,0.000000,0.000000,0.000000,0.000000,1647749610.341944,0.000000
87.000000,20084.361146,7787.414823,6688.379549,25048.840052,-20919.824650,21831.976990,11509.539069,10769.495162,-0.068000,0.950000,0.228000,192.000000,0.000000,0.000000,0.000000,0.000000,0.000000,0.000000,0.000000,0.000000,0.000000,1647749610.348780,0.000000
88.000000,20091.111373,7791.795765,6692.402863,25052.036351,-20914.303769,21839.509528,11515.261115,10775.910112,-0.068000,0.950000,0.228000,192.000000,0.000000,0.000000,0.000000,0.000000,0.000000,0.000000,0.000000,0.000000,0.000000,1647749610.348791,0.000000
89.000000,20089.010309,7787.325416,6695.442700,25050.270563,-20910.638083,21847.243231,11521.117273,10781.207476,-0.068000,0.950000,0.228000,192.000000,0.000000,0.000000,0.000000,0.000000,0.000000,0.000000,0.000000,0.000000,0.000000,1647749610.356027,0.000000
90.000000,20084.651719,7781.960998,6697.297895,25052.639848,-20910.749842,21848.852557,11525.744084,10783.330892,-0.068000,0.950000,0.228000,192.000000,0.000000,0.000000,0.000000,0.000000,0.000000,0.000000,0.000000,0.000000,0.000000,1647749610.363398,0.000000
91.000000,20088.518570,7779.949341,6696.448528,25049.354142,-20914.281418,21843.778711,11523.732427,10783.219133,-0.068000,0.950000,0.228000,192.000000,0.000000,0.000000,0.000000,0.000000,0.000000,0.000000,0.000000,0.000000,0.000000,1647749610.363415,0.000000
92.000000,20083.020041,7768.617006,6688.178383,25035.786633,-20925.814918,21832.736949,11515.238764,10775.127801,-0.068000,0.950000,0.228000,192.000000,0.000000,0.000000,0.000000,0.000000,0.000000,0.000000,0.000000,0.000000,0.000000,1647749610.371556,0.000000
93.000000,20079.488466,7764.057251,6683.037482,25032.478575,-20929.547659,21829.697112,11514.434101,10772.400888,-0.068000,0.950000,0.228000,192.000000,0.000000,0.000000,0.000000,0.000000,0.000000,0.000000,0.000000,0.000000,0.000000,1647749610.371573,0.000000
94.000000,20083.645890,7770.874533,6690.949999,25035.741930,-20921.769252,21837.654333,11517.116310,10775.619540,-0.068000,0.950000,0.228000,192.000000,0.000000,0.000000,0.000000,0.000000,0.000000,0.000000,0.000000,0.000000,0.000000,1647749610.379447,0.000000
95.000000,20085.344623,7767.745288,6693.095767,25037.373607,-20920.204630,21840.984743,11515.238764,10772.557351,-0.060000,0.954000,0.226000,192.000000,254.000000,32.000000,29.000000,208.000000,7.000000,16.000000,0.000000,0.000000,0.000000,1647749610.379459,0.000000
96.000000,20078.259120,7765.867742,6690.279447,25036.725406,-20919.891706,21840.113025,11512.243630,10769.741031,-0.060000,0.954000,0.226000,192.000000,0.000000,0.000000,0.000000,0.000000,0.000000,0.000000,0.000000,0.000000,0.000000,1647749610.386072,0.000000
97.000000,20086.283396,7778.228256,6700.293028,25042.246287,-20911.107470,21844.337504,11513.294162,10773.116144,-0.060000,0.954000,0.226000,192.000000,0.000000,0.000000,0.000000,0.000000,0.000000,0.000000,0.000000,0.000000,0.000000,1647749610.386082,0.000000
98.000000,20095.291149,7780.172858,6703.399921,25042.894488,-20908.715833,21846.013885,11514.814081,10773.563179,-0.060000,0.954000,0.226000,192.000000,0.000000,0.000000,0.000000,0.000000,0.000000,0.000000,0.000000,0.000000,0.000000,1647749610.394249,0.000000
99.000000,20092.340719,7773.400280,6695.845031,25040.793424,-20912.158002,21842.102330,11511.729540,10771.283301,-0.060000,0.954000,0.226000,192.000000,0.000000,0.000000,0.000000,0.000000,0.000000,0.000000,0.000000,0.000000,0.000000,1647749610.394267,0.000000
100.000000,20091.491352,7767.566474,6689.251267,25036.077206,-20919.332912,21832.580487,11501.067758,10764.913054,-0.060000,0.954000,0.226000,192.000000,0.000000,0.000000,0.000000,0.000000,0.000000,0.000000,0.000000,0.000000,0.000000,1647749610.402074,0.000000
101.000000,20099.001539,7777.937684,6696.984970,25039.832299,-20912.649740,21839.017789,11506.298066,10770.925673,-0.060000,0.954000,0.226000,192.000000,0.000000,0.000000,0.000000,0.000000,0.000000,0.000000,0.000000,0.000000,0.000000,1647749610.402086,0.000000
102.000000,20095.380556,7778.608236,6697.856688,25041.642790,-20914.236714,21834.435682,11500.397205,10767.796429,-0.060000,0.954000,0.226000,192.000000,0.000000,0.000000,0.000000,0.000000,0.000000,0.000000,0.000000,0.000000,0.000000,1647749610.409362,0.000000
103.000000,20101.124954,7780.932818,6700.114214,25042.067473,-20908.961702,21836.246173,11499.704301,10767.863484,-0.060000,0.954000,0.226000,192.000000,0.000000,0.000000,0.000000,0.000000,0.000000,0.000000,0.000000,0.000000,0.000000,1647749610.409378,0.000000
104.000000,20097.615730,7779.278788,6700.449491,25042.603915,-20907.419432,21835.776786,11498.877287,10764.398964,-0.060000,0.954000,0.226000,192.000000,0.000000,0.000000,0.000000,0.000000,0.000000,0.000000,0.000000,0.000000,0.000000,1647749610.415547,0.000000
105.000000,20097.414565,7776.976559,6698.124909,25045.353180,-20908.626426,21834.122757,11500.285447,10761.604996,-0.060000,0.954000,0.226000,192.000000,0.000000,0.000000,0.000000,0.000000,0.000000,0.000000,0.000000,0.000000,0.000000,1647749610.423949,0.000000
106.000000,20091.781925,7775.031957,6693.632209,25044.570869,-20913.230886,21828.959504,11496.709168,10759.325118,-0.064000,0.954000,0.232000,192.000000,254.000000,0.000000,29.000000,208.000000,7.000000,64.000000,0.000000,0.000000,0.000000,1647749610.423965,0.000000
107.000000,20097.369861,7788.398300,6701.187098,25045.710808,-20906.234790,21836.089711,11504.621685,10765.181275,-0.064000,0.954000,0.232000,192.000000,0.000000,0.000000,0.000000,0.000000,0.000000,0.000000,0.000000,0.000000,0.000000,1647749610.431602,0.000000
108.000000,20108.411623,7791.326379,6707.959677,25048.437720,-20901.540923,21841.990571,11509.226144,10768.154057,-0.064000,0.954000,0.232000,192.000000,0.000000,0.000000,0.000000,0.000000,0.000000,0.000000,0.000000,0.000000,0.000000,1647749610.431612,0.000000
109.000000,20099.537981,7781.446908,6704.808081,25045.442587,-20904.848981,21837.006132,11504.822851,10761.873217,-0.064000,0.954000,0.232000,192.000000,0.000000,0.000000,0.000000,0.000000,0.000000,0.000000,0.000000,0.000000,0.000000,1647749610.438198,0.000000
110.000000,20086.797486,7773.400280,6692.916953,25037.731235,-20913.052072,21827.953676,11499.726653,10752.329022,-0.064000,0.954000,0.232000,192.000000,0.000000,0.000000,0.000000,0.000000,0.000000,0.000000,0.000000,0.000000,0.000000,1647749610.438209,0.000000
111.000000,20095.067632,7783.749137,6702.349389,25043.877964,-20906.950045,21835.933249,11510.902525,10763.057859,-0.064000,0.954000,0.232000,192.000000,0.000000,0.000000,0.000000,0.000000,0.000000,0.000000,0.000000,0.000000,0.000000,1647749610.446252,0.000000
112.000000,20098.196876,7779.658768,6699.957752,25046.068435,-20910.280455,21831.686417,11509.114386,10764.242502,-0.064000,0.954000,0.232000,192.000000,0.000000,0.000000,0.000000,0.000000,0.000000,0.000000,0.000000,0.000000,0.000000,1647749610.446264,0.000000
113.000000,20082.729469,7771.120402,6688.401900,25035.317246,-20921.478679,21819.236495,11497.133851,10756.866426,-0.064000,0.954000,0.232000,192.000000,0.000000,0.000000,0.000000,0.000000,0.000000,0.000000,0.000000,0.000000,0.000000,1647749610.454189,0.000000
114.000000,20084.182332,7767.924102,6687.843107,25029.349331,-20918.684711,21822.008112,11499.324322,10758.319289,-0.064000,0.954000,0.232000,192.000000,0.000000,0.000000,0.000000,0.000000,0.000000,0.000000,0.000000,0.000000,0.000000,1647749610.454199,0.000000
115.000000,20088.227998,7770.159277,6692.648732,25037.150089,-20914.214362,21823.818603,11503.057063,10759.280414,-0.064000,0.954000,0.232000,192.000000,0.000000,0.000000,0.000000,0.000000,0.000000,0.000000,0.000000,0.000000,0.000000,1647749610.461400,0.000000
116.000000,20079.868445,7770.203980,6687.574886,25034.534935,-20920.294037,21815.839030,11494.876325,10752.373725,-0.064000,0.954000,0.228000,192.000000,254.000000,0.000000,29.000000,208.000000,7.000000,32.000000,0.000000,0.000000,0.000000,1647749610.461417,0.000000
117.000000,20083.578835,7771.478030,6690.793537,25033.484403,-20920.763424,21814.363815,11492.887019,10752.150208,-0.064000,0.954000,0.228000,192.000000,0.000000,0.000000,0.000000,0.000000,0.000000,0.000000,0.000000,0.000000,0.000000,1647749610.468819,0.000000
118.000000,20083.087097,7763.945492,6686.658464,25030.243400,-20925.189069,21810.631074,11489.578961,10749.736220,-0.064000,0.954000,0.228000,192.000000,0.000000,0.000000,0.000000,0.000000,0.000000,0.000000,0.000000,0.000000,0.000000,1647749610.468830,0.000000
119.000000,20095.693480,7771.835658,6692.693435,25037.753587,-20913.968493,21826.612571,11505.314589,10764.667185,-0.064000,0.954000,0.228000,192.000000,0.000000,0.000000,0.000000,0.000000,0.000000,0.000000,0.000000,0.000000,0.000000,1647749610.476159,0.000000
120.000000,20088.429164,7769.332262,6687.038444,25036.099557,-20921.433976,21822.924533,11501.246572,10760.532112,-0.064000,0.954000,0.228000,192.000000,0.000000,0.000000,0.000000,0.000000,0.000000,0.000000,0.000000,0.000000,0.000000,1647749610.483977,0.000000
121.000000,20081.947158,7769.667538,6683.819793,25031.673912,-20923.669150,21819.482365,11498.698473,10754.854769,-0.064000,0.954000,0.228000,192.000000,0.000000,0.000000,0.000000,0.000000,0.000000,0.000000,0.000000,0.000000,0.000000,1647749610.483989,0.000000
122.000000,20085.165809,7768.505248,6686.032615,25034.736101,-20922.216287,21822.902181,11502.967656,10757.961662,-0.064000,0.954000,0.228000,192.000000,0.000000,0.000000,0.000000,0.000000,0.000000,0.000000,0.000000,0.000000,0.000000,1647749610.491136,0.000000
123.000000,20088.250350,7773.176762,6686.591409,25040.927534,-20916.695406,21836.380283,11513.070645,10768.154057,-0.064000,0.954000,0.228000,192.000000,0.000000,0.000000,0.000000,0.000000,0.000000,0.000000,0.000000,0.000000,0.000000,1647749610.491148,0.000000
124.000000,20088.295053,7775.546047,6687.910162,25038.290028,-20916.762461,21838.950734,11513.450624,10769.606920,-0.064000,0.954000,0.228000,192.000000,0.000000,0.000000,0.000000,0.000000,0.000000,0.000000,0.000000,0.000000,0.000000,1647749610.498585,0.000000
125.000000,20097.235751,7789.426480,6697.074377,25040.525203,-20907.799412,21846.550327,11517.764511,10774.121973,-0.064000,0.954000,0.228000,192.000000,0.000000,0.000000,0.000000,0.000000,0.000000,0.000000,0.000000,0.000000,0.000000,1647749610.498619,0.000000
126.000000,20095.089983,7786.900733,6700.449491,25044.704979,-20907.754708,21846.282106,11516.937496,10775.910112,-0.066000,0.958000,0.228000,192.000000,253.000000,240.000000,29.000000,240.000000,7.000000,32.000000,0.000000,0.000000,0.000000,1647749610.506847,0.000000
127.000000,20082.841227,7770.941588,6688.021921,25039.027636,-20922.037473,21828.579525,11500.799537,10761.761458,-0.066000,0.958000,0.228000,192.000000,0.000000,0.000000,0.000000,0.000000,0.000000,0.000000,0.000000,0.000000,0.000000,1647749610.506863,0.000000
128.000000,20079.063783,7763.006719,6685.295008,25032.120947,-20925.300828,21821.784594,11495.301008,10759.459228,-0.066000,0.958000,0.228000,192.000000,0.000000,0.000000,0.000000,0.000000,0.000000,0.000000,0.000000,0.000000,0.000000,1647749610.514576,0.000000
129.000000,20082.617710,7764.996024,6688.066624,25032.590334,-20923.579743,21820.555248,11495.546877,10759.392173,-0.066000,0.958000,0.228000,192.000000,0.000000,0.000000,0.000000,0.000000,0.000000,0.000000,0.000000,0.000000,0.000000,1647749610.514596,0.000000
130.000000,20083.735297,7768.147620,6688.021921,25036.367778,-20921.568086,21818.185963,11491.367101,10756.017060,-0.066000,0.958000,0.228000,192.000000,0.000000,0.000000,0.000000,0.000000,0.000000,0.000000,0.000000,0.000000,0.000000,1647749610.521383,0.000000
131.000000,20086.819838,7771.612140,6691.620552,25041.218107,-20915.309598,21822.432795,11492.685854,10762.454362,-0.066000,0.958000,0.228000,192.000000,0.000000,0.000000,0.000000,0.000000,0.000000,0.000000,0.000000,0.000000,0.000000,1647749610.521394,0.000000
132.000000,20092.720698,7774.406108,6696.314418,25045.084959,-20911.822726,21825.763205,11494.429290,10764.555426,-0.066000,0.958000,0.228000,192.000000,0.000000,0.000000,0.000000,0.000000,0.000000,0.000000,0.000000,0.000000,0.000000,1647749610.529187,0.000000
133.000000,20092.407774,7780.888114,6696.560287,25043.475633,-20912.023891,21828.177193,11495.859801,10764.175447,-0.066000,0.958000,0.228000,192.000000,0.000000,0.000000,0.000000,0.000000,0.000000,0.000000,0.000000,0.000000,0.000000,1647749610.529199,0.000000
134.000000,20096.632254,7785.470222,6695.152127,25045.733159,-20908.514668,21831.038216,11493.781089,10766.701194,-0.066000,0.958000,0.228000,192.000000,0.000000,0.000000,0.000000,0.000000,0.000000,0.000000,0.000000,0.000000,0.000000,1647749610.536252,0.000000
135.000000,20094.352376,7784.799669,6692.089938,25047.856575,-20909.632255,21829.004208,11488.483726,10762.387307,-0.066000,0.958000,0.228000,192.000000,0.000000,0.000000,0.000000,0.000000,0.000000,0.000000,0.000000,0.000000,0.000000,1647749610.543715,0.000000
136.000000,20092.899512,7785.738443,6696.157956,25049.421197,-20905.519534,21835.888545,11493.669330,10765.248330,-0.060000,0.954000,0.224000,192.000000,254.000000,32.000000,29.000000,208.000000,7.000000,0.000000,0.000000,0.000000,0.000000,1647749610.543732,0.000000
137.000000,20096.319329,7783.726786,6700.002456,25047.588354,-20905.608941,21840.850632,11500.307798,10769.293996,-0.060000,0.954000,0.224000,192.000000,0.000000,0.000000,0.000000,0.000000,0.000000,0.000000,0.000000,0.000000,0.000000,1647749610.550807,0.000000
138.000000,20090.597283,7773.914370,6696.180307,25041.978066,-20910.772194,21836.447339,11499.883115,10768.377574,-0.060000,0.954000,0.224000,192.000000,0.000000,0.000000,0.000000,0.000000,0.000000,0.000000,0.000000,0.000000,0.000000,1647749610.550819,0.000000
139.000000,20087.982129,7772.685024,6699.398959,25043.430930,-20908.134688,21835.620324,11498.765528,10767.684670,-0.060000,0.954000,0.224000,192.000000,0.000000,0.000000,0.000000,0.000000,0.000000,0.000000,0.000000,0.000000,0.000000,1647749610.559064,0.000000
140.000000,20089.278530,7781.670425,6699.175441,25042.626267,-20908.604075,21832.535783,11495.189249,10764.980109,-0.060000,0.954000,0.224000,192.000000,0.000000,0.000000,0.000000,0.000000,0.000000,0.000000,0.000000,0.000000,0.000000,1647749610.559080,0.000000
141.000000,20087.244521,7780.776355,6694.168650,25037.552421,-20911.778022,21830.635885,11494.116365,10763.571949,-0.060000,0.954000,0.224000,192.000000,0.000000,0.000000,0.000000,0.000000,0.000000,0.000000,0.000000,0.000000,0.000000,1647749610.567246,0.000000
142.000000,20091.491352,7779.770527,6692.291104,25038.178270,-20912.426223,21832.580487,11495.502173,10768.087002,-0.060000,0.954000,0.224000,192.000000,0.000000,0.000000,0.000000,0.000000,0.000000,0.000000,0.000000,0.000000,0.000000,1647749610.567261,0.000000
143.000000,20095.559370,7776.149544,6690.949999,25035.987799,-20916.181316,21826.701978,11491.165935,10765.561255,-0.060000,0.954000,0.224000,192.000000,0.000000,0.000000,0.000000,0.000000,0.000000,0.000000,0.000000,0.000000,0.000000,1647749610.573596,0.000000
144.000000,20096.341681,7772.282692,6695.554459,25033.305589,-20913.677921,21828.378359,11494.943380,10767.684670,-0.060000,0.954000,0.224000,192.000000,0.000000,0.000000,0.000000,0.000000,0.000000,0.000000,0.000000,0.000000,0.000000,1647749610.573608,0.000000
145.000000,20097.638082,7775.367233,6696.672046,25037.619476,-20912.672092,21831.306437,11497.938514,10770.009252,-0.060000,0.954000,0.224000,192.000000,0.000000,0.000000,0.000000,0.000000,0.000000,0.000000,0.000000,0.000000,0.000000,1647749610.581505,0.000000
146.000000,20087.736259,7773.288521,6687.708996,25039.497023,-20918.952932,21825.226763,11490.875362,10763.013156,-0.064000,0.960000,0.222000,192.000000,254.000000,0.000000,30.000000,0.000000,6.000000,240.000000,0.000000,0.000000,0.000000,1647749610.581516,0.000000
147.000000,20087.713908,7773.646149,6686.434947,25041.955714,-20918.304732,21827.618400,11491.322397,10762.834342,-0.064000,0.960000,0.222000,192.000000,0.000000,0.000000,0.000000,0.000000,0.000000,0.000000,0.000000,0.000000,0.000000,1647749610.589816,0.000000
148.000000,20091.625463,7775.858972,6684.177421,25037.842993,-20920.562258,21828.847746,11488.886057,10763.281377,-0.064000,0.960000,0.222000,192.000000,0.000000,0.000000,0.000000,0.000000,0.000000,0.000000,0.000000,0.000000,0.000000,1647749610.589833,0.000000
149.000000,20087.222169,7770.986291,6678.097746,25026.823583,-20925.949028,21827.149013,11487.477897,10759.235711,-0.064000,0.960000,0.222000,192.000000,0.000000,0.000000,0.000000,0.000000,0.000000,0.000000,0.000000,0.000000,0.000000,1647749610.596652,0.000000
150.000000,20084.584663,7771.969768,6679.528258,25024.543706,-20923.400929,21830.121795,11493.289351,10761.225016,-0.064000,0.960000,0.222000,192.000000,0.000000,0.000000,0.000000,0.000000,0.000000,0.000000,0.000000,0.000000,0.000000,1647749610.596673,0.000000
151.000000,20082.774172,7775.478992,6680.869362,25024.834278,-20924.294999,21828.378359,11493.177592,10763.661356,-0.064000,0.960000,0.222000,192.000000,0.000000,0.000000,0.000000,0.000000,0.000000,0.000000,0.000000,0.000000,0.000000,1647749610.603141,0.000000
152.000000,20082.617710,7770.203980,6682.456336,25027.091804,-20923.333874,21827.149013,11493.445813,10764.845999,-0.064000,0.960000,0.222000,192.000000,0.000000,0.000000,0.000000,0.000000,0.000000,0.000000,0.000000,0.000000,0.000000,1647749610.611443,0.000000
153.000000,20087.110411,7766.650053,6684.177421,25029.952828,-20922.953894,21825.517336,11492.283522,10763.840170,-0.064000,0.960000,0.222000,192.000000,0.000000,0.000000,0.000000,0.000000,0.000000,0.000000,0.000000,0.000000,0.000000,1647749610.611459,0.000000
154.000000,20088.898550,7766.024204,6684.915028,25030.064586,-20923.669150,21823.885658,11488.148449,10762.275548,-0.064000,0.960000,0.222000,192.000000,0.000000,0.000000,0.000000,0.000000,0.000000,0.000000,0.000000,0.000000,0.000000,1647749610.619157,0.000000
155.000000,20090.463172,7776.194248,6689.228915,25032.657389,-20920.696368,21826.433757,11491.724729,10766.164752,-0.064000,0.960000,0.222000,192.000000,0.000000,0.000000,0.000000,0.000000,0.000000,0.000000,0.000000,0.000000,0.000000,1647749610.619168,0.000000
156.000000,20085.121105,7771.679195,6682.210467,25032.813851,-20929.502956,21818.275370,11483.745156,10761.828513,-0.072000,0.956000,0.226000,192.000000,253.000000,192.000000,29.000000,224.000000,7.000000,16.000000,0.000000,0.000000,0.000000,1647749610.626545,0.000000
157.000000,20086.685727,7773.914370,6679.796479,25031.539802,-20927.156022,21822.656312,11484.303949,10763.013156,-0.072000,0.956000,0.226000,192.000000,0.000000,0.000000,0.000000,0.000000,0.000000,0.000000,0.000000,0.000000,0.000000,1647749610.626561,0.000000
158.000000,20093.927693,7780.150507,6689.295970,25040.033464,-20915.019025,21835.821490,11494.585752,10771.573874,-0.072000,0.956000,0.226000,192.000000,0.000000,0.000000,0.000000,0.000000,0.000000,0.000000,0.000000,0.000000,0.000000,1647749610.634071,0.000000
159.000000,20094.486486,7782.072757,6690.033578,25040.368741,-20914.169659,21834.122757,11491.456508,10768.355223,-0.072000,0.956000,0.226000,192.000000,0.000000,0.000000,0.000000,0.000000,0.000000,0.000000,0.000000,0.000000,0.000000,1647749610.634132,0.000000
160.000000,20088.809143,7779.278788,6687.686645,25038.021807,-20918.505897,21830.904106,11486.986159,10762.119086,-0.072000,0.956000,0.226000,192.000000,0.000000,0.000000,0.000000,0.000000,0.000000,0.000000,0.000000,0.000000,0.000000,1647749610.642014,0.000000
161.000000,20090.664338,7781.871591,6689.497136,25035.697226,-20918.170621,21833.161632,11490.651845,10762.946101,-0.072000,0.956000,0.226000,192.000000,0.000000,0.000000,0.000000,0.000000,0.000000,0.000000,0.000000,0.000000,0.000000,1647749610.642031,0.000000
