%OpenBCI Raw EEG Data
%Number of channels = 8
%Sample Rate = 256 Hz
%Board = OpenBCI_GUI$BoardCytonSerial
%Channels = Fp1, Fp2, F3, F4, Fz, Pz, O1, O2
%Data recorded at AIMS Lab (http://aimsl.uiu.ac.bd) by Rana Depto (mail@ranadepto.com)
%Brainwaves were obtained via the Ultracortex Mark IV Headset using the OpenBCI Cyton Board
%Recording Application = ConcentrateToday (https://concentrate.today)
%Data type = RAW data with noise
%Day No = 3
%Subject ID = 9
%Session ID = 7
%Record starting timestamp (UTC+6) = 2022-03-20T14:48:31.360635
%Record ending timestamp (UTC+6)   = 2022-03-20T14:49:12.204095
%Recorded durations = ~40 seconds
Sample Index, EXG Channel 0, EXG Channel 1, EXG Channel 2, EXG Channel 3, EXG Channel 4, EXG Channel 5, EXG Channel 6, EXG Channel 7, Accel Channel 0, Accel Channel 1, Accel Channel 2, Other, Other, Other, Other, Other, Other, Other, Analog Channel 0, Analog Channel 1, Analog Channel 2, Timestamp, Timestamp (Formatted)
219.000000,55615.476443,43927.078715,60311.555602,53812.115349,-8004.472614,65723.918763,70924.745014,56698.865497,-0.068000,0.982000,-0.128000,192.000000,0.000000,0.000000,0.000000,0.000000,0.000000,0.000000,0.000000,0.000000,0.000000,1647766111.360439,0.000000
220.000000,55613.040103,43923.368326,60312.561430,53807.108558,-8005.545498,65722.242382,70933.283381,56715.897526,-0.068000,0.982000,-0.128000,192.000000,0.000000,0.000000,0.000000,0.000000,0.000000,0.000000,0.000000,0.000000,0.000000,1647766111.360456,0.000000
221.000000,55621.377304,43941.987329,60324.765483,53810.662485,-7994.526088,65736.480443,70975.416419,56752.174408,-0.068000,0.982000,-0.128000,192.000000,0.000000,0.000000,0.000000,0.000000,0.000000,0.000000,0.000000,0.000000,0.000000,1647766111.367261,0.000000
222.000000,55618.829205,43941.026204,60311.980285,53799.419558,-8003.466785,65726.735082,70971.214291,56758.544655,-0.068000,0.982000,-0.128000,192.000000,0.000000,0.000000,0.000000,0.000000,0.000000,0.000000,0.000000,0.000000,0.000000,1647766111.367267,0.000000
223.000000,55614.314153,43936.667614,60301.810241,53808.024980,-8013.234498,65722.152975,70946.493262,56754.789562,-0.062000,0.986000,-0.128000,192.000000,254.000000,16.000000,30.000000,208.000000,252.000000,0.000000,0.000000,0.000000,0.000000,1647766111.374701,0.000000
224.000000,55632.262603,43927.592805,60307.755805,53812.115349,-8007.624210,65732.658295,70971.996602,56764.624329,-0.062000,0.986000,-0.128000,192.000000,0.000000,0.000000,0.000000,0.000000,0.000000,0.000000,0.000000,0.000000,0.000000,1647766111.374706,0.000000
225.000000,55637.135284,43926.117590,60311.622657,53803.286410,-8001.186907,65734.222917,70971.840140,56781.298731,-0.062000,0.986000,-0.128000,192.000000,0.000000,0.000000,0.000000,0.000000,0.000000,0.000000,0.000000,0.000000,0.000000,1647766111.382658,0.000000
226.000000,55608.301533,43927.592805,60325.793663,53797.385549,-7993.296742,65733.150033,70967.861529,56818.424978,-0.062000,0.986000,-0.128000,192.000000,0.000000,0.000000,0.000000,0.000000,0.000000,0.000000,0.000000,0.000000,0.000000,1647766111.382663,0.000000
227.000000,55592.364739,43919.300308,60328.565279,53801.118291,-8003.958524,65725.639847,70951.008314,56814.736940,-0.062000,0.986000,-0.128000,192.000000,0.000000,0.000000,0.000000,0.000000,0.000000,0.000000,0.000000,0.000000,0.000000,1647766111.390687,0.000000
228.000000,55612.682475,43921.647241,60334.264974,53802.593506,-8011.066378,65735.899298,70963.838215,56780.628178,-0.062000,0.986000,-0.128000,192.000000,0.000000,0.000000,0.000000,0.000000,0.000000,0.000000,0.000000,0.000000,0.000000,1647766111.390691,0.000000
229.000000,55623.456016,43925.134113,60330.666343,53807.153262,-8002.393902,65744.325905,70992.984890,56780.561123,-0.062000,0.986000,-0.128000,192.000000,0.000000,0.000000,0.000000,0.000000,0.000000,0.000000,0.000000,0.000000,0.000000,1647766111.397882,0.000000
230.000000,55623.768940,43917.087485,60319.311657,53804.761625,-7999.801099,65740.302591,70977.025745,56790.909981,-0.062000,0.986000,-0.128000,192.000000,0.000000,0.000000,0.000000,0.000000,0.000000,0.000000,0.000000,0.000000,0.000000,1647766111.397887,0.000000
231.000000,55613.420083,43923.547140,60301.989055,53801.811195,-8007.713617,65727.316228,70950.091892,56768.535884,-0.062000,0.986000,-0.128000,192.000000,0.000000,0.000000,0.000000,0.000000,0.000000,0.000000,0.000000,0.000000,0.000000,1647766111.404313,0.000000
232.000000,55628.775731,43957.119460,60312.293209,53822.508910,-7997.543573,65740.146129,70978.143332,56759.639890,-0.062000,0.986000,-0.128000,192.000000,0.000000,0.000000,0.000000,0.000000,0.000000,0.000000,0.000000,0.000000,0.000000,1647766111.404317,0.000000
233.000000,55623.903051,43955.018396,60315.601267,53824.185291,-7997.655332,65745.823472,70971.415457,56754.834265,-0.060000,0.988000,-0.124000,192.000000,254.000000,32.000000,30.000000,224.000000,252.000000,32.000000,0.000000,0.000000,0.000000,1647766111.412355,0.000000
234.000000,55606.066359,43930.498532,60300.849116,53814.708151,-8005.344332,65735.161690,70946.582669,56731.364933,-0.060000,0.988000,-0.124000,192.000000,0.000000,0.000000,0.000000,0.000000,0.000000,0.000000,0.000000,0.000000,0.000000,1647766111.419610,0.000000
235.000000,55621.489062,43924.530616,60315.087177,53812.472977,-7990.212201,65742.358952,70963.748808,56728.638021,-0.060000,0.988000,-0.124000,192.000000,0.000000,0.000000,0.000000,0.000000,0.000000,0.000000,0.000000,0.000000,0.000000,1647766111.419635,0.000000
236.000000,55628.395752,43922.049573,60330.398122,53829.259137,-7976.041195,65748.751551,70983.865378,56747.234672,-0.060000,0.988000,-0.124000,192.000000,0.000000,0.000000,0.000000,0.000000,0.000000,0.000000,0.000000,0.000000,0.000000,1647766111.426973,0.000000
237.000000,55617.353990,43923.882416,60335.404913,53833.461265,-7975.348291,65747.097522,70963.972326,56725.508776,-0.060000,0.988000,-0.124000,192.000000,0.000000,0.000000,0.000000,0.000000,0.000000,0.000000,0.000000,0.000000,0.000000,1647766111.426979,0.000000
238.000000,55607.474519,43926.721087,60340.389352,53832.053105,-7975.460050,65750.539690,70957.467968,56710.354294,-0.060000,0.988000,-0.124000,192.000000,0.000000,0.000000,0.000000,0.000000,0.000000,0.000000,0.000000,0.000000,0.000000,1647766111.434898,0.000000
239.000000,55615.945830,43922.809532,60331.806282,53821.458378,-7979.237494,65746.516376,70967.012163,56715.204622,-0.060000,0.988000,-0.124000,192.000000,0.000000,0.000000,0.000000,0.000000,0.000000,0.000000,0.000000,0.000000,0.000000,1647766111.434929,0.000000
240.000000,55623.992458,43920.753172,60326.195994,53826.264003,-7976.443526,65749.086827,70964.017029,56731.968431,-0.060000,0.988000,-0.124000,192.000000,0.000000,0.000000,0.000000,0.000000,0.000000,0.000000,0.000000,0.000000,0.000000,1647766111.442995,0.000000
241.000000,55618.762150,43909.242023,60331.515709,53824.386457,-7977.203486,65744.817644,70953.288192,56745.513588,-0.060000,0.988000,-0.124000,192.000000,0.000000,0.000000,0.000000,0.000000,0.000000,0.000000,0.000000,0.000000,0.000000,1647766111.442999,0.000000
242.000000,55636.934118,43924.061230,60328.542927,53840.055029,-7968.933340,65751.031429,70949.197823,56767.194780,-0.060000,0.988000,-0.124000,192.000000,0.000000,0.000000,0.000000,0.000000,0.000000,0.000000,0.000000,0.000000,0.000000,1647766111.449549,0.000000
243.000000,55628.887490,43928.308061,60339.629393,53842.804294,-7975.035366,65754.786522,70931.942276,56760.601015,-0.062000,0.982000,-0.120000,192.000000,254.000000,16.000000,30.000000,176.000000,252.000000,64.000000,0.000000,0.000000,0.000000,1647766111.449553,0.000000
244.000000,55626.652315,43938.276939,60345.642012,53843.698364,-7966.295834,65763.257833,70950.628334,56752.308518,-0.062000,0.982000,-0.120000,192.000000,0.000000,0.000000,0.000000,0.000000,0.000000,0.000000,0.000000,0.000000,0.000000,1647766111.458975,0.000000
245.000000,55622.249022,43934.946529,60332.432131,53832.343678,-7971.682605,65756.842882,70956.462140,56769.139382,-0.062000,0.982000,-0.120000,192.000000,0.000000,0.000000,0.000000,0.000000,0.000000,0.000000,0.000000,0.000000,0.000000,1647766111.458979,0.000000
246.000000,55623.634830,43922.809532,60318.842270,53824.945250,-7976.667044,65752.596051,70943.900459,56776.671919,-0.062000,0.982000,-0.120000,192.000000,0.000000,0.000000,0.000000,0.000000,0.000000,0.000000,0.000000,0.000000,0.000000,1647766111.466070,0.000000
247.000000,55631.837920,43935.594730,60320.831575,53819.670238,-7977.427003,65758.407504,70937.016122,56786.618446,-0.062000,0.982000,-0.120000,192.000000,0.000000,0.000000,0.000000,0.000000,0.000000,0.000000,0.000000,0.000000,0.000000,1647766111.466073,0.000000
248.000000,55620.438530,43942.791992,60324.698427,53820.899584,-7976.734099,65751.813740,70928.768328,56804.589248,-0.062000,0.982000,-0.120000,192.000000,0.000000,0.000000,0.000000,0.000000,0.000000,0.000000,0.000000,0.000000,0.000000,1647766111.472772,0.000000
249.000000,55612.727179,43922.563663,60328.945259,53824.319401,-7980.310378,65743.387132,70933.015160,56822.224775,-0.062000,0.982000,-0.120000,192.000000,0.000000,0.000000,0.000000,0.000000,0.000000,0.000000,0.000000,0.000000,0.000000,1647766111.479169,0.000000
250.000000,55618.426873,43908.571471,60335.203747,53821.793654,-7980.109212,65739.252059,70939.832442,56854.187769,-0.062000,0.982000,-0.120000,192.000000,0.000000,0.000000,0.000000,0.000000,0.000000,0.000000,0.000000,0.000000,0.000000,1647766111.479172,0.000000
251.000000,55612.704827,43910.761942,60326.665381,53818.038561,-7981.405614,65735.094635,70929.036549,56880.987511,-0.062000,0.982000,-0.120000,192.000000,0.000000,0.000000,0.000000,0.000000,0.000000,0.000000,0.000000,0.000000,0.000000,1647766111.487173,0.000000
252.000000,55609.575583,43919.345012,60325.301924,53814.059951,-7985.719500,65734.893469,70917.056014,56893.370377,-0.062000,0.982000,-0.120000,192.000000,0.000000,0.000000,0.000000,0.000000,0.000000,0.000000,0.000000,0.000000,0.000000,1647766111.487177,0.000000
253.000000,55638.386981,43924.642375,60326.464215,53820.363143,-7987.977026,65740.257888,70921.615770,56886.731909,-0.062000,0.982000,-0.120000,192.000000,0.000000,0.000000,0.000000,0.000000,0.000000,0.000000,0.000000,0.000000,0.000000,1647766111.495202,0.000000
254.000000,55628.485159,43918.808570,60330.353419,53818.440893,-7990.502774,65744.281202,70941.240602,56867.151781,-0.060000,0.982000,-0.124000,192.000000,254.000000,32.000000,30.000000,176.000000,252.000000,32.000000,0.000000,0.000000,0.000000,1647766111.495206,0.000000
255.000000,55611.900164,43911.834825,60318.819918,53807.868517,-7992.313265,65739.497929,70926.868430,56883.759127,-0.060000,0.982000,-0.124000,192.000000,0.000000,0.000000,0.000000,0.000000,0.000000,0.000000,0.000000,0.000000,0.000000,1647766111.502471,0.000000
0.000000,55612.548365,43907.297421,60314.595439,53818.507948,-7989.161669,65737.709789,70932.277552,56918.113758,-0.060000,0.982000,-0.124000,192.000000,0.000000,0.000000,0.000000,0.000000,0.000000,0.000000,0.000000,0.000000,0.000000,1647766111.502475,0.000000
1.000000,55613.889469,43910.851349,60328.721741,53829.348544,-7987.082957,65741.151958,70928.053072,56909.284819,-0.060000,0.982000,-0.124000,192.000000,0.000000,0.000000,0.000000,0.000000,0.000000,0.000000,0.000000,0.000000,0.000000,1647766111.509870,0.000000
2.000000,55584.362815,43904.324639,60313.388445,53824.542919,-7997.275352,65731.227783,70915.893723,56910.692979,-0.060000,0.982000,-0.124000,192.000000,0.000000,0.000000,0.000000,0.000000,0.000000,0.000000,0.000000,0.000000,0.000000,1647766111.509874,0.000000
3.000000,55589.079033,43902.804721,60317.210593,53832.746009,-7992.000340,65734.379379,70920.967569,56888.721214,-0.060000,0.982000,-0.124000,192.000000,0.000000,0.000000,0.000000,0.000000,0.000000,0.000000,0.000000,0.000000,0.000000,1647766111.517871,0.000000
4.000000,55600.411367,43901.731837,60314.886011,53821.726599,-7992.380320,65728.299705,70911.423375,56872.672662,-0.060000,0.982000,-0.124000,192.000000,0.000000,0.000000,0.000000,0.000000,0.000000,0.000000,0.000000,0.000000,0.000000,1647766111.517875,0.000000
5.000000,55607.429815,43908.347953,60321.569183,53817.300954,-7992.000340,65728.634981,70895.866560,56875.086650,-0.060000,0.982000,-0.124000,192.000000,0.000000,0.000000,0.000000,0.000000,0.000000,0.000000,0.000000,0.000000,0.000000,1647766111.525043,0.000000
6.000000,55621.511414,43918.562701,60339.495282,53835.405867,-7976.845858,65752.931327,70913.323273,56861.921473,-0.060000,0.982000,-0.124000,192.000000,0.000000,0.000000,0.000000,0.000000,0.000000,0.000000,0.000000,0.000000,0.000000,1647766111.525047,0.000000
7.000000,55613.129510,43916.908671,60341.328125,53837.484579,-7975.370643,65757.893414,70928.969494,56834.048847,-0.060000,0.982000,-0.124000,192.000000,0.000000,0.000000,0.000000,0.000000,0.000000,0.000000,0.000000,0.000000,0.000000,1647766111.531501,0.000000
8.000000,55616.258754,43931.347898,60347.184282,53828.163901,-7971.481439,65762.386115,70925.504974,56817.642667,-0.060000,0.986000,-0.128000,192.000000,254.000000,32.000000,30.000000,208.000000,252.000000,0.000000,0.000000,0.000000,0.000000,1647766111.539522,0.000000
9.000000,55611.564888,43923.815361,60343.250375,53815.110483,-7979.729233,65757.401676,70918.128898,56804.253972,-0.060000,0.986000,-0.128000,192.000000,0.000000,0.000000,0.000000,0.000000,0.000000,0.000000,0.000000,0.000000,0.000000,1647766111.539526,0.000000
10.000000,55620.282068,43910.091389,60342.557471,53827.761570,-7975.236532,65760.240347,70902.817953,56790.127670,-0.060000,0.986000,-0.128000,192.000000,0.000000,0.000000,0.000000,0.000000,0.000000,0.000000,0.000000,0.000000,0.000000,1647766111.547555,0.000000
11.000000,55633.514301,43907.006849,60340.344648,53822.128930,-7982.858477,65757.692249,70908.741165,56776.671919,-0.060000,0.986000,-0.128000,192.000000,0.000000,0.000000,0.000000,0.000000,0.000000,0.000000,0.000000,0.000000,0.000000,1647766111.547558,0.000000
12.000000,55624.104217,43902.022410,60330.129901,53801.878250,-7994.794309,65755.993516,70927.471927,56758.119972,-0.060000,0.986000,-0.128000,192.000000,0.000000,0.000000,0.000000,0.000000,0.000000,0.000000,0.000000,0.000000,0.000000,1647766111.554654,0.000000
13.000000,55604.211164,43890.779482,60323.804358,53782.253418,-7998.437643,65744.370609,70903.890837,56733.711867,-0.060000,0.986000,-0.128000,192.000000,0.000000,0.000000,0.000000,0.000000,0.000000,0.000000,0.000000,0.000000,0.000000,1647766111.554658,0.000000
14.000000,55597.438585,43902.961183,60328.341762,53787.103747,-7987.440585,65740.548461,70895.911264,56741.602032,-0.060000,0.986000,-0.128000,192.000000,0.000000,0.000000,0.000000,0.000000,0.000000,0.000000,0.000000,0.000000,0.000000,1647766111.562124,0.000000
15.000000,55615.185871,43923.927119,60335.449616,53787.640189,-7978.745756,65740.861385,70904.695500,56762.880893,-0.060000,0.986000,-0.128000,192.000000,0.000000,0.000000,0.000000,0.000000,0.000000,0.000000,0.000000,0.000000,0.000000,1647766111.562127,0.000000
16.000000,55619.566812,43912.661840,60334.354381,53783.616875,-7980.109212,65740.302591,70902.840305,56761.964472,-0.060000,0.986000,-0.128000,192.000000,0.000000,0.000000,0.000000,0.000000,0.000000,0.000000,0.000000,0.000000,0.000000,1647766111.570171,0.000000
17.000000,55602.400673,43891.762959,60325.637201,53776.419613,-7992.872058,65730.289010,70906.729508,56744.552463,-0.060000,0.986000,-0.128000,192.000000,0.000000,0.000000,0.000000,0.000000,0.000000,0.000000,0.000000,0.000000,0.000000,1647766111.570174,0.000000
18.000000,55604.233516,43905.330468,60346.536082,53781.225238,-7985.183058,65734.714655,70903.153229,56757.091791,-0.054000,0.982000,-0.124000,192.000000,254.000000,80.000000,30.000000,176.000000,252.000000,32.000000,0.000000,0.000000,0.000000,1647766111.578171,0.000000
19.000000,55610.871984,43911.097218,60353.532178,53767.791840,-7981.942055,65729.596106,70891.999709,56760.869236,-0.054000,0.982000,-0.124000,192.000000,0.000000,0.000000,0.000000,0.000000,0.000000,0.000000,0.000000,0.000000,0.000000,1647766111.578174,0.000000
20.000000,55607.742740,43908.616174,60339.227061,53760.661633,-7980.712710,65729.059664,70912.898590,56768.893512,-0.054000,0.982000,-0.124000,192.000000,0.000000,0.000000,0.000000,0.000000,0.000000,0.000000,0.000000,0.000000,0.000000,1647766111.584771,0.000000
21.000000,55600.299609,43907.990325,60324.854889,53754.447848,-7991.575657,65722.085920,70902.929712,56800.722396,-0.054000,0.982000,-0.124000,192.000000,0.000000,0.000000,0.000000,0.000000,0.000000,0.000000,0.000000,0.000000,0.000000,1647766111.584775,0.000000
22.000000,55615.029408,43916.662802,60327.045360,53758.426459,-7993.699073,65726.243344,70877.471075,56808.299638,-0.054000,0.982000,-0.124000,192.000000,0.000000,0.000000,0.000000,0.000000,0.000000,0.000000,0.000000,0.000000,0.000000,1647766111.591725,0.000000
23.000000,55626.495853,43923.278919,60340.791683,53767.747136,-7987.753509,65727.584449,70862.473054,56814.424016,-0.054000,0.982000,-0.124000,192.000000,0.000000,0.000000,0.000000,0.000000,0.000000,0.000000,0.000000,0.000000,0.000000,1647766111.599871,0.000000
24.000000,55649.093467,43934.231273,60356.326146,53781.560514,-7973.358986,65742.113083,70902.706194,56839.860301,-0.054000,0.982000,-0.124000,192.000000,0.000000,0.000000,0.000000,0.000000,0.000000,0.000000,0.000000,0.000000,0.000000,1647766111.599874,0.000000
25.000000,55646.612423,43922.317794,60340.881090,53772.105726,-7979.058680,65732.434777,70896.917092,56864.223702,-0.054000,0.982000,-0.124000,192.000000,0.000000,0.000000,0.000000,0.000000,0.000000,0.000000,0.000000,0.000000,0.000000,1647766111.609249,0.000000
26.000000,55628.038124,43915.008773,60338.601212,53758.314700,-7989.564000,65724.254039,70873.894796,56880.562828,-0.054000,0.982000,-0.124000,192.000000,0.000000,0.000000,0.000000,0.000000,0.000000,0.000000,0.000000,0.000000,0.000000,1647766111.609253,0.000000
27.000000,55620.013847,43922.004869,60329.124073,53761.198075,-7991.173326,65720.767167,70858.002705,56887.380110,-0.054000,0.982000,-0.124000,192.000000,0.000000,0.000000,0.000000,0.000000,0.000000,0.000000,0.000000,0.000000,0.000000,1647766111.615322,0.000000
28.000000,55618.873908,43939.998024,60329.280535,53769.043537,-7986.412404,65724.656370,70864.283546,56912.995209,-0.056000,0.970000,-0.116000,192.000000,254.000000,64.000000,30.000000,80.000000,252.000000,96.000000,0.000000,0.000000,0.000000,1647766111.615325,0.000000
29.000000,55617.957487,43931.102029,60336.746018,53774.787936,-7974.275407,65730.177251,70892.357337,56984.833716,-0.056000,0.970000,-0.116000,192.000000,0.000000,0.000000,0.000000,0.000000,0.000000,0.000000,0.000000,0.000000,0.000000,1647766111.622423,0.000000
30.000000,55627.524033,43917.802741,60340.791683,53777.134869,-7971.302625,65727.629152,70880.645022,57019.367161,-0.056000,0.970000,-0.116000,192.000000,0.000000,0.000000,0.000000,0.000000,0.000000,0.000000,0.000000,0.000000,0.000000,1647766111.622426,0.000000
31.000000,55621.980801,43913.086523,60339.763503,53768.149467,-7973.068413,65724.768129,70871.257290,57041.718905,-0.056000,0.970000,-0.116000,192.000000,0.000000,0.000000,0.000000,0.000000,0.000000,0.000000,0.000000,0.000000,0.000000,1647766111.630392,0.000000
32.000000,55621.265545,43910.828997,60333.236794,53753.218502,-7983.976064,65720.700111,70874.274775,57067.423411,-0.056000,0.970000,-0.116000,192.000000,0.000000,0.000000,0.000000,0.000000,0.000000,0.000000,0.000000,0.000000,0.000000,1647766111.630395,0.000000
33.000000,55630.496816,43921.289613,60339.942317,53751.676232,-7983.081994,65723.561135,70877.135799,57088.456403,-0.056000,0.970000,-0.116000,192.000000,0.000000,0.000000,0.000000,0.000000,0.000000,0.000000,0.000000,0.000000,0.000000,1647766111.637447,0.000000
34.000000,55629.960374,43925.022355,60360.282404,53761.399241,-7975.258884,65728.456167,70863.367124,57119.167700,-0.056000,0.970000,-0.116000,192.000000,0.000000,0.000000,0.000000,0.000000,0.000000,0.000000,0.000000,0.000000,0.000000,1647766111.637451,0.000000
35.000000,55622.249022,43914.315869,60349.799436,53763.634415,-7976.220009,65735.116987,70865.244671,57160.093744,-0.056000,0.970000,-0.116000,192.000000,0.000000,0.000000,0.000000,0.000000,0.000000,0.000000,0.000000,0.000000,0.000000,1647766111.644999,0.000000
36.000000,55608.748568,43909.443189,60334.600250,53757.197113,-7991.888582,65731.026617,70884.690688,57179.405651,-0.056000,0.970000,-0.116000,192.000000,0.000000,0.000000,0.000000,0.000000,0.000000,0.000000,0.000000,0.000000,0.000000,1647766111.645002,0.000000
37.000000,55602.937115,43903.721142,60335.360209,53756.347746,-7993.743777,65727.562097,70902.393270,57195.163631,-0.056000,0.970000,-0.116000,192.000000,0.000000,0.000000,0.000000,0.000000,0.000000,0.000000,0.000000,0.000000,0.000000,1647766111.652113,0.000000
38.000000,55606.714559,43903.989363,60339.249413,53755.900712,-7993.632018,65724.991646,70892.983185,57210.429872,-0.066000,0.974000,-0.112000,192.000000,253.000000,240.000000,30.000000,112.000000,252.000000,128.000000,0.000000,0.000000,0.000000,1647766111.652118,0.000000
39.000000,55614.470615,43902.156520,60338.154177,53750.290424,-7989.720463,65719.426062,70870.519682,57233.854501,-0.066000,0.974000,-0.112000,192.000000,0.000000,0.000000,0.000000,0.000000,0.000000,0.000000,0.000000,0.000000,0.000000,1647766111.660172,0.000000
40.000000,55601.104272,43894.489872,60334.980230,53742.556720,-7995.822489,65707.132603,70861.824854,57257.524998,-0.066000,0.974000,-0.112000,192.000000,0.000000,0.000000,0.000000,0.000000,0.000000,0.000000,0.000000,0.000000,0.000000,1647766111.668028,0.000000
41.000000,55596.052777,43896.792101,60317.612924,53735.202996,-8007.355989,65703.265751,70873.447761,57279.116783,-0.066000,0.974000,-0.112000,192.000000,0.000000,0.000000,0.000000,0.000000,0.000000,0.000000,0.000000,0.000000,0.000000,1647766111.668032,0.000000
42.000000,55603.562963,43907.856215,60314.841308,53736.141769,-8014.933230,65704.048062,70854.404074,57266.644510,-0.066000,0.974000,-0.112000,192.000000,0.000000,0.000000,0.000000,0.000000,0.000000,0.000000,0.000000,0.000000,0.000000,1647766111.674683,0.000000
43.000000,55604.635847,43911.812474,60314.193107,53727.312830,-8014.530899,65706.663216,70855.901641,57250.640661,-0.066000,0.974000,-0.112000,192.000000,0.000000,0.000000,0.000000,0.000000,0.000000,0.000000,0.000000,0.000000,0.000000,1647766111.674686,0.000000
44.000000,55596.589219,43898.334372,60308.538116,53715.153481,-8013.703884,65696.895504,70846.424502,57263.358803,-0.066000,0.974000,-0.112000,192.000000,0.000000,0.000000,0.000000,0.000000,0.000000,0.000000,0.000000,0.000000,0.000000,1647766111.683169,0.000000
45.000000,55586.128603,43894.199299,60300.782061,53716.338124,-8011.356951,65686.792515,70853.778226,57309.716321,-0.066000,0.974000,-0.112000,192.000000,0.000000,0.000000,0.000000,0.000000,0.000000,0.000000,0.000000,0.000000,0.000000,1647766111.683173,0.000000
46.000000,55605.462862,43908.459712,60325.659552,53733.280746,-7994.704902,65705.433870,70872.508987,57308.509327,-0.066000,0.974000,-0.112000,192.000000,0.000000,0.000000,0.000000,0.000000,0.000000,0.000000,0.000000,0.000000,0.000000,1647766111.689772,0.000000
47.000000,55605.909897,43910.739590,60335.047285,53731.582014,-7993.475556,65708.294893,70872.844264,57282.469545,-0.066000,0.974000,-0.112000,192.000000,0.000000,0.000000,0.000000,0.000000,0.000000,0.000000,0.000000,0.000000,0.000000,1647766111.689776,0.000000
48.000000,55601.506603,43912.863006,60322.731474,53733.325450,-8002.885640,65696.649634,70841.574173,57256.966204,-0.070000,0.978000,-0.110000,192.000000,253.000000,208.000000,30.000000,144.000000,252.000000,144.000000,0.000000,0.000000,0.000000,1647766111.697253,0.000000
49.000000,55596.365702,43905.911613,60317.590573,53728.430418,-8003.042102,65698.616588,70857.242746,57243.644565,-0.070000,0.978000,-0.110000,192.000000,0.000000,0.000000,0.000000,0.000000,0.000000,0.000000,0.000000,0.000000,0.000000,1647766111.697256,0.000000
50.000000,55612.190737,43905.621041,60333.527366,53728.005734,-7990.055739,65710.865344,70874.073610,57256.608576,-0.070000,0.978000,-0.110000,192.000000,0.000000,0.000000,0.000000,0.000000,0.000000,0.000000,0.000000,0.000000,0.000000,1647766111.705270,0.000000
51.000000,55599.830222,43887.069093,60321.613887,53719.243851,-8005.031407,65698.840105,70837.170880,57231.708733,-0.070000,0.978000,-0.110000,192.000000,0.000000,0.000000,0.000000,0.000000,0.000000,0.000000,0.000000,0.000000,0.000000,1647766111.705273,0.000000
52.000000,55604.971123,43897.149729,60326.061884,53739.315717,-7993.252038,65717.615571,70870.340868,57198.203468,-0.070000,0.978000,-0.110000,192.000000,0.000000,0.000000,0.000000,0.000000,0.000000,0.000000,0.000000,0.000000,0.000000,1647766111.713804,0.000000
53.000000,55585.234533,43887.113796,60327.201823,53736.968784,-7997.565925,65715.492155,70866.272851,57156.808037,-0.070000,0.978000,-0.110000,192.000000,0.000000,0.000000,0.000000,0.000000,0.000000,0.000000,0.000000,0.000000,0.000000,1647766111.713808,0.000000
54.000000,55582.373510,43886.733816,60318.328180,53736.298232,-8000.561059,65711.021806,70858.315630,57123.436883,-0.070000,0.978000,-0.110000,192.000000,0.000000,0.000000,0.000000,0.000000,0.000000,0.000000,0.000000,0.000000,0.000000,1647766111.719854,0.000000
55.000000,55602.624190,43902.424741,60325.033703,53745.238929,-7985.630093,65720.968332,70878.007517,57130.410627,-0.070000,0.978000,-0.110000,192.000000,0.000000,0.000000,0.000000,0.000000,0.000000,0.000000,0.000000,0.000000,0.000000,1647766111.726989,0.000000
56.000000,55617.085769,43924.709430,60329.884032,53755.341918,-7982.098518,65723.650542,70859.924955,57112.305714,-0.070000,0.978000,-0.110000,192.000000,0.000000,0.000000,0.000000,0.000000,0.000000,0.000000,0.000000,0.000000,0.000000,1647766111.726993,0.000000
57.000000,55617.443397,43927.704564,60332.722704,53757.308871,-7987.686454,65719.224896,70867.748066,57082.309673,-0.070000,0.978000,-0.110000,192.000000,0.000000,0.000000,0.000000,0.000000,0.000000,0.000000,0.000000,0.000000,0.000000,1647766111.734946,0.000000
58.000000,55607.072187,43914.204110,60327.827672,53741.595595,-8000.829280,65710.753585,70855.566365,57024.776283,-0.074000,0.982000,-0.108000,192.000000,253.000000,176.000000,30.000000,176.000000,252.000000,160.000000,0.000000,0.000000,0.000000,1647766111.734949,0.000000
59.000000,55597.013902,43905.844558,60309.789814,53726.575223,-8003.735006,65702.796364,70851.744217,56973.255512,-0.074000,0.982000,-0.108000,192.000000,0.000000,0.000000,0.000000,0.000000,0.000000,0.000000,0.000000,0.000000,0.000000,1647766111.743023,0.000000
60.000000,55595.136356,43901.061285,60304.559506,53732.051400,-7996.202468,65699.175382,70865.378781,56973.836657,-0.074000,0.982000,-0.108000,192.000000,0.000000,0.000000,0.000000,0.000000,0.000000,0.000000,0.000000,0.000000,0.000000,1647766111.743027,0.000000
61.000000,55586.352120,43883.850441,60304.112471,53727.066961,-8007.914783,65687.843047,70844.971638,56946.969860,-0.074000,0.982000,-0.108000,192.000000,0.000000,0.000000,0.000000,0.000000,0.000000,0.000000,0.000000,0.000000,0.000000,1647766111.749524,0.000000
62.000000,55599.606705,43887.382017,60309.387482,53736.544101,-8005.679608,65699.510658,70858.807368,56909.977723,-0.074000,0.982000,-0.108000,192.000000,0.000000,0.000000,0.000000,0.000000,0.000000,0.000000,0.000000,0.000000,0.000000,1647766111.749528,0.000000
63.000000,55602.959466,43889.728950,60307.062901,53728.653935,-8009.389998,65696.783745,70853.152377,56883.401499,-0.074000,0.982000,-0.108000,192.000000,0.000000,0.000000,0.000000,0.000000,0.000000,0.000000,0.000000,0.000000,0.000000,1647766111.757550,0.000000
64.000000,55590.688359,43892.992305,60318.618753,53727.402237,-8010.932268,65698.884809,70865.043505,56868.850514,-0.074000,0.982000,-0.108000,192.000000,0.000000,0.000000,0.000000,0.000000,0.000000,0.000000,0.000000,0.000000,0.000000,1647766111.757554,0.000000
65.000000,55580.294797,43888.611363,60313.991942,53743.115514,-8000.605762,65707.825507,70861.355467,56846.342307,-0.074000,0.982000,-0.108000,192.000000,0.000000,0.000000,0.000000,0.000000,0.000000,0.000000,0.000000,0.000000,0.000000,1647766111.765590,0.000000
66.000000,55576.942036,43884.699808,60311.399139,53750.201017,-8004.874945,65710.239495,70857.421560,56837.558071,-0.074000,0.982000,-0.108000,192.000000,0.000000,0.000000,0.000000,0.000000,0.000000,0.000000,0.000000,0.000000,0.000000,1647766111.765596,0.000000
67.000000,55587.715577,43897.864985,60329.213480,53755.274863,-8002.013922,65718.017902,70842.490595,56788.920675,-0.074000,0.982000,-0.108000,192.000000,0.000000,0.000000,0.000000,0.000000,0.000000,0.000000,0.000000,0.000000,0.000000,1647766111.772770,0.000000
68.000000,55591.783594,43894.378113,60315.981247,53743.249624,-7997.320056,65721.705940,70860.461397,56763.238521,-0.072000,0.972000,-0.112000,192.000000,253.000000,192.000000,30.000000,96.000000,252.000000,128.000000,0.000000,0.000000,0.000000,1647766111.772774,0.000000
69.000000,55593.012940,43889.147805,60304.648913,53730.732647,-8005.143166,65709.300722,70836.545031,56773.296806,-0.072000,0.972000,-0.112000,192.000000,0.000000,0.000000,0.000000,0.000000,0.000000,0.000000,0.000000,0.000000,0.000000,1647766111.779342,0.000000
70.000000,55598.086786,43894.333410,60310.438014,53724.988249,-8007.870079,65708.026672,70846.692723,56774.392041,-0.072000,0.972000,-0.112000,192.000000,0.000000,0.000000,0.000000,0.000000,0.000000,0.000000,0.000000,0.000000,0.000000,1647766111.787249,0.000000
71.000000,55604.345274,43903.654087,60312.606134,53732.297269,-8005.679608,65712.921704,70858.494444,56768.580588,-0.072000,0.972000,-0.112000,192.000000,0.000000,0.000000,0.000000,0.000000,0.000000,0.000000,0.000000,0.000000,0.000000,1647766111.787252,0.000000
72.000000,55606.245173,43909.174968,60314.908363,53740.545063,-7999.175250,65720.186021,70860.796673,56773.363861,-0.072000,0.972000,-0.112000,192.000000,0.000000,0.000000,0.000000,0.000000,0.000000,0.000000,0.000000,0.000000,0.000000,1647766111.795297,0.000000
73.000000,55592.141222,43894.847500,60318.998732,53739.494531,-8006.372512,65713.726367,70850.738388,56749.827474,-0.072000,0.972000,-0.112000,192.000000,0.000000,0.000000,0.000000,0.000000,0.000000,0.000000,0.000000,0.000000,0.000000,1647766111.795301,0.000000
74.000000,55588.319074,43880.363569,60312.606134,53731.939641,-8010.172309,65703.779841,70836.992066,56726.000515,-0.072000,0.972000,-0.112000,192.000000,0.000000,0.000000,0.000000,0.000000,0.000000,0.000000,0.000000,0.000000,0.000000,1647766111.801872,0.000000
75.000000,55593.035292,43883.492814,60315.243639,53739.382772,-8001.343370,65709.613646,70856.952173,56734.382419,-0.072000,0.972000,-0.112000,192.000000,0.000000,0.000000,0.000000,0.000000,0.000000,0.000000,0.000000,0.000000,0.000000,1647766111.801875,0.000000
76.000000,55599.830222,43883.291648,60308.605171,53736.901729,-8005.299628,65711.200620,70849.732560,56728.280393,-0.072000,0.972000,-0.112000,192.000000,0.000000,0.000000,0.000000,0.000000,0.000000,0.000000,0.000000,0.000000,0.000000,1647766111.809921,0.000000
77.000000,55607.049836,43882.934020,60311.890878,53729.302136,-8017.257812,65706.171478,70837.148528,56692.137622,-0.072000,0.972000,-0.112000,192.000000,0.000000,0.000000,0.000000,0.000000,0.000000,0.000000,0.000000,0.000000,0.000000,1647766111.809949,0.000000
78.000000,55586.374472,43881.369398,60300.267971,53720.316734,-8028.612498,65695.420288,70824.609199,56652.105648,-0.064000,0.974000,-0.114000,192.000000,254.000000,0.000000,30.000000,112.000000,252.000000,112.000000,0.000000,0.000000,0.000000,1647766111.817895,0.000000
79.000000,55589.906048,43904.682267,60317.836442,53737.549929,-8013.234498,65705.679739,70839.137833,56643.500226,-0.064000,0.974000,-0.114000,192.000000,0.000000,0.000000,0.000000,0.000000,0.000000,0.000000,0.000000,0.000000,0.000000,1647766111.817899,0.000000
80.000000,55600.277257,43912.326564,60319.535174,53739.628642,-8000.046968,65710.574771,70870.519682,56649.624604,-0.064000,0.974000,-0.114000,192.000000,0.000000,0.000000,0.000000,0.000000,0.000000,0.000000,0.000000,0.000000,0.000000,1647766111.825079,0.000000
81.000000,55609.106196,43911.186625,60332.141558,53745.931833,-7994.615495,65717.235591,70859.835548,56638.962822,-0.064000,0.974000,-0.114000,192.000000,0.000000,0.000000,0.000000,0.000000,0.000000,0.000000,0.000000,0.000000,0.000000,1647766111.825084,0.000000
82.000000,55591.045987,43897.440302,60323.469081,53739.338069,-8006.908954,65710.015978,70852.101845,56617.952182,-0.064000,0.974000,-0.114000,192.000000,0.000000,0.000000,0.000000,0.000000,0.000000,0.000000,0.000000,0.000000,0.000000,1647766111.833899,0.000000
83.000000,55587.290893,43883.336351,60317.367055,53739.271014,-8015.134396,65705.545629,70841.797691,56584.290455,-0.064000,0.974000,-0.114000,192.000000,0.000000,0.000000,0.000000,0.000000,0.000000,0.000000,0.000000,0.000000,0.000000,1647766111.833902,0.000000
84.000000,55607.139243,43887.046741,60313.746073,53745.529502,-8003.980875,65713.771071,70849.933726,56587.196182,-0.064000,0.974000,-0.114000,192.000000,0.000000,0.000000,0.000000,0.000000,0.000000,0.000000,0.000000,0.000000,0.000000,1647766111.840049,0.000000
85.000000,55616.012885,43893.484043,60313.187279,53748.569339,-8000.114024,65711.960579,70847.005647,56597.813260,-0.064000,0.974000,-0.114000,192.000000,0.000000,0.000000,0.000000,0.000000,0.000000,0.000000,0.000000,0.000000,0.000000,1647766111.847779,0.000000
86.000000,55607.899202,43901.597727,60323.133805,53753.307909,-7995.956599,65720.811870,70843.719941,56569.426545,-0.064000,0.974000,-0.114000,192.000000,0.000000,0.000000,0.000000,0.000000,0.000000,0.000000,0.000000,0.000000,0.000000,1647766111.847787,0.000000
87.000000,55605.641676,43895.450997,60324.653724,53750.268072,-7995.621323,65729.864327,70874.051258,56560.731716,-0.064000,0.974000,-0.114000,192.000000,0.000000,0.000000,0.000000,0.000000,0.000000,0.000000,0.000000,0.000000,0.000000,1647766111.855074,0.000000
88.000000,55602.713597,43891.092407,60321.166852,53746.691793,-8002.684474,65725.930420,70858.293278,56569.739469,-0.058000,0.974000,-0.112000,192.000000,254.000000,48.000000,30.000000,112.000000,252.000000,128.000000,0.000000,0.000000,0.000000,1647766111.855091,0.000000
89.000000,55599.383187,43891.695904,60324.810186,53751.028031,-7999.979913,65724.276391,70847.184461,56570.052394,-0.058000,0.974000,-0.112000,192.000000,0.000000,0.000000,0.000000,0.000000,0.000000,0.000000,0.000000,0.000000,0.000000,1647766111.863169,0.000000
90.000000,55613.733007,43903.944660,60345.373791,53758.337052,-7989.206372,65732.434777,70858.606202,56573.539266,-0.058000,0.974000,-0.112000,192.000000,0.000000,0.000000,0.000000,0.000000,0.000000,0.000000,0.000000,0.000000,0.000000,1647766111.863186,0.000000
91.000000,55598.734987,43896.456825,60323.983171,53748.748153,-7999.599934,65719.224896,70846.558612,56579.037795,-0.058000,0.974000,-0.112000,192.000000,0.000000,0.000000,0.000000,0.000000,0.000000,0.000000,0.000000,0.000000,0.000000,1647766111.870557,0.000000
92.000000,55598.556173,43895.115721,60321.524480,53748.077601,-8006.640733,65715.201582,70827.626685,56589.453708,-0.058000,0.974000,-0.112000,192.000000,0.000000,0.000000,0.000000,0.000000,0.000000,0.000000,0.000000,0.000000,0.000000,1647766111.870573,0.000000
93.000000,55597.259771,43893.372285,60323.692599,53745.261281,-8006.327809,65715.179231,70813.522734,56574.455687,-0.058000,0.974000,-0.112000,192.000000,0.000000,0.000000,0.000000,0.000000,0.000000,0.000000,0.000000,0.000000,0.000000,1647766111.878559,0.000000
94.000000,55593.236457,43891.673552,60322.865584,53737.371115,-8008.540631,65709.412481,70811.175801,56584.178696,-0.058000,0.974000,-0.112000,192.000000,0.000000,0.000000,0.000000,0.000000,0.000000,0.000000,0.000000,0.000000,0.000000,1647766111.878575,0.000000
95.000000,55601.305437,43903.587032,60328.162948,53740.813284,-7998.839974,65716.252114,70815.109708,56603.378845,-0.058000,0.974000,-0.112000,192.000000,0.000000,0.000000,0.000000,0.000000,0.000000,0.000000,0.000000,0.000000,0.000000,1647766111.885135,0.000000
96.000000,55597.148013,43893.774616,60318.641105,53738.578110,-8000.248134,65717.324998,70835.695664,56634.693639,-0.058000,0.974000,-0.112000,192.000000,0.000000,0.000000,0.000000,0.000000,0.000000,0.000000,0.000000,0.000000,0.000000,1647766111.885151,0.000000
97.000000,55596.119833,43888.365494,60314.416625,53740.545063,-8008.987666,65714.463975,70832.879345,56645.221310,-0.058000,0.974000,-0.112000,192.000000,0.000000,0.000000,0.000000,0.000000,0.000000,0.000000,0.000000,0.000000,0.000000,1647766111.893211,0.000000
98.000000,55606.088711,43902.760017,60319.557526,53750.379831,-8010.328771,65715.782728,70814.752080,56635.252432,-0.058000,0.974000,-0.112000,192.000000,0.000000,0.000000,0.000000,0.000000,0.000000,0.000000,0.000000,0.000000,0.000000,1647766111.893228,0.000000
99.000000,55608.346237,43902.782369,60325.860718,53749.597520,-8006.976009,65720.163670,70822.306969,56647.300023,-0.054000,0.978000,-0.124000,192.000000,254.000000,80.000000,30.000000,144.000000,252.000000,32.000000,0.000000,0.000000,0.000000,1647766111.900239,0.000000
100.000000,55610.983743,43899.474311,60316.584744,53747.563511,-8004.159689,65718.911972,70843.295257,56652.306813,-0.054000,0.978000,-0.124000,192.000000,0.000000,0.000000,0.000000,0.000000,0.000000,0.000000,0.000000,0.000000,0.000000,1647766111.900255,0.000000
101.000000,55605.842841,43896.725046,60310.728587,53747.585863,-8007.959486,65709.256018,70844.725769,56682.660482,-0.054000,0.978000,-0.124000,192.000000,0.000000,0.000000,0.000000,0.000000,0.000000,0.000000,0.000000,0.000000,0.000000,1647766111.908377,0.000000
102.000000,55602.534783,43896.345067,60315.869488,53761.354537,-8003.578544,65716.252114,70844.368141,56695.490384,-0.054000,0.978000,-0.124000,192.000000,0.000000,0.000000,0.000000,0.000000,0.000000,0.000000,0.000000,0.000000,0.000000,1647766111.914645,0.000000
103.000000,55583.826373,43883.179889,60313.924886,53753.509075,-8008.317114,65713.011111,70831.694702,56681.475840,-0.054000,0.978000,-0.124000,192.000000,0.000000,0.000000,0.000000,0.000000,0.000000,0.000000,0.000000,0.000000,0.000000,1647766111.914662,0.000000
104.000000,55575.690338,43877.502546,60303.017235,53741.729706,-8015.246155,65700.136507,70821.211734,56685.163878,-0.054000,0.978000,-0.124000,192.000000,0.000000,0.000000,0.000000,0.000000,0.000000,0.000000,0.000000,0.000000,0.000000,1647766111.922906,0.000000
105.000000,55598.511469,43882.978723,60310.013331,53750.849217,-8007.154823,65703.981007,70821.524658,56706.398035,-0.054000,0.978000,-0.124000,192.000000,0.000000,0.000000,0.000000,0.000000,0.000000,0.000000,0.000000,0.000000,0.000000,1647766111.922922,0.000000
106.000000,55600.768995,43871.981665,60309.722758,53751.206845,-8014.910879,65710.060681,70824.720958,56723.318305,-0.054000,0.978000,-0.124000,192.000000,0.000000,0.000000,0.000000,0.000000,0.000000,0.000000,0.000000,0.000000,0.000000,1647766111.930870,0.000000
107.000000,55607.206298,43880.788252,60300.379729,53756.414802,-8018.241288,65707.601989,70827.380815,56716.657486,-0.054000,0.978000,-0.124000,192.000000,0.000000,0.000000,0.000000,0.000000,0.000000,0.000000,0.000000,0.000000,0.000000,1647766111.930888,0.000000
108.000000,55609.575583,43899.586070,60295.305883,53757.755906,-8017.369570,65714.799251,70840.233068,56725.128797,-0.054000,0.978000,-0.124000,192.000000,0.000000,0.000000,0.000000,0.000000,0.000000,0.000000,0.000000,0.000000,0.000000,1647766111.938016,0.000000
109.000000,55586.955617,43876.608476,60292.802488,53743.942528,-8018.710675,65713.167574,70846.402150,56728.369800,-0.044000,0.978000,-0.136000,192.000000,254.000000,160.000000,30.000000,144.000000,251.000000,192.000000,0.000000,0.000000,0.000000,1647766111.938032,0.000000
110.000000,55585.525106,43866.147860,60298.792755,53746.848255,-8011.446358,65712.698187,70836.612086,56726.782826,-0.044000,0.978000,-0.136000,192.000000,0.000000,0.000000,0.000000,0.000000,0.000000,0.000000,0.000000,0.000000,0.000000,1647766111.945472,0.000000
111.000000,55603.674722,43879.603610,60296.557581,53753.844351,-8007.244230,65711.737062,70834.287504,56736.796407,-0.044000,0.978000,-0.136000,192.000000,0.000000,0.000000,0.000000,0.000000,0.000000,0.000000,0.000000,0.000000,0.000000,1647766111.945487,0.000000
112.000000,55600.143147,43880.765901,60297.183430,53753.710241,-8013.927402,65707.154954,70838.288467,56713.394131,-0.044000,0.978000,-0.136000,192.000000,0.000000,0.000000,0.000000,0.000000,0.000000,0.000000,0.000000,0.000000,0.000000,1647766111.953526,0.000000
113.000000,55586.352120,43883.381055,60296.892857,53753.173799,-8017.637791,65706.260885,70826.844374,56681.744061,-0.044000,0.978000,-0.136000,192.000000,0.000000,0.000000,0.000000,0.000000,0.000000,0.000000,0.000000,0.000000,0.000000,1647766111.953543,0.000000
114.000000,55598.936152,43899.004924,60309.745110,53764.193209,-8002.080977,65714.754547,70828.610161,56668.668290,-0.044000,0.978000,-0.136000,192.000000,0.000000,0.000000,0.000000,0.000000,0.000000,0.000000,0.000000,0.000000,0.000000,1647766111.961923,0.000000
115.000000,55610.559059,43899.384904,60323.200860,53775.458488,-7985.473631,65721.705940,70852.437121,56673.339805,-0.044000,0.978000,-0.136000,192.000000,0.000000,0.000000,0.000000,0.000000,0.000000,0.000000,0.000000,0.000000,0.000000,1647766111.961939,0.000000
116.000000,55590.889524,43882.419930,60313.790776,53764.282616,-7999.622285,65708.920742,70839.026074,56699.312532,-0.044000,0.978000,-0.136000,192.000000,0.000000,0.000000,0.000000,0.000000,0.000000,0.000000,0.000000,0.000000,0.000000,1647766111.968486,0.000000
117.000000,55589.190792,43881.168232,60301.072633,53767.098935,-8007.244230,65710.954751,70819.736519,56684.470974,-0.044000,0.978000,-0.136000,192.000000,0.000000,0.000000,0.000000,0.000000,0.000000,0.000000,0.000000,0.000000,0.000000,1647766111.975083,0.000000
118.000000,55617.041065,43902.134168,60311.913229,53797.430253,-7987.977026,65734.133510,70842.982333,56669.785877,-0.044000,0.978000,-0.136000,192.000000,0.000000,0.000000,0.000000,0.000000,0.000000,0.000000,0.000000,0.000000,0.000000,1647766111.975099,0.000000
119.000000,55621.958449,43899.697828,60311.063863,53797.117328,-7983.104346,65733.909992,70837.014417,56661.336918,-0.042000,0.984000,-0.132000,192.000000,254.000000,176.000000,30.000000,192.000000,251.000000,224.000000,0.000000,0.000000,0.000000,1647766111.983012,0.000000
120.000000,55606.580449,43883.470462,60305.900610,53783.952151,-7991.463899,65725.617495,70844.770473,56692.137622,-0.042000,0.984000,-0.132000,192.000000,0.000000,0.000000,0.000000,0.000000,0.000000,0.000000,0.000000,0.000000,0.000000,1647766111.983028,0.000000
121.000000,55600.590181,43882.218764,60294.925904,53782.946322,-7997.632980,65719.962504,70829.638342,56689.902447,-0.042000,0.984000,-0.132000,192.000000,0.000000,0.000000,0.000000,0.000000,0.000000,0.000000,0.000000,0.000000,0.000000,1647766111.990174,0.000000
122.000000,55596.477460,43889.170157,60305.721796,53783.706282,-7994.816660,65718.397882,70838.176708,56689.522468,-0.042000,0.984000,-0.132000,192.000000,0.000000,0.000000,0.000000,0.000000,0.000000,0.000000,0.000000,0.000000,0.000000,1647766111.990190,0.000000
123.000000,55593.325864,43884.185718,60313.701369,53782.298122,-8003.422082,65713.771071,70844.725769,56670.411726,-0.042000,0.984000,-0.132000,192.000000,0.000000,0.000000,0.000000,0.000000,0.000000,0.000000,0.000000,0.000000,0.000000,1647766111.997691,0.000000
124.000000,55597.125661,43880.788252,60307.219363,53780.130003,-8003.533841,65708.764280,70852.481824,56667.595406,-0.042000,0.984000,-0.132000,192.000000,0.000000,0.000000,0.000000,0.000000,0.000000,0.000000,0.000000,0.000000,0.000000,1647766111.997708,0.000000
125.000000,55599.204373,43881.101177,60297.094023,53767.613026,-8005.187870,65704.182172,70827.492574,56685.320340,-0.042000,0.984000,-0.132000,192.000000,0.000000,0.000000,0.000000,0.000000,0.000000,0.000000,0.000000,0.000000,0.000000,1647766112.005385,0.000000
126.000000,55610.380245,43886.778520,60290.500258,53766.316624,-8010.932268,65703.310454,70808.873571,56689.813040,-0.042000,0.984000,-0.132000,192.000000,0.000000,0.000000,0.000000,0.000000,0.000000,0.000000,0.000000,0.000000,0.000000,1647766112.005394,0.000000
127.000000,55626.004115,43910.873700,60300.692654,53780.040596,-7997.610628,65718.062606,70849.151415,56678.257189,-0.042000,0.984000,-0.132000,192.000000,0.000000,0.000000,0.000000,0.000000,0.000000,0.000000,0.000000,0.000000,0.000000,1647766112.013732,0.000000
128.000000,55624.081865,43910.203148,60299.664473,53784.578000,-7997.051835,65716.095652,70856.326325,56668.064793,-0.042000,0.984000,-0.132000,192.000000,0.000000,0.000000,0.000000,0.000000,0.000000,0.000000,0.000000,0.000000,0.000000,1647766112.013749,0.000000
129.000000,55606.111062,43887.516128,60296.334064,53778.051290,-7999.711692,65705.143297,70848.123234,56665.114363,-0.046000,0.980000,-0.136000,192.000000,254.000000,144.000000,30.000000,160.000000,251.000000,192.000000,0.000000,0.000000,0.000000,1647766112.020334,0.000000
130.000000,55595.136356,43879.581258,60305.766500,53775.927875,-7994.704902,65699.667120,70842.781167,56664.264997,-0.046000,0.980000,-0.136000,192.000000,0.000000,0.000000,0.000000,0.000000,0.000000,0.000000,0.000000,0.000000,0.000000,1647766112.020350,0.000000
131.000000,55605.641676,43886.957334,60319.110491,53785.159145,-7990.614532,65704.003358,70845.262211,56681.207619,-0.046000,0.980000,-0.136000,192.000000,0.000000,0.000000,0.000000,0.000000,0.000000,0.000000,0.000000,0.000000,0.000000,1647766112.027189,0.000000
132.000000,55604.501737,43893.551099,60302.212572,53798.011398,-7992.805003,65708.138431,70858.337982,56671.037575,-0.046000,0.980000,-0.136000,192.000000,0.000000,0.000000,0.000000,0.000000,0.000000,0.000000,0.000000,0.000000,0.000000,1647766112.035197,0.000000
133.000000,55601.819527,43886.555003,60291.550790,53801.073587,-7996.984779,65704.204524,70865.892871,56681.811116,-0.046000,0.980000,-0.136000,192.000000,0.000000,0.000000,0.000000,0.000000,0.000000,0.000000,0.000000,0.000000,0.000000,1647766112.035214,0.000000
134.000000,55587.760280,43872.428700,60287.035738,53791.127061,-8002.528012,65692.872190,70849.732560,56697.144413,-0.046000,0.980000,-0.136000,192.000000,0.000000,0.000000,0.000000,0.000000,0.000000,0.000000,0.000000,0.000000,0.000000,1647766112.042571,0.000000
135.000000,55592.252981,43880.520032,60292.355453,53792.892849,-7995.755434,65698.057794,70836.097996,56704.676951,-0.046000,0.980000,-0.136000,192.000000,0.000000,0.000000,0.000000,0.000000,0.000000,0.000000,0.000000,0.000000,0.000000,1647766112.042586,0.000000
136.000000,55591.537725,43877.234325,60289.270912,53790.009474,-7997.923553,65705.210353,70857.466263,56717.573907,-0.046000,0.980000,-0.136000,192.000000,0.000000,0.000000,0.000000,0.000000,0.000000,0.000000,0.000000,0.000000,0.000000,1647766112.050009,0.000000
137.000000,55594.666969,43879.625962,60281.380747,53787.483726,-8008.250059,65703.958655,70851.319534,56702.933514,-0.046000,0.980000,-0.136000,192.000000,0.000000,0.000000,0.000000,0.000000,0.000000,0.000000,0.000000,0.000000,0.000000,1647766112.050024,0.000000
138.000000,55597.617399,43879.625962,60279.503200,53791.238820,-8008.518280,65706.864382,70844.725769,56689.008378,-0.046000,0.980000,-0.136000,192.000000,0.000000,0.000000,0.000000,0.000000,0.000000,0.000000,0.000000,0.000000,0.000000,1647766112.057984,0.000000
139.000000,55597.930324,43867.444261,60282.833610,53783.907447,-8014.173271,65699.242437,70833.058159,56701.547706,-0.056000,0.972000,-0.136000,192.000000,254.000000,64.000000,30.000000,96.000000,251.000000,192.000000,0.000000,0.000000,0.000000,1647766112.058000,0.000000
140.000000,55606.871022,43872.518107,60295.909380,53790.434157,-8010.149957,65695.375585,70838.780205,56716.299858,-0.056000,0.972000,-0.136000,192.000000,0.000000,0.000000,0.000000,0.000000,0.000000,0.000000,0.000000,0.000000,0.000000,1647766112.065971,0.000000
141.000000,55594.510507,43880.207107,60292.064880,53790.881192,-7999.957561,65691.419326,70841.909449,56751.369745,-0.056000,0.972000,-0.136000,192.000000,0.000000,0.000000,0.000000,0.000000,0.000000,0.000000,0.000000,0.000000,0.000000,1647766112.065987,0.000000
142.000000,55588.095556,43875.155613,60296.021139,53786.142622,-8004.271448,65688.178323,70816.428461,56737.891643,-0.056000,0.972000,-0.136000,192.000000,0.000000,0.000000,0.000000,0.000000,0.000000,0.000000,0.000000,0.000000,0.000000,1647766112.072476,0.000000
143.000000,55587.089728,43870.394691,60310.795642,53786.030863,-8006.260753,65689.966463,70815.355577,56731.901375,-0.056000,0.972000,-0.136000,192.000000,0.000000,0.000000,0.000000,0.000000,0.000000,0.000000,0.000000,0.000000,0.000000,1647766112.072492,0.000000
144.000000,55592.945885,43878.106043,60304.984189,53789.405976,-8001.611591,65690.905236,70823.469260,56732.437817,-0.056000,0.972000,-0.136000,192.000000,0.000000,0.000000,0.000000,0.000000,0.000000,0.000000,0.000000,0.000000,0.000000,1647766112.080506,0.000000
145.000000,55616.795196,43885.079787,60297.317540,53798.860764,-7986.546515,65699.689472,70866.295203,56773.497972,-0.056000,0.972000,-0.136000,192.000000,0.000000,0.000000,0.000000,0.000000,0.000000,0.000000,0.000000,0.000000,0.000000,1647766112.080517,0.000000
146.000000,55619.387999,43895.093369,60302.972532,53801.565325,-7991.016864,65695.710861,70864.149435,56809.976019,-0.056000,0.972000,-0.136000,192.000000,0.000000,0.000000,0.000000,0.000000,0.000000,0.000000,0.000000,0.000000,0.000000,1647766112.087378,0.000000
147.000000,55604.322923,43890.757130,60289.606188,53797.966695,-7999.264657,65689.675890,70855.633420,56815.295734,-0.056000,0.972000,-0.136000,192.000000,0.000000,0.000000,0.000000,0.000000,0.000000,0.000000,0.000000,0.000000,0.000000,1647766112.095738,0.000000
148.000000,55607.407463,43894.936907,60294.814145,53808.896698,-7994.637846,65695.710861,70841.440063,56806.086815,-0.056000,0.972000,-0.136000,192.000000,0.000000,0.000000,0.000000,0.000000,0.000000,0.000000,0.000000,0.000000,0.000000,1647766112.095754,0.000000
149.000000,55609.530879,43878.910706,60293.405985,53809.075512,-7990.502774,65692.983948,70856.549842,56824.906984,-0.068000,0.974000,-0.130000,192.000000,253.000000,224.000000,30.000000,112.000000,251.000000,240.000000,0.000000,0.000000,0.000000,1647766112.102150,0.000000
150.000000,55609.128548,43869.947656,60299.508011,53814.082302,-7981.763242,65700.360024,70857.958002,56857.898159,-0.068000,0.974000,-0.130000,192.000000,0.000000,0.000000,0.000000,0.000000,0.000000,0.000000,0.000000,0.000000,0.000000,1647766112.102168,0.000000
151.000000,55594.555210,43856.715424,60279.547903,53803.822852,-7995.643675,65692.626320,70856.192214,56875.690147,-0.068000,0.974000,-0.130000,192.000000,0.000000,0.000000,0.000000,0.000000,0.000000,0.000000,0.000000,0.000000,0.000000,1647766112.110302,0.000000
152.000000,55612.570716,43864.315017,60280.106697,53804.851032,-8000.248134,65698.527181,70861.735447,56898.846555,-0.068000,0.974000,-0.130000,192.000000,0.000000,0.000000,0.000000,0.000000,0.000000,0.000000,0.000000,0.000000,0.000000,1647766112.110318,0.000000
153.000000,55625.802949,43873.814508,60294.300055,53806.259192,-7996.470689,65710.105385,70860.707266,56905.619133,-0.068000,0.974000,-0.130000,192.000000,0.000000,0.000000,0.000000,0.000000,0.000000,0.000000,0.000000,0.000000,0.000000,1647766112.119642,0.000000
154.000000,55618.806853,43875.222668,60298.524535,53800.894773,-7994.190811,65707.601989,70865.356429,56916.571488,-0.068000,0.974000,-0.130000,192.000000,0.000000,0.000000,0.000000,0.000000,0.000000,0.000000,0.000000,0.000000,0.000000,1647766112.119658,0.000000
155.000000,55608.145071,43883.246944,60314.595439,53814.015247,-7985.071300,65711.960579,70877.627537,56940.130227,-0.068000,0.974000,-0.130000,192.000000,0.000000,0.000000,0.000000,0.000000,0.000000,0.000000,0.000000,0.000000,0.000000,1647766112.125872,0.000000
156.000000,55602.400673,43885.660933,60305.744148,53820.720770,-7984.758375,65708.183135,70879.460380,56961.543198,-0.068000,0.974000,-0.130000,192.000000,0.000000,0.000000,0.000000,0.000000,0.000000,0.000000,0.000000,0.000000,0.000000,1647766112.125888,0.000000
157.000000,55612.794234,43883.045779,60298.613942,53808.539070,-7989.988683,65703.265751,70877.158150,56978.418765,-0.068000,0.974000,-0.130000,192.000000,0.000000,0.000000,0.000000,0.000000,0.000000,0.000000,0.000000,0.000000,0.000000,1647766112.132909,0.000000
158.000000,55612.011923,43883.693979,60291.103755,53801.386511,-8003.757358,65689.608835,70834.600429,56953.161294,-0.068000,0.974000,-0.130000,192.000000,0.000000,0.000000,0.000000,0.000000,0.000000,0.000000,0.000000,0.000000,0.000000,1647766112.132926,0.000000
159.000000,55606.021655,43892.321753,60278.765592,53806.594468,-8001.812756,65688.066565,70850.581926,56943.661802,-0.070000,0.968000,-0.132000,192.000000,253.000000,208.000000,30.000000,64.000000,251.000000,224.000000,0.000000,0.000000,0.000000,1647766112.140924,0.000000
160.000000,55600.567830,43893.193471,60289.762651,53815.043427,-7997.364759,65689.944111,70872.285470,56952.446038,-0.070000,0.968000,-0.132000,192.000000,0.000000,0.000000,0.000000,0.000000,0.000000,0.000000,0.000000,0.000000,0.000000,1647766112.140940,0.000000
161.000000,55612.660123,43893.707561,60293.383633,53818.485596,-7989.273428,65692.313396,70871.100828,56958.860988,-0.070000,0.968000,-0.132000,192.000000,0.000000,0.000000,0.000000,0.000000,0.000000,0.000000,0.000000,0.000000,0.000000,1647766112.148020,0.000000
162.000000,55616.146996,43889.661895,60301.586724,53806.013323,-7995.643675,65693.945073,70871.190235,56943.393581,-0.070000,0.968000,-0.132000,192.000000,0.000000,0.000000,0.000000,0.000000,0.000000,0.000000,0.000000,0.000000,0.000000,1647766112.148036,0.000000
163.000000,55604.054702,43886.376189,60300.267971,53797.698474,-8001.276314,65698.571884,70869.066819,56930.988363,-0.070000,0.968000,-0.132000,192.000000,0.000000,0.000000,0.000000,0.000000,0.000000,0.000000,0.000000,0.000000,0.000000,1647766112.154579,0.000000
164.000000,55589.101385,43871.467575,60277.826819,53788.489555,-8007.378341,65691.620492,70876.286432,56935.950450,-0.070000,0.968000,-0.132000,192.000000,0.000000,0.000000,0.000000,0.000000,0.000000,0.000000,0.000000,0.000000,0.000000,1647766112.162566,0.000000
165.000000,55600.321960,43874.418005,60294.836497,53795.440947,-7998.325884,65692.223989,70884.109543,56950.322622,-0.070000,0.968000,-0.132000,192.000000,0.000000,0.000000,0.000000,0.000000,0.000000,0.000000,0.000000,0.000000,0.000000,1647766112.162583,0.000000
166.000000,55611.184908,43877.122566,60294.903552,53792.065834,-7991.977989,65688.379489,70884.266005,56989.125250,-0.070000,0.968000,-0.132000,192.000000,0.000000,0.000000,0.000000,0.000000,0.000000,0.000000,0.000000,0.000000,0.000000,1647766112.170613,0.000000
167.000000,55598.444414,43869.679435,60278.944406,53769.535276,-8013.234498,65670.721611,70855.231089,56987.247704,-0.070000,0.968000,-0.132000,192.000000,0.000000,0.000000,0.000000,0.000000,0.000000,0.000000,0.000000,0.000000,0.000000,1647766112.170629,0.000000
168.000000,55599.092615,43877.659008,60283.168886,53771.122249,-8010.887565,65676.801285,70846.290391,56980.273960,-0.070000,0.968000,-0.132000,192.000000,0.000000,0.000000,0.000000,0.000000,0.000000,0.000000,0.000000,0.000000,0.000000,1647766112.177593,0.000000
169.000000,55609.039141,43886.331485,60293.584799,53768.641206,-8001.075149,65686.837219,70860.371990,56984.051404,-0.060000,0.974000,-0.126000,192.000000,254.000000,32.000000,30.000000,112.000000,252.000000,16.000000,0.000000,0.000000,0.000000,1647766112.177609,0.000000
170.000000,55608.592106,43883.761034,60287.303959,53756.168932,-8003.466785,65685.496114,70869.200929,56968.807515,-0.060000,0.974000,-0.126000,192.000000,0.000000,0.000000,0.000000,0.000000,0.000000,0.000000,0.000000,0.000000,0.000000,1647766112.185008,0.000000
171.000000,55590.867173,43868.852421,60276.977453,53747.630566,-8009.255887,65676.980099,70863.970621,56965.678271,-0.060000,0.974000,-0.126000,192.000000,0.000000,0.000000,0.000000,0.000000,0.000000,0.000000,0.000000,0.000000,0.000000,1647766112.185026,0.000000
172.000000,55603.294743,43881.257639,60296.602285,53765.891941,-8002.170384,65688.625358,70875.861749,56966.102954,-0.060000,0.974000,-0.126000,192.000000,0.000000,0.000000,0.000000,0.000000,0.000000,0.000000,0.000000,0.000000,0.000000,1647766112.193078,0.000000
173.000000,55610.983743,43888.276087,60309.633352,53768.037709,-8001.030445,65691.531085,70868.463322,56937.582128,-0.060000,0.974000,-0.126000,192.000000,0.000000,0.000000,0.000000,0.000000,0.000000,0.000000,0.000000,0.000000,0.000000,1647766112.193090,0.000000
174.000000,55608.480347,43883.492814,60295.819973,53756.817133,-8003.265620,65678.321204,70864.551766,56913.665761,-0.060000,0.974000,-0.126000,192.000000,0.000000,0.000000,0.000000,0.000000,0.000000,0.000000,0.000000,0.000000,0.000000,1647766112.201050,0.000000
175.000000,55598.243248,43871.892258,60280.553732,53739.047496,-8007.937134,65663.032611,70859.768493,56916.482081,-0.060000,0.974000,-0.126000,192.000000,0.000000,0.000000,0.000000,0.000000,0.000000,0.000000,0.000000,0.000000,0.000000,1647766112.201066,0.000000
176.000000,55607.116891,43875.714406,60281.559560,53743.495493,-8000.628114,65670.252224,70855.812234,56910.089482,-0.060000,0.974000,-0.126000,192.000000,0.000000,0.000000,0.000000,0.000000,0.000000,0.000000,0.000000,0.000000,0.000000,1647766112.207777,0.000000
177.000000,55622.405484,43887.404369,60298.368072,53769.155296,-7986.457108,65682.568035,70878.901586,56921.153596,-0.060000,0.974000,-0.126000,192.000000,0.000000,0.000000,0.000000,0.000000,0.000000,0.000000,0.000000,0.000000,0.000000,1647766112.207793,0.000000
178.000000,55637.112932,43898.043799,60300.871468,53778.207752,-7989.854573,65683.618567,70869.960889,56888.341235,-0.060000,0.974000,-0.126000,192.000000,0.000000,0.000000,0.000000,0.000000,0.000000,0.000000,0.000000,0.000000,0.000000,1647766112.214848,0.000000
179.000000,55625.646487,43897.060322,60291.729604,53769.647034,-7990.435718,65675.884864,70870.564386,56864.424868,-0.056000,0.980000,-0.120000,192.000000,254.000000,64.000000,30.000000,160.000000,252.000000,64.000000,0.000000,0.000000,0.000000,1647766112.222900,0.000000
180.000000,55609.664990,43889.013694,60286.991034,53758.381755,-7985.473631,65676.153085,70878.387496,56839.390914,-0.056000,0.980000,-0.120000,192.000000,0.000000,0.000000,0.000000,0.000000,0.000000,0.000000,0.000000,0.000000,0.000000,1647766112.222916,0.000000
181.000000,55599.383187,43874.283895,60313.567259,53759.678156,-7979.505715,65679.595253,70884.042488,56821.151891,-0.056000,0.980000,-0.120000,192.000000,0.000000,0.000000,0.000000,0.000000,0.000000,0.000000,0.000000,0.000000,0.000000,1647766112.230873,0.000000
182.000000,55602.646542,43876.764938,60317.903497,53760.616930,-7976.823506,65681.919835,70876.800522,56805.483318,-0.056000,0.980000,-0.120000,192.000000,0.000000,0.000000,0.000000,0.000000,0.000000,0.000000,0.000000,0.000000,0.000000,1647766112.230889,0.000000
183.000000,55606.692208,43893.774616,60320.965686,53768.216523,-7974.297759,65686.770163,70868.843301,56785.567914,-0.056000,0.980000,-0.120000,192.000000,0.000000,0.000000,0.000000,0.000000,0.000000,0.000000,0.000000,0.000000,0.000000,1647766112.237464,0.000000
184.000000,55607.720388,43895.719218,60313.835479,53770.675215,-7971.056756,65690.793477,70879.370973,56774.392041,-0.056000,0.980000,-0.120000,192.000000,0.000000,0.000000,0.000000,0.000000,0.000000,0.000000,0.000000,0.000000,0.000000,1647766112.237480,0.000000
185.000000,55605.619324,43891.025351,60296.222305,53766.629549,-7976.465878,65688.044213,70882.075534,56796.408510,-0.056000,0.980000,-0.120000,192.000000,0.000000,0.000000,0.000000,0.000000,0.000000,0.000000,0.000000,0.000000,0.000000,1647766112.245449,0.000000
186.000000,55615.856423,43900.301325,60305.855907,53775.078508,-7974.856552,65693.386280,70893.541979,56804.186917,-0.056000,0.980000,-0.120000,192.000000,0.000000,0.000000,0.000000,0.000000,0.000000,0.000000,0.000000,0.000000,0.000000,1647766112.245465,0.000000
187.000000,55630.250946,43908.750285,60311.376788,53771.658691,-7979.483364,65694.302701,70883.059011,56797.883725,-0.056000,0.980000,-0.120000,192.000000,0.000000,0.000000,0.000000,0.000000,0.000000,0.000000,0.000000,0.000000,0.000000,1647766112.253478,0.000000
188.000000,55624.305382,43895.808625,60297.406947,53749.195188,-7992.089747,65683.707974,70876.755819,56781.678710,-0.056000,0.980000,-0.120000,192.000000,0.000000,0.000000,0.000000,0.000000,0.000000,0.000000,0.000000,0.000000,0.000000,1647766112.253494,0.000000
189.000000,55615.007057,43890.421854,60293.428337,53750.893921,-7990.167497,65684.155009,70890.233921,56776.470754,-0.054000,0.980000,-0.126000,192.000000,254.000000,80.000000,30.000000,160.000000,252.000000,16.000000,0.000000,0.000000,0.000000,1647766112.260107,0.000000
190.000000,55610.112025,43881.704674,60302.726662,53758.739383,-7982.813773,65689.251207,70900.761592,56791.379367,-0.054000,0.980000,-0.126000,192.000000,0.000000,0.000000,0.000000,0.000000,0.000000,0.000000,0.000000,0.000000,0.000000,1647766112.260123,0.000000
191.000000,55602.624190,43865.477307,60294.523572,53756.280691,-7984.803079,65676.264843,70883.103714,56809.104301,-0.054000,0.980000,-0.126000,192.000000,0.000000,0.000000,0.000000,0.000000,0.000000,0.000000,0.000000,0.000000,0.000000,1647766112.267899,0.000000
192.000000,55602.959466,43867.287799,60285.046433,53747.339993,-7993.341445,65666.273614,70860.260232,56822.023609,-0.054000,0.980000,-0.126000,192.000000,0.000000,0.000000,0.000000,0.000000,0.000000,0.000000,0.000000,0.000000,0.000000,1647766112.267915,0.000000
193.000000,55606.647504,43882.978723,60297.049319,53752.637357,-7989.921628,65672.420343,70848.637324,56822.962382,-0.054000,0.980000,-0.126000,192.000000,0.000000,0.000000,0.000000,0.000000,0.000000,0.000000,0.000000,0.000000,0.000000,1647766112.275161,0.000000
194.000000,55600.031388,43901.798892,60296.937561,53755.341918,-7986.993550,65673.694393,70884.020136,56826.203385,-0.054000,0.980000,-0.126000,192.000000,0.000000,0.000000,0.000000,0.000000,0.000000,0.000000,0.000000,0.000000,0.000000,1647766112.283203,0.000000
195.000000,55611.408426,43911.812474,60298.099851,53756.906540,-7981.226800,65674.476704,70910.663415,56837.491016,-0.054000,0.980000,-0.126000,192.000000,0.000000,0.000000,0.000000,0.000000,0.000000,0.000000,0.000000,0.000000,0.000000,1647766112.283219,0.000000
196.000000,55610.871984,43890.533613,60285.918151,53742.556720,-7992.849707,65659.881015,70889.630424,56875.913665,-0.054000,0.980000,-0.126000,192.000000,0.000000,0.000000,0.000000,0.000000,0.000000,0.000000,0.000000,0.000000,0.000000,1647766112.289782,0.000000
197.000000,55632.910804,43886.711465,60296.378767,53750.603348,-7990.525125,65664.865454,70879.370973,56882.842706,-0.054000,0.980000,-0.126000,192.000000,0.000000,0.000000,0.000000,0.000000,0.000000,0.000000,0.000000,0.000000,0.000000,1647766112.289798,0.000000
198.000000,55618.985667,43883.269296,60301.162040,53751.765639,-7992.112099,65663.278480,70885.294185,56874.706671,-0.054000,0.980000,-0.126000,192.000000,0.000000,0.000000,0.000000,0.000000,0.000000,0.000000,0.000000,0.000000,0.000000,1647766112.297817,0.000000
199.000000,55601.506603,43866.505488,60289.427375,53738.689868,-8002.840937,65651.901442,70894.614863,56868.157609,-0.054000,0.980000,-0.126000,192.000000,0.000000,0.000000,0.000000,0.000000,0.000000,0.000000,0.000000,0.000000,0.000000,1647766112.297833,0.000000
200.000000,55597.907972,43865.879639,60276.530418,53738.399296,-8002.907992,65648.526329,70895.821857,56889.637636,-0.054000,0.982000,-0.122000,192.000000,254.000000,80.000000,30.000000,176.000000,252.000000,48.000000,0.000000,0.000000,0.000000,1647766112.305733,0.000000
201.000000,55599.830222,43873.680398,60270.115467,53732.610194,-8010.261716,65643.899518,70887.082325,56896.074938,-0.054000,0.982000,-0.122000,192.000000,0.000000,0.000000,0.000000,0.000000,0.000000,0.000000,0.000000,0.000000,0.000000,1647766112.305749,0.000000
202.000000,55613.353028,43895.227479,60280.665491,53742.489665,-8014.039160,65646.000582,70885.048316,56902.244020,-0.054000,0.982000,-0.122000,192.000000,0.000000,0.000000,0.000000,0.000000,0.000000,0.000000,0.000000,0.000000,0.000000,1647766112.312852,0.000000
203.000000,55620.907917,43900.971878,60296.177601,53738.958089,-8015.827300,65651.409704,70888.401078,56885.435508,-0.054000,0.982000,-0.122000,192.000000,0.000000,0.000000,0.000000,0.000000,0.000000,0.000000,0.000000,0.000000,0.000000,1647766112.312869,0.000000
204.000000,55599.986684,43872.652217,60299.642122,53725.479987,-8014.329733,65657.377619,70893.631386,56876.673624,-0.054000,0.982000,-0.122000,192.000000,0.000000,0.000000,0.000000,0.000000,0.000000,0.000000,0.000000,0.000000,0.000000,1647766112.320378,0.000000
205.000000,55578.685472,43859.956427,60273.736450,53714.929964,-8016.497852,65655.298907,70891.642081,56891.559886,-0.054000,0.982000,-0.122000,192.000000,0.000000,0.000000,0.000000,0.000000,0.000000,0.000000,0.000000,0.000000,0.000000,1647766112.320394,0.000000
206.000000,55593.102347,43864.583238,60275.926921,53724.094179,-8014.821472,65654.829521,70884.288357,56901.148784,-0.054000,0.982000,-0.122000,192.000000,0.000000,0.000000,0.000000,0.000000,0.000000,0.000000,0.000000,0.000000,0.000000,1647766112.328322,0.000000
207.000000,55599.025559,43859.844668,60281.917188,53722.663668,-8016.654315,65653.063733,70871.883139,56895.851421,-0.054000,0.982000,-0.122000,192.000000,0.000000,0.000000,0.000000,0.000000,0.000000,0.000000,0.000000,0.000000,0.000000,1647766112.328337,0.000000
208.000000,55585.636864,43853.586179,60280.173752,53713.901784,-8024.969164,65648.861605,70882.276700,56883.535610,-0.054000,0.982000,-0.122000,192.000000,0.000000,0.000000,0.000000,0.000000,0.000000,0.000000,0.000000,0.000000,0.000000,1647766112.335316,0.000000
209.000000,55596.119833,43870.081767,60282.185409,53718.238022,-8014.642658,65658.986945,70904.941369,56899.941790,-0.054000,0.982000,-0.122000,192.000000,0.000000,0.000000,0.000000,0.000000,0.000000,0.000000,0.000000,0.000000,0.000000,1647766112.342509,0.000000
210.000000,55610.536708,43882.531689,60302.011407,53735.091237,-7998.661160,65673.225006,70907.221247,56922.472349,-0.052000,0.984000,-0.122000,192.000000,254.000000,96.000000,30.000000,192.000000,252.000000,48.000000,0.000000,0.000000,0.000000,1647766112.342525,0.000000
211.000000,55603.741777,43873.814508,60299.597418,53736.901729,-8000.873983,65666.184207,70905.008424,56928.954354,-0.052000,0.984000,-0.122000,192.000000,0.000000,0.000000,0.000000,0.000000,0.000000,0.000000,0.000000,0.000000,0.000000,1647766112.349997,0.000000
212.000000,55610.648466,43874.015674,60284.331177,53733.951298,-8007.378341,65655.321259,70892.312633,56917.264392,-0.052000,0.984000,-0.122000,192.000000,0.000000,0.000000,0.000000,0.000000,0.000000,0.000000,0.000000,0.000000,0.000000,1647766112.350014,0.000000
213.000000,55621.936097,43873.099252,60280.061994,53737.147598,-8010.217012,65652.683753,70890.546845,56915.833880,-0.052000,0.984000,-0.122000,192.000000,0.000000,0.000000,0.000000,0.000000,0.000000,0.000000,0.000000,0.000000,0.000000,1647766112.358086,0.000000
214.000000,55612.078978,43873.680398,60287.616883,53754.693717,-8003.623248,65653.622526,70870.094999,56899.807680,-0.052000,0.984000,-0.122000,192.000000,0.000000,0.000000,0.000000,0.000000,0.000000,0.000000,0.000000,0.000000,0.000000,1647766112.358103,0.000000
215.000000,55606.379283,43867.556020,60291.841363,53761.868627,-7994.481384,65659.836311,70879.236863,56892.744528,-0.052000,0.984000,-0.122000,192.000000,0.000000,0.000000,0.000000,0.000000,0.000000,0.000000,0.000000,0.000000,0.000000,1647766112.365999,0.000000
216.000000,55601.573658,43866.952523,60294.344758,53756.392450,-7986.099480,65664.194901,70908.942331,56918.002000,-0.052000,0.984000,-0.122000,192.000000,0.000000,0.000000,0.000000,0.000000,0.000000,0.000000,0.000000,0.000000,0.000000,1647766112.366015,0.000000
217.000000,55603.272391,43865.544363,60293.741261,53757.130057,-7992.760300,65664.865454,70907.780040,56900.254715,-0.052000,0.984000,-0.122000,192.000000,0.000000,0.000000,0.000000,0.000000,0.000000,0.000000,0.000000,0.000000,0.000000,1647766112.372572,0.000000
218.000000,55614.470615,43875.624999,60291.126107,53760.929854,-7991.575657,65667.435904,70897.073555,56889.659988,-0.052000,0.984000,-0.122000,192.000000,0.000000,0.000000,0.000000,0.000000,0.000000,0.000000,0.000000,0.000000,0.000000,1647766112.372588,0.000000
219.000000,55606.692208,43887.002037,60298.368072,53764.953168,-7985.965369,65674.186131,70884.422467,56872.695014,-0.052000,0.984000,-0.122000,192.000000,0.000000,0.000000,0.000000,0.000000,0.000000,0.000000,0.000000,0.000000,0.000000,1647766112.380582,0.000000
220.000000,55608.256830,43887.940811,60305.408872,53768.887075,-7977.248189,65677.158913,70869.245633,56862.077935,-0.054000,0.980000,-0.122000,192.000000,254.000000,80.000000,30.000000,160.000000,252.000000,48.000000,0.000000,0.000000,0.000000,1647766112.380594,0.000000
221.000000,55617.018714,43881.816433,60317.300000,53772.843334,-7972.621378,65678.276500,70920.229962,56869.744583,-0.054000,0.980000,-0.122000,192.000000,0.000000,0.000000,0.000000,0.000000,0.000000,0.000000,0.000000,0.000000,0.000000,1647766112.388530,0.000000
222.000000,55622.919574,43878.396616,60320.116320,53768.596502,-7978.589294,65676.644823,70913.859715,56859.507484,-0.054000,0.980000,-0.122000,192.000000,0.000000,0.000000,0.000000,0.000000,0.000000,0.000000,0.000000,0.000000,0.000000,1647766112.388541,0.000000
223.000000,55607.988609,43875.893220,60300.424433,53764.528485,-7987.641750,65670.900425,70882.679031,56835.747580,-0.054000,0.980000,-0.122000,192.000000,0.000000,0.000000,0.000000,0.000000,0.000000,0.000000,0.000000,0.000000,0.000000,1647766112.394607,0.000000
224.000000,55605.798138,43892.813491,60306.861735,53781.761680,-7980.511544,65681.741021,70900.806296,56818.112054,-0.054000,0.980000,-0.122000,192.000000,0.000000,0.000000,0.000000,0.000000,0.000000,0.000000,0.000000,0.000000,0.000000,1647766112.394623,0.000000
225.000000,55616.929307,43889.147805,60295.976436,53770.921084,-7982.389090,65679.461143,70900.828648,56810.266591,-0.054000,0.980000,-0.122000,192.000000,0.000000,0.000000,0.000000,0.000000,0.000000,0.000000,0.000000,0.000000,0.000000,1647766112.402265,0.000000
226.000000,55617.935135,43878.307209,60290.768479,53753.956110,-7990.145146,65667.234739,70913.390328,56836.418132,-0.054000,0.980000,-0.122000,192.000000,0.000000,0.000000,0.000000,0.000000,0.000000,0.000000,0.000000,0.000000,0.000000,1647766112.410158,0.000000
227.000000,55611.006094,43869.277104,60295.015311,53755.677194,-7991.173326,65673.537931,70915.066709,56834.518234,-0.054000,0.980000,-0.122000,192.000000,0.000000,0.000000,0.000000,0.000000,0.000000,0.000000,0.000000,0.000000,0.000000,1647766112.410175,0.000000
228.000000,55582.909952,43844.734889,60279.503200,53738.488703,-8008.630038,65660.842140,70894.860732,56823.945859,-0.054000,0.980000,-0.122000,192.000000,0.000000,0.000000,0.000000,0.000000,0.000000,0.000000,0.000000,0.000000,0.000000,1647766112.418246,0.000000
229.000000,55562.905140,43839.258711,60268.841418,53726.977554,-8024.164501,65643.363076,70866.250499,56795.670902,-0.054000,0.980000,-0.122000,192.000000,0.000000,0.000000,0.000000,0.000000,0.000000,0.000000,0.000000,0.000000,0.000000,1647766112.418262,0.000000
230.000000,55580.942998,43862.750395,60284.442936,53749.821037,-8005.612553,65653.644878,70896.805334,56792.273437,-0.058000,0.980000,-0.122000,192.000000,254.000000,48.000000,30.000000,160.000000,252.000000,48.000000,0.000000,0.000000,0.000000,1647766112.424877,0.000000
231.000000,55600.165498,43870.774671,60290.544962,53756.280691,-7992.693245,65662.473817,70934.266857,56823.163548,-0.058000,0.980000,-0.122000,192.000000,0.000000,0.000000,0.000000,0.000000,0.000000,0.000000,0.000000,0.000000,0.000000,1647766112.424893,0.000000
232.000000,55595.963370,43865.745528,60283.839438,53761.890979,-8000.896335,65656.461198,70918.955912,56833.959440,-0.058000,0.980000,-0.122000,192.000000,0.000000,0.000000,0.000000,0.000000,0.000000,0.000000,0.000000,0.000000,0.000000,1647766112.434346,0.000000
233.000000,55595.426928,43856.335444,60277.379784,53755.498380,-8009.926440,65652.281422,70898.906398,56804.812766,-0.058000,0.980000,-0.122000,192.000000,0.000000,0.000000,0.000000,0.000000,0.000000,0.000000,0.000000,0.000000,0.000000,1647766112.434363,0.000000
234.000000,55594.354045,43854.815525,60281.671319,53755.252511,-8004.584373,65653.957803,70902.885008,56767.172428,-0.058000,0.980000,-0.122000,192.000000,0.000000,0.000000,0.000000,0.000000,0.000000,0.000000,0.000000,0.000000,0.000000,1647766112.440910,0.000000
235.000000,55594.711673,43860.582275,60279.771421,53751.095086,-8004.025579,65645.553547,70897.297072,56748.307556,-0.058000,0.980000,-0.122000,192.000000,0.000000,0.000000,0.000000,0.000000,0.000000,0.000000,0.000000,0.000000,0.000000,1647766112.440927,0.000000
236.000000,55591.873001,43857.698900,60271.814200,53745.395392,-8008.585335,65639.987962,70903.399098,56728.526262,-0.058000,0.980000,-0.122000,192.000000,0.000000,0.000000,0.000000,0.000000,0.000000,0.000000,0.000000,0.000000,0.000000,1647766112.448008,0.000000
237.000000,55588.140260,43850.389880,60275.502238,53751.430363,-8011.915745,65636.456387,70907.847095,56734.337715,-0.058000,0.980000,-0.122000,192.000000,0.000000,0.000000,0.000000,0.000000,0.000000,0.000000,0.000000,0.000000,0.000000,1647766112.448024,0.000000
238.000000,55599.226725,43856.111927,60295.663511,53763.299139,-8008.898259,65643.966573,70916.810145,56707.694436,-0.058000,0.980000,-0.122000,192.000000,0.000000,0.000000,0.000000,0.000000,0.000000,0.000000,0.000000,0.000000,0.000000,1647766112.455582,0.000000
239.000000,55584.116946,43845.092517,60263.208778,53748.770505,-8017.257812,65629.549698,70905.746031,56677.899561,-0.058000,0.980000,-0.122000,192.000000,0.000000,0.000000,0.000000,0.000000,0.000000,0.000000,0.000000,0.000000,0.000000,1647766112.455597,0.000000
240.000000,55582.194696,43852.200371,60266.405078,53753.263206,-8008.875908,65631.114320,70901.074517,56644.707220,-0.054000,0.974000,-0.116000,192.000000,254.000000,80.000000,30.000000,112.000000,252.000000,96.000000,0.000000,0.000000,0.000000,1647766112.462273,0.000000
241.000000,55601.618362,43864.292665,60279.056165,53766.026052,-7992.268561,65648.436922,70933.439843,56670.456430,-0.054000,0.974000,-0.116000,192.000000,0.000000,0.000000,0.000000,0.000000,0.000000,0.000000,0.000000,0.000000,0.000000,1647766112.470453,0.000000
242.000000,55596.700978,43866.438433,60271.836552,53762.896808,-8002.371550,65643.698352,70933.685712,56664.041479,-0.054000,0.974000,-0.116000,192.000000,0.000000,0.000000,0.000000,0.000000,0.000000,0.000000,0.000000,0.000000,0.000000,1647766112.470464,0.000000
243.000000,55583.938132,43862.705691,60271.434220,53757.197113,-8013.122739,65639.183299,70917.123069,56631.273822,-0.054000,0.974000,-0.116000,192.000000,0.000000,0.000000,0.000000,0.000000,0.000000,0.000000,0.000000,0.000000,0.000000,1647766112.477478,0.000000
244.000000,55583.848725,43861.968084,60277.759764,53756.526560,-8010.596992,65640.144424,70901.856828,56575.372109,-0.054000,0.974000,-0.116000,192.000000,0.000000,0.000000,0.000000,0.000000,0.000000,0.000000,0.000000,0.000000,0.000000,1647766112.477494,0.000000
245.000000,55591.113042,43861.677511,60275.748107,53757.465334,-8003.623248,65640.166776,70913.144459,56576.087365,-0.054000,0.974000,-0.116000,192.000000,0.000000,0.000000,0.000000,0.000000,0.000000,0.000000,0.000000,0.000000,0.000000,1647766112.485101,0.000000
246.000000,55592.834126,43877.100215,60281.939540,53761.712165,-7998.661160,65648.883957,70916.519572,56578.031966,-0.054000,0.974000,-0.116000,192.000000,0.000000,0.000000,0.000000,0.000000,0.000000,0.000000,0.000000,0.000000,0.000000,1647766112.485117,0.000000
247.000000,55591.671835,43884.319828,60281.358395,53759.789915,-8003.064454,65647.587555,70927.159003,56560.262330,-0.054000,0.974000,-0.116000,192.000000,0.000000,0.000000,0.000000,0.000000,0.000000,0.000000,0.000000,0.000000,0.000000,1647766112.494406,0.000000
248.000000,55612.280144,43882.822261,60292.176639,53772.284540,-7997.610628,65661.020954,70947.230869,56537.351792,-0.054000,0.974000,-0.116000,192.000000,0.000000,0.000000,0.000000,0.000000,0.000000,0.000000,0.000000,0.000000,0.000000,1647766112.494422,0.000000
249.000000,55621.511414,43867.220744,60301.162040,53782.901619,-7991.195678,65663.032611,70930.757634,56520.208004,-0.054000,0.974000,-0.116000,192.000000,0.000000,0.000000,0.000000,0.000000,0.000000,0.000000,0.000000,0.000000,0.000000,1647766112.501265,0.000000
250.000000,55614.805891,43864.136203,60303.576029,53797.497308,-7972.934302,65667.324146,70933.082215,56526.712361,-0.056000,0.972000,-0.116000,192.000000,254.000000,64.000000,30.000000,96.000000,252.000000,96.000000,0.000000,0.000000,0.000000,1647766112.501281,0.000000
251.000000,55590.286027,43853.317959,60295.663511,53789.785956,-7973.940131,65657.198805,70929.930619,56540.011649,-0.056000,0.972000,-0.116000,192.000000,0.000000,0.000000,0.000000,0.000000,0.000000,0.000000,0.000000,0.000000,0.000000,1647766112.509201,0.000000
252.000000,55600.724292,43859.777613,60297.921037,53794.479822,-7975.147125,65663.591404,70941.665285,56538.044696,-0.056000,0.972000,-0.116000,192.000000,0.000000,0.000000,0.000000,0.000000,0.000000,0.000000,0.000000,0.000000,0.000000,1647766112.509217,0.000000
253.000000,55606.468690,43865.969046,60310.527421,53800.827718,-7975.907084,65672.085067,70940.391235,56520.476224,-0.056000,0.972000,-0.116000,192.000000,0.000000,0.000000,0.000000,0.000000,0.000000,0.000000,0.000000,0.000000,0.000000,1647766112.517636,0.000000
254.000000,55598.422062,43856.089575,60300.312674,53788.154279,-7983.283160,65662.116189,70916.541924,56517.682256,-0.056000,0.972000,-0.116000,192.000000,0.000000,0.000000,0.000000,0.000000,0.000000,0.000000,0.000000,0.000000,0.000000,1647766112.517652,0.000000
255.000000,55600.143147,43849.764031,60278.050337,53775.682005,-7991.642713,65651.677925,70932.322256,56519.537451,-0.056000,0.972000,-0.116000,192.000000,0.000000,0.000000,0.000000,0.000000,0.000000,0.000000,0.000000,0.000000,0.000000,1647766112.523915,0.000000
0.000000,55613.978876,43853.474421,60265.019270,53776.643130,-7992.022692,65646.760541,70931.495241,56534.803693,-0.056000,0.972000,-0.116000,192.000000,0.000000,0.000000,0.000000,0.000000,0.000000,0.000000,0.000000,0.000000,0.000000,1647766112.530308,0.000000
1.000000,55605.127586,43858.570618,60271.702441,53776.017282,-7993.900239,65647.721666,70919.827630,56538.067047,-0.056000,0.972000,-0.116000,192.000000,0.000000,0.000000,0.000000,0.000000,0.000000,0.000000,0.000000,0.000000,0.000000,1647766112.530325,0.000000
2.000000,55581.926475,43856.044871,60278.385613,53776.240799,-7998.482346,65644.815939,70929.282418,56521.616163,-0.056000,0.972000,-0.116000,192.000000,0.000000,0.000000,0.000000,0.000000,0.000000,0.000000,0.000000,0.000000,0.000000,1647766112.537454,0.000000
3.000000,55577.411422,43856.000168,60285.404061,53782.946322,-7994.906067,65649.487454,70928.611866,56524.208966,-0.056000,0.972000,-0.116000,192.000000,0.000000,0.000000,0.000000,0.000000,0.000000,0.000000,0.000000,0.000000,0.000000,1647766112.537470,0.000000
4.000000,55585.122774,43856.111927,60287.438069,53785.539125,-7987.597047,65656.662364,70939.318352,56505.813480,-0.062000,0.970000,-0.114000,192.000000,254.000000,16.000000,30.000000,80.000000,252.000000,112.000000,0.000000,0.000000,0.000000,1647766112.545419,0.000000
5.000000,55604.188812,43859.576447,60292.556619,53789.651846,-7981.852648,65660.395105,70950.516576,56527.472320,-0.062000,0.970000,-0.114000,192.000000,0.000000,0.000000,0.000000,0.000000,0.000000,0.000000,0.000000,0.000000,0.000000,1647766112.545435,0.000000
6.000000,55609.463824,43860.179944,60288.153325,53787.886058,-7988.088785,65652.080256,70940.257125,56531.562690,-0.062000,0.970000,-0.114000,192.000000,0.000000,0.000000,0.000000,0.000000,0.000000,0.000000,0.000000,0.000000,0.000000,1647766112.553463,0.000000
7.000000,55606.535745,43860.738738,60291.550790,53791.685854,-7993.810832,65654.740114,70936.882012,56534.356658,-0.062000,0.970000,-0.114000,192.000000,0.000000,0.000000,0.000000,0.000000,0.000000,0.000000,0.000000,0.000000,0.000000,1647766112.553478,0.000000
8.000000,55591.761242,43853.340310,60272.909435,53788.154279,-8000.650466,65650.158006,70937.127881,56502.505422,-0.062000,0.970000,-0.114000,192.000000,0.000000,0.000000,0.000000,0.000000,0.000000,0.000000,0.000000,0.000000,0.000000,1647766112.560098,0.000000
9.000000,55588.967274,43848.579389,60275.681052,53785.270904,-7998.661160,65650.068599,70921.615770,56495.174050,-0.062000,0.970000,-0.114000,192.000000,0.000000,0.000000,0.000000,0.000000,0.000000,0.000000,0.000000,0.000000,0.000000,1647766112.560114,0.000000
10.000000,55583.848725,43841.091554,60275.636348,53786.746119,-7994.704902,65648.168701,70949.153119,56513.010742,-0.062000,0.970000,-0.114000,192.000000,0.000000,0.000000,0.000000,0.000000,0.000000,0.000000,0.000000,0.000000,0.000000,1647766112.567925,0.000000
11.000000,55572.270521,43834.631900,60265.242787,53777.872476,-8008.361817,65635.294096,70957.244451,56524.611297,-0.062000,0.970000,-0.114000,192.000000,0.000000,0.000000,0.000000,0.000000,0.000000,0.000000,0.000000,0.000000,0.000000,1647766112.567940,0.000000
12.000000,55585.368643,43850.412232,60273.825857,53787.751947,-8004.405559,65640.680866,70943.766349,56521.191480,-0.062000,0.970000,-0.114000,192.000000,0.000000,0.000000,0.000000,0.000000,0.000000,0.000000,0.000000,0.000000,0.000000,1647766112.576119,0.000000
13.000000,55594.599914,43856.447203,60272.596511,53782.856915,-8004.718483,65641.239660,70932.344607,56505.791128,-0.062000,0.970000,-0.114000,192.000000,0.000000,0.000000,0.000000,0.000000,0.000000,0.000000,0.000000,0.000000,0.000000,1647766112.576135,0.000000
14.000000,55598.600876,43857.855363,60277.916226,53778.699491,-8006.461919,65637.082235,70928.142479,56510.417939,-0.062000,0.966000,-0.112000,192.000000,254.000000,16.000000,30.000000,48.000000,252.000000,128.000000,0.000000,0.000000,0.000000,1647766112.583102,0.000000
15.000000,55587.268542,43854.457897,60280.374918,53766.741308,-8008.406521,65639.697390,70932.210497,56524.946573,-0.062000,0.966000,-0.112000,192.000000,0.000000,0.000000,0.000000,0.000000,0.000000,0.000000,0.000000,0.000000,0.000000,1647766112.589721,0.000000
16.000000,55591.649484,43857.341273,60276.932749,53774.899694,-8003.355027,65651.744980,70947.454387,56537.463550,-0.062000,0.966000,-0.112000,192.000000,0.000000,0.000000,0.000000,0.000000,0.000000,0.000000,0.000000,0.000000,0.000000,1647766112.589737,0.000000
17.000000,55597.572696,43846.925360,60269.534322,53782.208715,-8007.221878,65646.514672,70956.305677,56544.526702,-0.062000,0.966000,-0.112000,192.000000,0.000000,0.000000,0.000000,0.000000,0.000000,0.000000,0.000000,0.000000,0.000000,1647766112.597800,0.000000
18.000000,55602.892411,43840.644519,60274.786982,53790.657674,-8003.131509,65648.883957,70943.252259,56541.777437,-0.062000,0.966000,-0.112000,192.000000,0.000000,0.000000,0.000000,0.000000,0.000000,0.000000,0.000000,0.000000,0.000000,1647766112.597816,0.000000
19.000000,55606.222821,43843.304377,60280.419622,53804.828680,-7986.837087,65658.830483,70954.808111,56556.820161,-0.062000,0.966000,-0.112000,192.000000,0.000000,0.000000,0.000000,0.000000,0.000000,0.000000,0.000000,0.000000,0.000000,1647766112.605833,0.000000
20.000000,55598.466766,43840.622168,60274.250540,53805.052198,-7984.490154,65655.924756,70965.201672,56596.248638,-0.062000,0.966000,-0.112000,192.000000,0.000000,0.000000,0.000000,0.000000,0.000000,0.000000,0.000000,0.000000,0.000000,1647766112.605849,0.000000
21.000000,55604.769958,43859.688206,60289.226209,53814.574041,-7979.773936,65666.430076,70968.889710,56611.492528,-0.062000,0.966000,-0.112000,192.000000,0.000000,0.000000,0.000000,0.000000,0.000000,0.000000,0.000000,0.000000,0.000000,1647766112.613032,0.000000
22.000000,55598.734987,43857.765956,60301.117337,53810.058988,-7980.891523,65664.798399,70958.563204,56606.865717,-0.062000,0.966000,-0.112000,192.000000,0.000000,0.000000,0.000000,0.000000,0.000000,0.000000,0.000000,0.000000,0.000000,1647766112.613048,0.000000
23.000000,55584.273408,43847.618264,60287.549828,53805.946267,-7985.473631,65661.020954,70950.114244,56612.520708,-0.062000,0.966000,-0.112000,192.000000,0.000000,0.000000,0.000000,0.000000,0.000000,0.000000,0.000000,0.000000,0.000000,1647766112.620380,0.000000
24.000000,55587.760280,43856.089575,60296.110546,53803.018189,-7980.556247,65663.904329,70959.680791,56619.136825,-0.064000,0.970000,-0.112000,192.000000,254.000000,0.000000,30.000000,80.000000,252.000000,128.000000,0.000000,0.000000,0.000000,1647766112.620396,0.000000
25.000000,55585.681568,43859.017653,60293.070709,53808.427311,-7976.532933,65663.345535,70967.414494,56638.493435,-0.064000,0.970000,-0.112000,192.000000,0.000000,0.000000,0.000000,0.000000,0.000000,0.000000,0.000000,0.000000,0.000000,1647766112.628397,0.000000
26.000000,55585.793327,43849.987549,60281.201933,53806.259192,-7987.552343,65654.650707,70953.891689,56686.169706,-0.064000,0.970000,-0.112000,192.000000,0.000000,0.000000,0.000000,0.000000,0.000000,0.000000,0.000000,0.000000,0.000000,1647766112.628413,0.000000
27.000000,55600.277257,43856.693072,60290.232037,53805.521584,-7989.653407,65653.197843,70952.975268,56677.631340,-0.064000,0.970000,-0.112000,192.000000,0.000000,0.000000,0.000000,0.000000,0.000000,0.000000,0.000000,0.000000,0.000000,1647766112.635456,0.000000
28.000000,55606.289876,43864.985569,60289.337968,53816.540994,-7985.339521,65649.621564,70953.489358,56674.367985,-0.064000,0.970000,-0.112000,192.000000,0.000000,0.000000,0.000000,0.000000,0.000000,0.000000,0.000000,0.000000,0.000000,1647766112.635471,0.000000
29.000000,55608.748568,43869.411215,60291.707252,53819.625535,-7978.298721,65650.627393,70952.505881,56690.483593,-0.064000,0.970000,-0.112000,192.000000,0.000000,0.000000,0.000000,0.000000,0.000000,0.000000,0.000000,0.000000,0.000000,1647766112.642050,0.000000
30.000000,55612.749530,43868.450090,60293.964779,53823.291221,-7970.743831,65651.208538,70946.806186,56733.510701,-0.064000,0.970000,-0.112000,192.000000,0.000000,0.000000,0.000000,0.000000,0.000000,0.000000,0.000000,0.000000,0.000000,1647766112.642066,0.000000
31.000000,55615.208222,43866.684302,60305.811203,53829.840282,-7968.508657,65655.365962,70952.818805,56739.545672,-0.064000,0.970000,-0.112000,192.000000,0.000000,0.000000,0.000000,0.000000,0.000000,0.000000,0.000000,0.000000,0.000000,1647766112.650058,0.000000
32.000000,55608.882679,43869.768842,60298.256314,53828.186253,-7972.710785,65651.163834,70963.525291,56735.678820,-0.064000,0.970000,-0.112000,192.000000,0.000000,0.000000,0.000000,0.000000,0.000000,0.000000,0.000000,0.000000,0.000000,1647766112.658097,0.000000
33.000000,55593.281161,43861.766918,60289.762651,53805.409825,-7989.295779,65636.434035,70927.851907,56726.760474,-0.064000,0.970000,-0.112000,192.000000,0.000000,0.000000,0.000000,0.000000,0.000000,0.000000,0.000000,0.000000,0.000000,1647766112.658113,0.000000
34.000000,55605.485213,43856.782479,60282.341872,53801.788843,-7992.961465,65636.814015,70925.773195,56733.220128,-0.064000,0.970000,-0.112000,192.000000,0.000000,0.000000,0.000000,0.000000,0.000000,0.000000,0.000000,0.000000,0.000000,1647766112.665228,0.000000
35.000000,55626.741722,43863.756223,60302.346683,53829.505006,-7971.570846,65657.601137,70961.156006,56732.929556,-0.058000,0.976000,-0.120000,192.000000,254.000000,48.000000,30.000000,128.000000,252.000000,64.000000,0.000000,0.000000,0.000000,1647766112.665244,0.000000
36.000000,55603.853536,43855.374319,60304.268933,53819.737294,-7977.359948,65656.997640,70956.618602,56751.928538,-0.058000,0.976000,-0.120000,192.000000,0.000000,0.000000,0.000000,0.000000,0.000000,0.000000,0.000000,0.000000,0.000000,1647766112.672675,0.000000
37.000000,55590.330731,43855.351967,60298.032796,53821.614840,-7983.014939,65659.322221,70944.906288,56731.834320,-0.058000,0.976000,-0.120000,192.000000,0.000000,0.000000,0.000000,0.000000,0.000000,0.000000,0.000000,0.000000,0.000000,1647766112.672691,0.000000
38.000000,55593.705844,43858.347101,60294.478869,53822.464207,-7985.853611,65656.349439,70945.085102,56736.148207,-0.058000,0.976000,-0.120000,192.000000,0.000000,0.000000,0.000000,0.000000,0.000000,0.000000,0.000000,0.000000,0.000000,1647766112.680702,0.000000
39.000000,55607.876850,43861.968084,60293.517744,53829.884986,-7977.136430,65660.462160,70982.546625,56761.204512,-0.058000,0.976000,-0.120000,192.000000,0.000000,0.000000,0.000000,0.000000,0.000000,0.000000,0.000000,0.000000,0.000000,1647766112.680719,0.000000
40.000000,55609.821452,43856.201334,60288.689767,53830.667297,-7973.135468,65658.942242,70979.886768,56809.998370,-0.058000,0.976000,-0.120000,192.000000,0.000000,0.000000,0.000000,0.000000,0.000000,0.000000,0.000000,0.000000,0.000000,1647766112.688731,0.000000
41.000000,55613.576545,43856.044871,60282.297168,53827.113369,-7980.668006,65652.370829,70965.671058,56833.467702,-0.058000,0.976000,-0.120000,192.000000,0.000000,0.000000,0.000000,0.000000,0.000000,0.000000,0.000000,0.000000,0.000000,1647766112.688749,0.000000
42.000000,55596.611571,43842.566769,60265.756877,53810.237802,-7994.280218,65641.284363,70949.130767,56832.663039,-0.058000,0.976000,-0.120000,192.000000,0.000000,0.000000,0.000000,0.000000,0.000000,0.000000,0.000000,0.000000,0.000000,1647766112.695330,0.000000
43.000000,55598.734987,43855.262560,60264.773400,53830.779055,-7992.916762,65648.481625,70950.114244,56808.836080,-0.058000,0.976000,-0.120000,192.000000,0.000000,0.000000,0.000000,0.000000,0.000000,0.000000,0.000000,0.000000,0.000000,1647766112.695347,0.000000
44.000000,55610.648466,43860.202296,60283.414755,53836.814026,-7976.085898,65653.622526,70965.313430,56833.534757,-0.058000,0.976000,-0.120000,192.000000,0.000000,0.000000,0.000000,0.000000,0.000000,0.000000,0.000000,0.000000,0.000000,1647766112.703315,0.000000
45.000000,55609.307362,43853.362662,60283.302997,53829.415599,-7972.733137,65653.175491,70973.941204,56878.908799,-0.052000,0.978000,-0.116000,192.000000,254.000000,96.000000,30.000000,144.000000,252.000000,96.000000,0.000000,0.000000,0.000000,1647766112.703331,0.000000
46.000000,55609.039141,43860.179944,60280.464325,53831.896643,-7975.482401,65656.975288,70959.501977,56901.260543,-0.052000,0.978000,-0.116000,192.000000,0.000000,0.000000,0.000000,0.000000,0.000000,0.000000,0.000000,0.000000,0.000000,1647766112.710305,0.000000
47.000000,55594.577562,43856.469554,60269.087287,53824.766436,-7985.585390,65652.862567,70962.005372,56910.134186,-0.052000,0.978000,-0.116000,192.000000,0.000000,0.000000,0.000000,0.000000,0.000000,0.000000,0.000000,0.000000,0.000000,1647766112.718927,0.000000
48.000000,55591.113042,43848.132354,60262.851150,53811.355390,-7996.157765,65647.364038,70961.513634,56938.364439,-0.052000,0.978000,-0.116000,192.000000,0.000000,0.000000,0.000000,0.000000,0.000000,0.000000,0.000000,0.000000,0.000000,1647766112.718943,0.000000
49.000000,55603.741777,43849.451107,60269.780191,53812.629439,-7990.949808,65651.923794,70952.036494,56951.283747,-0.052000,0.978000,-0.116000,192.000000,0.000000,0.000000,0.000000,0.000000,0.000000,0.000000,0.000000,0.000000,0.000000,1647766112.725011,0.000000
50.000000,55606.111062,43852.848572,60272.618863,53817.502119,-7986.255942,65647.989887,70954.003448,56974.440154,-0.052000,0.978000,-0.116000,192.000000,0.000000,0.000000,0.000000,0.000000,0.000000,0.000000,0.000000,0.000000,0.000000,1647766112.725027,0.000000
51.000000,55600.210202,43854.815525,60273.423526,53827.605108,-7983.283160,65648.347515,70965.760465,57003.408015,-0.052000,0.978000,-0.116000,192.000000,0.000000,0.000000,0.000000,0.000000,0.000000,0.000000,0.000000,0.000000,0.000000,1647766112.732976,0.000000
52.000000,55603.674722,43858.101232,60282.632444,53836.881082,-7981.718538,65654.874224,70947.744959,57015.254440,-0.052000,0.978000,-0.116000,192.000000,0.000000,0.000000,0.000000,0.000000,0.000000,0.000000,0.000000,0.000000,0.000000,1647766112.732992,0.000000
53.000000,55612.526013,43859.822316,60278.989110,53847.788733,-7976.689396,65658.875186,70963.681753,57011.499347,-0.052000,0.978000,-0.116000,192.000000,0.000000,0.000000,0.000000,0.000000,0.000000,0.000000,0.000000,0.000000,0.000000,1647766112.740956,0.000000
54.000000,55618.628039,43868.740662,60289.986168,53854.606015,-7966.407593,65663.926681,70985.608814,57030.677143,-0.052000,0.978000,-0.116000,192.000000,0.000000,0.000000,0.000000,0.000000,0.000000,0.000000,0.000000,0.000000,0.000000,1647766112.740972,0.000000
55.000000,55611.453129,43865.499659,60280.620787,53844.368916,-7970.989701,65661.244471,70986.167608,57064.472981,-0.052000,0.978000,-0.118000,192.000000,254.000000,96.000000,30.000000,144.000000,252.000000,80.000000,0.000000,0.000000,0.000000,1647766112.747997,0.000000
56.000000,55608.770920,43857.654197,60264.348717,53825.414637,-7986.032425,65649.509805,70981.227873,57109.020008,-0.052000,0.978000,-0.118000,192.000000,0.000000,0.000000,0.000000,0.000000,0.000000,0.000000,0.000000,0.000000,0.000000,1647766112.748013,0.000000
57.000000,55626.428798,43870.908781,60269.511970,53827.493349,-7989.072262,65652.549643,70972.689506,57126.767293,-0.052000,0.978000,-0.118000,192.000000,0.000000,0.000000,0.000000,0.000000,0.000000,0.000000,0.000000,0.000000,0.000000,1647766112.755577,0.000000
58.000000,55624.819472,43873.322770,60282.453630,53832.164864,-7986.166535,65653.980154,70970.990774,57124.666229,-0.052000,0.978000,-0.118000,192.000000,0.000000,0.000000,0.000000,0.000000,0.000000,0.000000,0.000000,0.000000,0.000000,1647766112.755593,0.000000
59.000000,55609.910859,43857.073052,60283.370052,53818.172672,-7985.473631,65644.503015,70965.402837,57134.992735,-0.052000,0.978000,-0.118000,192.000000,0.000000,0.000000,0.000000,0.000000,0.000000,0.000000,0.000000,0.000000,0.000000,1647766112.763556,0.000000
60.000000,55600.813699,43852.133316,60276.530418,53808.270849,-7984.087823,65637.305753,70962.497111,57167.670985,-0.052000,0.978000,-0.118000,192.000000,0.000000,0.000000,0.000000,0.000000,0.000000,0.000000,0.000000,0.000000,0.000000,1647766112.763572,0.000000
61.000000,55608.323885,43863.957389,60275.993976,53813.299991,-7980.600951,65636.746959,70968.353268,57213.402654,-0.052000,0.978000,-0.118000,192.000000,0.000000,0.000000,0.000000,0.000000,0.000000,0.000000,0.000000,0.000000,0.000000,1647766112.770645,0.000000
62.000000,55612.593068,43857.385976,60279.816124,53814.015247,-7982.836125,65644.145387,70969.426151,57226.456073,-0.052000,0.978000,-0.118000,192.000000,0.000000,0.000000,0.000000,0.000000,0.000000,0.000000,0.000000,0.000000,0.000000,1647766112.777217,0.000000
63.000000,55612.056626,43855.977816,60286.342834,53813.501157,-7985.250114,65651.275593,70962.787683,57223.215070,-0.052000,0.978000,-0.118000,192.000000,0.000000,0.000000,0.000000,0.000000,0.000000,0.000000,0.000000,0.000000,0.000000,1647766112.777233,0.000000
64.000000,55622.450187,43870.573505,60284.822915,53817.256250,-7975.929436,65654.315430,70955.523366,57226.009038,-0.052000,0.978000,-0.118000,192.000000,0.000000,0.000000,0.000000,0.000000,0.000000,0.000000,0.000000,0.000000,0.000000,1647766112.785147,0.000000
65.000000,55615.588202,43865.097328,60278.050337,53801.274753,-7978.768108,65644.815939,70967.414494,57261.213036,-0.050000,0.982000,-0.112000,192.000000,254.000000,112.000000,30.000000,176.000000,252.000000,128.000000,0.000000,0.000000,0.000000,1647766112.785164,0.000000
66.000000,55615.878775,43868.740662,60295.529401,53804.269887,-7974.253055,65649.599212,70975.841102,57275.808725,-0.050000,0.982000,-0.112000,192.000000,0.000000,0.000000,0.000000,0.000000,0.000000,0.000000,0.000000,0.000000,0.000000,1647766112.793322,0.000000
67.000000,55614.783539,43864.471479,60285.538171,53806.728578,-7975.683567,65645.084160,70960.328991,57281.910751,-0.050000,0.982000,-0.112000,192.000000,0.000000,0.000000,0.000000,0.000000,0.000000,0.000000,0.000000,0.000000,0.000000,1647766112.793340,0.000000
68.000000,55620.863214,43865.745528,60290.142630,53810.908355,-7977.203486,65645.173567,70962.452407,57280.010853,-0.050000,0.982000,-0.112000,192.000000,0.000000,0.000000,0.000000,0.000000,0.000000,0.000000,0.000000,0.000000,0.000000,1647766112.800356,0.000000
69.000000,55622.003153,43866.125508,60293.026005,53806.080378,-7975.147125,65639.384465,70966.296907,57287.163411,-0.050000,0.982000,-0.112000,192.000000,0.000000,0.000000,0.000000,0.000000,0.000000,0.000000,0.000000,0.000000,0.000000,1647766112.800372,0.000000
70.000000,55627.568737,43870.908781,60297.026968,53802.749968,-7969.000395,65636.814015,70964.642878,57299.233353,-0.050000,0.982000,-0.112000,192.000000,0.000000,0.000000,0.000000,0.000000,0.000000,0.000000,0.000000,0.000000,0.000000,1647766112.807803,0.000000
71.000000,55622.204318,43867.444261,60295.350587,53793.541049,-7971.682605,65630.488471,70954.584593,57293.980693,-0.050000,0.982000,-0.112000,192.000000,0.000000,0.000000,0.000000,0.000000,0.000000,0.000000,0.000000,0.000000,0.000000,1647766112.807819,0.000000
72.000000,55618.806853,43864.024444,60288.890933,53788.847183,-7977.762279,65622.240677,70948.862547,57294.025397,-0.050000,0.982000,-0.112000,192.000000,0.000000,0.000000,0.000000,0.000000,0.000000,0.000000,0.000000,0.000000,0.000000,1647766112.815828,0.000000
73.000000,55632.553176,43877.681360,60295.283532,53798.950171,-7973.582503,65627.046302,70958.183224,57291.052615,-0.050000,0.982000,-0.112000,192.000000,0.000000,0.000000,0.000000,0.000000,0.000000,0.000000,0.000000,0.000000,0.000000,1647766112.815844,0.000000
74.000000,55633.022563,43878.351912,60289.717947,53802.101767,-7975.571808,65624.118224,70948.147291,57270.332547,-0.050000,0.982000,-0.112000,192.000000,0.000000,0.000000,0.000000,0.000000,0.000000,0.000000,0.000000,0.000000,0.000000,1647766112.823847,0.000000
75.000000,55622.941926,43873.747453,60295.641159,53796.871459,-7972.777840,65620.854869,70963.435884,57279.228542,-0.054000,0.982000,-0.114000,192.000000,254.000000,80.000000,30.000000,176.000000,252.000000,112.000000,0.000000,0.000000,0.000000,1647766112.823863,0.000000
76.000000,55627.099350,43875.960276,60297.764575,53800.380683,-7969.000395,65626.375750,70993.610739,57300.462699,-0.054000,0.982000,-0.114000,192.000000,0.000000,0.000000,0.000000,0.000000,0.000000,0.000000,0.000000,0.000000,0.000000,1647766112.830016,0.000000
77.000000,55613.330676,43865.834935,60289.047395,53793.675160,-7978.186962,65615.333988,70973.069486,57292.438423,-0.054000,0.982000,-0.114000,192.000000,0.000000,0.000000,0.000000,0.000000,0.000000,0.000000,0.000000,0.000000,0.000000,1647766112.837947,0.000000
78.000000,55610.827280,43871.802851,60287.773345,53788.444851,-7980.243323,65611.400081,70961.558337,57266.733917,-0.054000,0.982000,-0.114000,192.000000,0.000000,0.000000,0.000000,0.000000,0.000000,0.000000,0.000000,0.000000,0.000000,1647766112.837963,0.000000
79.000000,55621.422007,43882.866965,60296.691691,53796.044445,-7969.782706,65622.397139,70974.410590,57266.443344,-0.054000,0.982000,-0.114000,192.000000,0.000000,0.000000,0.000000,0.000000,0.000000,0.000000,0.000000,0.000000,0.000000,1647766112.845479,0.000000
80.000000,55622.293725,43868.114813,60286.879276,53785.203849,-7975.795326,65612.249447,70971.817788,57274.691138,-0.054000,0.982000,-0.114000,192.000000,0.000000,0.000000,0.000000,0.000000,0.000000,0.000000,0.000000,0.000000,0.000000,1647766112.845494,0.000000
81.000000,55610.492004,43854.524953,60274.027023,53775.682005,-7985.987721,65604.515744,70966.766294,57284.347091,-0.054000,0.982000,-0.114000,192.000000,0.000000,0.000000,0.000000,0.000000,0.000000,0.000000,0.000000,0.000000,0.000000,1647766112.853439,0.000000
82.000000,55609.553231,43872.361645,60285.091136,53798.436081,-7980.779765,65610.707177,70968.979117,57279.340300,-0.054000,0.982000,-0.114000,192.000000,0.000000,0.000000,0.000000,0.000000,0.000000,0.000000,0.000000,0.000000,0.000000,1647766112.853455,0.000000
83.000000,55601.596010,43867.377206,60291.886066,53789.562439,-7987.753509,65603.733433,70966.542776,57264.074059,-0.054000,0.982000,-0.114000,192.000000,0.000000,0.000000,0.000000,0.000000,0.000000,0.000000,0.000000,0.000000,0.000000,1647766112.860103,0.000000
84.000000,55599.807870,43851.798040,60278.519723,53781.068776,-7987.529992,65595.910322,70971.460160,57271.159562,-0.054000,0.982000,-0.114000,192.000000,0.000000,0.000000,0.000000,0.000000,0.000000,0.000000,0.000000,0.000000,0.000000,1647766112.860120,0.000000
85.000000,55620.416179,43851.149839,60281.492505,53790.791785,-7978.254018,65599.128973,70975.796399,57302.988446,-0.046000,0.980000,-0.110000,192.000000,254.000000,144.000000,30.000000,160.000000,252.000000,144.000000,0.000000,0.000000,0.000000,1647766112.867907,0.000000
86.000000,55617.756321,43848.177057,60272.596511,53779.325340,-7986.501811,65597.117316,70967.302736,57317.561783,-0.046000,0.980000,-0.110000,192.000000,0.000000,0.000000,0.000000,0.000000,0.000000,0.000000,0.000000,0.000000,0.000000,1647766112.867924,0.000000
87.000000,55595.114004,43842.902046,60258.671374,53769.088241,-7999.465823,65587.260197,70938.714855,57313.538469,-0.046000,0.980000,-0.110000,192.000000,0.000000,0.000000,0.000000,0.000000,0.000000,0.000000,0.000000,0.000000,0.000000,1647766112.876136,0.000000
88.000000,55589.861344,43847.685319,60262.895854,53771.904561,-8000.449300,65587.260197,70916.608979,57301.982618,-0.046000,0.980000,-0.110000,192.000000,0.000000,0.000000,0.000000,0.000000,0.000000,0.000000,0.000000,0.000000,0.000000,1647766112.876152,0.000000
89.000000,55600.344312,43865.924342,60280.777249,53788.422500,-7981.919704,65598.771345,70952.282363,57304.731882,-0.046000,0.980000,-0.110000,192.000000,0.000000,0.000000,0.000000,0.000000,0.000000,0.000000,0.000000,0.000000,0.000000,1647766112.883319,0.000000
90.000000,55597.863269,43867.600723,60281.157229,53783.303950,-7978.656349,65595.731508,70988.223969,57325.988391,-0.046000,0.980000,-0.110000,192.000000,0.000000,0.000000,0.000000,0.000000,0.000000,0.000000,0.000000,0.000000,0.000000,1647766112.883335,0.000000
91.000000,55592.476498,43862.817450,60274.339947,53767.523619,-7986.166535,65584.667395,70988.358079,57337.991278,-0.046000,0.980000,-0.110000,192.000000,0.000000,0.000000,0.000000,0.000000,0.000000,0.000000,0.000000,0.000000,0.000000,1647766112.889699,0.000000
92.000000,55605.485213,43873.523935,60285.314654,53782.387529,-7978.365776,65591.931712,70983.932434,57352.542264,-0.046000,0.980000,-0.110000,192.000000,0.000000,0.000000,0.000000,0.000000,0.000000,0.000000,0.000000,0.000000,0.000000,1647766112.889715,0.000000
93.000000,55597.460937,43865.142031,60275.591645,53776.039633,-7990.949808,65582.566331,70965.469893,57320.109882,-0.046000,0.980000,-0.110000,192.000000,0.000000,0.000000,0.000000,0.000000,0.000000,0.000000,0.000000,0.000000,0.000000,1647766112.897717,0.000000
94.000000,55597.371530,43862.817450,60272.663566,53778.923008,-7987.842916,65578.408906,70958.272631,57305.156565,-0.046000,0.980000,-0.110000,192.000000,0.000000,0.000000,0.000000,0.000000,0.000000,0.000000,0.000000,0.000000,0.000000,1647766112.905723,0.000000
95.000000,55606.692208,43870.417043,60277.111563,53785.069738,-7972.733137,65585.002671,70957.624430,57341.768723,-0.050000,0.978000,-0.118000,192.000000,254.000000,112.000000,30.000000,144.000000,252.000000,80.000000,0.000000,0.000000,0.000000,1647766112.905739,0.000000
96.000000,55616.594030,43880.765901,60286.409889,53793.026959,-7967.771049,65596.536171,70970.610794,57346.172016,-0.050000,0.978000,-0.118000,192.000000,0.000000,0.000000,0.000000,0.000000,0.000000,0.000000,0.000000,0.000000,0.000000,1647766112.912398,0.000000
97.000000,55608.882679,43873.367473,60274.138781,53786.477898,-7969.939169,65593.116354,70981.786666,57340.494673,-0.050000,0.978000,-0.118000,192.000000,0.000000,0.000000,0.000000,0.000000,0.000000,0.000000,0.000000,0.000000,0.000000,1647766112.912414,0.000000
98.000000,55599.092615,43872.741624,60273.021194,53775.480840,-7980.265675,65584.175656,70968.330916,57332.515101,-0.050000,0.978000,-0.118000,192.000000,0.000000,0.000000,0.000000,0.000000,0.000000,0.000000,0.000000,0.000000,0.000000,1647766112.921765,0.000000
99.000000,55605.574620,43884.431587,60284.442936,53781.761680,-7971.995529,65588.780116,70968.532082,57337.387781,-0.050000,0.978000,-0.118000,192.000000,0.000000,0.000000,0.000000,0.000000,0.000000,0.000000,0.000000,0.000000,0.000000,1647766112.921781,0.000000
100.000000,55613.598897,43883.157537,60300.223267,53784.242723,-7967.078145,65593.004595,70974.701163,57349.278909,-0.050000,0.978000,-0.118000,192.000000,0.000000,0.000000,0.000000,0.000000,0.000000,0.000000,0.000000,0.000000,0.000000,1647766112.928374,0.000000
101.000000,55608.681513,43869.567677,60273.222360,53772.977444,-7972.397861,65586.254369,70969.895538,57348.653060,-0.050000,0.978000,-0.118000,192.000000,0.000000,0.000000,0.000000,0.000000,0.000000,0.000000,0.000000,0.000000,0.000000,1647766112.928390,0.000000
102.000000,55604.948772,43861.342235,60265.466304,53770.138773,-7983.037291,65586.187313,70964.732285,57351.469380,-0.050000,0.978000,-0.118000,192.000000,0.000000,0.000000,0.000000,0.000000,0.000000,0.000000,0.000000,0.000000,0.000000,1647766112.935514,0.000000
103.000000,55596.969199,43864.583238,60266.181560,53778.319511,-7984.601913,65586.768459,70974.455294,57343.758028,-0.050000,0.978000,-0.118000,192.000000,0.000000,0.000000,0.000000,0.000000,0.000000,0.000000,0.000000,0.000000,0.000000,1647766112.935531,0.000000
104.000000,55577.746699,43850.971025,60248.098999,53766.584845,-7991.553306,65570.988127,70962.385352,57335.957269,-0.050000,0.978000,-0.118000,192.000000,0.000000,0.000000,0.000000,0.000000,0.000000,0.000000,0.000000,0.000000,0.000000,1647766112.943030,0.000000
105.000000,55591.828298,43857.296569,60261.532397,53763.545008,-7982.567904,65573.893854,70943.185203,57334.280888,-0.048000,0.984000,-0.116000,192.000000,254.000000,128.000000,30.000000,192.000000,252.000000,96.000000,0.000000,0.000000,0.000000,1647766112.943047,0.000000
106.000000,55603.674722,43858.347101,60267.746182,53761.265130,-7976.711747,65579.437087,70960.686619,57324.200252,-0.048000,0.984000,-0.116000,192.000000,0.000000,0.000000,0.000000,0.000000,0.000000,0.000000,0.000000,0.000000,0.000000,1647766112.951039,0.000000
107.000000,55591.828298,43861.409290,60270.674261,53767.590674,-7977.359948,65585.717927,70984.915910,57323.350885,-0.048000,0.984000,-0.116000,192.000000,0.000000,0.000000,0.000000,0.000000,0.000000,0.000000,0.000000,0.000000,0.000000,1647766112.951056,0.000000
108.000000,55578.014920,43863.644464,60264.013441,53770.161124,-7987.842916,65583.683918,70960.574861,57301.893211,-0.048000,0.984000,-0.116000,192.000000,0.000000,0.000000,0.000000,0.000000,0.000000,0.000000,0.000000,0.000000,0.000000,1647766112.957906,0.000000
109.000000,55575.131544,43859.799964,60258.470208,53769.155296,-7991.352140,65580.308805,70972.287175,57277.932141,-0.048000,0.984000,-0.116000,192.000000,0.000000,0.000000,0.000000,0.000000,0.000000,0.000000,0.000000,0.000000,0.000000,1647766112.965333,0.000000
110.000000,55568.403669,43855.307264,60249.641269,53764.506133,-7994.347274,65573.335060,70979.506788,57250.841826,-0.048000,0.984000,-0.116000,192.000000,0.000000,0.000000,0.000000,0.000000,0.000000,0.000000,0.000000,0.000000,0.000000,1647766112.965349,0.000000
111.000000,55590.397786,43874.216840,60267.522665,53788.891886,-7970.229741,65587.930749,71005.099536,57265.862199,-0.048000,0.984000,-0.116000,192.000000,0.000000,0.000000,0.000000,0.000000,0.000000,0.000000,0.000000,0.000000,0.000000,1647766112.972695,0.000000
112.000000,55592.275332,43866.550191,60258.872540,53776.531372,-7980.176268,65575.972566,70985.832332,57257.636757,-0.048000,0.984000,-0.116000,192.000000,0.000000,0.000000,0.000000,0.000000,0.000000,0.000000,0.000000,0.000000,0.000000,1647766112.972711,0.000000
113.000000,55590.151917,43866.505488,60246.199101,53771.546933,-7989.631056,65568.462380,70972.108361,57237.967221,-0.048000,0.984000,-0.116000,192.000000,0.000000,0.000000,0.000000,0.000000,0.000000,0.000000,0.000000,0.000000,0.000000,1647766112.980675,0.000000
114.000000,55586.285065,43860.694034,60251.742333,53768.529447,-7990.011035,65566.383668,70975.192902,57208.977009,-0.048000,0.984000,-0.116000,192.000000,0.000000,0.000000,0.000000,0.000000,0.000000,0.000000,0.000000,0.000000,0.000000,1647766112.980691,0.000000
115.000000,55597.036254,43863.040967,60274.831685,53773.759755,-7978.589294,65570.786961,70977.137503,57220.510509,-0.046000,0.980000,-0.120000,192.000000,254.000000,144.000000,30.000000,160.000000,252.000000,64.000000,0.000000,0.000000,0.000000,1647766112.988698,0.000000
116.000000,55607.251001,43874.887392,60264.952214,53771.144601,-7974.901256,65569.199988,70975.416419,57241.051762,-0.046000,0.980000,-0.120000,192.000000,0.000000,0.000000,0.000000,0.000000,0.000000,0.000000,0.000000,0.000000,0.000000,1647766112.988714,0.000000
117.000000,55605.954600,43879.804776,60264.326366,53775.771412,-7977.695224,65567.657717,70992.381393,57230.054704,-0.046000,0.980000,-0.120000,192.000000,0.000000,0.000000,0.000000,0.000000,0.000000,0.000000,0.000000,0.000000,0.000000,1647766112.995306,0.000000
118.000000,55589.570771,43860.112889,60249.328345,53777.626607,-7989.094614,65559.856958,70993.901312,57190.246247,-0.046000,0.980000,-0.120000,192.000000,0.000000,0.000000,0.000000,0.000000,0.000000,0.000000,0.000000,0.000000,0.000000,1647766112.995322,0.000000
119.000000,55577.545533,43850.523990,60244.410961,53777.626607,-7988.759338,65560.728676,70984.692393,57183.786593,-0.046000,0.980000,-0.120000,192.000000,0.000000,0.000000,0.000000,0.000000,0.000000,0.000000,0.000000,0.000000,0.000000,1647766113.003039,0.000000
120.000000,55576.025614,43840.957444,60236.587851,53765.601369,-7992.134451,65554.224319,70987.866341,57195.007169,-0.046000,0.980000,-0.120000,192.000000,0.000000,0.000000,0.000000,0.000000,0.000000,0.000000,0.000000,0.000000,0.000000,1647766113.003051,0.000000
121.000000,55587.670873,43851.552171,60250.222415,53779.124174,-7980.377433,65565.914281,70997.924626,57213.290896,-0.046000,0.980000,-0.120000,192.000000,0.000000,0.000000,0.000000,0.000000,0.000000,0.000000,0.000000,0.000000,0.000000,1647766113.011126,0.000000
122.000000,55581.479440,43852.669758,60253.016383,53782.231066,-7985.853611,65564.774342,70991.174399,57203.232611,-0.046000,0.980000,-0.120000,192.000000,0.000000,0.000000,0.000000,0.000000,0.000000,0.000000,0.000000,0.000000,0.000000,1647766113.011139,0.000000
123.000000,55582.552324,43854.301435,60256.905586,53783.952151,-7990.122794,65568.417676,70982.524274,57183.026634,-0.046000,0.980000,-0.120000,192.000000,0.000000,0.000000,0.000000,0.000000,0.000000,0.000000,0.000000,0.000000,0.000000,1647766113.017144,0.000000
124.000000,55576.293835,43849.942845,60249.931842,53776.129040,-7991.240381,65568.641194,70992.470800,57183.697186,-0.046000,0.980000,-0.120000,192.000000,0.000000,0.000000,0.000000,0.000000,0.000000,0.000000,0.000000,0.000000,0.000000,1647766113.024917,0.000000
125.000000,55562.145181,43840.041022,60230.150548,53764.126153,-7998.661160,65560.192235,71002.797306,57199.142241,-0.046000,0.984000,-0.114000,192.000000,254.000000,144.000000,30.000000,192.000000,252.000000,112.000000,0.000000,0.000000,0.000000,1647766113.024933,0.000000
126.000000,55575.735042,43851.686281,60246.221453,53773.737404,-7990.033387,65572.485694,70988.939224,57195.878887,-0.046000,0.984000,-0.114000,192.000000,0.000000,0.000000,0.000000,0.000000,0.000000,0.000000,0.000000,0.000000,0.000000,1647766113.032968,0.000000
127.000000,55579.467783,43858.794136,60248.858958,53778.319511,-7986.770032,65575.681993,70967.392143,57187.944017,-0.046000,0.984000,-0.114000,192.000000,0.000000,0.000000,0.000000,0.000000,0.000000,0.000000,0.000000,0.000000,0.000000,1647766113.032984,0.000000
128.000000,55580.987702,43857.564790,60254.402191,53786.299084,-7983.864305,65577.693650,70984.915910,57177.237532,-0.046000,0.984000,-0.114000,192.000000,0.000000,0.000000,0.000000,0.000000,0.000000,0.000000,0.000000,0.000000,0.000000,1647766113.040785,0.000000
129.000000,55571.756431,43848.132354,60250.982374,53785.114442,-7982.165573,65571.882197,71018.510582,57192.123794,-0.046000,0.984000,-0.114000,192.000000,0.000000,0.000000,0.000000,0.000000,0.000000,0.000000,0.000000,0.000000,0.000000,1647766113.040802,0.000000
130.000000,55570.460030,43848.646444,60239.582984,53787.036692,-7978.835163,65571.032831,71006.485344,57197.845840,-0.046000,0.984000,-0.114000,192.000000,0.000000,0.000000,0.000000,0.000000,0.000000,0.000000,0.000000,0.000000,0.000000,1647766113.047604,0.000000
131.000000,55583.334635,43857.564790,60244.098037,53791.484689,-7973.090765,65577.336023,71007.535876,57206.183041,-0.046000,0.984000,-0.114000,192.000000,0.000000,0.000000,0.000000,0.000000,0.000000,0.000000,0.000000,0.000000,0.000000,1647766113.047621,0.000000
132.000000,55593.728196,43863.800927,60243.963926,53796.670293,-7973.895427,65578.073630,71010.598065,57211.413349,-0.046000,0.984000,-0.114000,192.000000,0.000000,0.000000,0.000000,0.000000,0.000000,0.000000,0.000000,0.000000,0.000000,1647766113.055604,0.000000
133.000000,55577.076146,43854.726118,60236.118464,53795.306837,-7987.418233,65572.262177,71001.679719,57179.807982,-0.046000,0.984000,-0.114000,192.000000,0.000000,0.000000,0.000000,0.000000,0.000000,0.000000,0.000000,0.000000,0.000000,1647766113.055620,0.000000
134.000000,55563.508637,43858.592970,60231.648115,53788.646017,-7984.512506,65571.859845,71006.664158,57170.688471,-0.046000,0.984000,-0.114000,192.000000,0.000000,0.000000,0.000000,0.000000,0.000000,0.000000,0.000000,0.000000,0.000000,1647766113.063610,0.000000
135.000000,55583.513449,43868.248924,60252.949328,53798.391378,-7972.017881,65578.118334,71007.647634,57172.454258,-0.046000,0.984000,-0.114000,192.000000,0.000000,0.000000,0.000000,0.000000,0.000000,0.000000,0.000000,0.000000,0.000000,1647766113.063626,0.000000
136.000000,55594.622266,43867.757185,60258.157284,53807.019151,-7963.501866,65580.979357,71003.289044,57164.318224,-0.050000,0.986000,-0.106000,192.000000,254.000000,112.000000,30.000000,208.000000,252.000000,176.000000,0.000000,0.000000,0.000000,1647766113.070817,0.000000
137.000000,55585.122774,43850.836915,60236.140816,53796.111500,-7977.471707,65565.802522,70985.698221,57133.361057,-0.050000,0.986000,-0.106000,192.000000,0.000000,0.000000,0.000000,0.000000,0.000000,0.000000,0.000000,0.000000,0.000000,1647766113.070834,0.000000
138.000000,55585.413347,43852.133316,60236.945479,53798.793709,-7979.662178,65564.774342,70991.129695,57124.867395,-0.050000,0.986000,-0.106000,192.000000,0.000000,0.000000,0.000000,0.000000,0.000000,0.000000,0.000000,0.000000,0.000000,1647766113.079489,0.000000
139.000000,55583.602856,43862.683339,60247.249633,53806.393302,-7970.341500,65570.921072,70986.324070,57114.473833,-0.050000,0.986000,-0.106000,192.000000,0.000000,0.000000,0.000000,0.000000,0.000000,0.000000,0.000000,0.000000,0.000000,1647766113.085706,0.000000
140.000000,55580.987702,43862.996264,60245.260327,53797.698474,-7968.419250,65565.936633,70989.721535,57087.294112,-0.050000,0.986000,-0.106000,192.000000,0.000000,0.000000,0.000000,0.000000,0.000000,0.000000,0.000000,0.000000,0.000000,1647766113.085722,0.000000
141.000000,55587.693225,43873.211011,60255.810351,53800.201869,-7958.673889,65576.419601,70996.494114,57095.586609,-0.050000,0.986000,-0.106000,192.000000,0.000000,0.000000,0.000000,0.000000,0.000000,0.000000,0.000000,0.000000,0.000000,1647766113.093243,0.000000
142.000000,55580.987702,43871.355816,60257.263214,53795.508003,-7959.635014,65579.258273,71005.524219,57118.050112,-0.050000,0.986000,-0.106000,192.000000,0.000000,0.000000,0.000000,0.000000,0.000000,0.000000,0.000000,0.000000,0.000000,1647766113.093260,0.000000
143.000000,55582.887600,43870.729967,60258.492560,53798.033750,-7967.592236,65575.905511,71009.838105,57092.122089,-0.050000,0.986000,-0.106000,192.000000,0.000000,0.000000,0.000000,0.000000,0.000000,0.000000,0.000000,0.000000,0.000000,1647766113.100642,0.000000
144.000000,55595.628094,43875.893220,60263.052316,53800.805366,-7962.876017,65576.129028,71010.396899,57074.263045,-0.050000,0.986000,-0.106000,192.000000,0.000000,0.000000,0.000000,0.000000,0.000000,0.000000,0.000000,0.000000,0.000000,1647766113.100683,0.000000
145.000000,55603.071225,43884.275125,60257.598490,53801.431215,-7962.786610,65566.338964,71000.003338,57073.748955,-0.050000,0.986000,-0.106000,192.000000,0.000000,0.000000,0.000000,0.000000,0.000000,0.000000,0.000000,0.000000,0.000000,1647766113.108628,0.000000
146.000000,55605.172289,43878.061340,60250.758857,53804.359294,-7957.086916,65571.815142,71002.506733,57081.415603,-0.040000,0.988000,-0.102000,192.000000,254.000000,192.000000,30.000000,224.000000,252.000000,208.000000,0.000000,0.000000,0.000000,1647766113.108644,0.000000
147.000000,55587.939094,43853.988511,60249.887139,53796.916163,-7963.457163,65574.072668,71010.776879,57077.839324,-0.040000,0.988000,-0.102000,192.000000,0.000000,0.000000,0.000000,0.000000,0.000000,0.000000,0.000000,0.000000,0.000000,1647766113.115031,0.000000
148.000000,55577.411422,43856.670720,60248.367220,53799.576020,-7966.876980,65578.766534,71006.105364,57054.928786,-0.040000,0.988000,-0.102000,192.000000,0.000000,0.000000,0.000000,0.000000,0.000000,0.000000,0.000000,0.000000,0.000000,1647766113.115047,0.000000
149.000000,55571.264693,43850.501639,60241.594641,53793.473994,-7973.336634,65574.653813,70999.578655,57028.665486,-0.040000,0.988000,-0.102000,192.000000,0.000000,0.000000,0.000000,0.000000,0.000000,0.000000,0.000000,0.000000,0.000000,1647766113.122999,0.000000
150.000000,55572.494039,43846.075993,60235.514967,53790.456508,-7976.465878,65567.814179,71004.205466,57034.342830,-0.040000,0.988000,-0.102000,192.000000,0.000000,0.000000,0.000000,0.000000,0.000000,0.000000,0.000000,0.000000,0.000000,1647766113.123016,0.000000
151.000000,55587.156783,43858.838839,60245.439141,53799.553668,-7963.054831,65577.470133,71024.590257,57046.345716,-0.040000,0.988000,-0.102000,192.000000,0.000000,0.000000,0.000000,0.000000,0.000000,0.000000,0.000000,0.000000,0.000000,1647766113.131181,0.000000
152.000000,55573.566922,43844.377261,60233.637420,53792.557572,-7975.013015,65571.993956,71016.923608,57028.799597,-0.040000,0.988000,-0.102000,192.000000,0.000000,0.000000,0.000000,0.000000,0.000000,0.000000,0.000000,0.000000,0.000000,1647766113.131197,0.000000
153.000000,55562.681623,43839.795153,60231.268135,53790.478860,-7983.461974,65569.982299,71013.079108,57002.648056,-0.040000,0.988000,-0.102000,192.000000,0.000000,0.000000,0.000000,0.000000,0.000000,0.000000,0.000000,0.000000,0.000000,1647766113.138392,0.000000
154.000000,55566.392012,43849.451107,60234.173862,53796.826756,-7978.119907,65572.284528,71017.571809,56989.773451,-0.040000,0.988000,-0.102000,192.000000,0.000000,0.000000,0.000000,0.000000,0.000000,0.000000,0.000000,0.000000,0.000000,1647766113.138408,0.000000
155.000000,55566.682585,43853.317959,60229.412941,53798.614895,-7976.532933,65566.271909,71013.235571,57011.812271,-0.040000,0.988000,-0.102000,192.000000,0.000000,0.000000,0.000000,0.000000,0.000000,0.000000,0.000000,0.000000,0.000000,1647766113.144896,0.000000
156.000000,55568.381318,43844.198447,60221.388664,53784.242723,-7983.461974,65557.800598,71009.502829,57001.150489,-0.040000,0.982000,-0.106000,192.000000,254.000000,192.000000,30.000000,176.000000,252.000000,176.000000,0.000000,0.000000,0.000000,1647766113.152789,0.000000
157.000000,55571.331748,43841.784458,60222.238031,53784.868572,-7989.765166,65553.285546,71004.071355,56989.594637,-0.040000,0.982000,-0.106000,192.000000,0.000000,0.000000,0.000000,0.000000,0.000000,0.000000,0.000000,0.000000,0.000000,1647766113.152806,0.000000
