%OpenBCI Raw EEG Data
%Number of channels = 8
%Sample Rate = 256 Hz
%Board = OpenBCI_GUI$BoardCytonSerial
%Channels = Fp1, Fp2, F3, F4, Fz, Pz, O1, O2
%Data recorded at AIMS Lab (http://aimsl.uiu.ac.bd) by Rana Depto (mail@ranadepto.com)
%Brainwaves were obtained via the Ultracortex Mark IV Headset using the OpenBCI Cyton Board
%Recording Application = ConcentrateToday (https://concentrate.today)
%Data type = RAW data with noise
%Day No = 3
%Subject ID = 5
%Session ID = 7
%Record starting timestamp (UTC+6) = 2022-03-14T16:12:15.610950
%Record ending timestamp (UTC+6)   = 2022-03-14T16:12:41.452047
%Recorded durations = ~25 seconds
Sample Index, EXG Channel 0, EXG Channel 1, EXG Channel 2, EXG Channel 3, EXG Channel 4, EXG Channel 5, EXG Channel 6, EXG Channel 7, Accel Channel 0, Accel Channel 1, Accel Channel 2, Other, Other, Other, Other, Other, Other, Other, Analog Channel 0, Analog Channel 1, Analog Channel 2, Timestamp, Timestamp (Formatted)
219.000000,16736.829786,9247.453123,28223.525372,6297.224021,12107.045902,33725.407270,6582.544039,8382.105336,-0.044000,0.944000,0.260000,192.000000,0.000000,0.000000,0.000000,0.000000,0.000000,0.000000,0.000000,0.000000,0.000000,1647252735.610730,0.000000
220.000000,16724.961010,9235.696105,28213.109459,6291.166698,12109.370483,33730.861095,6575.302073,8377.277360,-0.044000,0.944000,0.260000,192.000000,0.000000,0.000000,0.000000,0.000000,0.000000,0.000000,0.000000,0.000000,0.000000,1647252735.610742,0.000000
221.000000,16717.339065,9233.349172,28210.159029,6283.053015,12113.483204,33735.286741,6563.455649,8368.694290,-0.044000,0.944000,0.260000,192.000000,0.000000,0.000000,0.000000,0.000000,0.000000,0.000000,0.000000,0.000000,0.000000,1647252735.618439,0.000000
222.000000,16730.459539,9248.973042,28216.484572,6286.875163,12109.303428,33726.770726,6567.680129,8372.829362,-0.044000,0.944000,0.260000,192.000000,0.000000,0.000000,0.000000,0.000000,0.000000,0.000000,0.000000,0.000000,0.000000,1647252735.618447,0.000000
223.000000,16742.752998,9253.041059,28235.125927,6297.134614,12120.099320,33724.535552,6577.514896,8377.590284,-0.052000,0.952000,0.262000,192.000000,254.000000,96.000000,29.000000,192.000000,8.000000,48.000000,0.000000,0.000000,0.000000,1647252735.625524,0.000000
224.000000,16733.074693,9245.039135,28235.148279,6296.933448,12125.508443,33728.424755,6580.845306,8377.545581,-0.052000,0.952000,0.262000,192.000000,0.000000,0.000000,0.000000,0.000000,0.000000,0.000000,0.000000,0.000000,0.000000,1647252735.625530,0.000000
225.000000,16731.331257,9242.245167,28228.599218,6289.780890,12125.284925,33728.536514,6579.213629,8379.289017,-0.052000,0.952000,0.262000,192.000000,0.000000,0.000000,0.000000,0.000000,0.000000,0.000000,0.000000,0.000000,0.000000,1647252735.633062,0.000000
226.000000,16728.939620,9242.200463,28222.184267,6292.105471,12132.236318,33736.627845,6570.429393,8369.901284,-0.052000,0.952000,0.262000,192.000000,0.000000,0.000000,0.000000,0.000000,0.000000,0.000000,0.000000,0.000000,0.000000,1647252735.633066,0.000000
227.000000,16735.667495,9246.313184,28223.413613,6286.897515,12124.122634,33719.573464,6574.765632,8373.678729,-0.052000,0.952000,0.262000,192.000000,0.000000,0.000000,0.000000,0.000000,0.000000,0.000000,0.000000,0.000000,0.000000,1647252735.640997,0.000000
228.000000,16740.115492,9248.749524,28226.140526,6288.752709,12118.601754,33706.810618,6574.564466,8369.498953,-0.052000,0.952000,0.262000,192.000000,0.000000,0.000000,0.000000,0.000000,0.000000,0.000000,0.000000,0.000000,0.000000,1647252735.641001,0.000000
229.000000,16734.572260,9246.559053,28220.664349,6292.373692,12120.166376,33707.123543,6563.880332,8352.533979,-0.052000,0.952000,0.262000,192.000000,0.000000,0.000000,0.000000,0.000000,0.000000,0.000000,0.000000,0.000000,0.000000,1647252735.649083,0.000000
230.000000,16727.911440,9236.165492,28218.719747,6285.221134,12117.841794,33708.777572,6566.964873,8354.500932,-0.052000,0.952000,0.262000,192.000000,0.000000,0.000000,0.000000,0.000000,0.000000,0.000000,0.000000,0.000000,0.000000,1647252735.649088,0.000000
231.000000,16730.705408,9239.048867,28218.697395,6288.819765,12120.859280,33714.410211,6577.313730,8384.921656,-0.052000,0.952000,0.262000,192.000000,0.000000,0.000000,0.000000,0.000000,0.000000,0.000000,0.000000,0.000000,0.000000,1647252735.655307,0.000000
232.000000,16726.525632,9238.937108,28217.646863,6279.476736,12108.699931,33708.174075,6590.881239,8409.709741,-0.052000,0.952000,0.262000,192.000000,0.000000,0.000000,0.000000,0.000000,0.000000,0.000000,0.000000,0.000000,0.000000,1647252735.655312,0.000000
233.000000,16719.753053,9233.215062,28210.315491,6274.626407,12100.385082,33705.514217,6584.354530,8396.745729,-0.052000,0.952000,0.260000,192.000000,254.000000,96.000000,29.000000,192.000000,8.000000,32.000000,0.000000,0.000000,0.000000,1647252735.662740,0.000000
234.000000,16722.927001,9232.544509,28211.924817,6277.867410,12105.168355,33704.642499,6585.047434,8390.643703,-0.052000,0.952000,0.260000,192.000000,0.000000,0.000000,0.000000,0.000000,0.000000,0.000000,0.000000,0.000000,0.000000,1647252735.670590,0.000000
235.000000,16731.599478,9238.177149,28222.653654,6282.158945,12117.283001,33710.476304,6580.375919,8385.122822,-0.052000,0.952000,0.260000,192.000000,0.000000,0.000000,0.000000,0.000000,0.000000,0.000000,0.000000,0.000000,0.000000,1647252735.670605,0.000000
236.000000,16734.818129,9240.166454,28217.982139,6291.591381,12125.173166,33722.635653,6575.503239,8383.133517,-0.052000,0.952000,0.260000,192.000000,0.000000,0.000000,0.000000,0.000000,0.000000,0.000000,0.000000,0.000000,0.000000,1647252735.678613,0.000000
237.000000,16735.198109,9241.976946,28217.155125,6294.787680,12116.455986,33726.033118,6583.214591,8383.669959,-0.052000,0.952000,0.260000,192.000000,0.000000,0.000000,0.000000,0.000000,0.000000,0.000000,0.000000,0.000000,0.000000,1647252735.678618,0.000000
238.000000,16729.833690,9240.278213,28218.406822,6294.362997,12112.589134,33719.104078,6587.684940,8387.469755,-0.052000,0.952000,0.260000,192.000000,0.000000,0.000000,0.000000,0.000000,0.000000,0.000000,0.000000,0.000000,0.000000,1647252735.685317,0.000000
239.000000,16726.168004,9237.260728,28208.594407,6287.277494,12110.242201,33712.376203,6579.548905,8379.132554,-0.052000,0.952000,0.260000,192.000000,0.000000,0.000000,0.000000,0.000000,0.000000,0.000000,0.000000,0.000000,0.000000,1647252735.685320,0.000000
240.000000,16724.938658,9235.763161,28211.231913,6285.712872,12117.238297,33713.694956,6580.398271,8376.852676,-0.052000,0.952000,0.260000,192.000000,0.000000,0.000000,0.000000,0.000000,0.000000,0.000000,0.000000,0.000000,0.000000,1647252735.693346,0.000000
241.000000,16729.811338,9239.741771,28219.144430,6289.087986,12125.575498,33716.175999,6586.030911,8390.531944,-0.052000,0.952000,0.260000,192.000000,0.000000,0.000000,0.000000,0.000000,0.000000,0.000000,0.000000,0.000000,0.000000,1647252735.693350,0.000000
242.000000,16729.185489,9243.027478,28216.126945,6284.438823,12112.142099,33707.056487,6589.629542,8401.216078,-0.052000,0.952000,0.260000,192.000000,0.000000,0.000000,0.000000,0.000000,0.000000,0.000000,0.000000,0.000000,0.000000,1647252735.701271,0.000000
243.000000,16726.324466,9243.787437,28212.505962,6284.438823,12106.598867,33707.078839,6587.595533,8396.924543,-0.054000,0.956000,0.256000,192.000000,254.000000,80.000000,29.000000,224.000000,8.000000,0.000000,0.000000,0.000000,0.000000,1647252735.701274,0.000000
244.000000,16723.172870,9236.791341,28206.180418,6282.069538,12103.335512,33704.933072,6583.192239,8391.381310,-0.054000,0.956000,0.256000,192.000000,0.000000,0.000000,0.000000,0.000000,0.000000,0.000000,0.000000,0.000000,0.000000,1647252735.708442,0.000000
245.000000,16725.251582,9230.890480,28207.096840,6284.461175,12111.136271,33705.000127,6574.720928,8381.814764,-0.054000,0.956000,0.256000,192.000000,0.000000,0.000000,0.000000,0.000000,0.000000,0.000000,0.000000,0.000000,0.000000,1647252735.708446,0.000000
246.000000,16725.765672,9233.080951,28208.303834,6282.226000,12116.612448,33698.786342,6573.066899,8373.835191,-0.054000,0.956000,0.256000,192.000000,0.000000,0.000000,0.000000,0.000000,0.000000,0.000000,0.000000,0.000000,0.000000,1647252735.716017,0.000000
247.000000,16729.721931,9236.187844,28215.165820,6274.559352,12108.655227,33687.722228,6582.007597,8377.903208,-0.054000,0.956000,0.256000,192.000000,0.000000,0.000000,0.000000,0.000000,0.000000,0.000000,0.000000,0.000000,0.000000,1647252735.716021,0.000000
248.000000,16731.264202,9239.697068,28212.327148,6278.672073,12110.912753,33686.515234,6583.236943,8384.161697,-0.054000,0.956000,0.256000,192.000000,0.000000,0.000000,0.000000,0.000000,0.000000,0.000000,0.000000,0.000000,0.000000,1647252735.723018,0.000000
249.000000,16725.922135,9233.259765,28215.568151,6280.527268,12118.132367,33696.171188,6585.270951,8388.989674,-0.054000,0.956000,0.256000,192.000000,0.000000,0.000000,0.000000,0.000000,0.000000,0.000000,0.000000,0.000000,0.000000,1647252735.730938,0.000000
250.000000,16729.766635,9236.165492,28220.664349,6283.969436,12116.724207,33699.859226,6591.261219,8398.802090,-0.054000,0.956000,0.256000,192.000000,0.000000,0.000000,0.000000,0.000000,0.000000,0.000000,0.000000,0.000000,0.000000,1647252735.730941,0.000000
251.000000,16727.084425,9237.148969,28219.658520,6288.685654,12117.774739,33704.441333,6592.490565,8402.780700,-0.054000,0.956000,0.256000,192.000000,0.000000,0.000000,0.000000,0.000000,0.000000,0.000000,0.000000,0.000000,0.000000,1647252735.738207,0.000000
252.000000,16727.687922,9240.613489,28221.200791,6282.114241,12112.879707,33698.004031,6590.657722,8400.277305,-0.054000,0.956000,0.256000,192.000000,0.000000,0.000000,0.000000,0.000000,0.000000,0.000000,0.000000,0.000000,0.000000,1647252735.738238,0.000000
253.000000,16731.152443,9241.775780,28216.149296,6279.297922,12111.225678,33691.589080,6590.456556,8401.149023,-0.042000,0.948000,0.264000,192.000000,254.000000,176.000000,29.000000,160.000000,8.000000,64.000000,0.000000,0.000000,0.000000,1647252735.745616,0.000000
254.000000,16732.784120,9245.664983,28217.848029,6278.984997,12117.752387,33690.516197,6586.701463,8403.183031,-0.042000,0.948000,0.264000,192.000000,0.000000,0.000000,0.000000,0.000000,0.000000,0.000000,0.000000,0.000000,0.000000,1647252735.745620,0.000000
255.000000,16729.051379,9243.183940,28223.614779,6281.220172,12123.385027,33695.567691,6584.063957,8401.014912,-0.042000,0.948000,0.264000,192.000000,0.000000,0.000000,0.000000,0.000000,0.000000,0.000000,0.000000,0.000000,0.000000,1647252735.753585,0.000000
0.000000,16722.703483,9234.377353,28217.311587,6282.628331,12126.514271,33707.637633,6586.477946,8394.711720,-0.042000,0.948000,0.264000,192.000000,0.000000,0.000000,0.000000,0.000000,0.000000,0.000000,0.000000,0.000000,0.000000,1647252735.753591,0.000000
1.000000,16722.167042,9231.024591,28211.768354,6272.860619,12115.696027,33702.250862,6587.506126,8392.968284,-0.042000,0.948000,0.264000,192.000000,0.000000,0.000000,0.000000,0.000000,0.000000,0.000000,0.000000,0.000000,0.000000,1647252735.760741,0.000000
2.000000,16724.335161,9230.912832,28210.918988,6273.709985,12114.377274,33699.568653,6584.466289,8390.151964,-0.042000,0.948000,0.264000,192.000000,0.000000,0.000000,0.000000,0.000000,0.000000,0.000000,0.000000,0.000000,0.000000,1647252735.760745,0.000000
3.000000,16733.700542,9237.417190,28218.652692,6283.477698,12124.994352,33707.816447,6584.622751,8389.257895,-0.042000,0.948000,0.264000,192.000000,0.000000,0.000000,0.000000,0.000000,0.000000,0.000000,0.000000,0.000000,0.000000,1647252735.768272,0.000000
4.000000,16731.308905,9242.625146,28217.490401,6288.842116,12131.029323,33714.790191,6585.047434,8391.157793,-0.042000,0.948000,0.264000,192.000000,0.000000,0.000000,0.000000,0.000000,0.000000,0.000000,0.000000,0.000000,0.000000,1647252735.768276,0.000000
5.000000,16730.616001,9242.960422,28216.350462,6288.640951,12123.630896,33709.068144,6582.544039,8398.600924,-0.042000,0.948000,0.264000,192.000000,0.000000,0.000000,0.000000,0.000000,0.000000,0.000000,0.000000,0.000000,0.000000,1647252735.776188,0.000000
6.000000,16738.841443,9247.743696,28227.034596,6290.920829,12119.898155,33708.732868,6587.796699,8403.451252,-0.042000,0.948000,0.264000,192.000000,0.000000,0.000000,0.000000,0.000000,0.000000,0.000000,0.000000,0.000000,0.000000,1647252735.776192,0.000000
7.000000,16738.908498,9250.247091,28223.681834,6287.478660,12116.076006,33707.794095,6593.474042,8406.871069,-0.040000,0.942000,0.264000,192.000000,254.000000,192.000000,29.000000,112.000000,8.000000,64.000000,0.000000,0.000000,0.000000,1647252735.783218,0.000000
8.000000,16736.516862,9248.458952,28230.722634,6295.547640,12120.725169,33710.923339,6599.710178,8412.838985,-0.040000,0.942000,0.264000,192.000000,0.000000,0.000000,0.000000,0.000000,0.000000,0.000000,0.000000,0.000000,0.000000,1647252735.790424,0.000000
9.000000,16731.867699,9241.619318,28217.043366,6291.189050,12112.343265,33709.604586,6590.925943,8401.014912,-0.040000,0.942000,0.264000,192.000000,0.000000,0.000000,0.000000,0.000000,0.000000,0.000000,0.000000,0.000000,0.000000,1647252735.790429,0.000000
10.000000,16733.544079,9245.441466,28226.498154,6293.692445,12116.835966,33720.422831,6590.545963,8399.405587,-0.040000,0.942000,0.264000,192.000000,0.000000,0.000000,0.000000,0.000000,0.000000,0.000000,0.000000,0.000000,0.000000,1647252735.797901,0.000000
11.000000,16732.381789,9249.956518,28230.812041,6294.161832,12109.638704,33720.244017,6598.972571,8400.545526,-0.040000,0.942000,0.264000,192.000000,0.000000,0.000000,0.000000,0.000000,0.000000,0.000000,0.000000,0.000000,0.000000,1647252735.797906,0.000000
12.000000,16726.704446,9243.362754,28220.418479,6288.417433,12099.312198,33715.974833,6599.888992,8404.479433,-0.040000,0.942000,0.264000,192.000000,0.000000,0.000000,0.000000,0.000000,0.000000,0.000000,0.000000,0.000000,0.000000,1647252735.805821,0.000000
13.000000,16727.889088,9240.792303,28226.319340,6295.838212,12109.795166,33730.659930,6599.643123,8404.166508,-0.040000,0.942000,0.264000,192.000000,0.000000,0.000000,0.000000,0.000000,0.000000,0.000000,0.000000,0.000000,0.000000,1647252735.805825,0.000000
14.000000,16728.537289,9240.412324,28220.932570,6293.960666,12105.995370,33730.414060,6593.608152,8395.605790,-0.040000,0.942000,0.264000,192.000000,0.000000,0.000000,0.000000,0.000000,0.000000,0.000000,0.000000,0.000000,0.000000,1647252735.813845,0.000000
15.000000,16744.429379,9252.594024,28228.152183,6291.457271,12105.771852,33717.517104,6603.174699,8409.419168,-0.040000,0.942000,0.264000,192.000000,0.000000,0.000000,0.000000,0.000000,0.000000,0.000000,0.000000,0.000000,0.000000,1647252735.813849,0.000000
16.000000,16737.343876,9244.972079,28227.302817,6292.552506,12108.923448,33719.573464,6597.922039,8400.009084,-0.040000,0.942000,0.264000,192.000000,0.000000,0.000000,0.000000,0.000000,0.000000,0.000000,0.000000,0.000000,0.000000,1647252735.820462,0.000000
17.000000,16733.454673,9240.747600,28226.296988,6290.362035,12103.335512,33720.132258,6597.050321,8395.471680,-0.048000,0.940000,0.268000,192.000000,254.000000,128.000000,29.000000,96.000000,8.000000,96.000000,0.000000,0.000000,0.000000,1647252735.820466,0.000000
18.000000,16732.091216,9239.853530,28226.319340,6285.712872,12102.262628,33722.210970,6595.508050,8397.751558,-0.048000,0.940000,0.268000,192.000000,0.000000,0.000000,0.000000,0.000000,0.000000,0.000000,0.000000,0.000000,0.000000,1647252735.828492,0.000000
19.000000,16729.833690,9241.373449,28217.982139,6280.124936,12099.289846,33720.713403,6592.937600,8399.740863,-0.048000,0.940000,0.268000,192.000000,0.000000,0.000000,0.000000,0.000000,0.000000,0.000000,0.000000,0.000000,0.000000,1647252735.828495,0.000000
20.000000,16736.382751,9247.162550,28219.345596,6281.264875,12105.548335,33720.288720,6592.669379,8398.913848,-0.048000,0.940000,0.268000,192.000000,0.000000,0.000000,0.000000,0.000000,0.000000,0.000000,0.000000,0.000000,0.000000,1647252735.836461,0.000000
21.000000,16741.009562,9246.894329,28229.426233,6289.624428,12106.151832,33719.573464,6604.739321,8404.881764,-0.048000,0.940000,0.268000,192.000000,0.000000,0.000000,0.000000,0.000000,0.000000,0.000000,0.000000,0.000000,0.000000,1647252735.836465,0.000000
22.000000,16732.694713,9238.333611,28217.468049,6283.812974,12096.115899,33718.254711,6603.152347,8392.521249,-0.048000,0.940000,0.268000,192.000000,0.000000,0.000000,0.000000,0.000000,0.000000,0.000000,0.000000,0.000000,0.000000,1647252735.843552,0.000000
23.000000,16733.544079,9241.395800,28219.300892,6285.265837,12098.082852,33728.178886,6599.151385,8389.056729,-0.048000,0.940000,0.268000,192.000000,0.000000,0.000000,0.000000,0.000000,0.000000,0.000000,0.000000,0.000000,0.000000,1647252735.850053,0.000000
24.000000,16738.841443,9251.208216,28228.465107,6292.530154,12101.502669,33733.431546,6604.001713,8396.857488,-0.048000,0.940000,0.268000,192.000000,0.000000,0.000000,0.000000,0.000000,0.000000,0.000000,0.000000,0.000000,0.000000,1647252735.850058,0.000000
25.000000,16740.629582,9248.481303,28225.358215,6293.714797,12098.596942,33730.682281,6598.547888,8393.884706,-0.048000,0.940000,0.268000,192.000000,0.000000,0.000000,0.000000,0.000000,0.000000,0.000000,0.000000,0.000000,0.000000,1647252735.858247,0.000000
26.000000,16735.511033,9245.217949,28228.219238,6294.228887,12097.971093,33728.290645,6596.089196,8397.595095,-0.048000,0.940000,0.268000,192.000000,0.000000,0.000000,0.000000,0.000000,0.000000,0.000000,0.000000,0.000000,0.000000,1647252735.858251,0.000000
27.000000,16733.745245,9244.815617,28224.173573,6290.853773,12092.584323,33717.919435,6594.122242,8391.247200,-0.050000,0.938000,0.266000,192.000000,254.000000,112.000000,29.000000,80.000000,8.000000,80.000000,0.000000,0.000000,0.000000,1647252735.866244,0.000000
28.000000,16733.208803,9244.256824,28221.469011,6285.221134,12092.539620,33717.450049,6603.174699,8392.990636,-0.050000,0.938000,0.266000,192.000000,0.000000,0.000000,0.000000,0.000000,0.000000,0.000000,0.000000,0.000000,0.000000,1647252735.866248,0.000000
29.000000,16735.734550,9250.068277,28225.894657,6287.121032,12096.965265,33721.383956,6605.856908,8392.834174,-0.050000,0.938000,0.266000,192.000000,0.000000,0.000000,0.000000,0.000000,0.000000,0.000000,0.000000,0.000000,0.000000,1647252735.873270,0.000000
30.000000,16730.973629,9237.707762,28219.367948,6287.143384,12100.988579,33726.927188,6597.251486,8387.715624,-0.050000,0.938000,0.266000,192.000000,0.000000,0.000000,0.000000,0.000000,0.000000,0.000000,0.000000,0.000000,0.000000,1647252735.873274,0.000000
31.000000,16731.375960,9239.607661,28220.932570,6285.310541,12102.106166,33726.882485,6593.183469,8385.994540,-0.050000,0.938000,0.266000,192.000000,0.000000,0.000000,0.000000,0.000000,0.000000,0.000000,0.000000,0.000000,0.000000,1647252735.880668,0.000000
32.000000,16738.148539,9244.480341,28224.911180,6281.890724,12095.512402,33718.455877,6597.765577,8387.559162,-0.050000,0.938000,0.266000,192.000000,0.000000,0.000000,0.000000,0.000000,0.000000,0.000000,0.000000,0.000000,0.000000,1647252735.880672,0.000000
33.000000,16730.414835,9237.148969,28221.848991,6287.411605,12107.425881,33730.347005,6588.556658,8379.378424,-0.050000,0.938000,0.266000,192.000000,0.000000,0.000000,0.000000,0.000000,0.000000,0.000000,0.000000,0.000000,0.000000,1647252735.888792,0.000000
34.000000,16735.689847,9244.368582,28225.760546,6290.362035,12107.537640,33726.278988,6592.043530,8379.467831,-0.050000,0.938000,0.266000,192.000000,0.000000,0.000000,0.000000,0.000000,0.000000,0.000000,0.000000,0.000000,0.000000,1647252735.888795,0.000000
35.000000,16739.690809,9251.990527,28226.833430,6291.412567,12100.250971,33710.565711,6596.312713,8391.135441,-0.050000,0.938000,0.266000,192.000000,0.000000,0.000000,0.000000,0.000000,0.000000,0.000000,0.000000,0.000000,0.000000,1647252735.896874,0.000000
36.000000,16743.714123,9258.494885,28230.566171,6296.911096,12103.357864,33718.589988,6598.749053,8399.629104,-0.050000,0.938000,0.266000,192.000000,0.000000,0.000000,0.000000,0.000000,0.000000,0.000000,0.000000,0.000000,0.000000,1647252735.896879,0.000000
37.000000,16740.629582,9254.426867,28222.966578,6289.937352,12096.607637,33718.321767,6598.100853,8401.663113,-0.042000,0.942000,0.268000,192.000000,254.000000,176.000000,29.000000,112.000000,8.000000,96.000000,0.000000,0.000000,0.000000,1647252735.902794,0.000000
38.000000,16732.381789,9240.144103,28229.716805,6288.976227,12109.437538,33732.872752,6595.016312,8395.426976,-0.042000,0.942000,0.268000,192.000000,0.000000,0.000000,0.000000,0.000000,0.000000,0.000000,0.000000,0.000000,0.000000,1647252735.902797,0.000000
39.000000,16740.406065,9241.194635,28230.990855,6284.036491,12110.488070,33726.122525,6600.648952,8395.471680,-0.042000,0.942000,0.268000,192.000000,0.000000,0.000000,0.000000,0.000000,0.000000,0.000000,0.000000,0.000000,0.000000,1647252735.910343,0.000000
40.000000,16735.689847,9240.904062,28214.495267,6284.438823,12109.504594,33726.614264,6594.904553,8393.750595,-0.042000,0.942000,0.268000,192.000000,0.000000,0.000000,0.000000,0.000000,0.000000,0.000000,0.000000,0.000000,0.000000,1647252735.918377,0.000000
41.000000,16735.958068,9241.731076,28224.978235,6287.858640,12115.986599,33738.594799,6590.478908,8385.301636,-0.042000,0.942000,0.268000,192.000000,0.000000,0.000000,0.000000,0.000000,0.000000,0.000000,0.000000,0.000000,0.000000,1647252735.918381,0.000000
42.000000,16733.968763,9236.143140,28221.156087,6278.046224,12102.575553,33726.793078,6594.099890,8383.424089,-0.042000,0.942000,0.268000,192.000000,0.000000,0.000000,0.000000,0.000000,0.000000,0.000000,0.000000,0.000000,0.000000,1647252735.925571,0.000000
43.000000,16740.651934,9239.428847,28219.390299,6279.186163,12100.183916,33715.371336,6597.899687,8384.944008,-0.042000,0.942000,0.268000,192.000000,0.000000,0.000000,0.000000,0.000000,0.000000,0.000000,0.000000,0.000000,0.000000,1647252735.925581,0.000000
44.000000,16746.239870,9248.503655,28233.158974,6288.573896,12111.918582,33718.008842,6600.291324,8390.777813,-0.042000,0.942000,0.268000,192.000000,0.000000,0.000000,0.000000,0.000000,0.000000,0.000000,0.000000,0.000000,0.000000,1647252735.933018,0.000000
45.000000,16745.614021,9254.985661,28233.069567,6287.970398,12111.806823,33716.131296,6600.090158,8398.198592,-0.042000,0.942000,0.268000,192.000000,0.000000,0.000000,0.000000,0.000000,0.000000,0.000000,0.000000,0.000000,0.000000,1647252735.933022,0.000000
46.000000,16742.864757,9256.147952,28233.248381,6290.496146,12112.007989,33718.031194,6598.056149,8398.958552,-0.042000,0.942000,0.268000,192.000000,0.000000,0.000000,0.000000,0.000000,0.000000,0.000000,0.000000,0.000000,0.000000,1647252735.941114,0.000000
47.000000,16741.344838,9248.838931,28229.940323,6289.624428,12114.287867,33719.864037,6595.262181,8393.996464,-0.042000,0.942000,0.268000,192.000000,0.000000,0.000000,0.000000,0.000000,0.000000,0.000000,0.000000,0.000000,0.000000,1647252735.941117,0.000000
48.000000,16737.410931,9246.156722,28228.174535,6293.893611,12124.480262,33733.677415,6599.911344,8392.789470,-0.042000,0.936000,0.262000,192.000000,254.000000,176.000000,29.000000,64.000000,8.000000,48.000000,0.000000,0.000000,0.000000,1647252735.949018,0.000000
49.000000,16745.010524,9255.097420,28236.668198,6298.252201,12126.246050,33735.756127,6599.263143,8392.722415,-0.042000,0.936000,0.262000,192.000000,0.000000,0.000000,0.000000,0.000000,0.000000,0.000000,0.000000,0.000000,0.000000,1647252735.949022,0.000000
50.000000,16742.976516,9250.582367,28229.470936,6298.140442,12124.323800,33742.595761,6592.579972,8391.470717,-0.042000,0.936000,0.262000,192.000000,0.000000,0.000000,0.000000,0.000000,0.000000,0.000000,0.000000,0.000000,0.000000,1647252735.955671,0.000000
51.000000,16739.847271,9246.357888,28227.705148,6293.401872,12117.037131,33745.322674,6585.539172,8388.743805,-0.042000,0.936000,0.262000,192.000000,0.000000,0.000000,0.000000,0.000000,0.000000,0.000000,0.000000,0.000000,0.000000,1647252735.955675,0.000000
52.000000,16743.334144,9254.248053,28229.694453,6291.814898,12113.617315,33744.003921,6587.416719,8382.775889,-0.042000,0.936000,0.262000,192.000000,0.000000,0.000000,0.000000,0.000000,0.000000,0.000000,0.000000,0.000000,0.000000,1647252735.963694,0.000000
53.000000,16746.552795,9250.112981,28224.844125,6279.320273,12112.231506,33732.381014,6589.026044,8388.363825,-0.042000,0.936000,0.262000,192.000000,0.000000,0.000000,0.000000,0.000000,0.000000,0.000000,0.000000,0.000000,0.000000,1647252735.963698,0.000000
54.000000,16749.570280,9246.000260,28223.435965,6275.274608,12110.845698,33725.340214,6589.830707,8394.845831,-0.042000,0.936000,0.262000,192.000000,0.000000,0.000000,0.000000,0.000000,0.000000,0.000000,0.000000,0.000000,0.000000,1647252735.970711,0.000000
55.000000,16754.174740,9250.515312,28225.000587,6279.700253,12114.936067,33727.575389,6593.652856,8393.035339,-0.042000,0.936000,0.262000,192.000000,0.000000,0.000000,0.000000,0.000000,0.000000,0.000000,0.000000,0.000000,0.000000,1647252735.978683,0.000000
56.000000,16757.169873,9250.470609,28241.965561,6282.918904,12122.982695,33731.688110,6604.292286,8407.072235,-0.042000,0.936000,0.262000,192.000000,0.000000,0.000000,0.000000,0.000000,0.000000,0.000000,0.000000,0.000000,0.000000,1647252735.978687,0.000000
57.000000,16752.855987,9245.776742,28236.690549,6279.141459,12124.726132,33735.152630,6594.703388,8388.609694,-0.042000,0.936000,0.262000,192.000000,0.000000,0.000000,0.000000,0.000000,0.000000,0.000000,0.000000,0.000000,0.000000,1647252735.985373,0.000000
58.000000,16754.957051,9251.722306,28232.287256,6279.409680,12130.157605,33729.072956,6590.054225,8373.812839,-0.040000,0.944000,0.258000,192.000000,254.000000,192.000000,29.000000,128.000000,8.000000,16.000000,0.000000,0.000000,0.000000,1647252735.985377,0.000000
59.000000,16757.549853,9258.204312,28226.229933,6277.912113,12129.107073,33725.519028,6596.513879,8382.842944,-0.040000,0.944000,0.258000,192.000000,0.000000,0.000000,0.000000,0.000000,0.000000,0.000000,0.000000,0.000000,0.000000,1647252735.993496,0.000000
60.000000,16761.595519,9261.869998,28236.802308,6289.535021,12130.179957,33726.480153,6605.320466,8393.549430,-0.040000,0.944000,0.258000,192.000000,0.000000,0.000000,0.000000,0.000000,0.000000,0.000000,0.000000,0.000000,0.000000,1647252735.993501,0.000000
61.000000,16753.079504,9257.332594,28236.288218,6296.732282,12136.349039,33742.282837,6607.265068,8395.561087,-0.040000,0.944000,0.258000,192.000000,0.000000,0.000000,0.000000,0.000000,0.000000,0.000000,0.000000,0.000000,0.000000,1647252736.001252,0.000000
62.000000,16747.290402,9252.661079,28221.424308,6287.121032,12132.213966,33753.771633,6601.788891,8390.464889,-0.040000,0.944000,0.258000,192.000000,0.000000,0.000000,0.000000,0.000000,0.000000,0.000000,0.000000,0.000000,0.000000,1647252736.001256,0.000000
63.000000,16747.826844,9249.733001,28226.028767,6285.891686,12127.184823,33744.965046,6597.854984,8387.737976,-0.040000,0.944000,0.258000,192.000000,0.000000,0.000000,0.000000,0.000000,0.000000,0.000000,0.000000,0.000000,0.000000,1647252736.008477,0.000000
64.000000,16751.693696,9255.365641,28228.554514,6284.550582,12124.949649,33737.812488,6592.110585,8381.412432,-0.040000,0.944000,0.258000,192.000000,0.000000,0.000000,0.000000,0.000000,0.000000,0.000000,0.000000,0.000000,0.000000,1647252736.008484,0.000000
65.000000,16757.639260,9264.105173,28224.531200,6281.711910,12120.971038,33730.637578,6597.139728,8392.767119,-0.040000,0.944000,0.258000,192.000000,0.000000,0.000000,0.000000,0.000000,0.000000,0.000000,0.000000,0.000000,0.000000,1647252736.016059,0.000000
66.000000,16762.824865,9270.698937,28233.449547,6288.953875,12121.909812,33733.722119,6602.951181,8397.505688,-0.040000,0.944000,0.258000,192.000000,0.000000,0.000000,0.000000,0.000000,0.000000,0.000000,0.000000,0.000000,0.000000,1647252736.016064,0.000000
67.000000,16762.936623,9267.234417,28241.496175,6299.012160,12130.023495,33745.635598,6605.521632,8402.668941,-0.040000,0.944000,0.258000,192.000000,0.000000,0.000000,0.000000,0.000000,0.000000,0.000000,0.000000,0.000000,0.000000,1647252736.023902,0.000000
68.000000,16759.025068,9259.858341,28235.841183,6299.101567,12131.431655,33746.708482,6600.090158,8400.478470,-0.040000,0.946000,0.256000,192.000000,254.000000,192.000000,29.000000,144.000000,8.000000,0.000000,0.000000,0.000000,0.000000,1647252736.023907,0.000000
69.000000,16755.113513,9252.415210,28229.537991,6293.714797,12133.197443,33747.803718,6601.006580,8395.002293,-0.040000,0.946000,0.256000,192.000000,0.000000,0.000000,0.000000,0.000000,0.000000,0.000000,0.000000,0.000000,0.000000,1647252736.030845,0.000000
70.000000,16756.611080,9258.003146,28232.510773,6285.019968,12127.900079,33736.963122,6598.100853,8388.520287,-0.040000,0.946000,0.256000,192.000000,0.000000,0.000000,0.000000,0.000000,0.000000,0.000000,0.000000,0.000000,0.000000,1647252736.038074,0.000000
71.000000,16753.772408,9253.756315,28224.330035,6281.868372,12123.049751,33726.457802,6591.037701,8379.020796,-0.040000,0.946000,0.256000,192.000000,0.000000,0.000000,0.000000,0.000000,0.000000,0.000000,0.000000,0.000000,0.000000,1647252736.038101,0.000000
72.000000,16753.928870,9255.589158,28227.146355,6284.148250,12121.641591,33725.362566,6597.184431,8383.424089,-0.040000,0.946000,0.256000,192.000000,0.000000,0.000000,0.000000,0.000000,0.000000,0.000000,0.000000,0.000000,0.000000,1647252736.045759,0.000000
73.000000,16761.148484,9258.338423,28229.537991,6292.932486,12130.068198,33731.911627,6594.971609,8388.676749,-0.040000,0.946000,0.256000,192.000000,0.000000,0.000000,0.000000,0.000000,0.000000,0.000000,0.000000,0.000000,0.000000,1647252736.045763,0.000000
74.000000,16761.483760,9258.628995,28223.279503,6288.618599,12122.781530,33724.222627,6591.507088,8387.514459,-0.040000,0.946000,0.256000,192.000000,0.000000,0.000000,0.000000,0.000000,0.000000,0.000000,0.000000,0.000000,0.000000,1647252736.053666,0.000000
75.000000,16758.712144,9252.750486,28224.620607,6286.562239,12124.144986,33731.352834,6603.554678,8390.956627,-0.040000,0.946000,0.256000,192.000000,0.000000,0.000000,0.000000,0.000000,0.000000,0.000000,0.000000,0.000000,0.000000,1647252736.053669,0.000000
76.000000,16759.337993,9252.035231,28223.212448,6288.283323,12117.640629,33726.547209,6609.746112,8399.494994,-0.040000,0.946000,0.256000,192.000000,0.000000,0.000000,0.000000,0.000000,0.000000,0.000000,0.000000,0.000000,0.000000,1647252736.060758,0.000000
77.000000,16755.493493,9249.755353,28226.565209,6286.025797,12117.394759,33729.922322,6608.874394,8402.691293,-0.040000,0.946000,0.256000,192.000000,0.000000,0.000000,0.000000,0.000000,0.000000,0.000000,0.000000,0.000000,0.000000,1647252736.060763,0.000000
78.000000,16747.357458,9246.559053,28217.602160,6281.264875,12116.992428,33734.839706,6599.598420,8393.169450,-0.042000,0.946000,0.266000,192.000000,254.000000,176.000000,29.000000,144.000000,8.000000,80.000000,0.000000,0.000000,0.000000,1647252736.068245,0.000000
79.000000,16748.184472,9245.307356,28211.746003,6277.845058,12113.885535,33735.689072,6594.569277,8390.464889,-0.042000,0.946000,0.266000,192.000000,0.000000,0.000000,0.000000,0.000000,0.000000,0.000000,0.000000,0.000000,0.000000,1647252736.068249,0.000000
80.000000,16748.676210,9238.646536,28212.640072,6282.449518,12116.232469,33743.512183,6587.796699,8389.079081,-0.042000,0.946000,0.266000,192.000000,0.000000,0.000000,0.000000,0.000000,0.000000,0.000000,0.000000,0.000000,0.000000,1647252736.076238,0.000000
81.000000,16749.659687,9238.713591,28215.948131,6276.325140,12110.868050,33734.347967,6594.412815,8402.400720,-0.042000,0.946000,0.266000,192.000000,0.000000,0.000000,0.000000,0.000000,0.000000,0.000000,0.000000,0.000000,0.000000,1647252736.076243,0.000000
82.000000,16760.880263,9254.493923,28230.007378,6280.415509,12114.332570,33729.452935,6615.110530,8413.509537,-0.042000,0.946000,0.266000,192.000000,0.000000,0.000000,0.000000,0.000000,0.000000,0.000000,0.000000,0.000000,0.000000,1647252736.084326,0.000000
83.000000,16754.845292,9246.223777,28227.548686,6283.276532,12130.671696,33743.556886,6603.286457,8411.676694,-0.042000,0.946000,0.266000,192.000000,0.000000,0.000000,0.000000,0.000000,0.000000,0.000000,0.000000,0.000000,0.000000,1647252736.084330,0.000000
84.000000,16746.530443,9243.452161,28215.389337,6281.466041,12133.286850,33741.835802,6589.227210,8398.980904,-0.042000,0.946000,0.266000,192.000000,0.000000,0.000000,0.000000,0.000000,0.000000,0.000000,0.000000,0.000000,0.000000,1647252736.090585,0.000000
85.000000,16745.211690,9240.814655,28215.299930,6276.615712,12128.816501,33734.906761,6586.254428,8393.035339,-0.042000,0.946000,0.266000,192.000000,0.000000,0.000000,0.000000,0.000000,0.000000,0.000000,0.000000,0.000000,0.000000,1647252736.098259,0.000000
86.000000,16754.957051,9242.021649,28215.188171,6277.688596,12126.491919,33726.726023,6593.272876,8405.127633,-0.042000,0.946000,0.266000,192.000000,0.000000,0.000000,0.000000,0.000000,0.000000,0.000000,0.000000,0.000000,0.000000,1647252736.098275,0.000000
87.000000,16751.648992,9237.148969,28212.640072,6273.888799,12118.691161,33716.198351,6597.296190,8409.888555,-0.042000,0.946000,0.266000,192.000000,0.000000,0.000000,0.000000,0.000000,0.000000,0.000000,0.000000,0.000000,0.000000,1647252736.106233,0.000000
88.000000,16751.246661,9236.679582,28221.804288,6277.979169,12127.229527,33720.959272,6597.586763,8409.575630,-0.034000,0.942000,0.274000,192.000000,254.000000,240.000000,29.000000,112.000000,8.000000,144.000000,0.000000,0.000000,0.000000,1647252736.106251,0.000000
89.000000,16755.627603,9237.551300,28235.729424,6280.437861,12141.556995,33733.118621,6596.424472,8407.273401,-0.034000,0.942000,0.274000,192.000000,0.000000,0.000000,0.000000,0.000000,0.000000,0.000000,0.000000,0.000000,0.000000,1647252736.114037,0.000000
90.000000,16754.398257,9241.820483,28228.196887,6276.191029,12128.950611,33725.451973,6605.231059,8413.375427,-0.034000,0.942000,0.274000,192.000000,0.000000,0.000000,0.000000,0.000000,0.000000,0.000000,0.000000,0.000000,0.000000,1647252736.114044,0.000000
91.000000,16745.949298,9236.299603,28221.267846,6277.465079,12123.697951,33738.214819,6593.384635,8397.952723,-0.034000,0.942000,0.274000,192.000000,0.000000,0.000000,0.000000,0.000000,0.000000,0.000000,0.000000,0.000000,0.000000,1647252736.120714,0.000000
92.000000,16746.642202,9236.053733,28219.837334,6278.917942,12121.753350,33736.784308,6589.875411,8393.392967,-0.034000,0.942000,0.274000,192.000000,0.000000,0.000000,0.000000,0.000000,0.000000,0.000000,0.000000,0.000000,0.000000,1647252736.120727,0.000000
93.000000,16750.576109,9238.467722,28223.748889,6279.633198,12129.978791,33730.972854,6598.234963,8402.087796,-0.034000,0.942000,0.274000,192.000000,0.000000,0.000000,0.000000,0.000000,0.000000,0.000000,0.000000,0.000000,0.000000,1647252736.128983,0.000000
94.000000,16756.633432,9239.562957,28233.114270,6287.769233,12139.411228,33739.801793,6607.622696,8412.548412,-0.034000,0.942000,0.274000,192.000000,0.000000,0.000000,0.000000,0.000000,0.000000,0.000000,0.000000,0.000000,0.000000,1647252736.129001,0.000000
95.000000,16753.615946,9245.285004,28224.240628,6285.735224,12133.018629,33736.985473,6603.532327,8405.775834,-0.034000,0.942000,0.274000,192.000000,0.000000,0.000000,0.000000,0.000000,0.000000,0.000000,0.000000,0.000000,0.000000,1647252736.136895,0.000000
96.000000,16749.369115,9237.663059,28222.653654,6273.978206,12123.049751,33728.022424,6604.091120,8405.731130,-0.034000,0.942000,0.274000,192.000000,0.000000,0.000000,0.000000,0.000000,0.000000,0.000000,0.000000,0.000000,0.000000,1647252736.136907,0.000000
97.000000,16757.102818,9241.865187,28235.349445,6279.946122,12130.939916,33732.269255,6604.292286,8407.340456,-0.034000,0.942000,0.274000,192.000000,0.000000,0.000000,0.000000,0.000000,0.000000,0.000000,0.000000,0.000000,0.000000,1647252736.144013,0.000000
98.000000,16751.112551,9234.690277,28225.179401,6277.710948,12138.293640,33746.417909,6593.943428,8405.552316,-0.038000,0.946000,0.270000,192.000000,254.000000,208.000000,29.000000,144.000000,8.000000,112.000000,0.000000,0.000000,0.000000,1647252736.144029,0.000000
99.000000,16757.661612,9236.880748,28228.308645,6271.295997,12130.403475,33734.996168,6598.525536,8410.380293,-0.038000,0.946000,0.270000,192.000000,0.000000,0.000000,0.000000,0.000000,0.000000,0.000000,0.000000,0.000000,0.000000,1647252736.150577,0.000000
100.000000,16757.438094,9236.992507,28234.857706,6281.980131,12132.415132,33741.813450,6592.825841,8401.730168,-0.038000,0.946000,0.270000,192.000000,0.000000,0.000000,0.000000,0.000000,0.000000,0.000000,0.000000,0.000000,0.000000,1647252736.150594,0.000000
101.000000,16750.151426,9231.471626,28232.846049,6282.650683,12132.035152,33743.936866,6588.176678,8395.069348,-0.038000,0.946000,0.270000,192.000000,0.000000,0.000000,0.000000,0.000000,0.000000,0.000000,0.000000,0.000000,0.000000,1647252736.158624,0.000000
102.000000,16753.705353,9239.607661,28230.499116,6283.142422,12131.275193,33741.299360,6590.143632,8393.594133,-0.038000,0.946000,0.270000,192.000000,0.000000,0.000000,0.000000,0.000000,0.000000,0.000000,0.000000,0.000000,0.000000,1647252736.166616,0.000000
103.000000,16755.985231,9240.255861,28227.280465,6284.908209,12133.063332,33741.634636,6589.383672,8399.919677,-0.038000,0.946000,0.270000,192.000000,0.000000,0.000000,0.000000,0.000000,0.000000,0.000000,0.000000,0.000000,0.000000,1647252736.166634,0.000000
104.000000,16751.492530,9230.130521,28220.373776,6272.838267,12126.938954,33737.052529,6585.673283,8394.041168,-0.038000,0.946000,0.270000,192.000000,0.000000,0.000000,0.000000,0.000000,0.000000,0.000000,0.000000,0.000000,0.000000,1647252736.173294,0.000000
105.000000,16758.846254,9232.231585,28228.062776,6272.234770,12121.395722,33729.430584,6595.597457,8403.942991,-0.038000,0.946000,0.270000,192.000000,0.000000,0.000000,0.000000,0.000000,0.000000,0.000000,0.000000,0.000000,0.000000,1647252736.173311,0.000000
106.000000,16761.148484,9237.573652,28231.437890,6278.761480,12128.481225,33735.398499,6604.538155,8413.844814,-0.038000,0.946000,0.270000,192.000000,0.000000,0.000000,0.000000,0.000000,0.000000,0.000000,0.000000,0.000000,0.000000,1647252736.181269,0.000000
107.000000,16765.685888,9245.799094,28233.583657,6282.158945,12131.386951,33734.079746,6605.678094,8418.650439,-0.038000,0.946000,0.270000,192.000000,0.000000,0.000000,0.000000,0.000000,0.000000,0.000000,0.000000,0.000000,0.000000,1647252736.181304,0.000000
108.000000,16760.656746,9239.071219,28236.847012,6286.673997,12142.562824,33740.092366,6605.409873,8415.811767,-0.048000,0.948000,0.264000,192.000000,254.000000,128.000000,29.000000,160.000000,8.000000,64.000000,0.000000,0.000000,0.000000,1647252736.189190,0.000000
109.000000,16751.939565,9225.794283,28229.023901,6274.335834,12138.651268,33734.504430,6595.530402,8402.624238,-0.048000,0.948000,0.264000,192.000000,0.000000,0.000000,0.000000,0.000000,0.000000,0.000000,0.000000,0.000000,0.000000,1647252736.189207,0.000000
110.000000,16753.504187,9231.002239,28222.743061,6269.887837,12129.576460,33732.336310,6594.077539,8396.276342,-0.048000,0.948000,0.264000,192.000000,0.000000,0.000000,0.000000,0.000000,0.000000,0.000000,0.000000,0.000000,0.000000,1647252736.196166,0.000000
111.000000,16759.583862,9234.176187,28225.514677,6269.574913,12121.820405,33732.246903,6602.526498,8402.490127,-0.048000,0.948000,0.264000,192.000000,0.000000,0.000000,0.000000,0.000000,0.000000,0.000000,0.000000,0.000000,0.000000,1647252736.196177,0.000000
112.000000,16756.968708,9231.896309,28220.932570,6268.122049,12111.829175,33724.714366,6600.112510,8405.261744,-0.048000,0.948000,0.264000,192.000000,0.000000,0.000000,0.000000,0.000000,0.000000,0.000000,0.000000,0.000000,0.000000,1647252736.203866,0.000000
113.000000,16764.702411,9238.467722,28228.934494,6276.459250,12117.283001,33725.451973,6603.331161,8413.218965,-0.048000,0.948000,0.264000,192.000000,0.000000,0.000000,0.000000,0.000000,0.000000,0.000000,0.000000,0.000000,0.000000,1647252736.203883,0.000000
114.000000,16768.993946,9245.016783,28239.059834,6283.678863,12121.395722,33724.244979,6599.151385,8408.949782,-0.048000,0.948000,0.264000,192.000000,0.000000,0.000000,0.000000,0.000000,0.000000,0.000000,0.000000,0.000000,0.000000,1647252736.211667,0.000000
115.000000,16767.965766,9242.736905,28238.322227,6286.964570,12122.870937,33724.803773,6595.284533,8400.009084,-0.048000,0.948000,0.264000,192.000000,0.000000,0.000000,0.000000,0.000000,0.000000,0.000000,0.000000,0.000000,0.000000,1647252736.211678,0.000000
116.000000,16760.299118,9234.690277,28225.291160,6278.560314,12119.585230,33724.848476,6585.405062,8394.667017,-0.048000,0.948000,0.264000,192.000000,0.000000,0.000000,0.000000,0.000000,0.000000,0.000000,0.000000,0.000000,0.000000,1647252736.218938,0.000000
117.000000,16764.054211,9237.931280,28232.331959,6284.729395,12127.408341,33726.167229,6589.383672,8406.625200,-0.048000,0.948000,0.264000,192.000000,0.000000,0.000000,0.000000,0.000000,0.000000,0.000000,0.000000,0.000000,0.000000,1647252736.225828,0.000000
118.000000,16766.982289,9237.819521,28241.451471,6292.150175,12149.581271,33746.350854,6595.038664,8407.742787,-0.050000,0.944000,0.266000,192.000000,254.000000,112.000000,29.000000,128.000000,8.000000,80.000000,0.000000,0.000000,0.000000,1647252736.225840,0.000000
119.000000,16765.663536,9237.774818,28236.690549,6292.373692,12154.945690,33756.409139,6595.128071,8400.925505,-0.050000,0.944000,0.266000,192.000000,0.000000,0.000000,0.000000,0.000000,0.000000,0.000000,0.000000,0.000000,0.000000,1647252736.233489,0.000000
120.000000,16766.915234,9241.418152,28228.487459,6286.808108,12142.406361,33750.485927,6593.809318,8395.292866,-0.050000,0.944000,0.266000,192.000000,0.000000,0.000000,0.000000,0.000000,0.000000,0.000000,0.000000,0.000000,0.000000,1647252736.233505,0.000000
121.000000,16768.681022,9247.430771,28229.895619,6282.091890,12134.784417,33735.957293,6594.613981,8392.476546,-0.050000,0.944000,0.266000,192.000000,0.000000,0.000000,0.000000,0.000000,0.000000,0.000000,0.000000,0.000000,0.000000,1647252736.241553,0.000000
122.000000,16767.630490,9240.859358,28234.455375,6288.149212,12146.809655,33745.948523,6595.128071,8393.214153,-0.050000,0.944000,0.266000,192.000000,0.000000,0.000000,0.000000,0.000000,0.000000,0.000000,0.000000,0.000000,0.000000,1647252736.241569,0.000000
123.000000,16760.790856,9232.455102,28222.787764,6281.175468,12145.066219,33747.177869,6586.410890,8385.838078,-0.050000,0.944000,0.266000,192.000000,0.000000,0.000000,0.000000,0.000000,0.000000,0.000000,0.000000,0.000000,0.000000,1647252736.249561,0.000000
124.000000,16755.717010,9228.208271,28221.156087,6280.415509,12148.083704,33755.850346,6581.672321,8391.783642,-0.050000,0.944000,0.266000,192.000000,0.000000,0.000000,0.000000,0.000000,0.000000,0.000000,0.000000,0.000000,0.000000,1647252736.249577,0.000000
125.000000,16751.716048,9220.787492,28217.579808,6275.453422,12146.541434,33761.326523,6581.940541,8388.408528,-0.050000,0.944000,0.266000,192.000000,0.000000,0.000000,0.000000,0.000000,0.000000,0.000000,0.000000,0.000000,0.000000,1647252736.256133,0.000000
126.000000,16756.745190,9232.477454,28225.179401,6276.615712,12141.914623,33752.162308,6588.355492,8388.788508,-0.050000,0.944000,0.266000,192.000000,0.000000,0.000000,0.000000,0.000000,0.000000,0.000000,0.000000,0.000000,0.000000,1647252736.256149,0.000000
127.000000,16767.854007,9238.333611,28227.302817,6279.588494,12142.831045,33744.741529,6594.278704,8398.064482,-0.050000,0.944000,0.266000,192.000000,0.000000,0.000000,0.000000,0.000000,0.000000,0.000000,0.000000,0.000000,0.000000,1647252736.264146,0.000000
128.000000,16771.206769,9241.708725,28237.562267,6281.734262,12155.459780,33744.339197,6596.133899,8403.942991,-0.052000,0.944000,0.262000,192.000000,254.000000,96.000000,29.000000,128.000000,8.000000,48.000000,0.000000,0.000000,0.000000,1647252736.264162,0.000000
129.000000,16769.642147,9241.306393,28238.992779,6286.629294,12165.540417,33751.983494,6597.653818,8399.986732,-0.052000,0.944000,0.262000,192.000000,0.000000,0.000000,0.000000,0.000000,0.000000,0.000000,0.000000,0.000000,0.000000,1647252736.271953,0.000000
130.000000,16762.154312,9234.958498,28231.303779,6285.399948,12155.124504,33753.302247,6595.128071,8396.388101,-0.052000,0.944000,0.262000,192.000000,0.000000,0.000000,0.000000,0.000000,0.000000,0.000000,0.000000,0.000000,0.000000,1647252736.271971,0.000000
131.000000,16768.301042,9235.047905,28232.220201,6277.375672,12141.802864,33742.059319,6598.614943,8406.625200,-0.052000,0.944000,0.262000,192.000000,0.000000,0.000000,0.000000,0.000000,0.000000,0.000000,0.000000,0.000000,0.000000,1647252736.279359,0.000000
132.000000,16781.890903,9248.503655,28240.758567,6288.350378,12143.389838,33738.080709,6598.793757,8408.458043,-0.052000,0.944000,0.262000,192.000000,0.000000,0.000000,0.000000,0.000000,0.000000,0.000000,0.000000,0.000000,0.000000,1647252736.285807,0.000000
133.000000,16773.732516,9244.301527,28242.412596,6301.962590,12162.120600,33755.671532,6588.958989,8396.902191,-0.052000,0.944000,0.262000,192.000000,0.000000,0.000000,0.000000,0.000000,0.000000,0.000000,0.000000,0.000000,0.000000,1647252736.285824,0.000000
134.000000,16769.485685,9239.495902,28240.602105,6301.001465,12164.020498,33752.877564,6594.904553,8400.657284,-0.052000,0.944000,0.262000,192.000000,0.000000,0.000000,0.000000,0.000000,0.000000,0.000000,0.000000,0.000000,0.000000,1647252736.293842,0.000000
135.000000,16768.390449,9242.558091,28232.443718,6296.441710,12151.950556,33740.449994,6601.610077,8410.223831,-0.052000,0.944000,0.262000,192.000000,0.000000,0.000000,0.000000,0.000000,0.000000,0.000000,0.000000,0.000000,0.000000,1647252736.293859,0.000000
136.000000,16768.792780,9236.903100,28220.150259,6293.759500,12155.906815,33750.173003,6594.435167,8402.311313,-0.052000,0.944000,0.262000,192.000000,0.000000,0.000000,0.000000,0.000000,0.000000,0.000000,0.000000,0.000000,0.000000,1647252736.301865,0.000000
137.000000,16766.267033,9234.802036,28229.448584,6292.865430,12162.969966,33765.193375,6587.819050,8391.269552,-0.052000,0.944000,0.262000,192.000000,0.000000,0.000000,0.000000,0.000000,0.000000,0.000000,0.000000,0.000000,0.000000,1647252736.301882,0.000000
138.000000,16768.144580,9240.948765,28238.836317,6286.562239,12159.192521,33754.106910,6588.601361,8391.448366,-0.044000,0.950000,0.260000,192.000000,254.000000,160.000000,29.000000,176.000000,8.000000,32.000000,0.000000,0.000000,0.000000,1647252736.308369,0.000000
139.000000,16768.524560,9242.021649,28237.763433,6283.365939,12153.962213,33740.606456,6594.256353,8391.426014,-0.044000,0.950000,0.260000,192.000000,0.000000,0.000000,0.000000,0.000000,0.000000,0.000000,0.000000,0.000000,0.000000,1647252736.308381,0.000000
140.000000,16777.465257,9247.564882,28238.769262,6285.377596,12147.368449,33731.241075,6597.698521,8397.952723,-0.044000,0.950000,0.260000,192.000000,0.000000,0.000000,0.000000,0.000000,0.000000,0.000000,0.000000,0.000000,0.000000,1647252736.316457,0.000000
141.000000,16778.381679,9245.530873,28231.035558,6281.756613,12147.256690,33729.430584,6600.157213,8405.865241,-0.044000,0.950000,0.260000,192.000000,0.000000,0.000000,0.000000,0.000000,0.000000,0.000000,0.000000,0.000000,0.000000,1647252736.316473,0.000000
142.000000,16784.506057,9246.827274,28239.350407,6283.812974,12154.833931,33730.548171,6607.801510,8410.022665,-0.044000,0.950000,0.260000,192.000000,0.000000,0.000000,0.000000,0.000000,0.000000,0.000000,0.000000,0.000000,0.000000,1647252736.324190,0.000000
143.000000,16769.999775,9228.834120,28232.399015,6282.762442,12161.897083,33744.473308,6595.776271,8391.470717,-0.044000,0.950000,0.260000,192.000000,0.000000,0.000000,0.000000,0.000000,0.000000,0.000000,0.000000,0.000000,0.000000,1647252736.324202,0.000000
144.000000,16767.608138,9228.096512,28222.184267,6273.709985,12150.318879,33741.008787,6598.950219,8401.461947,-0.044000,0.950000,0.260000,192.000000,0.000000,0.000000,0.000000,0.000000,0.000000,0.000000,0.000000,0.000000,0.000000,1647252736.331506,0.000000
145.000000,16773.285481,9230.219928,28228.286294,6272.726509,12139.858263,33735.532610,6605.923963,8416.795244,-0.044000,0.950000,0.260000,192.000000,0.000000,0.000000,0.000000,0.000000,0.000000,0.000000,0.000000,0.000000,0.000000,1647252736.331523,0.000000
146.000000,16773.285481,9234.377353,28227.638093,6275.833401,12139.746504,33735.353796,6602.280629,8409.843851,-0.044000,0.950000,0.260000,192.000000,0.000000,0.000000,0.000000,0.000000,0.000000,0.000000,0.000000,0.000000,0.000000,1647252736.337865,0.000000
147.000000,16776.727650,9230.488149,28226.855782,6271.854791,12140.662925,33736.046700,6597.854984,8403.160680,-0.044000,0.950000,0.260000,192.000000,0.000000,0.000000,0.000000,0.000000,0.000000,0.000000,0.000000,0.000000,0.000000,1647252736.346095,0.000000
148.000000,16783.611987,9237.528948,28231.348483,6275.676939,12136.349039,33727.977720,6602.347684,8405.574668,-0.038000,0.946000,0.268000,192.000000,254.000000,208.000000,29.000000,144.000000,8.000000,96.000000,0.000000,0.000000,0.000000,1647252736.346112,0.000000
149.000000,16783.611987,9239.160626,28226.319340,6283.254180,12137.176053,33730.302302,6602.682960,8408.435691,-0.038000,0.946000,0.268000,192.000000,0.000000,0.000000,0.000000,0.000000,0.000000,0.000000,0.000000,0.000000,0.000000,1647252736.354060,0.000000
150.000000,16789.088164,9240.837007,28238.612799,6282.315407,12137.086646,33734.906761,6608.852042,8416.728189,-0.038000,0.946000,0.268000,192.000000,0.000000,0.000000,0.000000,0.000000,0.000000,0.000000,0.000000,0.000000,0.000000,1647252736.354095,0.000000
151.000000,16782.516752,9237.171321,28238.322227,6286.182259,12135.834949,33737.946598,6601.230097,8408.122767,-0.038000,0.946000,0.268000,192.000000,0.000000,0.000000,0.000000,0.000000,0.000000,0.000000,0.000000,0.000000,0.000000,1647252736.361184,0.000000
152.000000,16774.425420,9233.930318,28228.152183,6287.188087,12128.458873,33739.175944,6596.536231,8397.125709,-0.038000,0.946000,0.268000,192.000000,0.000000,0.000000,0.000000,0.000000,0.000000,0.000000,0.000000,0.000000,0.000000,1647252736.361201,0.000000
153.000000,16770.446810,9229.683486,28224.978235,6280.884895,12122.937992,33736.449031,6598.816109,8386.776851,-0.038000,0.946000,0.268000,192.000000,0.000000,0.000000,0.000000,0.000000,0.000000,0.000000,0.000000,0.000000,0.000000,1647252736.368675,0.000000
154.000000,16771.139714,9229.437617,28232.711939,6281.130765,12126.871899,33743.623941,6603.107643,8399.092662,-0.038000,0.946000,0.268000,192.000000,0.000000,0.000000,0.000000,0.000000,0.000000,0.000000,0.000000,0.000000,0.000000,1647252736.368692,0.000000
155.000000,16765.551778,9226.308373,28223.279503,6270.625445,12120.255783,33744.138031,6595.619809,8401.529002,-0.038000,0.946000,0.268000,192.000000,0.000000,0.000000,0.000000,0.000000,0.000000,0.000000,0.000000,0.000000,0.000000,1647252736.376726,0.000000
156.000000,16772.726688,9236.858396,28232.846049,6277.733299,12122.043922,33743.221610,6607.577992,8405.395854,-0.038000,0.946000,0.268000,192.000000,0.000000,0.000000,0.000000,0.000000,0.000000,0.000000,0.000000,0.000000,0.000000,1647252736.376743,0.000000
157.000000,16774.246606,9238.221853,28231.482593,6279.588494,12122.647419,33744.830936,6609.410835,8404.278267,-0.038000,0.946000,0.268000,192.000000,0.000000,0.000000,0.000000,0.000000,0.000000,0.000000,0.000000,0.000000,0.000000,1647252736.384717,0.000000
158.000000,16781.153295,9239.451199,28234.678892,6278.984997,12126.290754,33745.188563,6601.833594,8400.970209,-0.038000,0.946000,0.268000,192.000000,0.000000,0.000000,0.000000,0.000000,0.000000,0.000000,0.000000,0.000000,0.000000,1647252736.384733,0.000000
159.000000,16783.321414,9234.511463,28228.956846,6274.447593,12127.855376,33743.221610,6596.022141,8393.996464,-0.040000,0.946000,0.256000,192.000000,254.000000,192.000000,29.000000,144.000000,8.000000,0.000000,0.000000,0.000000,0.000000,1647252736.391346,0.000000
160.000000,16780.840371,9236.120789,28223.100689,6270.021948,12123.206213,33738.036005,6591.216515,8393.504726,-0.040000,0.946000,0.256000,192.000000,0.000000,0.000000,0.000000,0.000000,0.000000,0.000000,0.000000,0.000000,0.000000,1647252736.391364,0.000000
161.000000,16788.082336,9241.239338,28229.649750,6268.546732,12115.628972,33728.692976,6594.725739,8394.577610,-0.040000,0.946000,0.256000,192.000000,0.000000,0.000000,0.000000,0.000000,0.000000,0.000000,0.000000,0.000000,0.000000,1647252736.398081,0.000000
162.000000,16785.735403,9237.618355,28237.763433,6274.380538,12128.011838,33738.751261,6591.283571,8391.783642,-0.040000,0.946000,0.256000,192.000000,0.000000,0.000000,0.000000,0.000000,0.000000,0.000000,0.000000,0.000000,0.000000,1647252736.398092,0.000000
163.000000,16785.958920,9242.513388,28239.685683,6279.946122,12129.822329,33736.359624,6587.707292,8390.151964,-0.040000,0.946000,0.256000,192.000000,0.000000,0.000000,0.000000,0.000000,0.000000,0.000000,0.000000,0.000000,0.000000,1647252736.406225,0.000000
164.000000,16778.962824,9238.445370,28233.673064,6277.733299,12129.442350,33738.751261,6583.013425,8387.425052,-0.040000,0.946000,0.256000,192.000000,0.000000,0.000000,0.000000,0.000000,0.000000,0.000000,0.000000,0.000000,0.000000,1647252736.414387,0.000000
165.000000,16779.096935,9238.400667,28230.744985,6274.380538,12125.217870,33743.623941,6578.006634,8390.576648,-0.040000,0.946000,0.256000,192.000000,0.000000,0.000000,0.000000,0.000000,0.000000,0.000000,0.000000,0.000000,0.000000,1647252736.414404,0.000000
166.000000,16782.203827,9245.821446,28231.706110,6273.888799,12121.507480,33742.104023,6576.978454,8388.632046,-0.040000,0.946000,0.256000,192.000000,0.000000,0.000000,0.000000,0.000000,0.000000,0.000000,0.000000,0.000000,0.000000,1647252736.420948,0.000000
167.000000,16780.773316,9242.580443,28233.270733,6277.576837,12125.731960,33732.202200,6579.191277,8383.155868,-0.040000,0.946000,0.256000,192.000000,0.000000,0.000000,0.000000,0.000000,0.000000,0.000000,0.000000,0.000000,0.000000,1647252736.420966,0.000000
168.000000,16768.256339,9228.677658,28222.944227,6266.780945,12126.469568,33733.409194,6577.179620,8380.943046,-0.040000,0.946000,0.256000,192.000000,0.000000,0.000000,0.000000,0.000000,0.000000,0.000000,0.000000,0.000000,0.000000,1647252736.428976,0.000000
169.000000,16769.888016,9232.566861,28231.057910,6261.438878,12125.463739,33738.460688,6580.755899,8385.569857,-0.040000,0.952000,0.256000,192.000000,254.000000,192.000000,29.000000,192.000000,8.000000,0.000000,0.000000,0.000000,0.000000,1647252736.428993,0.000000
170.000000,16777.420554,9238.333611,28229.672102,6266.669186,12113.058521,33725.049642,6580.800603,8384.944008,-0.040000,0.952000,0.256000,192.000000,0.000000,0.000000,0.000000,0.000000,0.000000,0.000000,0.000000,0.000000,0.000000,1647252736.436981,0.000000
171.000000,16774.403068,9231.158701,28223.950055,6267.272683,12107.582344,33723.172095,6577.850172,8381.591246,-0.040000,0.952000,0.256000,192.000000,0.000000,0.000000,0.000000,0.000000,0.000000,0.000000,0.000000,0.000000,0.000000,1647252736.437016,0.000000
172.000000,16773.196074,9228.118864,28227.727500,6269.127878,12119.965210,33736.292569,6585.002730,8376.204476,-0.040000,0.952000,0.256000,192.000000,0.000000,0.000000,0.000000,0.000000,0.000000,0.000000,0.000000,0.000000,0.000000,1647252736.444194,0.000000
173.000000,16775.028917,9235.360829,28228.688625,6274.425241,12127.698914,33743.221610,6586.545001,8371.398851,-0.040000,0.952000,0.256000,192.000000,0.000000,0.000000,0.000000,0.000000,0.000000,0.000000,0.000000,0.000000,0.000000,1647252736.444210,0.000000
174.000000,16770.200940,9229.817597,28229.739157,6268.680843,12130.470530,33737.343101,6580.532382,8376.338586,-0.040000,0.952000,0.256000,192.000000,0.000000,0.000000,0.000000,0.000000,0.000000,0.000000,0.000000,0.000000,0.000000,1647252736.451634,0.000000
175.000000,16771.653804,9230.957536,28220.820811,6260.410698,12117.193594,33722.389784,6577.984283,8367.800220,-0.040000,0.952000,0.256000,192.000000,0.000000,0.000000,0.000000,0.000000,0.000000,0.000000,0.000000,0.000000,0.000000,1647252736.451650,0.000000
176.000000,16770.022126,9230.063466,28220.977273,6261.684747,12114.243163,33718.724098,6579.526553,8365.810915,-0.040000,0.952000,0.256000,192.000000,0.000000,0.000000,0.000000,0.000000,0.000000,0.000000,0.000000,0.000000,0.000000,1647252736.459597,0.000000
177.000000,16776.235911,9235.763161,28228.152183,6264.813991,12117.640629,33715.058412,6577.291379,8370.348319,-0.040000,0.952000,0.256000,192.000000,0.000000,0.000000,0.000000,0.000000,0.000000,0.000000,0.000000,0.000000,0.000000,1647252736.459613,0.000000
178.000000,16771.810266,9235.137312,28223.704186,6266.490372,12120.568707,33721.853342,6578.140745,8373.768136,-0.040000,0.952000,0.256000,192.000000,0.000000,0.000000,0.000000,0.000000,0.000000,0.000000,0.000000,0.000000,0.000000,1647252736.466843,0.000000
179.000000,16765.663536,9229.258803,28215.858724,6260.813029,12124.569669,33725.004938,6593.317579,8387.067424,-0.040000,0.946000,0.256000,192.000000,254.000000,192.000000,29.000000,144.000000,8.000000,0.000000,0.000000,0.000000,0.000000,1647252736.473241,0.000000
180.000000,16769.329222,9227.560070,28222.296026,6258.689613,12130.492882,33733.610360,6598.257315,8386.642741,-0.040000,0.946000,0.256000,192.000000,0.000000,0.000000,0.000000,0.000000,0.000000,0.000000,0.000000,0.000000,0.000000,1647252736.473258,0.000000
181.000000,16776.571188,9238.512425,28226.386395,6256.566197,12121.753350,33723.082688,6600.917173,8384.318159,-0.040000,0.946000,0.256000,192.000000,0.000000,0.000000,0.000000,0.000000,0.000000,0.000000,0.000000,0.000000,0.000000,1647252736.481370,0.000000
182.000000,16776.079449,9238.735943,28223.748889,6259.360166,12121.485129,33715.103115,6594.122242,8373.075232,-0.040000,0.946000,0.256000,192.000000,0.000000,0.000000,0.000000,0.000000,0.000000,0.000000,0.000000,0.000000,0.000000,1647252736.481387,0.000000
183.000000,16779.834542,9240.009992,28227.079299,6267.272683,12130.761103,33721.249845,6599.553716,8394.734072,-0.040000,0.946000,0.256000,192.000000,0.000000,0.000000,0.000000,0.000000,0.000000,0.000000,0.000000,0.000000,0.000000,1647252736.489105,0.000000
184.000000,16770.536217,9239.473550,28221.916046,6271.765384,12131.610469,33725.921360,6595.083367,8405.351151,-0.040000,0.946000,0.256000,192.000000,0.000000,0.000000,0.000000,0.000000,0.000000,0.000000,0.000000,0.000000,0.000000,1647252736.489123,0.000000
185.000000,16767.563435,9237.216024,28223.458317,6269.418451,12126.871899,33726.770726,6587.282608,8400.880802,-0.040000,0.946000,0.256000,192.000000,0.000000,0.000000,0.000000,0.000000,0.000000,0.000000,0.000000,0.000000,0.000000,1647252736.496445,0.000000
186.000000,16767.339917,9236.880748,28222.184267,6268.032642,12125.955477,33731.106964,6590.478908,8399.986732,-0.040000,0.946000,0.256000,192.000000,0.000000,0.000000,0.000000,0.000000,0.000000,0.000000,0.000000,0.000000,0.000000,1647252736.496462,0.000000
187.000000,16763.897748,9232.142178,28217.490401,6266.244503,12133.555071,33743.668645,6589.718949,8387.626217,-0.040000,0.946000,0.256000,192.000000,0.000000,0.000000,0.000000,0.000000,0.000000,0.000000,0.000000,0.000000,0.000000,1647252736.503929,0.000000
188.000000,16758.913309,9224.430826,28211.321319,6263.025852,12129.308239,33742.461651,6589.830707,8383.312331,-0.040000,0.946000,0.256000,192.000000,0.000000,0.000000,0.000000,0.000000,0.000000,0.000000,0.000000,0.000000,0.000000,1647252736.503947,0.000000
189.000000,16762.847216,9228.029457,28212.863590,6261.841209,12125.173166,33741.366415,6590.277742,8387.223886,-0.038000,0.946000,0.254000,192.000000,254.000000,208.000000,29.000000,144.000000,7.000000,240.000000,0.000000,0.000000,0.000000,1647252736.511581,0.000000
190.000000,16777.956996,9245.195597,28221.826639,6262.601168,12108.968152,33724.088517,6599.017274,8392.767119,-0.038000,0.946000,0.254000,192.000000,0.000000,0.000000,0.000000,0.000000,0.000000,0.000000,0.000000,0.000000,0.000000,1647252736.511592,0.000000
191.000000,16771.206769,9238.713591,28225.045291,6264.679881,12106.509460,33726.949540,6594.122242,8382.775889,-0.038000,0.946000,0.254000,192.000000,0.000000,0.000000,0.000000,0.000000,0.000000,0.000000,0.000000,0.000000,0.000000,1647252736.519908,0.000000
192.000000,16768.636318,9237.819521,28220.820811,6261.505933,12107.582344,33726.904837,6588.824879,8375.198647,-0.038000,0.946000,0.254000,192.000000,0.000000,0.000000,0.000000,0.000000,0.000000,0.000000,0.000000,0.000000,0.000000,1647252736.519925,0.000000
193.000000,16778.024051,9244.189768,28225.760546,6264.523418,12107.247067,33720.467534,6589.048396,8388.430880,-0.038000,0.946000,0.254000,192.000000,0.000000,0.000000,0.000000,0.000000,0.000000,0.000000,0.000000,0.000000,0.000000,1647252736.525985,0.000000
194.000000,16771.385583,9236.143140,28218.451526,6270.781907,12108.476413,33731.732813,6590.590667,8394.219982,-0.038000,0.946000,0.254000,192.000000,0.000000,0.000000,0.000000,0.000000,0.000000,0.000000,0.000000,0.000000,0.000000,1647252736.533406,0.000000
195.000000,16777.509961,9241.999297,28223.972407,6269.977244,12102.150870,33724.021461,6590.836536,8390.308427,-0.038000,0.946000,0.254000,192.000000,0.000000,0.000000,0.000000,0.000000,0.000000,0.000000,0.000000,0.000000,0.000000,1647252736.533424,0.000000
196.000000,16771.609100,9235.092608,28217.132773,6263.763459,12096.451175,33728.178886,6583.885143,8379.333720,-0.038000,0.946000,0.254000,192.000000,0.000000,0.000000,0.000000,0.000000,0.000000,0.000000,0.000000,0.000000,0.000000,1647252736.541614,0.000000
197.000000,16775.565359,9237.730114,28218.809154,6267.607959,12106.308294,33739.935904,6576.844344,8379.758403,-0.038000,0.946000,0.254000,192.000000,0.000000,0.000000,0.000000,0.000000,0.000000,0.000000,0.000000,0.000000,0.000000,1647252736.541631,0.000000
198.000000,16782.829676,9244.525045,28227.593389,6271.720680,12108.319951,33739.935904,6588.243733,8393.840002,-0.038000,0.946000,0.254000,192.000000,0.000000,0.000000,0.000000,0.000000,0.000000,0.000000,0.000000,0.000000,0.000000,1647252736.549529,0.000000
199.000000,16777.062926,9241.395800,28221.401956,6277.196858,12104.810727,33747.446090,6597.452652,8395.046996,-0.032000,0.950000,0.252000,192.000000,255.000000,0.000000,29.000000,176.000000,7.000000,224.000000,0.000000,0.000000,0.000000,1647252736.549546,0.000000
200.000000,16773.732516,9238.400667,28216.350462,6269.887837,12100.139213,33746.574372,6591.037701,8381.032453,-0.032000,0.950000,0.252000,192.000000,0.000000,0.000000,0.000000,0.000000,0.000000,0.000000,0.000000,0.000000,0.000000,1647252736.556115,0.000000
201.000000,16776.548836,9241.239338,28226.878134,6269.172581,12104.520155,33746.127337,6590.814184,8383.647607,-0.032000,0.950000,0.252000,192.000000,0.000000,0.000000,0.000000,0.000000,0.000000,0.000000,0.000000,0.000000,0.000000,1647252736.556132,0.000000
202.000000,16784.617816,9247.609585,28233.740119,6273.844096,12111.918582,33737.119584,6596.692693,8392.878877,-0.032000,0.950000,0.252000,192.000000,0.000000,0.000000,0.000000,0.000000,0.000000,0.000000,0.000000,0.000000,0.000000,1647252736.564243,0.000000
203.000000,16787.210618,9253.443391,28232.533125,6281.376634,12120.501652,33737.946598,6594.569277,8396.075177,-0.032000,0.950000,0.252000,192.000000,0.000000,0.000000,0.000000,0.000000,0.000000,0.000000,0.000000,0.000000,0.000000,1647252736.564260,0.000000
204.000000,16788.104688,9251.968175,28229.582695,6281.197820,12119.853451,33738.371281,6599.129033,8397.081005,-0.032000,0.950000,0.252000,192.000000,0.000000,0.000000,0.000000,0.000000,0.000000,0.000000,0.000000,0.000000,0.000000,1647252736.572163,0.000000
205.000000,16780.706260,9245.150893,28226.095823,6270.468983,12113.371445,33734.057395,6596.402120,8391.090738,-0.032000,0.950000,0.252000,192.000000,0.000000,0.000000,0.000000,0.000000,0.000000,0.000000,0.000000,0.000000,0.000000,1647252736.572180,0.000000
206.000000,16783.053193,9243.765085,28227.772203,6267.943235,12109.750463,33729.542342,6591.752957,8393.951761,-0.032000,0.950000,0.252000,192.000000,0.000000,0.000000,0.000000,0.000000,0.000000,0.000000,0.000000,0.000000,0.000000,1647252736.579244,0.000000
207.000000,16793.290292,9253.935129,28235.975294,6276.347491,12117.730036,33728.804735,6599.821937,8394.577610,-0.032000,0.950000,0.252000,192.000000,0.000000,0.000000,0.000000,0.000000,0.000000,0.000000,0.000000,0.000000,0.000000,1647252736.579260,0.000000
208.000000,16794.206714,9254.270405,28241.518526,6282.762442,12130.649344,33742.439299,6597.318542,8395.672845,-0.032000,0.950000,0.252000,192.000000,0.000000,0.000000,0.000000,0.000000,0.000000,0.000000,0.000000,0.000000,0.000000,1647252736.585504,0.000000
209.000000,16794.050252,9252.415210,28244.133680,6282.650683,12127.363637,33746.194392,6598.793757,8398.623276,-0.044000,0.944000,0.256000,192.000000,254.000000,160.000000,29.000000,128.000000,8.000000,0.000000,0.000000,0.000000,0.000000,1647252736.593840,0.000000
210.000000,16783.388470,9242.021649,28231.013206,6272.972378,12115.360751,33742.439299,6584.175716,8371.644720,-0.044000,0.944000,0.256000,192.000000,0.000000,0.000000,0.000000,0.000000,0.000000,0.000000,0.000000,0.000000,0.000000,1647252736.593850,0.000000
211.000000,16785.400127,9245.977908,28229.940323,6263.383480,12106.755329,33736.337273,6589.026044,8373.857543,-0.044000,0.944000,0.256000,192.000000,0.000000,0.000000,0.000000,0.000000,0.000000,0.000000,0.000000,0.000000,0.000000,1647252736.601856,0.000000
212.000000,16787.121211,9242.692201,28237.472861,6271.474811,12112.611486,33736.516087,6591.931771,8384.072290,-0.044000,0.944000,0.256000,192.000000,0.000000,0.000000,0.000000,0.000000,0.000000,0.000000,0.000000,0.000000,0.000000,1647252736.601873,0.000000
213.000000,16781.734441,9245.173245,28228.733328,6271.631273,12111.404492,33736.985473,6587.237905,8381.323025,-0.044000,0.944000,0.256000,192.000000,0.000000,0.000000,0.000000,0.000000,0.000000,0.000000,0.000000,0.000000,0.000000,1647252736.608416,0.000000
214.000000,16782.717917,9250.023574,28228.822735,6279.677901,12116.590097,33745.345026,6595.105719,8392.342435,-0.044000,0.944000,0.256000,192.000000,0.000000,0.000000,0.000000,0.000000,0.000000,0.000000,0.000000,0.000000,0.000000,1647252736.608450,0.000000
215.000000,16783.634339,9250.984699,28225.671139,6273.911151,12109.191669,33743.758052,6596.647989,8386.061595,-0.044000,0.944000,0.256000,192.000000,0.000000,0.000000,0.000000,0.000000,0.000000,0.000000,0.000000,0.000000,0.000000,1647252736.616458,0.000000
216.000000,16789.311682,9250.917643,28230.409709,6263.696404,12100.206268,33727.888313,6609.097911,8394.152927,-0.044000,0.944000,0.256000,192.000000,0.000000,0.000000,0.000000,0.000000,0.000000,0.000000,0.000000,0.000000,0.000000,1647252736.616474,0.000000
217.000000,16788.641130,9251.074106,28235.550610,6277.867410,12118.355884,33735.890238,6617.479815,8413.196613,-0.044000,0.944000,0.256000,192.000000,0.000000,0.000000,0.000000,0.000000,0.000000,0.000000,0.000000,0.000000,0.000000,1647252736.624162,0.000000
218.000000,16788.127039,9253.801018,28239.819794,6275.542829,12126.022533,33746.753186,6610.595478,8402.758348,-0.044000,0.944000,0.256000,192.000000,0.000000,0.000000,0.000000,0.000000,0.000000,0.000000,0.000000,0.000000,0.000000,1647252736.624173,0.000000
219.000000,16789.982234,9255.544455,28238.478689,6274.939331,12123.854413,33747.803718,6609.299077,8395.225810,-0.044000,0.946000,0.254000,192.000000,254.000000,160.000000,29.000000,144.000000,7.000000,240.000000,0.000000,0.000000,0.000000,1647252736.631690,0.000000
220.000000,16783.232007,9253.599853,28228.688625,6273.374709,12113.371445,33746.976703,6611.266030,8407.340456,-0.044000,0.946000,0.254000,192.000000,0.000000,0.000000,0.000000,0.000000,0.000000,0.000000,0.000000,0.000000,0.000000,1647252736.631707,0.000000
221.000000,16781.689737,9250.783533,28223.078337,6270.558389,12105.414224,33743.378072,6608.472062,8408.078063,-0.044000,0.946000,0.254000,192.000000,0.000000,0.000000,0.000000,0.000000,0.000000,0.000000,0.000000,0.000000,0.000000,1647252736.638814,0.000000
222.000000,16787.970577,9250.939995,28232.868401,6275.878105,12112.320913,33739.868848,6614.082350,8412.838985,-0.044000,0.946000,0.254000,192.000000,0.000000,0.000000,0.000000,0.000000,0.000000,0.000000,0.000000,0.000000,0.000000,1647252736.638830,0.000000
223.000000,16790.608083,9259.791286,28240.669160,6281.957779,12118.601754,33739.600627,6617.636277,8408.994485,-0.044000,0.946000,0.254000,192.000000,0.000000,0.000000,0.000000,0.000000,0.000000,0.000000,0.000000,0.000000,0.000000,1647252736.645950,0.000000
224.000000,16780.862722,9243.318050,28235.461204,6274.157020,12121.708646,33749.077767,6608.762635,8396.030473,-0.044000,0.946000,0.254000,192.000000,0.000000,0.000000,0.000000,0.000000,0.000000,0.000000,0.000000,0.000000,0.000000,1647252736.645967,0.000000
225.000000,16783.120249,9245.173245,28229.739157,6274.089965,12118.042960,33753.123433,6604.962838,8386.910961,-0.044000,0.946000,0.254000,192.000000,0.000000,0.000000,0.000000,0.000000,0.000000,0.000000,0.000000,0.000000,0.000000,1647252736.653847,0.000000
226.000000,16785.958920,9250.515312,28232.801346,6275.833401,12116.277172,33752.788157,6612.338914,8400.836098,-0.044000,0.946000,0.254000,192.000000,0.000000,0.000000,0.000000,0.000000,0.000000,0.000000,0.000000,0.000000,0.000000,1647252736.660826,0.000000
227.000000,16781.265054,9248.861283,28232.309608,6279.744956,12120.658114,33757.414968,6610.707237,8398.578572,-0.044000,0.946000,0.254000,192.000000,0.000000,0.000000,0.000000,0.000000,0.000000,0.000000,0.000000,0.000000,0.000000,1647252736.660832,0.000000
228.000000,16782.114420,9244.547396,28229.426233,6271.877142,12114.153756,33752.251715,6611.601306,8400.590229,-0.044000,0.946000,0.254000,192.000000,0.000000,0.000000,0.000000,0.000000,0.000000,0.000000,0.000000,0.000000,0.000000,1647252736.668225,0.000000
229.000000,16777.398202,9241.351097,28226.699320,6268.077346,12114.421977,33754.732758,6614.216460,8405.127633,-0.042000,0.944000,0.256000,192.000000,254.000000,176.000000,29.000000,128.000000,8.000000,0.000000,0.000000,0.000000,0.000000,1647252736.668231,0.000000
230.000000,16783.433173,9244.949728,28226.587561,6265.775116,12116.008951,33752.899915,6615.334048,8404.904116,-0.042000,0.944000,0.256000,192.000000,0.000000,0.000000,0.000000,0.000000,0.000000,0.000000,0.000000,0.000000,0.000000,1647252736.676345,0.000000
231.000000,16792.239760,9258.159609,28234.500078,6270.021948,12118.042960,33744.965046,6619.044437,8409.553279,-0.042000,0.944000,0.256000,192.000000,0.000000,0.000000,0.000000,0.000000,0.000000,0.000000,0.000000,0.000000,0.000000,1647252736.676349,0.000000
232.000000,16792.642092,9263.032289,28236.802308,6282.181297,12132.370428,33748.653084,6617.099836,8410.492052,-0.042000,0.944000,0.256000,192.000000,0.000000,0.000000,0.000000,0.000000,0.000000,0.000000,0.000000,0.000000,0.000000,1647252736.684701,0.000000
233.000000,16798.364138,9268.664929,28243.463128,6287.635122,12144.619184,33756.699712,6616.138711,8407.474566,-0.042000,0.944000,0.256000,192.000000,0.000000,0.000000,0.000000,0.000000,0.000000,0.000000,0.000000,0.000000,0.000000,1647252736.684719,0.000000
234.000000,16785.131906,9255.589158,28222.877171,6276.950988,12135.834949,33759.225459,6607.935620,8396.633970,-0.042000,0.944000,0.256000,192.000000,0.000000,0.000000,0.000000,0.000000,0.000000,0.000000,0.000000,0.000000,0.000000,1647252736.691349,0.000000
235.000000,16789.244627,9254.583330,28223.771241,6270.647796,12128.592983,33759.247811,6610.483719,8401.081967,-0.042000,0.944000,0.256000,192.000000,0.000000,0.000000,0.000000,0.000000,0.000000,0.000000,0.000000,0.000000,0.000000,1647252736.691383,0.000000
236.000000,16792.955016,9255.566806,28230.566171,6270.916017,12131.029323,33760.611267,6609.053208,8400.254953,-0.042000,0.944000,0.256000,192.000000,0.000000,0.000000,0.000000,0.000000,0.000000,0.000000,0.000000,0.000000,0.000000,1647252736.699339,0.000000
237.000000,16788.752888,9254.382164,28229.001549,6278.962645,12139.768856,33768.121453,6608.874394,8400.992561,-0.042000,0.944000,0.256000,192.000000,0.000000,0.000000,0.000000,0.000000,0.000000,0.000000,0.000000,0.000000,0.000000,1647252736.699356,0.000000
238.000000,16789.512848,9252.817542,28227.079299,6278.828535,12137.958364,33766.378017,6612.249507,8407.698084,-0.042000,0.944000,0.256000,192.000000,0.000000,0.000000,0.000000,0.000000,0.000000,0.000000,0.000000,0.000000,0.000000,1647252736.707075,0.000000
239.000000,16794.631397,9256.036193,28231.281427,6279.052052,12132.102207,33760.723026,6615.401103,8411.252011,-0.038000,0.946000,0.256000,192.000000,254.000000,208.000000,29.000000,144.000000,8.000000,0.000000,0.000000,0.000000,0.000000,1647252736.707086,0.000000
240.000000,16794.340824,9260.573597,28237.294047,6281.600151,12131.498710,33761.192413,6610.148443,8410.536755,-0.038000,0.946000,0.256000,192.000000,0.000000,0.000000,0.000000,0.000000,0.000000,0.000000,0.000000,0.000000,0.000000,1647252736.714568,0.000000
241.000000,16787.858819,9251.185864,28229.672102,6276.235733,12124.524966,33763.338180,6606.348646,8400.187898,-0.038000,0.946000,0.256000,192.000000,0.000000,0.000000,0.000000,0.000000,0.000000,0.000000,0.000000,0.000000,0.000000,1647252736.720964,0.000000
242.000000,16783.611987,9248.794228,28222.005453,6271.206590,12122.647419,33761.930020,6599.151385,8395.382273,-0.038000,0.946000,0.256000,192.000000,0.000000,0.000000,0.000000,0.000000,0.000000,0.000000,0.000000,0.000000,0.000000,1647252736.720981,0.000000
243.000000,16780.393336,9242.267518,28220.284369,6269.530209,12133.599774,33770.267221,6590.434204,8388.587342,-0.038000,0.946000,0.256000,192.000000,0.000000,0.000000,0.000000,0.000000,0.000000,0.000000,0.000000,0.000000,0.000000,1647252736.728752,0.000000
244.000000,16788.484667,9247.900158,28224.419442,6271.184238,12133.264498,33766.132148,6598.167908,8387.805031,-0.038000,0.946000,0.256000,192.000000,0.000000,0.000000,0.000000,0.000000,0.000000,0.000000,0.000000,0.000000,0.000000,1647252736.728763,0.000000
245.000000,16796.352481,9257.377298,28231.616703,6279.901419,12133.890347,33762.935849,6603.867603,8396.544563,-0.038000,0.946000,0.256000,192.000000,0.000000,0.000000,0.000000,0.000000,0.000000,0.000000,0.000000,0.000000,0.000000,1647252736.736959,0.000000
246.000000,16800.375795,9263.099344,28230.320302,6275.989863,12130.492882,33758.376093,6604.873431,8394.376444,-0.038000,0.946000,0.256000,192.000000,0.000000,0.000000,0.000000,0.000000,0.000000,0.000000,0.000000,0.000000,0.000000,1647252736.736975,0.000000
247.000000,16795.816040,9260.752411,28223.905352,6280.124936,12133.890347,33763.338180,6600.179565,8381.993578,-0.038000,0.946000,0.256000,192.000000,0.000000,0.000000,0.000000,0.000000,0.000000,0.000000,0.000000,0.000000,0.000000,1647252736.743471,0.000000
248.000000,16791.144525,9254.806847,28220.932570,6273.911151,12133.063332,33762.980552,6607.130957,8389.369653,-0.038000,0.946000,0.256000,192.000000,0.000000,0.000000,0.000000,0.000000,0.000000,0.000000,0.000000,0.000000,0.000000,1647252736.743484,0.000000
249.000000,16793.960845,9257.734925,28230.767337,6272.413584,12132.772760,33770.043703,6612.696542,8409.150947,-0.038000,0.952000,0.252000,192.000000,254.000000,208.000000,29.000000,192.000000,7.000000,224.000000,0.000000,0.000000,0.000000,1647252736.751591,0.000000
250.000000,16797.760641,9262.808771,28226.274637,6270.401927,12118.355884,33753.168136,6611.377789,8409.195651,-0.038000,0.952000,0.252000,192.000000,0.000000,0.000000,0.000000,0.000000,0.000000,0.000000,0.000000,0.000000,0.000000,1647252736.751607,0.000000
251.000000,16799.660540,9264.395745,28231.817869,6274.224076,12117.305352,33744.540363,6619.603231,8416.683485,-0.038000,0.952000,0.252000,192.000000,0.000000,0.000000,0.000000,0.000000,0.000000,0.000000,0.000000,0.000000,0.000000,1647252736.759614,0.000000
252.000000,16796.106612,9262.339385,28224.419442,6278.627369,12122.490957,33746.797889,6621.816054,8417.711665,-0.038000,0.952000,0.252000,192.000000,0.000000,0.000000,0.000000,0.000000,0.000000,0.000000,0.000000,0.000000,0.000000,1647252736.759631,0.000000
253.000000,16800.487554,9267.323824,28228.398052,6287.188087,12127.765969,33743.266313,6624.945298,8414.314200,-0.038000,0.952000,0.252000,192.000000,0.000000,0.000000,0.000000,0.000000,0.000000,0.000000,0.000000,0.000000,0.000000,1647252736.766801,0.000000
254.000000,16800.956941,9268.396708,28233.024863,6291.814898,12130.001143,33746.976703,6630.712048,8410.514404,-0.038000,0.952000,0.252000,192.000000,0.000000,0.000000,0.000000,0.000000,0.000000,0.000000,0.000000,0.000000,0.000000,1647252736.766818,0.000000
255.000000,16794.430231,9263.501676,28221.200791,6288.797413,12124.793187,33754.889221,6620.542004,8404.591191,-0.038000,0.952000,0.252000,192.000000,0.000000,0.000000,0.000000,0.000000,0.000000,0.000000,0.000000,0.000000,0.000000,1647252736.773239,0.000000
0.000000,16795.950150,9266.005071,28220.485535,6286.294018,12127.073065,33761.259468,6617.993905,8415.387084,-0.038000,0.952000,0.252000,192.000000,0.000000,0.000000,0.000000,0.000000,0.000000,0.000000,0.000000,0.000000,0.000000,1647252736.781212,0.000000
1.000000,16800.331092,9269.469591,28223.167744,6286.562239,12128.883556,33757.459671,6620.966687,8418.583383,-0.038000,0.952000,0.252000,192.000000,0.000000,0.000000,0.000000,0.000000,0.000000,0.000000,0.000000,0.000000,0.000000,1647252736.781246,0.000000
2.000000,16788.954054,9261.221798,28215.366985,6282.203648,12123.563841,33757.303209,6605.409873,8399.986732,-0.038000,0.952000,0.252000,192.000000,0.000000,0.000000,0.000000,0.000000,0.000000,0.000000,0.000000,0.000000,0.000000,1647252736.789157,0.000000
3.000000,16789.356385,9261.199446,28217.758622,6282.807145,12113.617315,33751.178831,6605.521632,8401.461947,-0.038000,0.952000,0.252000,192.000000,0.000000,0.000000,0.000000,0.000000,0.000000,0.000000,0.000000,0.000000,0.000000,1647252736.789174,0.000000
4.000000,16794.832563,9257.086725,28220.351424,6280.728433,12112.052692,33754.889221,6605.432225,8400.143194,-0.040000,0.948000,0.248000,192.000000,254.000000,192.000000,29.000000,160.000000,7.000000,192.000000,0.000000,0.000000,0.000000,1647252736.796475,0.000000
5.000000,16798.520601,9261.177094,28219.211485,6270.334872,12102.419091,33739.332406,6611.042513,8403.719473,-0.040000,0.948000,0.248000,192.000000,0.000000,0.000000,0.000000,0.000000,0.000000,0.000000,0.000000,0.000000,0.000000,1647252736.796492,0.000000
6.000000,16789.334034,9254.851550,28213.265921,6270.021948,12110.532774,33742.931037,6607.242716,8402.266610,-0.040000,0.948000,0.248000,192.000000,0.000000,0.000000,0.000000,0.000000,0.000000,0.000000,0.000000,0.000000,0.000000,1647252736.803898,0.000000
7.000000,16785.020147,9249.554187,28208.795572,6267.831477,12116.388931,33752.296418,6602.995885,8397.729206,-0.040000,0.948000,0.248000,192.000000,0.000000,0.000000,0.000000,0.000000,0.000000,0.000000,0.000000,0.000000,0.000000,1647252736.803915,0.000000
8.000000,16787.948225,9253.421039,28209.421421,6267.429145,12108.789338,33748.384863,6605.007542,8405.060578,-0.040000,0.948000,0.248000,192.000000,0.000000,0.000000,0.000000,0.000000,0.000000,0.000000,0.000000,0.000000,0.000000,1647252736.811717,0.000000
9.000000,16788.708185,9257.153780,28220.709052,6270.983073,12113.103224,33751.156479,6604.515803,8407.228697,-0.040000,0.948000,0.248000,192.000000,0.000000,0.000000,0.000000,0.000000,0.000000,0.000000,0.000000,0.000000,0.000000,1647252736.811733,0.000000
10.000000,16784.126077,9257.287891,28218.429174,6272.368881,12116.880669,33750.977665,6598.704350,8403.942991,-0.040000,0.948000,0.248000,192.000000,0.000000,0.000000,0.000000,0.000000,0.000000,0.000000,0.000000,0.000000,0.000000,1647252736.819894,0.000000
11.000000,16784.640167,9257.891388,28216.171648,6271.921846,12123.832062,33756.342084,6596.379768,8399.249124,-0.040000,0.948000,0.248000,192.000000,0.000000,0.000000,0.000000,0.000000,0.000000,0.000000,0.000000,0.000000,0.000000,1647252736.819912,0.000000
12.000000,16786.227141,9258.874864,28212.237741,6267.742070,12120.099320,33757.459671,6599.710178,8403.004218,-0.040000,0.948000,0.248000,192.000000,0.000000,0.000000,0.000000,0.000000,0.000000,0.000000,0.000000,0.000000,0.000000,1647252736.826379,0.000000
13.000000,16792.038595,9267.390879,28222.228971,6271.877142,12113.125576,33749.860078,6600.000751,8399.919677,-0.040000,0.948000,0.248000,192.000000,0.000000,0.000000,0.000000,0.000000,0.000000,0.000000,0.000000,0.000000,0.000000,1647252736.826390,0.000000
14.000000,16788.551723,9261.735888,28212.885942,6272.368881,12110.957457,33749.144822,6593.943428,8395.449328,-0.036000,0.942000,0.256000,192.000000,254.000000,224.000000,29.000000,112.000000,8.000000,0.000000,0.000000,0.000000,0.000000,1647252736.833585,0.000000
15.000000,16795.994853,9266.541513,28224.195924,6271.564218,12113.147928,33750.240058,6592.602324,8391.895401,-0.036000,0.942000,0.256000,192.000000,0.000000,0.000000,0.000000,0.000000,0.000000,0.000000,0.000000,0.000000,0.000000,1647252736.841559,0.000000
16.000000,16793.714976,9264.485152,28226.341692,6273.084137,12120.300486,33755.135090,6593.921077,8394.219982,-0.036000,0.942000,0.256000,192.000000,0.000000,0.000000,0.000000,0.000000,0.000000,0.000000,0.000000,0.000000,0.000000,1647252736.841576,0.000000
17.000000,16786.070679,9258.785457,28220.507886,6277.465079,12124.793187,33765.506299,6587.930809,8393.705892,-0.036000,0.942000,0.256000,192.000000,0.000000,0.000000,0.000000,0.000000,0.000000,0.000000,0.000000,0.000000,0.000000,1647252736.849603,0.000000
18.000000,16788.596426,9255.611510,28220.105555,6275.788698,12117.506518,33764.299305,6585.650931,8391.783642,-0.036000,0.942000,0.256000,192.000000,0.000000,0.000000,0.000000,0.000000,0.000000,0.000000,0.000000,0.000000,0.000000,1647252736.849620,0.000000
19.000000,16784.215484,9246.648460,28213.891770,6268.569084,12108.699931,33755.425662,6579.191277,8378.305540,-0.036000,0.942000,0.256000,192.000000,0.000000,0.000000,0.000000,0.000000,0.000000,0.000000,0.000000,0.000000,0.000000,1647252736.856075,0.000000
20.000000,16781.153295,9247.497827,28215.948131,6269.396099,12116.165413,33757.191450,6577.023158,8388.900267,-0.036000,0.942000,0.256000,192.000000,0.000000,0.000000,0.000000,0.000000,0.000000,0.000000,0.000000,0.000000,0.000000,1647252736.856092,0.000000
21.000000,16781.488571,9248.391896,28211.723651,6269.753727,12124.659076,33757.906706,6579.303036,8394.957590,-0.036000,0.942000,0.256000,192.000000,0.000000,0.000000,0.000000,0.000000,0.000000,0.000000,0.000000,0.000000,0.000000,1647252736.864108,0.000000
22.000000,16785.176609,9246.089667,28216.261055,6265.730413,12124.457911,33753.771633,6590.031873,8398.287999,-0.036000,0.942000,0.256000,192.000000,0.000000,0.000000,0.000000,0.000000,0.000000,0.000000,0.000000,0.000000,0.000000,1647252736.864142,0.000000
23.000000,16795.614874,9261.311205,28231.281427,6272.637102,12121.485129,33748.898953,6607.376827,8411.654343,-0.036000,0.942000,0.256000,192.000000,0.000000,0.000000,0.000000,0.000000,0.000000,0.000000,0.000000,0.000000,0.000000,1647252736.871973,0.000000
24.000000,16799.705243,9268.508466,28234.231858,6281.644855,12120.099320,33749.480098,6614.082350,8416.527023,-0.036000,0.948000,0.258000,192.000000,254.000000,224.000000,29.000000,160.000000,8.000000,16.000000,0.000000,0.000000,0.000000,1647252736.871989,0.000000
25.000000,16784.908388,9255.387992,28226.051119,6281.935427,12124.614373,33765.953334,6607.019199,8407.698084,-0.036000,0.948000,0.258000,192.000000,0.000000,0.000000,0.000000,0.000000,0.000000,0.000000,0.000000,0.000000,0.000000,1647252736.879196,0.000000
26.000000,16777.174685,9248.749524,28210.717822,6269.619616,12112.186803,33761.214764,6587.640236,8393.772947,-0.036000,0.948000,0.258000,192.000000,0.000000,0.000000,0.000000,0.000000,0.000000,0.000000,0.000000,0.000000,0.000000,1647252736.879212,0.000000
27.000000,16775.744173,9249.017745,28202.648843,6265.663357,12103.246105,33752.162308,6583.751033,8390.040206,-0.036000,0.948000,0.258000,192.000000,0.000000,0.000000,0.000000,0.000000,0.000000,0.000000,0.000000,0.000000,0.000000,1647252736.886835,0.000000
28.000000,16784.193132,9255.298585,28216.082241,6265.663357,12097.613466,33747.513145,6591.104757,8389.257895,-0.036000,0.948000,0.258000,192.000000,0.000000,0.000000,0.000000,0.000000,0.000000,0.000000,0.000000,0.000000,0.000000,1647252736.886852,0.000000
29.000000,16783.120249,9260.618301,28215.501096,6276.146326,12102.597905,33759.158404,6593.764614,8389.615523,-0.036000,0.948000,0.258000,192.000000,0.000000,0.000000,0.000000,0.000000,0.000000,0.000000,0.000000,0.000000,0.000000,1647252736.893873,0.000000
30.000000,16788.149391,9262.853475,28220.194962,6281.376634,12106.442405,33763.673456,6599.084329,8399.852622,-0.036000,0.948000,0.258000,192.000000,0.000000,0.000000,0.000000,0.000000,0.000000,0.000000,0.000000,0.000000,0.000000,1647252736.893890,0.000000
31.000000,16792.060946,9262.428792,28221.580770,6271.743032,12103.894306,33755.358607,6599.374902,8400.187898,-0.036000,0.948000,0.258000,192.000000,0.000000,0.000000,0.000000,0.000000,0.000000,0.000000,0.000000,0.000000,0.000000,1647252736.901837,0.000000
32.000000,16791.032766,9261.892350,28218.160953,6277.688596,12105.146003,33756.587953,6600.604248,8400.098491,-0.036000,0.948000,0.258000,192.000000,0.000000,0.000000,0.000000,0.000000,0.000000,0.000000,0.000000,0.000000,0.000000,1647252736.908375,0.000000
33.000000,16786.629473,9253.510446,28218.675043,6271.541866,12090.796183,33753.212840,6601.028931,8396.388101,-0.036000,0.948000,0.258000,192.000000,0.000000,0.000000,0.000000,0.000000,0.000000,0.000000,0.000000,0.000000,0.000000,1647252736.908392,0.000000
34.000000,16779.923949,9244.882672,28209.309662,6256.610901,12077.631006,33740.762918,6592.959952,8394.510555,-0.044000,0.950000,0.264000,192.000000,254.000000,160.000000,29.000000,176.000000,8.000000,64.000000,0.000000,0.000000,0.000000,1647252736.916511,0.000000
35.000000,16781.421516,9249.285966,28218.049195,6268.077346,12091.936122,33750.664741,6591.954123,8390.442537,-0.044000,0.950000,0.264000,192.000000,0.000000,0.000000,0.000000,0.000000,0.000000,0.000000,0.000000,0.000000,0.000000,1647252736.916528,0.000000
36.000000,16783.008490,9247.475475,28222.519543,6266.244503,12093.456041,33748.138994,6595.709216,8406.222869,-0.044000,0.950000,0.264000,192.000000,0.000000,0.000000,0.000000,0.000000,0.000000,0.000000,0.000000,0.000000,0.000000,1647252736.924473,0.000000
37.000000,16786.316548,9248.324841,28225.782898,6264.501067,12095.691215,33745.613247,6591.954123,8394.868183,-0.044000,0.950000,0.264000,192.000000,0.000000,0.000000,0.000000,0.000000,0.000000,0.000000,0.000000,0.000000,0.000000,1647252736.924491,0.000000
38.000000,16793.826734,9253.845722,28222.452488,6260.567160,12096.495878,33741.545229,6588.087271,8389.704930,-0.044000,0.950000,0.264000,192.000000,0.000000,0.000000,0.000000,0.000000,0.000000,0.000000,0.000000,0.000000,0.000000,1647252736.931374,0.000000
39.000000,16798.185324,9256.639690,28227.861610,6264.031680,12100.854468,33739.488869,6591.931771,8394.488203,-0.044000,0.950000,0.264000,192.000000,0.000000,0.000000,0.000000,0.000000,0.000000,0.000000,0.000000,0.000000,0.000000,1647252736.931392,0.000000
40.000000,16787.747060,9248.436600,28225.872305,6269.261988,12114.019646,33756.297380,6590.322446,8392.655360,-0.044000,0.950000,0.264000,192.000000,0.000000,0.000000,0.000000,0.000000,0.000000,0.000000,0.000000,0.000000,0.000000,1647252736.938803,0.000000
41.000000,16789.579903,9251.610547,28229.694453,6267.518552,12118.199422,33755.582125,6595.932734,8396.611619,-0.044000,0.950000,0.264000,192.000000,0.000000,0.000000,0.000000,0.000000,0.000000,0.000000,0.000000,0.000000,0.000000,1647252736.938820,0.000000
42.000000,16790.496324,9254.046888,28227.079299,6265.104564,12118.087663,33751.379997,6593.406986,8392.722415,-0.044000,0.950000,0.264000,192.000000,0.000000,0.000000,0.000000,0.000000,0.000000,0.000000,0.000000,0.000000,0.000000,1647252736.946995,0.000000
43.000000,16786.562417,9249.956518,28217.959788,6261.349471,12109.146966,33748.787194,6587.304960,8386.016892,-0.044000,0.950000,0.264000,192.000000,0.000000,0.000000,0.000000,0.000000,0.000000,0.000000,0.000000,0.000000,0.000000,1647252736.947020,0.000000
44.000000,16779.208693,9235.606698,28207.745040,6251.514703,12099.848640,33742.662816,6587.751995,8378.216133,-0.042000,0.954000,0.270000,192.000000,254.000000,176.000000,29.000000,208.000000,8.000000,112.000000,0.000000,0.000000,0.000000,1647252736.954793,0.000000
45.000000,16781.980310,9239.965289,28211.969520,6252.051145,12099.669826,33742.260485,6585.785042,8382.530020,-0.042000,0.954000,0.270000,192.000000,0.000000,0.000000,0.000000,0.000000,0.000000,0.000000,0.000000,0.000000,0.000000,1647252736.954809,0.000000
46.000000,16786.897694,9246.000260,28209.779049,6253.861636,12099.736881,33735.174982,6589.607190,8392.543601,-0.042000,0.954000,0.270000,192.000000,0.000000,0.000000,0.000000,0.000000,0.000000,0.000000,0.000000,0.000000,0.000000,1647252736.961081,0.000000
47.000000,16786.093031,9241.328745,28224.531200,6253.861636,12110.175146,33739.757090,6583.773385,8386.352168,-0.042000,0.954000,0.270000,192.000000,0.000000,0.000000,0.000000,0.000000,0.000000,0.000000,0.000000,0.000000,0.000000,1647252736.968649,0.000000
48.000000,16778.716955,9233.706800,28217.758622,6245.189160,12101.100338,33742.305188,6579.168925,8375.623331,-0.042000,0.954000,0.270000,192.000000,0.000000,0.000000,0.000000,0.000000,0.000000,0.000000,0.000000,0.000000,0.000000,1647252736.968666,0.000000
49.000000,16790.272807,9253.421039,28220.038500,6246.597319,12089.030396,33733.319787,6581.918190,8376.405642,-0.042000,0.954000,0.270000,192.000000,0.000000,0.000000,0.000000,0.000000,0.000000,0.000000,0.000000,0.000000,0.000000,1647252736.976665,0.000000
50.000000,16796.173667,9253.599853,28222.452488,6251.514703,12089.969169,33724.133220,6591.283571,8391.470717,-0.042000,0.954000,0.270000,192.000000,0.000000,0.000000,0.000000,0.000000,0.000000,0.000000,0.000000,0.000000,0.000000,1647252736.976681,0.000000
51.000000,16785.914217,9240.725248,28216.037538,6256.186218,12101.256800,33743.333369,6588.310789,8385.949836,-0.042000,0.954000,0.270000,192.000000,0.000000,0.000000,0.000000,0.000000,0.000000,0.000000,0.000000,0.000000,0.000000,1647252736.984769,0.000000
52.000000,16779.700432,9236.992507,28206.850971,6257.773192,12094.260704,33744.227438,6578.431318,8379.736052,-0.042000,0.954000,0.270000,192.000000,0.000000,0.000000,0.000000,0.000000,0.000000,0.000000,0.000000,0.000000,0.000000,1647252736.984785,0.000000
53.000000,16780.996833,9240.524082,28211.366023,6255.783886,12088.046919,33739.645331,6585.405062,8389.593171,-0.042000,0.954000,0.270000,192.000000,0.000000,0.000000,0.000000,0.000000,0.000000,0.000000,0.000000,0.000000,0.000000,1647252736.991278,0.000000
54.000000,16788.082336,9247.229606,28218.116250,6259.047241,12091.310274,33743.199258,6587.930809,8384.720491,-0.040000,0.952000,0.266000,192.000000,254.000000,192.000000,29.000000,192.000000,8.000000,80.000000,0.000000,0.000000,0.000000,1647252736.991295,0.000000
55.000000,16786.875342,9243.496864,28206.649805,6258.488447,12093.612503,33739.533572,6582.521687,8382.999406,-0.040000,0.952000,0.266000,192.000000,0.000000,0.000000,0.000000,0.000000,0.000000,0.000000,0.000000,0.000000,0.000000,1647252736.999433,0.000000
56.000000,16783.656691,9240.747600,28205.688680,6259.740145,12095.892381,33743.713348,6581.269989,8384.742842,-0.040000,0.952000,0.266000,192.000000,0.000000,0.000000,0.000000,0.000000,0.000000,0.000000,0.000000,0.000000,0.000000,1647252736.999450,0.000000
57.000000,16788.976406,9246.782571,28216.194000,6265.149267,12100.094509,33745.747357,6583.438108,8386.888610,-0.040000,0.952000,0.266000,192.000000,0.000000,0.000000,0.000000,0.000000,0.000000,0.000000,0.000000,0.000000,0.000000,1647252737.007136,0.000000
58.000000,16790.496324,9246.268481,28214.674081,6252.297014,12093.947779,33736.225514,6586.008559,8395.046996,-0.040000,0.952000,0.266000,192.000000,0.000000,0.000000,0.000000,0.000000,0.000000,0.000000,0.000000,0.000000,0.000000,1647252737.007146,0.000000
59.000000,16787.903522,9246.223777,28211.701299,6253.615767,12089.455079,33727.173057,6586.232076,8396.321046,-0.040000,0.952000,0.266000,192.000000,0.000000,0.000000,0.000000,0.000000,0.000000,0.000000,0.000000,0.000000,0.000000,1647252737.014467,0.000000
60.000000,16788.082336,9243.899196,28216.238703,6254.934520,12094.059538,33729.430584,6576.978454,8373.812839,-0.040000,0.952000,0.266000,192.000000,0.000000,0.000000,0.000000,0.000000,0.000000,0.000000,0.000000,0.000000,0.000000,1647252737.014484,0.000000
61.000000,16787.344728,9245.307356,28216.238703,6260.365994,12103.894306,33741.053491,6578.185448,8367.107316,-0.040000,0.952000,0.266000,192.000000,0.000000,0.000000,0.000000,0.000000,0.000000,0.000000,0.000000,0.000000,0.000000,1647252737.021083,0.000000
62.000000,16787.143563,9243.854492,28221.111384,6259.136648,12103.089643,33739.600627,6587.349664,8377.545581,-0.040000,0.952000,0.266000,192.000000,0.000000,0.000000,0.000000,0.000000,0.000000,0.000000,0.000000,0.000000,0.000000,1647252737.029019,0.000000
63.000000,16789.021109,9247.855454,28207.677985,6252.744049,12090.125631,33732.693938,6584.332178,8376.495049,-0.040000,0.952000,0.266000,192.000000,0.000000,0.000000,0.000000,0.000000,0.000000,0.000000,0.000000,0.000000,0.000000,1647252737.029037,0.000000
64.000000,16788.976406,9245.486170,28216.484572,6252.453476,12090.550314,33739.421813,6584.265123,8376.293883,-0.040000,0.946000,0.258000,192.000000,254.000000,192.000000,29.000000,144.000000,8.000000,16.000000,0.000000,0.000000,0.000000,1647252737.037114,0.000000
65.000000,16787.389432,9244.457989,28226.140526,6254.509837,12096.875858,33745.367377,6584.108661,8376.964435,-0.040000,0.946000,0.258000,192.000000,0.000000,0.000000,0.000000,0.000000,0.000000,0.000000,0.000000,0.000000,0.000000,1647252737.037149,0.000000
66.000000,16791.390394,9240.971117,28221.401956,6252.498180,12093.813669,33743.601590,6581.448803,8371.018871,-0.040000,0.946000,0.258000,192.000000,0.000000,0.000000,0.000000,0.000000,0.000000,0.000000,0.000000,0.000000,0.000000,1647252737.043417,0.000000
67.000000,16792.038595,9242.066353,28226.319340,6262.198837,12094.595980,33746.082633,6595.798623,8383.759366,-0.040000,0.946000,0.258000,192.000000,0.000000,0.000000,0.000000,0.000000,0.000000,0.000000,0.000000,0.000000,0.000000,1647252737.043432,0.000000
68.000000,16788.752888,9241.820483,28223.525372,6260.008366,12089.745651,33746.261447,6598.145556,8390.263723,-0.040000,0.946000,0.258000,192.000000,0.000000,0.000000,0.000000,0.000000,0.000000,0.000000,0.000000,0.000000,0.000000,1647252737.051612,0.000000
69.000000,16793.379699,9249.822408,28224.844125,6256.029756,12088.672768,33736.136107,6589.786004,8381.054804,-0.040000,0.946000,0.258000,192.000000,0.000000,0.000000,0.000000,0.000000,0.000000,0.000000,0.000000,0.000000,0.000000,1647252737.051630,0.000000
70.000000,16793.290292,9249.710649,28229.381529,6254.867465,12097.300541,33732.291607,6590.411853,8377.858505,-0.040000,0.946000,0.258000,192.000000,0.000000,0.000000,0.000000,0.000000,0.000000,0.000000,0.000000,0.000000,0.000000,1647252737.059688,0.000000
71.000000,16789.356385,9248.235434,28235.416500,6265.998634,12113.617315,33745.680302,6592.267047,8374.729261,-0.040000,0.946000,0.258000,192.000000,0.000000,0.000000,0.000000,0.000000,0.000000,0.000000,0.000000,0.000000,0.000000,1647252737.059705,0.000000
72.000000,16781.980310,9241.082876,28225.425270,6270.625445,12116.321876,33760.745378,6585.516821,8376.249179,-0.040000,0.946000,0.258000,192.000000,0.000000,0.000000,0.000000,0.000000,0.000000,0.000000,0.000000,0.000000,0.000000,1647252737.066710,0.000000
73.000000,16791.636263,9251.767010,28227.973369,6268.166753,12099.714529,33749.256581,6599.643123,8390.576648,-0.040000,0.946000,0.258000,192.000000,0.000000,0.000000,0.000000,0.000000,0.000000,0.000000,0.000000,0.000000,0.000000,1647252737.066727,0.000000
74.000000,16796.173667,9255.566806,28226.989892,6266.557427,12091.824364,33738.572447,6608.449710,8400.456119,-0.040000,0.944000,0.258000,192.000000,254.000000,192.000000,29.000000,128.000000,8.000000,16.000000,0.000000,0.000000,0.000000,1647252737.074276,0.000000
75.000000,16793.916141,9247.989565,28218.675043,6264.881046,12093.813669,33736.627845,6604.828728,8391.381310,-0.040000,0.944000,0.258000,192.000000,0.000000,0.000000,0.000000,0.000000,0.000000,0.000000,0.000000,0.000000,0.000000,1647252737.074293,0.000000
76.000000,16789.937531,9249.554187,28223.257151,6259.896607,12095.713567,33734.146802,6596.089196,8385.793374,-0.040000,0.944000,0.258000,192.000000,0.000000,0.000000,0.000000,0.000000,0.000000,0.000000,0.000000,0.000000,0.000000,1647252737.081273,0.000000
77.000000,16782.807324,9246.313184,28219.390299,6255.873293,12095.624160,33735.733776,6593.854021,8384.429918,-0.040000,0.944000,0.258000,192.000000,0.000000,0.000000,0.000000,0.000000,0.000000,0.000000,0.000000,0.000000,0.000000,1647252737.089147,0.000000
78.000000,16783.947263,9238.758294,28217.602160,6248.161942,12086.415242,33726.971892,6588.288437,8382.172392,-0.040000,0.944000,0.258000,192.000000,0.000000,0.000000,0.000000,0.000000,0.000000,0.000000,0.000000,0.000000,0.000000,1647252737.089164,0.000000
79.000000,16791.882133,9247.564882,28227.995721,6258.510799,12091.578494,33730.078784,6594.502222,8393.214153,-0.040000,0.944000,0.258000,192.000000,0.000000,0.000000,0.000000,0.000000,0.000000,0.000000,0.000000,0.000000,0.000000,1647252737.096494,0.000000
80.000000,16780.974481,9236.254899,28223.458317,6264.702232,12103.916657,33743.243962,6584.712158,8384.496973,-0.040000,0.944000,0.258000,192.000000,0.000000,0.000000,0.000000,0.000000,0.000000,0.000000,0.000000,0.000000,0.000000,1647252737.096510,0.000000
81.000000,16778.694603,9236.009030,28218.049195,6263.606997,12100.854468,33742.372244,6587.126146,8392.878877,-0.040000,0.944000,0.258000,192.000000,0.000000,0.000000,0.000000,0.000000,0.000000,0.000000,0.000000,0.000000,0.000000,1647252737.103939,0.000000
82.000000,16780.594502,9244.770914,28216.685738,6262.645872,12095.221829,33737.544267,6585.405062,8387.402700,-0.040000,0.944000,0.258000,192.000000,0.000000,0.000000,0.000000,0.000000,0.000000,0.000000,0.000000,0.000000,0.000000,1647252737.103957,0.000000
83.000000,16781.287406,9240.479379,28216.104593,6255.739183,12091.690253,33737.901895,6574.787983,8381.077156,-0.040000,0.944000,0.258000,192.000000,0.000000,0.000000,0.000000,0.000000,0.000000,0.000000,0.000000,0.000000,0.000000,1647252737.111563,0.000000
84.000000,16778.247568,9237.663059,28208.214427,6248.005479,12087.689291,33734.057395,6576.754937,8380.473659,-0.040000,0.940000,0.252000,192.000000,254.000000,192.000000,29.000000,96.000000,7.000000,224.000000,0.000000,0.000000,0.000000,1647252737.111573,0.000000
85.000000,16784.774278,9246.670812,28216.126945,6253.526360,12097.524059,33726.815430,6587.193201,8390.911924,-0.040000,0.940000,0.252000,192.000000,0.000000,0.000000,0.000000,0.000000,0.000000,0.000000,0.000000,0.000000,0.000000,1647252737.119782,0.000000
86.000000,16781.890903,9243.921547,28214.450564,6253.414601,12107.336474,33734.437374,6587.014387,8382.082985,-0.040000,0.940000,0.252000,192.000000,0.000000,0.000000,0.000000,0.000000,0.000000,0.000000,0.000000,0.000000,0.000000,1647252737.119809,0.000000
87.000000,16769.798609,9237.528948,28203.833485,6252.498180,12109.482242,33746.574372,6575.682053,8372.047051,-0.040000,0.940000,0.252000,192.000000,0.000000,0.000000,0.000000,0.000000,0.000000,0.000000,0.000000,0.000000,0.000000,1647252737.126512,0.000000
88.000000,16779.231045,9246.335536,28206.985081,6250.911206,12103.022588,33741.567581,6580.979416,8378.149078,-0.040000,0.940000,0.252000,192.000000,0.000000,0.000000,0.000000,0.000000,0.000000,0.000000,0.000000,0.000000,0.000000,1647252737.126524,0.000000
89.000000,16785.064850,9255.142123,28213.243570,6252.967567,12095.288884,33727.910665,6587.975513,8389.503764,-0.040000,0.940000,0.252000,192.000000,0.000000,0.000000,0.000000,0.000000,0.000000,0.000000,0.000000,0.000000,0.000000,1647252737.134523,0.000000
90.000000,16783.947263,9263.479324,28216.931607,6265.842171,12109.079910,33736.292569,6586.813222,8386.888610,-0.040000,0.940000,0.252000,192.000000,0.000000,0.000000,0.000000,0.000000,0.000000,0.000000,0.000000,0.000000,0.000000,1647252737.134540,0.000000
91.000000,16789.512848,9256.147952,28208.884979,6260.701270,12110.242201,33734.035043,6577.760765,8369.208380,-0.040000,0.940000,0.252000,192.000000,0.000000,0.000000,0.000000,0.000000,0.000000,0.000000,0.000000,0.000000,0.000000,1647252737.141264,0.000000
92.000000,16798.297083,9256.036193,28212.327148,6259.293110,12106.867088,33727.083650,6580.398271,8374.729261,-0.040000,0.940000,0.252000,192.000000,0.000000,0.000000,0.000000,0.000000,0.000000,0.000000,0.000000,0.000000,0.000000,1647252737.141280,0.000000
93.000000,16801.001644,9254.717440,28221.267846,6261.014195,12100.988579,33720.668700,6590.143632,8393.683540,-0.040000,0.940000,0.252000,192.000000,0.000000,0.000000,0.000000,0.000000,0.000000,0.000000,0.000000,0.000000,0.000000,1647252737.149650,0.000000
94.000000,16802.879191,9246.022611,28218.898561,6262.109430,12098.731053,33727.798906,6595.061015,8390.017854,-0.038000,0.946000,0.262000,192.000000,254.000000,208.000000,29.000000,144.000000,8.000000,48.000000,0.000000,0.000000,0.000000,1647252737.156109,0.000000
95.000000,16806.164897,9247.319013,28224.620607,6265.797468,12105.995370,33732.939808,6595.195126,8386.508630,-0.038000,0.946000,0.262000,192.000000,0.000000,0.000000,0.000000,0.000000,0.000000,0.000000,0.000000,0.000000,0.000000,1647252737.156126,0.000000
96.000000,16791.502153,9238.154797,28218.205657,6261.684747,12113.304390,33746.909648,6599.665475,8394.555258,-0.038000,0.946000,0.262000,192.000000,0.000000,0.000000,0.000000,0.000000,0.000000,0.000000,0.000000,0.000000,0.000000,1647252737.164152,0.000000
97.000000,16778.806362,9241.216986,28210.628415,6256.588549,12113.170280,33759.493680,6606.907440,8394.175278,-0.038000,0.946000,0.262000,192.000000,0.000000,0.000000,0.000000,0.000000,0.000000,0.000000,0.000000,0.000000,0.000000,1647252737.164170,0.000000
98.000000,16789.669310,9248.727172,28212.438907,6253.682822,12100.340378,33748.362511,6612.003638,8401.529002,-0.038000,0.946000,0.262000,192.000000,0.000000,0.000000,0.000000,0.000000,0.000000,0.000000,0.000000,0.000000,0.000000,1647252737.171997,0.000000
99.000000,16801.582790,9253.577501,28218.429174,6256.879122,12095.288884,33735.018520,6618.351533,8407.742787,-0.038000,0.946000,0.262000,192.000000,0.000000,0.000000,0.000000,0.000000,0.000000,0.000000,0.000000,0.000000,0.000000,1647252737.172014,0.000000
100.000000,16795.570170,9246.983736,28221.379605,6261.125953,12111.180974,33750.709444,6611.668362,8397.282171,-0.038000,0.946000,0.262000,192.000000,0.000000,0.000000,0.000000,0.000000,0.000000,0.000000,0.000000,0.000000,0.000000,1647252737.178726,0.000000
101.000000,16807.953037,9253.488094,28230.767337,6264.165791,12117.841794,33754.173965,6615.982248,8398.645627,-0.038000,0.946000,0.262000,192.000000,0.000000,0.000000,0.000000,0.000000,0.000000,0.000000,0.000000,0.000000,0.000000,1647252737.178743,0.000000
102.000000,16806.075490,9252.169341,28224.732366,6262.422355,12113.170280,33752.676398,6616.026952,8398.802090,-0.038000,0.946000,0.262000,192.000000,0.000000,0.000000,0.000000,0.000000,0.000000,0.000000,0.000000,0.000000,0.000000,1647252737.186825,0.000000
103.000000,16804.577923,9253.152818,28223.167744,6259.829552,12108.968152,33746.574372,6616.786911,8402.065444,-0.038000,0.946000,0.262000,192.000000,0.000000,0.000000,0.000000,0.000000,0.000000,0.000000,0.000000,0.000000,0.000000,1647252737.186842,0.000000
104.000000,16816.424348,9259.679527,28232.443718,6264.590474,12118.177070,33753.615171,6624.632373,8411.609639,-0.038000,0.946000,0.262000,192.000000,0.000000,0.000000,0.000000,0.000000,0.000000,0.000000,0.000000,0.000000,0.000000,1647252737.194827,0.000000
105.000000,16808.489479,9246.670812,28225.402919,6270.848962,12129.576460,33767.406197,6616.317524,8407.809843,-0.038000,0.944000,0.264000,192.000000,254.000000,208.000000,29.000000,128.000000,8.000000,64.000000,0.000000,0.000000,0.000000,1647252737.194845,0.000000
106.000000,16813.786842,9249.956518,28228.822735,6276.772174,12131.342248,33762.488814,6613.680019,8407.116938,-0.038000,0.944000,0.264000,192.000000,0.000000,0.000000,0.000000,0.000000,0.000000,0.000000,0.000000,0.000000,0.000000,1647252737.201852,0.000000
107.000000,16812.959828,9240.166454,28228.487459,6277.889762,12129.755274,33764.858099,6617.815091,8402.825404,-0.038000,0.944000,0.264000,192.000000,0.000000,0.000000,0.000000,0.000000,0.000000,0.000000,0.000000,0.000000,0.000000,1647252737.201887,0.000000
108.000000,16816.357293,9236.321954,28225.045291,6273.039433,12125.977829,33763.114663,6613.456501,8404.971171,-0.038000,0.944000,0.264000,192.000000,0.000000,0.000000,0.000000,0.000000,0.000000,0.000000,0.000000,0.000000,0.000000,1647252737.208403,0.000000
109.000000,16821.118214,9239.518254,28235.461204,6274.089965,12127.497748,33756.744415,6620.050266,8407.698084,-0.038000,0.944000,0.264000,192.000000,0.000000,0.000000,0.000000,0.000000,0.000000,0.000000,0.000000,0.000000,0.000000,1647252737.216462,0.000000
110.000000,16820.447662,9236.389010,28234.969465,6278.247390,12128.727094,33757.236154,6616.608097,8404.233563,-0.038000,0.944000,0.264000,192.000000,0.000000,0.000000,0.000000,0.000000,0.000000,0.000000,0.000000,0.000000,0.000000,1647252737.216478,0.000000
111.000000,16820.782938,9230.242280,28232.622532,6279.521439,12124.726132,33759.940715,6615.021123,8405.842889,-0.038000,0.944000,0.264000,192.000000,0.000000,0.000000,0.000000,0.000000,0.000000,0.000000,0.000000,0.000000,0.000000,1647252737.224450,0.000000
112.000000,16820.425310,9223.804977,28226.162878,6268.032642,12111.940934,33748.407215,6621.033743,8407.765139,-0.038000,0.944000,0.264000,192.000000,0.000000,0.000000,0.000000,0.000000,0.000000,0.000000,0.000000,0.000000,0.000000,1647252737.224466,0.000000
113.000000,16820.313551,9214.685466,28219.323244,6263.517590,12113.818480,33745.277970,6621.659591,8409.262706,-0.038000,0.944000,0.264000,192.000000,0.000000,0.000000,0.000000,0.000000,0.000000,0.000000,0.000000,0.000000,0.000000,1647252737.231447,0.000000
114.000000,16832.562307,9221.636858,28224.575904,6275.632235,12124.681428,33746.775537,6626.062885,8405.954648,-0.038000,0.944000,0.264000,192.000000,0.000000,0.000000,0.000000,0.000000,0.000000,0.000000,0.000000,0.000000,0.000000,1647252737.231464,0.000000
115.000000,16833.165805,9216.719474,28218.339767,6274.984035,12127.542451,33748.764843,6624.654725,8408.860375,-0.034000,0.946000,0.258000,192.000000,254.000000,240.000000,29.000000,144.000000,8.000000,16.000000,0.000000,0.000000,0.000000,1647252737.239018,0.000000
116.000000,16829.075435,9216.250088,28220.373776,6279.789660,12133.957402,33756.766767,6614.305867,8403.339494,-0.034000,0.946000,0.258000,192.000000,0.000000,0.000000,0.000000,0.000000,0.000000,0.000000,0.000000,0.000000,0.000000,1647252737.239035,0.000000
117.000000,16836.473863,9215.892460,28216.752793,6271.743032,12123.407379,33749.100119,6616.697504,8407.787491,-0.034000,0.946000,0.258000,192.000000,0.000000,0.000000,0.000000,0.000000,0.000000,0.000000,0.000000,0.000000,0.000000,1647252737.247149,0.000000
118.000000,16834.685723,9198.323989,28217.870381,6264.165791,12111.493899,33741.478174,6618.887975,8407.474566,-0.034000,0.946000,0.258000,192.000000,0.000000,0.000000,0.000000,0.000000,0.000000,0.000000,0.000000,0.000000,0.000000,1647252737.247166,0.000000
119.000000,16827.823738,9186.522268,28216.439869,6259.986014,12108.565820,33732.336310,6607.041551,8394.890534,-0.034000,0.946000,0.258000,192.000000,0.000000,0.000000,0.000000,0.000000,0.000000,0.000000,0.000000,0.000000,0.000000,1647252737.255066,0.000000
120.000000,16825.812081,9177.134535,28209.756697,6256.499142,12114.533736,33739.600627,6608.784987,8393.370616,-0.034000,0.946000,0.258000,192.000000,0.000000,0.000000,0.000000,0.000000,0.000000,0.000000,0.000000,0.000000,0.000000,1647252737.255083,0.000000
121.000000,16836.540918,9175.704023,28211.723651,6258.220227,12115.204288,33743.065148,6613.747074,8398.578572,-0.034000,0.946000,0.258000,192.000000,0.000000,0.000000,0.000000,0.000000,0.000000,0.000000,0.000000,0.000000,0.000000,1647252737.261469,0.000000
122.000000,16847.806197,9181.560180,28219.636168,6260.902436,12115.807785,33739.220648,6605.834556,8401.350188,-0.034000,0.946000,0.258000,192.000000,0.000000,0.000000,0.000000,0.000000,0.000000,0.000000,0.000000,0.000000,0.000000,1647252737.261481,0.000000
123.000000,16845.638078,9175.391099,28216.596331,6255.068631,12111.002160,33730.190543,6614.864661,8402.512479,-0.034000,0.946000,0.258000,192.000000,0.000000,0.000000,0.000000,0.000000,0.000000,0.000000,0.000000,0.000000,0.000000,1647252737.268636,0.000000
124.000000,16846.062761,9177.514515,28213.556494,6254.420430,12111.270381,33731.106964,6611.064865,8400.165546,-0.034000,0.946000,0.258000,192.000000,0.000000,0.000000,0.000000,0.000000,0.000000,0.000000,0.000000,0.000000,0.000000,1647252737.276500,0.000000
125.000000,16851.561290,9183.191858,28216.305759,6258.846075,12121.216908,33738.281874,6606.862737,8405.708779,-0.036000,0.946000,0.262000,192.000000,254.000000,224.000000,29.000000,144.000000,8.000000,48.000000,0.000000,0.000000,0.000000,1647252737.276517,0.000000
126.000000,16855.964584,9178.877971,28215.903427,6255.314500,12121.798053,33746.507316,6619.871452,8415.387084,-0.036000,0.946000,0.262000,192.000000,0.000000,0.000000,0.000000,0.000000,0.000000,0.000000,0.000000,0.000000,0.000000,1647252737.284097,0.000000
127.000000,16853.908223,9173.312387,28204.638148,6248.676032,12111.315085,33748.317808,6629.706219,8398.712683,-0.036000,0.946000,0.262000,192.000000,0.000000,0.000000,0.000000,0.000000,0.000000,0.000000,0.000000,0.000000,0.000000,1647252737.284114,0.000000
128.000000,16863.228901,9180.219076,28215.791668,6256.052107,12107.939971,33742.484002,6631.695525,8395.181107,-0.036000,0.946000,0.262000,192.000000,0.000000,0.000000,0.000000,0.000000,0.000000,0.000000,0.000000,0.000000,0.000000,1647252737.292099,0.000000
129.000000,16862.513645,9177.805087,28215.545799,6255.716831,12106.911791,33747.826069,6636.612908,8413.420130,-0.036000,0.946000,0.262000,192.000000,0.000000,0.000000,0.000000,0.000000,0.000000,0.000000,0.000000,0.000000,0.000000,1647252737.292133,0.000000
130.000000,16858.043296,9178.699157,28216.573979,6254.778058,12110.599829,33751.558811,6628.588632,8407.586325,-0.036000,0.946000,0.262000,192.000000,0.000000,0.000000,0.000000,0.000000,0.000000,0.000000,0.000000,0.000000,0.000000,1647252737.299125,0.000000
131.000000,16859.831436,9183.974169,28216.439869,6253.481657,12104.542506,33734.996168,6624.654725,8399.472642,-0.036000,0.946000,0.262000,192.000000,0.000000,0.000000,0.000000,0.000000,0.000000,0.000000,0.000000,0.000000,0.000000,1647252737.299141,0.000000
132.000000,16856.679840,9177.425108,28215.299930,6253.056974,12110.532774,33742.662816,6615.311696,8394.421148,-0.036000,0.946000,0.262000,192.000000,0.000000,0.000000,0.000000,0.000000,0.000000,0.000000,0.000000,0.000000,0.000000,1647252737.306503,0.000000
133.000000,16854.109389,9183.169506,28206.269825,6250.911206,12102.441442,33736.963122,6620.162025,8413.017799,-0.036000,0.946000,0.262000,192.000000,0.000000,0.000000,0.000000,0.000000,0.000000,0.000000,0.000000,0.000000,0.000000,1647252737.306520,0.000000
134.000000,16860.725505,9189.316236,28205.867494,6245.949119,12095.981788,33732.381014,6625.302926,8421.623221,-0.036000,0.946000,0.262000,192.000000,0.000000,0.000000,0.000000,0.000000,0.000000,0.000000,0.000000,0.000000,0.000000,1647252737.314700,0.000000
135.000000,16861.574872,9189.718567,28203.811133,6254.532189,12104.944838,33740.986436,6619.424417,8410.916735,-0.042000,0.950000,0.266000,192.000000,254.000000,176.000000,29.000000,176.000000,8.000000,80.000000,0.000000,0.000000,0.000000,1647252737.314717,0.000000
136.000000,16863.206549,9198.323989,28204.414630,6263.048203,12110.912753,33745.389729,6613.121225,8398.287999,-0.042000,0.950000,0.266000,192.000000,0.000000,0.000000,0.000000,0.000000,0.000000,0.000000,0.000000,0.000000,0.000000,1647252737.322645,0.000000
137.000000,16863.720639,9197.407567,28202.827657,6257.192046,12105.838907,33740.271180,6609.880222,8395.069348,-0.042000,0.950000,0.266000,192.000000,0.000000,0.000000,0.000000,0.000000,0.000000,0.000000,0.000000,0.000000,0.000000,1647252737.322662,0.000000
138.000000,16872.191950,9207.957591,28210.896636,6256.879122,12097.166431,33729.631749,6613.232984,8399.405587,-0.042000,0.950000,0.266000,192.000000,0.000000,0.000000,0.000000,0.000000,0.000000,0.000000,0.000000,0.000000,0.000000,1647252737.328902,0.000000
139.000000,16865.195854,9204.269553,28211.455430,6254.196913,12107.403530,33738.259523,6608.762635,8391.738938,-0.042000,0.950000,0.266000,192.000000,0.000000,0.000000,0.000000,0.000000,0.000000,0.000000,0.000000,0.000000,0.000000,1647252737.336272,0.000000
140.000000,16860.501988,9203.844870,28201.777125,6247.267872,12110.197498,33735.331444,6601.878298,8386.061595,-0.042000,0.950000,0.266000,192.000000,0.000000,0.000000,0.000000,0.000000,0.000000,0.000000,0.000000,0.000000,0.000000,1647252737.336288,0.000000
141.000000,16857.149226,9203.554297,28195.473933,6251.313538,12109.973980,33733.833877,6598.525536,8383.401738,-0.042000,0.950000,0.266000,192.000000,0.000000,0.000000,0.000000,0.000000,0.000000,0.000000,0.000000,0.000000,0.000000,1647252737.344312,0.000000
142.000000,16853.863520,9202.883745,28196.569168,6245.390325,12105.302466,33734.884409,6599.464309,8393.929409,-0.042000,0.950000,0.266000,192.000000,0.000000,0.000000,0.000000,0.000000,0.000000,0.000000,0.000000,0.000000,0.000000,1647252737.344329,0.000000
143.000000,16860.658450,9206.325913,28197.507941,6245.859712,12108.699931,33735.599665,6602.682960,8404.412377,-0.042000,0.950000,0.266000,192.000000,0.000000,0.000000,0.000000,0.000000,0.000000,0.000000,0.000000,0.000000,0.000000,1647252737.352087,0.000000
144.000000,16862.871273,9210.550393,28202.805305,6248.296052,12112.253858,33740.561752,6605.231059,8405.194688,-0.042000,0.950000,0.266000,192.000000,0.000000,0.000000,0.000000,0.000000,0.000000,0.000000,0.000000,0.000000,0.000000,1647252737.352098,0.000000
145.000000,16859.719677,9208.963419,28196.211540,6245.166808,12113.639666,33740.338235,6595.865678,8378.059671,-0.048000,0.954000,0.266000,192.000000,254.000000,128.000000,29.000000,208.000000,8.000000,80.000000,0.000000,0.000000,0.000000,1647252737.358972,0.000000
146.000000,16863.474770,9216.719474,28204.504037,6253.191084,12121.149852,33745.635598,6599.039626,8375.645682,-0.048000,0.954000,0.266000,192.000000,0.000000,0.000000,0.000000,0.000000,0.000000,0.000000,0.000000,0.000000,0.000000,1647252737.358984,0.000000
147.000000,16870.157942,9224.631992,28208.460296,6253.012270,12119.361713,33748.183697,6605.164004,8385.100470,-0.048000,0.954000,0.266000,192.000000,0.000000,0.000000,0.000000,0.000000,0.000000,0.000000,0.000000,0.000000,0.000000,1647252737.366899,0.000000
148.000000,16868.258043,9221.055713,28205.241645,6251.760572,12117.417111,33754.173965,6600.850117,8379.601941,-0.048000,0.954000,0.266000,192.000000,0.000000,0.000000,0.000000,0.000000,0.000000,0.000000,0.000000,0.000000,0.000000,1647252737.366915,0.000000
149.000000,16872.147247,9228.588251,28205.129886,6249.637157,12111.002160,33738.348930,6603.286457,8382.619427,-0.048000,0.954000,0.266000,192.000000,0.000000,0.000000,0.000000,0.000000,0.000000,0.000000,0.000000,0.000000,0.000000,1647252737.374922,0.000000
150.000000,16876.550541,9234.198539,28210.449601,6247.424334,12113.729073,33731.084613,6601.431263,8384.385214,-0.048000,0.954000,0.266000,192.000000,0.000000,0.000000,0.000000,0.000000,0.000000,0.000000,0.000000,0.000000,0.000000,1647252737.374947,0.000000
151.000000,16875.701174,9230.734018,28210.337843,6253.883988,12121.730998,33735.398499,6600.716007,8383.044110,-0.048000,0.954000,0.266000,192.000000,0.000000,0.000000,0.000000,0.000000,0.000000,0.000000,0.000000,0.000000,0.000000,1647252737.382093,0.000000
152.000000,16870.560273,9222.977963,28204.369927,6246.485561,12119.853451,33729.765860,6611.891879,8391.761290,-0.048000,0.954000,0.266000,192.000000,0.000000,0.000000,0.000000,0.000000,0.000000,0.000000,0.000000,0.000000,0.000000,1647252737.382109,0.000000
153.000000,16869.777962,9226.978925,28199.050212,6249.905378,12125.329629,33734.884409,6612.182452,8398.131537,-0.048000,0.954000,0.266000,192.000000,0.000000,0.000000,0.000000,0.000000,0.000000,0.000000,0.000000,0.000000,0.000000,1647252737.388395,0.000000
154.000000,16872.571930,9230.801073,28201.419497,6246.507912,12120.099320,33728.536514,6604.515803,8383.602903,-0.048000,0.954000,0.266000,192.000000,0.000000,0.000000,0.000000,0.000000,0.000000,0.000000,0.000000,0.000000,0.000000,1647252737.388412,0.000000
155.000000,16869.375631,9227.269498,28200.436020,6245.703250,12121.730998,33731.330482,6596.200954,8374.773964,-0.046000,0.954000,0.264000,192.000000,254.000000,144.000000,29.000000,208.000000,8.000000,64.000000,0.000000,0.000000,0.000000,1647252737.396607,0.000000
156.000000,16877.913997,9238.780646,28217.244532,6252.989918,12130.716399,33736.024348,6604.962838,8387.670921,-0.046000,0.954000,0.264000,192.000000,0.000000,0.000000,0.000000,0.000000,0.000000,0.000000,0.000000,0.000000,0.000000,1647252737.404678,0.000000
157.000000,16870.157942,9234.019725,28213.847067,6248.273700,12132.258669,33738.952427,6601.051283,8388.810860,-0.046000,0.954000,0.264000,192.000000,0.000000,0.000000,0.000000,0.000000,0.000000,0.000000,0.000000,0.000000,0.000000,1647252737.404694,0.000000
158.000000,16870.828494,9241.954594,28211.969520,6250.866503,12131.252841,33740.092366,6597.296190,8386.665092,-0.046000,0.954000,0.264000,192.000000,0.000000,0.000000,0.000000,0.000000,0.000000,0.000000,0.000000,0.000000,0.000000,1647252737.411680,0.000000
159.000000,16875.768229,9247.453123,28216.909256,6249.637157,12129.889384,33730.503467,6601.028931,8390.710758,-0.046000,0.954000,0.264000,192.000000,0.000000,0.000000,0.000000,0.000000,0.000000,0.000000,0.000000,0.000000,0.000000,1647252737.411697,0.000000
160.000000,16875.432953,9244.905024,28220.999625,6248.296052,12137.332515,33736.381976,6617.546870,8397.684502,-0.046000,0.954000,0.264000,192.000000,0.000000,0.000000,0.000000,0.000000,0.000000,0.000000,0.000000,0.000000,0.000000,1647252737.419364,0.000000
161.000000,16864.815875,9228.878823,28201.061869,6240.338831,12135.834949,33743.333369,6607.153309,8390.420185,-0.046000,0.954000,0.264000,192.000000,0.000000,0.000000,0.000000,0.000000,0.000000,0.000000,0.000000,0.000000,0.000000,1647252737.419381,0.000000
162.000000,16874.896511,9244.189768,28215.344634,6245.390325,12132.973925,33735.309092,6610.282553,8398.243296,-0.046000,0.954000,0.264000,192.000000,0.000000,0.000000,0.000000,0.000000,0.000000,0.000000,0.000000,0.000000,0.000000,1647252737.427285,0.000000
163.000000,16875.500009,9245.039135,28214.875247,6244.675069,12130.939916,33732.269255,6611.511899,8397.639799,-0.046000,0.954000,0.264000,192.000000,0.000000,0.000000,0.000000,0.000000,0.000000,0.000000,0.000000,0.000000,0.000000,1647252737.427302,0.000000
164.000000,16877.891645,9250.694126,28210.337843,6250.352413,12130.068198,33730.592874,6611.489548,8403.630066,-0.046000,0.954000,0.264000,192.000000,0.000000,0.000000,0.000000,0.000000,0.000000,0.000000,0.000000,0.000000,0.000000,1647252737.434427,0.000000
165.000000,16882.049070,9258.628995,28213.221218,6255.940349,12137.913661,33735.398499,6607.823862,8401.529002,-0.040000,0.950000,0.258000,192.000000,254.000000,192.000000,29.000000,176.000000,8.000000,16.000000,0.000000,0.000000,0.000000,1647252737.434444,0.000000
166.000000,16877.511666,9247.229606,28206.068660,6245.680898,12135.902004,33737.007825,6608.181489,8402.199555,-0.040000,0.950000,0.258000,192.000000,0.000000,0.000000,0.000000,0.000000,0.000000,0.000000,0.000000,0.000000,0.000000,1647252737.441834,0.000000
