%OpenBCI Raw EEG Data
%Number of channels = 8
%Sample Rate = 256 Hz
%Board = OpenBCI_GUI$BoardCytonSerial
%Channels = Fp1, Fp2, F3, F4, Fz, Pz, O1, O2
%Data recorded at AIMS Lab (http://aimsl.uiu.ac.bd) by Rana Depto (mail@ranadepto.com)
%Brainwaves were obtained via the Ultracortex Mark IV Headset using the OpenBCI Cyton Board
%Recording Application = ConcentrateToday (https://concentrate.today)
%Data type = RAW data with noise
%Day No = 3
%Subject ID = 4
%Session ID = 7
%Record starting timestamp (UTC+6) = 2022-03-13T11:20:10.615476
%Record ending timestamp (UTC+6)   = 2022-03-13T11:20:41.457918
%Recorded durations = ~30 seconds
Sample Index, EXG Channel 0, EXG Channel 1, EXG Channel 2, EXG Channel 3, EXG Channel 4, EXG Channel 5, EXG Channel 6, EXG Channel 7, Accel Channel 0, Accel Channel 1, Accel Channel 2, Other, Other, Other, Other, Other, Other, Other, Analog Channel 0, Analog Channel 1, Analog Channel 2, Timestamp, Timestamp (Formatted)
218.000000,26561.650820,36034.610693,35136.361138,30832.711557,23872.512445,39821.264424,45230.632452,35167.944153,0.102000,0.938000,0.316000,192.000000,0.000000,0.000000,0.000000,0.000000,0.000000,0.000000,0.000000,0.000000,0.000000,1647148810.616952,0.000000
219.000000,26555.235869,36028.508667,35129.923836,30825.983682,23869.651421,39814.134218,45221.512940,35157.818813,0.102000,0.938000,0.316000,192.000000,0.000000,0.000000,0.000000,0.000000,0.000000,0.000000,0.000000,0.000000,0.000000,1647148810.616962,0.000000
220.000000,26555.772311,36032.017890,35128.694490,30827.168325,23868.779703,39814.134218,45221.244719,35162.780900,0.102000,0.938000,0.316000,192.000000,0.000000,0.000000,0.000000,0.000000,0.000000,0.000000,0.000000,0.000000,0.000000,1647148810.623471,0.000000
221.000000,26559.527404,36036.242370,35133.008377,30831.191639,23871.350154,39816.056468,45221.423533,35165.753682,0.102000,0.938000,0.316000,192.000000,0.000000,0.000000,0.000000,0.000000,0.000000,0.000000,0.000000,0.000000,0.000000,1647148810.623476,0.000000
222.000000,26558.052189,36035.951797,35138.193981,30837.137203,23874.926433,39820.370355,45238.544969,35172.995648,0.102000,0.938000,0.316000,192.000000,0.000000,0.000000,0.000000,0.000000,0.000000,0.000000,0.000000,0.000000,0.000000,1647148810.631471,0.000000
223.000000,26554.990000,36031.772021,35137.836354,30835.550229,23872.355982,39813.396610,45225.268033,35160.031636,0.098000,0.928000,0.330000,192.000000,3.000000,16.000000,29.000000,0.000000,10.000000,80.000000,0.000000,0.000000,0.000000,1647148810.631475,0.000000
224.000000,26555.705256,36032.375518,35134.148316,30835.661988,23869.293793,39804.344154,45213.533367,35143.223124,0.098000,0.928000,0.330000,192.000000,0.000000,0.000000,0.000000,0.000000,0.000000,0.000000,0.000000,0.000000,0.000000,1647148810.639431,0.000000
225.000000,26561.874337,36038.566952,35139.132755,30845.027369,23874.859378,39811.183788,45224.150446,35151.716787,0.098000,0.928000,0.330000,192.000000,0.000000,0.000000,0.000000,0.000000,0.000000,0.000000,0.000000,0.000000,0.000000,1647148810.639435,0.000000
226.000000,26565.540024,36041.092699,35145.391243,30852.962238,23881.028459,39822.449067,45241.227179,35165.776034,0.098000,0.928000,0.330000,192.000000,0.000000,0.000000,0.000000,0.000000,0.000000,0.000000,0.000000,0.000000,0.000000,1647148810.646027,0.000000
227.000000,26560.801454,36033.738975,35142.619627,30849.162441,23878.100381,39818.805733,45232.062963,35169.955810,0.098000,0.928000,0.330000,192.000000,0.000000,0.000000,0.000000,0.000000,0.000000,0.000000,0.000000,0.000000,0.000000,1647148810.646031,0.000000
228.000000,26561.427303,36034.655396,35142.709034,30844.937962,23876.424000,39817.330517,45231.235949,35164.233764,0.098000,0.928000,0.330000,192.000000,0.000000,0.000000,0.000000,0.000000,0.000000,0.000000,0.000000,0.000000,0.000000,1647148810.653982,0.000000
229.000000,26559.326239,36034.007196,35142.284351,30838.567715,23872.400686,39817.755201,45234.432248,35163.518508,0.098000,0.928000,0.330000,192.000000,0.000000,0.000000,0.000000,0.000000,0.000000,0.000000,0.000000,0.000000,0.000000,1647148810.653986,0.000000
230.000000,26556.174643,36022.160771,35142.194944,30835.214953,23870.366677,39816.391744,45235.929815,35155.516583,0.098000,0.928000,0.330000,192.000000,0.000000,0.000000,0.000000,0.000000,0.000000,0.000000,0.000000,0.000000,0.000000,1647148810.662101,0.000000
231.000000,26565.450617,36028.508667,35147.201734,30842.859249,23873.428866,39819.431581,45238.835542,35148.341673,0.098000,0.928000,0.330000,192.000000,0.000000,0.000000,0.000000,0.000000,0.000000,0.000000,0.000000,0.000000,0.000000,1647148810.662106,0.000000
232.000000,26558.879204,36024.172428,35143.334883,30840.221744,23869.249090,39818.850436,45231.727687,35159.092862,0.098000,0.928000,0.330000,192.000000,0.000000,0.000000,0.000000,0.000000,0.000000,0.000000,0.000000,0.000000,0.000000,1647148810.669109,0.000000
233.000000,26555.302925,36022.160771,35141.166763,30839.238267,23866.768046,39815.296509,45222.518769,35163.920839,0.098000,0.920000,0.332000,192.000000,3.000000,16.000000,28.000000,192.000000,10.000000,96.000000,0.000000,0.000000,0.000000,1647148810.675644,0.000000
234.000000,26557.739265,36026.832286,35143.178420,30842.076938,23867.796226,39817.486980,45228.553740,35166.915973,0.098000,0.920000,0.332000,192.000000,0.000000,0.000000,0.000000,0.000000,0.000000,0.000000,0.000000,0.000000,0.000000,1647148810.675648,0.000000
235.000000,26564.824768,36036.532943,35149.928647,30847.642523,23874.971136,39829.199294,45254.079432,35184.283278,0.098000,0.920000,0.332000,192.000000,0.000000,0.000000,0.000000,0.000000,0.000000,0.000000,0.000000,0.000000,0.000000,1647148810.683619,0.000000
236.000000,26555.168814,36024.373594,35146.061795,30845.317941,23872.691259,39829.445163,45261.880191,35185.065590,0.098000,0.920000,0.332000,192.000000,0.000000,0.000000,0.000000,0.000000,0.000000,0.000000,0.000000,0.000000,0.000000,1647148810.683623,0.000000
237.000000,26545.758730,36014.762344,35138.708072,30837.651293,23864.868148,39819.722154,45251.352519,35177.376589,0.098000,0.920000,0.332000,192.000000,0.000000,0.000000,0.000000,0.000000,0.000000,0.000000,0.000000,0.000000,0.000000,1647148810.691746,0.000000
238.000000,26552.397198,36022.227826,35139.535086,30836.645464,23864.689334,39817.017593,45247.508019,35175.208470,0.098000,0.920000,0.332000,192.000000,0.000000,0.000000,0.000000,0.000000,0.000000,0.000000,0.000000,0.000000,0.000000,1647148810.691749,0.000000
239.000000,26550.676113,36020.149114,35138.708072,30833.873848,23863.482340,39817.308166,45253.364176,35177.220127,0.098000,0.920000,0.332000,192.000000,0.000000,0.000000,0.000000,0.000000,0.000000,0.000000,0.000000,0.000000,0.000000,1647148810.698866,0.000000
240.000000,26552.128977,36024.239483,35139.468031,30831.795136,23862.051828,39817.352869,45250.011414,35173.442682,0.098000,0.920000,0.332000,192.000000,0.000000,0.000000,0.000000,0.000000,0.000000,0.000000,0.000000,0.000000,0.000000,1647148810.698870,0.000000
241.000000,26548.843270,36019.076230,35138.305740,30831.415156,23860.040171,39820.057430,45250.637263,35175.856671,0.098000,0.920000,0.332000,192.000000,0.000000,0.000000,0.000000,0.000000,0.000000,0.000000,0.000000,0.000000,0.000000,1647148810.706366,0.000000
242.000000,26538.159137,36009.643794,35130.974368,30827.324787,23852.999372,39811.675526,45243.037670,35164.971371,0.098000,0.920000,0.332000,192.000000,0.000000,0.000000,0.000000,0.000000,0.000000,0.000000,0.000000,0.000000,0.000000,1647148810.706373,0.000000
243.000000,26537.823860,36010.917844,35131.264941,30828.107098,23852.842909,39811.966099,45241.249530,35169.374665,0.096000,0.918000,0.336000,192.000000,3.000000,0.000000,28.000000,176.000000,10.000000,128.000000,0.000000,0.000000,0.000000,1647148810.714347,0.000000
244.000000,26540.774291,36018.226864,35133.276598,30831.638674,23856.620354,39812.457837,45242.523580,35168.972334,0.096000,0.918000,0.336000,192.000000,0.000000,0.000000,0.000000,0.000000,0.000000,0.000000,0.000000,0.000000,0.000000,1647148810.714350,0.000000
245.000000,26542.808299,36019.702079,35135.869400,30833.695034,23860.688372,39811.317898,45245.585769,35170.268735,0.096000,0.918000,0.336000,192.000000,0.000000,0.000000,0.000000,0.000000,0.000000,0.000000,0.000000,0.000000,0.000000,1647148810.722292,0.000000
246.000000,26539.701407,36018.338623,35134.483592,30832.957427,23860.688372,39811.921395,45246.926874,35170.067569,0.096000,0.918000,0.336000,192.000000,0.000000,0.000000,0.000000,0.000000,0.000000,0.000000,0.000000,0.000000,0.000000,1647148810.722296,0.000000
247.000000,26541.489546,36019.009175,35131.957845,30832.868020,23858.654363,39811.876692,45240.444868,35166.223069,0.096000,0.918000,0.336000,192.000000,0.000000,0.000000,0.000000,0.000000,0.000000,0.000000,0.000000,0.000000,0.000000,1647148810.728441,0.000000
248.000000,26547.122186,36024.306539,35135.735290,30837.852459,23861.180110,39818.425753,45243.864685,35172.749778,0.096000,0.918000,0.336000,192.000000,0.000000,0.000000,0.000000,0.000000,0.000000,0.000000,0.000000,0.000000,0.000000,1647148810.735937,0.000000
249.000000,26539.522593,36022.093716,35131.533162,30830.968121,23856.106264,39814.514198,45233.761696,35170.089921,0.096000,0.918000,0.336000,192.000000,0.000000,0.000000,0.000000,0.000000,0.000000,0.000000,0.000000,0.000000,0.000000,1647148810.735941,0.000000
250.000000,26542.316561,36028.106335,35133.410708,30831.124584,23857.939107,39817.934015,45233.091144,35171.028694,0.096000,0.918000,0.336000,192.000000,0.000000,0.000000,0.000000,0.000000,0.000000,0.000000,0.000000,0.000000,0.000000,1647148810.743943,0.000000
251.000000,26539.567296,36025.312367,35131.935493,30831.459860,23857.514424,39820.258596,45246.770411,35169.262906,0.096000,0.918000,0.336000,192.000000,0.000000,0.000000,0.000000,0.000000,0.000000,0.000000,0.000000,0.000000,0.000000,1647148810.743946,0.000000
252.000000,26538.203840,36020.976129,35136.070566,30830.006996,23858.989639,39822.516122,45244.490533,35183.344505,0.096000,0.918000,0.336000,192.000000,0.000000,0.000000,0.000000,0.000000,0.000000,0.000000,0.000000,0.000000,0.000000,1647148810.752035,0.000000
253.000000,26538.203840,36020.372632,35135.802345,30824.977854,23857.670886,39814.916529,45229.157237,35159.763415,0.096000,0.918000,0.346000,192.000000,3.000000,0.000000,28.000000,176.000000,10.000000,208.000000,0.000000,0.000000,0.000000,1647148810.752039,0.000000
254.000000,26535.968666,36023.546579,35133.053080,30825.469592,23856.687409,39821.465590,45237.673251,35171.095749,0.096000,0.918000,0.346000,192.000000,0.000000,0.000000,0.000000,0.000000,0.000000,0.000000,0.000000,0.000000,0.000000,1647148810.758631,0.000000
255.000000,26536.952142,36019.813838,35135.400013,30830.476383,23859.570785,39832.283834,45247.485667,35200.935328,0.096000,0.918000,0.346000,192.000000,0.000000,0.000000,0.000000,0.000000,0.000000,0.000000,0.000000,0.000000,0.000000,1647148810.758635,0.000000
0.000000,26532.839421,36014.158847,35130.504981,30822.787383,23855.055732,39828.327576,45239.506094,35194.229805,0.096000,0.918000,0.346000,192.000000,0.000000,0.000000,0.000000,0.000000,0.000000,0.000000,0.000000,0.000000,0.000000,1647148810.766487,0.000000
1.000000,26531.118337,36009.912015,35130.929664,30822.250941,23854.653401,39826.159457,45233.940510,35187.948965,0.096000,0.918000,0.346000,192.000000,0.000000,0.000000,0.000000,0.000000,0.000000,0.000000,0.000000,0.000000,0.000000,1647148810.766513,0.000000
2.000000,26536.616866,36014.918806,35132.963673,30831.281046,23859.459026,39828.595797,45230.900673,35186.026715,0.096000,0.918000,0.346000,192.000000,0.000000,0.000000,0.000000,0.000000,0.000000,0.000000,0.000000,0.000000,0.000000,1647148810.774638,0.000000
3.000000,26536.661570,36019.031527,35132.159010,30834.924380,23863.169415,39822.292605,45223.301080,35175.700209,0.096000,0.918000,0.346000,192.000000,0.000000,0.000000,0.000000,0.000000,0.000000,0.000000,0.000000,0.000000,0.000000,1647148810.774666,0.000000
4.000000,26541.601305,36024.373594,35144.005435,30841.048758,23873.361811,39825.555959,45220.194187,35175.722560,0.096000,0.918000,0.346000,192.000000,0.000000,0.000000,0.000000,0.000000,0.000000,0.000000,0.000000,0.000000,0.000000,1647148810.781289,0.000000
5.000000,26543.836480,36026.049975,35149.548668,30840.378206,23876.647517,39826.360622,45226.475027,35176.817796,0.096000,0.918000,0.346000,192.000000,0.000000,0.000000,0.000000,0.000000,0.000000,0.000000,0.000000,0.000000,0.000000,1647148810.781292,0.000000
6.000000,26543.680017,36027.748707,35147.358197,30838.902991,23874.121770,39824.751297,45228.106705,35166.267772,0.096000,0.918000,0.346000,192.000000,0.000000,0.000000,0.000000,0.000000,0.000000,0.000000,0.000000,0.000000,0.000000,1647148810.788114,0.000000
7.000000,26545.401102,36029.179219,35148.364025,30842.456918,23876.491055,39820.057430,45211.856987,35156.164784,0.114000,0.934000,0.356000,192.000000,3.000000,144.000000,29.000000,48.000000,11.000000,32.000000,0.000000,0.000000,0.000000,1647148810.788118,0.000000
8.000000,26543.232983,36022.697213,35145.637112,30836.332540,23871.864244,39815.452971,45211.231138,35164.703150,0.114000,0.934000,0.356000,192.000000,0.000000,0.000000,0.000000,0.000000,0.000000,0.000000,0.000000,0.000000,0.000000,1647148810.796304,0.000000
9.000000,26542.942410,36021.691385,35147.916990,30836.690168,23875.038192,39821.867922,45233.202902,35174.001476,0.114000,0.934000,0.356000,192.000000,0.000000,0.000000,0.000000,0.000000,0.000000,0.000000,0.000000,0.000000,0.000000,1647148810.804315,0.000000
10.000000,26545.535212,36025.535885,35149.481612,30839.551191,23877.899215,39820.839741,45232.420591,35168.100616,0.114000,0.934000,0.356000,192.000000,0.000000,0.000000,0.000000,0.000000,0.000000,0.000000,0.000000,0.000000,0.000000,1647148810.804319,0.000000
11.000000,26548.686808,36036.197667,35149.034577,30840.959351,23878.815636,39823.521951,45239.349632,35174.180290,0.114000,0.934000,0.356000,192.000000,0.000000,0.000000,0.000000,0.000000,0.000000,0.000000,0.000000,0.000000,0.000000,1647148810.810842,0.000000
12.000000,26536.460404,36023.635986,35141.770261,30833.404462,23875.038192,39822.113791,45245.295196,35177.801273,0.114000,0.934000,0.356000,192.000000,0.000000,0.000000,0.000000,0.000000,0.000000,0.000000,0.000000,0.000000,0.000000,1647148810.810846,0.000000
13.000000,26533.375863,36020.350280,35139.378624,30831.213991,23872.266575,39821.487942,45235.572187,35183.322153,0.114000,0.934000,0.356000,192.000000,0.000000,0.000000,0.000000,0.000000,0.000000,0.000000,0.000000,0.000000,0.000000,1647148810.818862,0.000000
14.000000,26534.269933,36018.785658,35138.261037,30833.404462,23873.697087,39821.242073,45232.934682,35177.153072,0.114000,0.934000,0.356000,192.000000,0.000000,0.000000,0.000000,0.000000,0.000000,0.000000,0.000000,0.000000,0.000000,1647148810.818866,0.000000
15.000000,26533.174698,36015.097620,35136.159973,30832.465688,23871.596023,39814.402439,45231.459466,35164.881964,0.114000,0.934000,0.356000,192.000000,0.000000,0.000000,0.000000,0.000000,0.000000,0.000000,0.000000,0.000000,0.000000,1647148810.826938,0.000000
16.000000,26531.431261,36013.711812,35134.058909,30826.989511,23868.958517,39807.763971,45216.573205,35158.958752,0.114000,0.934000,0.356000,192.000000,0.000000,0.000000,0.000000,0.000000,0.000000,0.000000,0.000000,0.000000,0.000000,1647148810.826941,0.000000
17.000000,26535.052244,36019.947948,35134.058909,30831.638674,23872.065410,39813.195445,45227.659670,35170.000514,0.118000,0.912000,0.366000,192.000000,3.000000,176.000000,28.000000,128.000000,11.000000,112.000000,0.000000,0.000000,0.000000,1647148810.833821,0.000000
18.000000,26531.095985,36014.114143,35131.153182,30830.454031,23869.070276,39814.514198,45238.321452,35180.729351,0.118000,0.912000,0.366000,192.000000,0.000000,0.000000,0.000000,0.000000,0.000000,0.000000,0.000000,0.000000,0.000000,1647148810.833825,0.000000
19.000000,26529.732529,36011.923672,35131.533162,30827.593008,23868.667945,39813.821294,45229.090181,35176.326057,0.118000,0.912000,0.366000,192.000000,0.000000,0.000000,0.000000,0.000000,0.000000,0.000000,0.000000,0.000000,0.000000,1647148810.841565,0.000000
20.000000,26536.058073,36021.512571,35138.372795,30830.185810,23875.641689,39817.822256,45226.385620,35172.660371,0.118000,0.912000,0.366000,192.000000,0.000000,0.000000,0.000000,0.000000,0.000000,0.000000,0.000000,0.000000,0.000000,1647148810.841568,0.000000
21.000000,26536.393349,36021.780791,35136.629359,30834.834973,23875.261709,39819.230416,45233.113495,35175.342581,0.118000,0.912000,0.366000,192.000000,0.000000,0.000000,0.000000,0.000000,0.000000,0.000000,0.000000,0.000000,0.000000,1647148810.849438,0.000000
22.000000,26530.827764,36016.304614,35133.008377,30836.421947,23873.920604,39816.056468,45233.538179,35177.778921,0.118000,0.912000,0.366000,192.000000,0.000000,0.000000,0.000000,0.000000,0.000000,0.000000,0.000000,0.000000,0.000000,1647148810.849448,0.000000
23.000000,26531.140689,36017.623367,35133.790688,30837.092499,23873.831197,39815.587081,45234.655766,35169.978162,0.118000,0.912000,0.366000,192.000000,0.000000,0.000000,0.000000,0.000000,0.000000,0.000000,0.000000,0.000000,0.000000,1647148810.856592,0.000000
24.000000,26529.754881,36021.579626,35134.885923,30838.724177,23874.591157,39819.543340,45236.466257,35176.527223,0.118000,0.912000,0.366000,192.000000,0.000000,0.000000,0.000000,0.000000,0.000000,0.000000,0.000000,0.000000,0.000000,1647148810.863617,0.000000
25.000000,26524.792793,36019.545617,35133.544819,30837.874810,23872.445389,39817.889311,45223.479894,35178.918860,0.118000,0.912000,0.366000,192.000000,0.000000,0.000000,0.000000,0.000000,0.000000,0.000000,0.000000,0.000000,0.000000,1647148810.863621,0.000000
26.000000,26524.971607,36019.567969,35132.762508,30837.271313,23872.199520,39817.710497,45223.278728,35174.224993,0.118000,0.912000,0.366000,192.000000,0.000000,0.000000,0.000000,0.000000,0.000000,0.000000,0.000000,0.000000,0.000000,1647148810.871097,0.000000
27.000000,26534.001712,36031.257931,35135.757641,30841.451090,23877.183959,39818.403401,45229.805437,35168.748816,0.118000,0.894000,0.366000,192.000000,3.000000,176.000000,27.000000,240.000000,11.000000,112.000000,0.000000,0.000000,0.000000,1647148810.871101,0.000000
28.000000,26535.476927,36029.380385,35140.853839,30845.206183,23882.190750,39821.443238,45239.304929,35174.426159,0.118000,0.894000,0.366000,192.000000,0.000000,0.000000,0.000000,0.000000,0.000000,0.000000,0.000000,0.000000,0.000000,1647148810.879193,0.000000
29.000000,26531.766538,36017.958643,35142.060833,30846.480232,23879.687355,39819.252767,45239.908426,35172.615668,0.118000,0.894000,0.366000,192.000000,0.000000,0.000000,0.000000,0.000000,0.000000,0.000000,0.000000,0.000000,0.000000,1647148810.879197,0.000000
30.000000,26532.861773,36013.845922,35143.089013,30842.121642,23875.418171,39816.168227,45232.822923,35166.424235,0.118000,0.894000,0.366000,192.000000,0.000000,0.000000,0.000000,0.000000,0.000000,0.000000,0.000000,0.000000,0.000000,1647148810.887214,0.000000
31.000000,26531.744186,36016.796352,35144.407766,30844.312113,23873.853549,39819.744506,45236.980347,35162.512679,0.118000,0.894000,0.366000,192.000000,0.000000,0.000000,0.000000,0.000000,0.000000,0.000000,0.000000,0.000000,0.000000,1647148810.887218,0.000000
32.000000,26533.957009,36022.406640,35141.256170,30845.049720,23872.937128,39817.531683,45229.403106,35154.600162,0.118000,0.894000,0.366000,192.000000,0.000000,0.000000,0.000000,0.000000,0.000000,0.000000,0.000000,0.000000,0.000000,1647148810.893742,0.000000
33.000000,26530.336026,36018.025698,35139.088051,30841.696959,23871.685430,39818.001070,45232.197074,35157.327075,0.118000,0.894000,0.366000,192.000000,0.000000,0.000000,0.000000,0.000000,0.000000,0.000000,0.000000,0.000000,0.000000,1647148810.893746,0.000000
34.000000,26530.917171,36020.462039,35140.563266,30843.283933,23872.668907,39822.225549,45234.923987,35177.756569,0.118000,0.894000,0.366000,192.000000,0.000000,0.000000,0.000000,0.000000,0.000000,0.000000,0.000000,0.000000,0.000000,1647148810.901851,0.000000
35.000000,26532.750014,36022.473696,35140.317397,30845.206183,23872.512445,39821.823218,45229.201940,35179.365895,0.118000,0.894000,0.366000,192.000000,0.000000,0.000000,0.000000,0.000000,0.000000,0.000000,0.000000,0.000000,0.000000,1647148810.901855,0.000000
36.000000,26529.821936,36018.942120,35136.025862,30843.127470,23869.204386,39817.352869,45233.493475,35167.295953,0.118000,0.894000,0.366000,192.000000,0.000000,0.000000,0.000000,0.000000,0.000000,0.000000,0.000000,0.000000,0.000000,1647148810.909781,0.000000
37.000000,26541.623657,36024.820629,35145.011263,30852.045816,23878.972099,39825.645366,45242.568283,35167.653581,0.118000,0.894000,0.366000,192.000000,0.000000,0.000000,0.000000,0.000000,0.000000,0.000000,0.000000,0.000000,0.000000,1647148810.909786,0.000000
38.000000,26544.417625,36025.960568,35149.593371,30853.811604,23881.833122,39832.440297,45255.576999,35188.016020,0.114000,0.900000,0.364000,192.000000,3.000000,144.000000,28.000000,32.000000,11.000000,96.000000,0.000000,0.000000,0.000000,1647148810.915844,0.000000
39.000000,26536.594514,36023.121896,35146.575886,30847.508412,23876.088724,39829.623977,45266.954037,35182.092808,0.114000,0.900000,0.364000,192.000000,0.000000,0.000000,0.000000,0.000000,0.000000,0.000000,0.000000,0.000000,0.000000,1647148810.923445,0.000000
40.000000,26535.476927,36024.485353,35143.200772,30839.730005,23869.427904,39823.834875,45251.419574,35167.094787,0.114000,0.900000,0.364000,192.000000,0.000000,0.000000,0.000000,0.000000,0.000000,0.000000,0.000000,0.000000,0.000000,1647148810.923449,0.000000
41.000000,26534.851078,36021.154943,35143.871325,30838.433604,23869.047924,39820.258596,45240.735440,35150.755662,0.114000,0.900000,0.364000,192.000000,0.000000,0.000000,0.000000,0.000000,0.000000,0.000000,0.000000,0.000000,0.000000,1647148810.931418,0.000000
42.000000,26533.174698,36025.290015,35141.814964,30838.031273,23867.729171,39820.482113,45247.060984,35166.491290,0.114000,0.900000,0.364000,192.000000,0.000000,0.000000,0.000000,0.000000,0.000000,0.000000,0.000000,0.000000,0.000000,1647148810.931421,0.000000
43.000000,26534.761671,36023.166600,35141.725557,30837.047796,23866.343363,39823.611358,45248.290330,35169.531127,0.114000,0.900000,0.364000,192.000000,0.000000,0.000000,0.000000,0.000000,0.000000,0.000000,0.000000,0.000000,0.000000,1647148810.939544,0.000000
44.000000,26530.380729,36016.170504,35140.272694,30834.298531,23862.834139,39816.347041,45236.041574,35151.336807,0.114000,0.900000,0.364000,192.000000,0.000000,0.000000,0.000000,0.000000,0.000000,0.000000,0.000000,0.000000,0.000000,1647148810.939547,0.000000
45.000000,26534.135823,36022.965434,35141.837316,30835.125546,23863.482340,39818.649270,45235.147504,35161.037464,0.114000,0.900000,0.364000,192.000000,0.000000,0.000000,0.000000,0.000000,0.000000,0.000000,0.000000,0.000000,0.000000,1647148810.946116,0.000000
46.000000,26536.505107,36027.033451,35141.434984,30834.499697,23862.007125,39821.554997,45246.546894,35171.118101,0.114000,0.900000,0.364000,192.000000,0.000000,0.000000,0.000000,0.000000,0.000000,0.000000,0.000000,0.000000,0.000000,1647148810.946119,0.000000
47.000000,26534.672264,36023.658338,35139.020996,30830.342273,23858.699066,39821.756163,45254.280597,35169.307610,0.114000,0.900000,0.364000,192.000000,0.000000,0.000000,0.000000,0.000000,0.000000,0.000000,0.000000,0.000000,0.000000,1647148810.954043,0.000000
48.000000,26529.263142,36019.187989,35137.501077,30828.487078,23855.502767,39818.090477,45246.502190,35163.943191,0.102000,0.900000,0.362000,192.000000,3.000000,48.000000,28.000000,32.000000,11.000000,80.000000,0.000000,0.000000,0.000000,1647148810.954046,0.000000
49.000000,26531.498317,36018.159809,35137.858705,30830.878714,23856.396837,39819.163360,45243.708222,35171.542784,0.102000,0.900000,0.362000,192.000000,0.000000,0.000000,0.000000,0.000000,0.000000,0.000000,0.000000,0.000000,0.000000,1647148810.962225,0.000000
50.000000,26537.510936,36026.854637,35146.061795,30836.265485,23865.248128,39827.634672,45257.320435,35180.729351,0.102000,0.900000,0.362000,192.000000,0.000000,0.000000,0.000000,0.000000,0.000000,0.000000,0.000000,0.000000,0.000000,1647148810.962229,0.000000
51.000000,26536.818032,36025.178257,35142.463165,30831.303398,23863.415285,39821.823218,45248.647958,35169.039389,0.102000,0.900000,0.362000,192.000000,0.000000,0.000000,0.000000,0.000000,0.000000,0.000000,0.000000,0.000000,0.000000,1647148810.969153,0.000000
52.000000,26530.872468,36023.837152,35137.299912,30828.643540,23858.162625,39818.090477,45237.561493,35165.440758,0.102000,0.900000,0.362000,192.000000,0.000000,0.000000,0.000000,0.000000,0.000000,0.000000,0.000000,0.000000,0.000000,1647148810.969158,0.000000
53.000000,26525.038663,36014.516475,35132.538990,30823.122659,23852.619392,39813.664831,45239.237873,35160.053988,0.102000,0.900000,0.362000,192.000000,0.000000,0.000000,0.000000,0.000000,0.000000,0.000000,0.000000,0.000000,0.000000,1647148810.975671,0.000000
54.000000,26529.307846,36016.662242,35138.775127,30828.867057,23858.810825,39820.660927,45247.172743,35162.959714,0.102000,0.900000,0.362000,192.000000,0.000000,0.000000,0.000000,0.000000,0.000000,0.000000,0.000000,0.000000,0.000000,1647148810.983719,0.000000
55.000000,26526.066843,36013.197722,35135.690586,30827.637711,23854.027552,39818.023422,45239.193170,35158.645828,0.102000,0.900000,0.362000,192.000000,0.000000,0.000000,0.000000,0.000000,0.000000,0.000000,0.000000,0.000000,0.000000,1647148810.983723,0.000000
56.000000,26527.631465,36012.661280,35135.109441,30825.603703,23852.731151,39819.811561,45234.991042,35169.262906,0.102000,0.900000,0.362000,192.000000,0.000000,0.000000,0.000000,0.000000,0.000000,0.000000,0.000000,0.000000,0.000000,1647148810.991738,0.000000
57.000000,26529.665474,36017.511608,35136.294083,30824.955502,23854.474587,39820.146837,45230.185417,35165.932496,0.102000,0.900000,0.362000,192.000000,0.000000,0.000000,0.000000,0.000000,0.000000,0.000000,0.000000,0.000000,0.000000,1647148810.991742,0.000000
58.000000,26528.816107,36014.561178,35137.858705,30827.704767,23856.732113,39825.198331,45240.064888,35168.860575,0.104000,0.912000,0.366000,192.000000,3.000000,64.000000,28.000000,128.000000,11.000000,112.000000,0.000000,0.000000,0.000000,1647148810.998742,0.000000
59.000000,26529.017273,36011.141361,35139.646845,30825.290778,23857.223851,39827.768782,45250.458449,35177.153072,0.104000,0.912000,0.366000,192.000000,0.000000,0.000000,0.000000,0.000000,0.000000,0.000000,0.000000,0.000000,0.000000,1647148810.998746,0.000000
60.000000,26523.988131,36008.749724,35135.176496,30819.434621,23851.524157,39821.107962,45245.250493,35169.419368,0.104000,0.912000,0.366000,192.000000,0.000000,0.000000,0.000000,0.000000,0.000000,0.000000,0.000000,0.000000,0.000000,1647148811.006312,0.000000
61.000000,26520.121279,36006.380440,35132.114307,30819.009938,23849.400741,39816.548206,45232.599405,35158.779938,0.104000,0.912000,0.366000,192.000000,0.000000,0.000000,0.000000,0.000000,0.000000,0.000000,0.000000,0.000000,0.000000,1647148811.006316,0.000000
62.000000,26516.053261,35999.071419,35131.756679,30818.473496,23847.500843,39818.939843,45235.259263,35164.859613,0.104000,0.912000,0.366000,192.000000,0.000000,0.000000,0.000000,0.000000,0.000000,0.000000,0.000000,0.000000,0.000000,1647148811.014465,0.000000
63.000000,26520.210686,36010.515512,35136.115269,30824.374357,23853.424055,39824.281910,45240.556626,35162.579735,0.104000,0.912000,0.366000,192.000000,0.000000,0.000000,0.000000,0.000000,0.000000,0.000000,0.000000,0.000000,0.000000,1647148811.014484,0.000000
64.000000,26530.894820,36023.256007,35145.637112,30833.292703,23862.700029,39833.848457,45250.749022,35175.141415,0.104000,0.912000,0.366000,192.000000,0.000000,0.000000,0.000000,0.000000,0.000000,0.000000,0.000000,0.000000,0.000000,1647148811.022325,0.000000
65.000000,26532.973532,36026.251140,35143.290179,30829.448203,23860.800130,39834.854285,45252.850086,35183.299802,0.104000,0.912000,0.366000,192.000000,0.000000,0.000000,0.000000,0.000000,0.000000,0.000000,0.000000,0.000000,0.000000,1647148811.022334,0.000000
66.000000,26526.446822,36022.272530,35136.092917,30821.602740,23854.698104,39831.188599,45259.779127,35180.282316,0.104000,0.912000,0.366000,192.000000,0.000000,0.000000,0.000000,0.000000,0.000000,0.000000,0.000000,0.000000,0.000000,1647148811.028940,0.000000
67.000000,26523.272875,36016.684594,35136.450545,30820.842781,23854.988677,39829.601625,45244.803458,35169.866403,0.104000,0.912000,0.366000,192.000000,0.000000,0.000000,0.000000,0.000000,0.000000,0.000000,0.000000,0.000000,0.000000,1647148811.028944,0.000000
68.000000,26521.127107,36012.862445,35137.232856,30823.189714,23855.592174,39827.612320,45240.735440,35170.760473,0.106000,0.928000,0.358000,192.000000,3.000000,80.000000,29.000000,0.000000,11.000000,48.000000,0.000000,0.000000,0.000000,1647148811.036042,0.000000
69.000000,26518.176677,36010.426105,35138.596313,30820.663967,23857.447369,39816.324689,45238.433211,35179.209433,0.106000,0.928000,0.358000,192.000000,0.000000,0.000000,0.000000,0.000000,0.000000,0.000000,0.000000,0.000000,0.000000,1647148811.036046,0.000000
70.000000,26521.663549,36018.137457,35141.323226,30823.323825,23859.839005,39816.816427,45254.839391,35181.019924,0.106000,0.928000,0.358000,192.000000,0.000000,0.000000,0.000000,0.000000,0.000000,0.000000,0.000000,0.000000,0.000000,1647148811.044018,0.000000
71.000000,26528.234962,36018.204512,35146.844107,30831.169287,23864.421113,39821.957329,45259.801478,35186.384342,0.106000,0.928000,0.358000,192.000000,0.000000,0.000000,0.000000,0.000000,0.000000,0.000000,0.000000,0.000000,0.000000,1647148811.051001,0.000000
72.000000,26527.363244,36009.576739,35149.481612,30830.476383,23865.873976,39822.739640,45262.327225,35190.899395,0.106000,0.928000,0.358000,192.000000,0.000000,0.000000,0.000000,0.000000,0.000000,0.000000,0.000000,0.000000,0.000000,1647148811.051004,0.000000
73.000000,26528.905514,36015.455248,35149.503964,30832.644502,23868.287965,39818.671622,45253.587693,35187.189005,0.106000,0.928000,0.358000,192.000000,0.000000,0.000000,0.000000,0.000000,0.000000,0.000000,0.000000,0.000000,0.000000,1647148811.058646,0.000000
74.000000,26531.207744,36024.105373,35150.286275,30838.545363,23869.852587,39818.269291,45249.564379,35190.117084,0.106000,0.928000,0.358000,192.000000,0.000000,0.000000,0.000000,0.000000,0.000000,0.000000,0.000000,0.000000,0.000000,1647148811.058650,0.000000
75.000000,26530.313674,36020.752611,35146.642941,30834.052662,23864.465817,39812.569596,45239.684908,35185.177348,0.106000,0.928000,0.358000,192.000000,0.000000,0.000000,0.000000,0.000000,0.000000,0.000000,0.000000,0.000000,0.000000,1647148811.066616,0.000000
76.000000,26532.101814,36022.093716,35146.084147,30829.381148,23863.974078,39811.407305,45237.606196,35181.556366,0.106000,0.928000,0.358000,192.000000,0.000000,0.000000,0.000000,0.000000,0.000000,0.000000,0.000000,0.000000,0.000000,1647148811.066620,0.000000
77.000000,26531.833593,36021.087887,35145.503002,30830.610493,23866.209253,39811.049677,45233.202902,35180.394075,0.106000,0.928000,0.358000,192.000000,0.000000,0.000000,0.000000,0.000000,0.000000,0.000000,0.000000,0.000000,0.000000,1647148811.074618,0.000000
78.000000,26538.852041,36030.989710,35149.503964,30840.601723,23874.434695,39817.084648,45233.672289,35182.472787,0.118000,0.914000,0.362000,192.000000,3.000000,176.000000,28.000000,144.000000,11.000000,80.000000,0.000000,0.000000,0.000000,1647148811.074622,0.000000
79.000000,26546.473985,36043.864315,35155.293066,30847.754281,23881.676660,39823.589006,45240.333109,35184.439741,0.118000,0.914000,0.362000,192.000000,0.000000,0.000000,0.000000,0.000000,0.000000,0.000000,0.000000,0.000000,0.000000,1647148811.081297,0.000000
80.000000,26543.031817,36035.102431,35155.047197,30843.708616,23880.179093,39820.370355,45243.909388,35186.116122,0.118000,0.914000,0.362000,192.000000,0.000000,0.000000,0.000000,0.000000,0.000000,0.000000,0.000000,0.000000,0.000000,1647148811.081300,0.000000
81.000000,26545.758730,36034.990672,35162.378569,30845.519107,23884.604738,39822.270253,45245.272844,35192.978107,0.118000,0.914000,0.362000,192.000000,0.000000,0.000000,0.000000,0.000000,0.000000,0.000000,0.000000,0.000000,0.000000,1647148811.089291,0.000000
82.000000,26548.977381,36040.131574,35162.266810,30844.088595,23885.230587,39815.698840,45231.392411,35175.610802,0.118000,0.914000,0.362000,192.000000,0.000000,0.000000,0.000000,0.000000,0.000000,0.000000,0.000000,0.000000,0.000000,1647148811.089295,0.000000
83.000000,26544.417625,36037.963454,35157.617647,30838.992398,23879.441485,39807.920433,45217.422571,35164.032598,0.118000,0.914000,0.362000,192.000000,0.000000,0.000000,0.000000,0.000000,0.000000,0.000000,0.000000,0.000000,0.000000,1647148811.097291,0.000000
84.000000,26534.582857,36028.642777,35150.643903,30825.894275,23868.891462,39798.376238,45211.745228,35161.149223,0.118000,0.914000,0.362000,192.000000,0.000000,0.000000,0.000000,0.000000,0.000000,0.000000,0.000000,0.000000,0.000000,1647148811.097294,0.000000
85.000000,26527.899686,36018.226864,35141.949075,30818.115868,23860.353096,39790.798997,45206.783141,35149.928647,0.118000,0.914000,0.362000,192.000000,0.000000,0.000000,0.000000,0.000000,0.000000,0.000000,0.000000,0.000000,0.000000,1647148811.104630,0.000000
86.000000,26527.966741,36019.635024,35139.110403,30817.199447,23859.794302,39792.564785,45217.891958,35161.260982,0.118000,0.914000,0.362000,192.000000,0.000000,0.000000,0.000000,0.000000,0.000000,0.000000,0.000000,0.000000,0.000000,1647148811.111335,0.000000
87.000000,26529.307846,36021.825495,35139.982121,30818.160572,23863.124712,39795.537567,45215.969707,35162.624438,0.118000,0.914000,0.362000,192.000000,0.000000,0.000000,0.000000,0.000000,0.000000,0.000000,0.000000,0.000000,0.000000,1647148811.111351,0.000000
88.000000,26527.810279,36019.858541,35141.233819,30821.401575,23865.851625,39791.581308,45204.592670,35153.661389,0.124000,0.890000,0.356000,192.000000,3.000000,224.000000,27.000000,208.000000,11.000000,32.000000,0.000000,0.000000,0.000000,1647148811.119068,0.000000
89.000000,26525.306883,36016.662242,35139.758604,30821.111002,23864.756389,39791.380142,45214.807417,35164.501985,0.124000,0.890000,0.356000,192.000000,0.000000,0.000000,0.000000,0.000000,0.000000,0.000000,0.000000,0.000000,0.000000,1647148811.119084,0.000000
90.000000,26529.352549,36020.372632,35145.346540,30826.229552,23870.567843,39799.985564,45236.779182,35168.927630,0.124000,0.890000,0.356000,192.000000,0.000000,0.000000,0.000000,0.000000,0.000000,0.000000,0.000000,0.000000,0.000000,1647148811.127274,0.000000
91.000000,26533.621732,36024.842980,35148.878115,30829.090575,23874.591157,39802.556014,45237.449734,35159.271676,0.124000,0.890000,0.356000,192.000000,0.000000,0.000000,0.000000,0.000000,0.000000,0.000000,0.000000,0.000000,0.000000,1647148811.127290,0.000000
92.000000,26536.393349,36029.983882,35154.264886,30833.136241,23879.352078,39805.975831,45230.520693,35178.315363,0.124000,0.890000,0.356000,192.000000,0.000000,0.000000,0.000000,0.000000,0.000000,0.000000,0.000000,0.000000,0.000000,1647148811.134384,0.000000
93.000000,26536.527459,36034.007196,35156.678874,30835.416119,23883.330689,39809.686221,45227.279690,35182.785712,0.124000,0.890000,0.356000,192.000000,0.000000,0.000000,0.000000,0.000000,0.000000,0.000000,0.000000,0.000000,0.000000,1647148811.134403,0.000000
94.000000,26539.299076,36033.090774,35157.371778,30836.332540,23886.370526,39812.502541,45234.968690,35176.750741,0.124000,0.890000,0.356000,192.000000,0.000000,0.000000,0.000000,0.000000,0.000000,0.000000,0.000000,0.000000,0.000000,1647148811.141878,0.000000
95.000000,26539.612000,36032.599036,35159.763415,30838.232438,23888.069259,39814.134218,45239.774315,35175.677857,0.124000,0.890000,0.356000,192.000000,0.000000,0.000000,0.000000,0.000000,0.000000,0.000000,0.000000,0.000000,0.000000,1647148811.141894,0.000000
96.000000,26534.381692,36030.743841,35155.762453,30834.767918,23883.733020,39809.149779,45228.307870,35165.619572,0.124000,0.890000,0.356000,192.000000,0.000000,0.000000,0.000000,0.000000,0.000000,0.000000,0.000000,0.000000,0.000000,1647148811.149993,0.000000
97.000000,26538.874392,36038.343434,35154.622514,30835.952560,23885.632919,39807.249881,45219.277766,35159.428139,0.124000,0.890000,0.356000,192.000000,0.000000,0.000000,0.000000,0.000000,0.000000,0.000000,0.000000,0.000000,0.000000,1647148811.150008,0.000000
98.000000,26545.892840,36040.220981,35157.237668,30844.535630,23892.249035,39810.490884,45215.545024,35158.399958,0.122000,0.900000,0.346000,192.000000,3.000000,208.000000,28.000000,32.000000,10.000000,208.000000,0.000000,0.000000,0.000000,1647148811.157959,0.000000
99.000000,26549.245602,36041.316216,35158.310551,30848.402482,23892.874884,39812.100209,45221.490588,35172.883889,0.122000,0.900000,0.346000,192.000000,0.000000,0.000000,0.000000,0.000000,0.000000,0.000000,0.000000,0.000000,0.000000,1647148811.157975,0.000000
100.000000,26544.909363,36038.566952,35154.354293,30844.289761,23888.069259,39807.652212,45219.702449,35163.384397,0.122000,0.900000,0.346000,192.000000,0.000000,0.000000,0.000000,0.000000,0.000000,0.000000,0.000000,0.000000,0.000000,1647148811.164189,0.000000
101.000000,26538.136785,36030.699138,35148.520487,30839.908819,23882.078991,39803.204215,45218.160178,35158.243496,0.122000,0.900000,0.346000,192.000000,0.000000,0.000000,0.000000,0.000000,0.000000,0.000000,0.000000,0.000000,0.000000,1647148811.171556,0.000000
102.000000,26541.601305,36034.387175,35151.359159,30842.948656,23883.062468,39806.534625,45226.027992,35157.707054,0.122000,0.900000,0.346000,192.000000,0.000000,0.000000,0.000000,0.000000,0.000000,0.000000,0.000000,0.000000,0.000000,1647148811.171571,0.000000
103.000000,26547.301000,36039.863353,35153.884906,30845.586162,23887.555169,39813.374259,45227.793780,35161.685665,0.122000,0.900000,0.346000,192.000000,0.000000,0.000000,0.000000,0.000000,0.000000,0.000000,0.000000,0.000000,0.000000,1647148811.179734,0.000000
104.000000,26547.412759,36040.779774,35153.817851,30842.479270,23885.699974,39813.486017,45226.810304,35168.860575,0.122000,0.900000,0.346000,192.000000,0.000000,0.000000,0.000000,0.000000,0.000000,0.000000,0.000000,0.000000,0.000000,1647148811.179750,0.000000
105.000000,26543.680017,36038.410489,35151.940304,30839.215915,23883.263634,39809.216834,45220.216539,35160.389264,0.122000,0.900000,0.346000,192.000000,0.000000,0.000000,0.000000,0.000000,0.000000,0.000000,0.000000,0.000000,0.000000,1647148811.186625,0.000000
106.000000,26542.383616,36038.745766,35148.967522,30837.316017,23881.766067,39810.647346,45226.743248,35160.366912,0.122000,0.900000,0.346000,192.000000,0.000000,0.000000,0.000000,0.000000,0.000000,0.000000,0.000000,0.000000,0.000000,1647148811.186641,0.000000
107.000000,26544.372922,36041.271513,35148.945171,30834.298531,23879.977927,39807.987488,45224.485722,35148.386377,0.122000,0.900000,0.346000,192.000000,0.000000,0.000000,0.000000,0.000000,0.000000,0.000000,0.000000,0.000000,0.000000,1647148811.194235,0.000000
108.000000,26547.412759,36037.494068,35152.812022,30834.477345,23881.609605,39812.279023,45227.503208,35149.593371,0.122000,0.910000,0.340000,192.000000,3.000000,208.000000,28.000000,112.000000,10.000000,160.000000,0.000000,0.000000,0.000000,1647148811.194251,0.000000
109.000000,26539.880221,36031.280283,35148.676950,30830.834011,23876.602814,39805.148817,45216.930832,35137.635188,0.122000,0.910000,0.340000,192.000000,0.000000,0.000000,0.000000,0.000000,0.000000,0.000000,0.000000,0.000000,0.000000,1647148811.202215,0.000000
110.000000,26542.428320,36033.627216,35151.560325,30828.442374,23876.982793,39806.713439,45214.270975,35155.114252,0.122000,0.910000,0.340000,192.000000,0.000000,0.000000,0.000000,0.000000,0.000000,0.000000,0.000000,0.000000,0.000000,1647148811.202232,0.000000
111.000000,26543.992942,36034.945969,35155.181307,30829.224685,23879.374430,39809.149779,45212.304021,35159.875174,0.122000,0.910000,0.340000,192.000000,0.000000,0.000000,0.000000,0.000000,0.000000,0.000000,0.000000,0.000000,0.000000,1647148811.210119,0.000000
112.000000,26547.144538,36041.718548,35154.913086,30829.939941,23878.480360,39807.473398,45213.063981,35149.727482,0.122000,0.910000,0.340000,192.000000,0.000000,0.000000,0.000000,0.000000,0.000000,0.000000,0.000000,0.000000,0.000000,1647148811.210134,0.000000
113.000000,26550.296134,36044.445460,35159.025807,30836.980741,23883.397744,39818.045773,45228.665498,35169.866403,0.122000,0.910000,0.340000,192.000000,0.000000,0.000000,0.000000,0.000000,0.000000,0.000000,0.000000,0.000000,0.000000,1647148811.216876,0.000000
114.000000,26549.469119,36043.394928,35156.745929,30838.612418,23882.526026,39822.538474,45236.913292,35176.907203,0.122000,0.910000,0.340000,192.000000,0.000000,0.000000,0.000000,0.000000,0.000000,0.000000,0.000000,0.000000,0.000000,1647148811.216891,0.000000
115.000000,26543.769424,36040.891533,35149.436909,30831.795136,23873.652384,39814.603605,45223.971632,35167.720636,0.122000,0.910000,0.340000,192.000000,0.000000,0.000000,0.000000,0.000000,0.000000,0.000000,0.000000,0.000000,0.000000,1647148811.223859,0.000000
116.000000,26544.730549,36035.348300,35151.269752,30829.403499,23872.959479,39812.547244,45219.344821,35163.339694,0.122000,0.910000,0.340000,192.000000,0.000000,0.000000,0.000000,0.000000,0.000000,0.000000,0.000000,0.000000,0.000000,1647148811.231786,0.000000
117.000000,26548.150366,36036.152963,35154.354293,30830.655197,23876.379296,39813.374259,45224.865702,35159.584601,0.122000,0.910000,0.340000,192.000000,0.000000,0.000000,0.000000,0.000000,0.000000,0.000000,0.000000,0.000000,0.000000,1647148811.231801,0.000000
118.000000,26548.016256,36037.695234,35153.706092,30828.867057,23875.775799,39815.251805,45221.535292,35156.075377,0.114000,0.922000,0.340000,192.000000,3.000000,144.000000,28.000000,208.000000,10.000000,160.000000,0.000000,0.000000,0.000000,1647148811.239770,0.000000
119.000000,26547.882145,36039.013986,35154.175479,30828.084746,23875.976965,39819.610395,45231.347708,35162.087996,0.114000,0.922000,0.340000,192.000000,0.000000,0.000000,0.000000,0.000000,0.000000,0.000000,0.000000,0.000000,0.000000,1647148811.239787,0.000000
120.000000,26553.939468,36047.418242,35155.427176,30830.118755,23876.088724,39821.823218,45237.382679,35162.266810,0.114000,0.922000,0.340000,192.000000,0.000000,0.000000,0.000000,0.000000,0.000000,0.000000,0.000000,0.000000,0.000000,1647148811.246083,0.000000
121.000000,26551.257259,36045.697158,35155.516583,30829.068223,23876.669869,39819.275119,45232.130019,35159.606953,0.114000,0.922000,0.340000,192.000000,0.000000,0.000000,0.000000,0.000000,0.000000,0.000000,0.000000,0.000000,0.000000,1647148811.246090,0.000000
122.000000,26545.244640,36038.522248,35150.576848,30825.536648,23871.730134,39814.268328,45231.682984,35153.616685,0.114000,0.922000,0.340000,192.000000,0.000000,0.000000,0.000000,0.000000,0.000000,0.000000,0.000000,0.000000,0.000000,1647148811.254325,0.000000
123.000000,26548.463291,36040.735071,35155.449528,30829.716424,23875.462875,39816.369392,45230.364231,35144.296008,0.114000,0.922000,0.340000,192.000000,0.000000,0.000000,0.000000,0.000000,0.000000,0.000000,0.000000,0.000000,0.000000,1647148811.254340,0.000000
124.000000,26553.447730,36048.960513,35162.847956,30839.975874,23884.805904,39825.511256,45238.746135,35158.332903,0.114000,0.922000,0.340000,192.000000,0.000000,0.000000,0.000000,0.000000,0.000000,0.000000,0.000000,0.000000,0.000000,1647148811.262440,0.000000
125.000000,26547.971552,36043.260818,35159.294028,30836.041967,23880.223796,39822.113791,45233.962862,35161.037464,0.114000,0.922000,0.340000,192.000000,0.000000,0.000000,0.000000,0.000000,0.000000,0.000000,0.000000,0.000000,0.000000,1647148811.262456,0.000000
126.000000,26547.859794,36047.574705,35161.305685,30836.041967,23880.514369,39824.684241,45234.164027,35167.631229,0.114000,0.922000,0.340000,192.000000,0.000000,0.000000,0.000000,0.000000,0.000000,0.000000,0.000000,0.000000,0.000000,1647148811.269342,0.000000
127.000000,26548.642105,36050.525135,35165.396054,30837.316017,23882.324860,39829.243997,45238.992004,35165.708979,0.114000,0.922000,0.340000,192.000000,0.000000,0.000000,0.000000,0.000000,0.000000,0.000000,0.000000,0.000000,0.000000,1647148811.269357,0.000000
128.000000,26545.825785,36043.104356,35163.786729,30835.013787,23881.564901,39824.907759,45232.219426,35158.221144,0.114000,0.940000,0.346000,192.000000,3.000000,144.000000,29.000000,96.000000,10.000000,208.000000,0.000000,0.000000,0.000000,1647148811.276937,0.000000
129.000000,26548.284477,36045.428937,35166.960677,30841.987531,23884.314166,39830.093364,45253.431231,35168.368836,0.114000,0.940000,0.346000,192.000000,0.000000,0.000000,0.000000,0.000000,0.000000,0.000000,0.000000,0.000000,0.000000,1647148811.276972,0.000000
130.000000,26551.883108,36046.568876,35169.374665,30846.860212,23886.772858,39831.792096,45247.440964,35174.515566,0.114000,0.940000,0.346000,192.000000,0.000000,0.000000,0.000000,0.000000,0.000000,0.000000,0.000000,0.000000,0.000000,1647148811.284216,0.000000
131.000000,26551.167852,36044.847792,35168.368836,30846.279066,23886.884616,39827.411154,45239.394336,35175.297877,0.114000,0.940000,0.346000,192.000000,0.000000,0.000000,0.000000,0.000000,0.000000,0.000000,0.000000,0.000000,0.000000,1647148811.284232,0.000000
132.000000,26546.473985,36045.741862,35167.318304,30845.362645,23887.622224,39825.444201,45250.726670,35167.832395,0.114000,0.940000,0.346000,192.000000,0.000000,0.000000,0.000000,0.000000,0.000000,0.000000,0.000000,0.000000,0.000000,1647148811.292162,0.000000
133.000000,26548.597401,36051.441556,35167.810043,30845.496755,23890.639709,39830.763916,45248.446792,35183.769188,0.114000,0.940000,0.346000,192.000000,0.000000,0.000000,0.000000,0.000000,0.000000,0.000000,0.000000,0.000000,0.000000,1647148811.299278,0.000000
134.000000,26552.240736,36053.587324,35166.424235,30846.703750,23889.902102,39824.214855,45246.435135,35184.149168,0.114000,0.940000,0.346000,192.000000,0.000000,0.000000,0.000000,0.000000,0.000000,0.000000,0.000000,0.000000,0.000000,1647148811.299294,0.000000
135.000000,26558.700390,36049.027568,35171.788653,30852.202279,23895.333576,39828.014651,45250.279635,35183.389209,0.114000,0.940000,0.346000,192.000000,0.000000,0.000000,0.000000,0.000000,0.000000,0.000000,0.000000,0.000000,0.000000,1647148811.306890,0.000000
136.000000,26552.531308,36041.696196,35171.431025,30852.694017,23895.333576,39826.628843,45247.262150,35183.858595,0.114000,0.940000,0.346000,192.000000,0.000000,0.000000,0.000000,0.000000,0.000000,0.000000,0.000000,0.000000,0.000000,1647148811.306906,0.000000
137.000000,26548.642105,36038.969283,35174.470863,30854.482157,23896.786439,39826.114753,45249.363214,35184.395037,0.114000,0.940000,0.346000,192.000000,0.000000,0.000000,0.000000,0.000000,0.000000,0.000000,0.000000,0.000000,0.000000,1647148811.314731,0.000000
138.000000,26552.441901,36043.104356,35174.560270,30852.984590,23895.758259,39820.795038,45244.691699,35170.335790,0.114000,0.940000,0.346000,192.000000,0.000000,0.000000,0.000000,0.000000,0.000000,0.000000,0.000000,0.000000,0.000000,1647148811.314748,0.000000
139.000000,26558.320410,36051.665074,35182.718656,30861.567660,23905.458916,39824.013689,45242.925911,35175.990781,0.118000,0.930000,0.350000,192.000000,3.000000,176.000000,29.000000,16.000000,10.000000,240.000000,0.000000,0.000000,0.000000,1647148811.322853,0.000000
140.000000,26561.919041,36053.117937,35183.903299,30864.093407,23906.777669,39824.505427,45244.490533,35172.190985,0.118000,0.930000,0.350000,192.000000,0.000000,0.000000,0.000000,0.000000,0.000000,0.000000,0.000000,0.000000,0.000000,1647148811.322870,0.000000
141.000000,26555.213518,36047.507649,35175.543746,30857.544346,23900.407422,39821.823218,45244.267016,35174.672028,0.118000,0.930000,0.350000,192.000000,0.000000,0.000000,0.000000,0.000000,0.000000,0.000000,0.000000,0.000000,0.000000,1647148811.329414,0.000000
142.000000,26556.107587,36050.100452,35174.850842,30856.315000,23898.731041,39823.186674,45251.531333,35183.635078,0.118000,0.930000,0.350000,192.000000,0.000000,0.000000,0.000000,0.000000,0.000000,0.000000,0.000000,0.000000,0.000000,1647148811.329430,0.000000
143.000000,26555.302925,36049.474603,35174.470863,30853.521032,23899.513352,39815.698840,45238.947301,35168.011209,0.118000,0.930000,0.350000,192.000000,0.000000,0.000000,0.000000,0.000000,0.000000,0.000000,0.000000,0.000000,0.000000,1647148811.337353,0.000000
144.000000,26546.742206,36039.863353,35166.848918,30849.229497,23894.439506,39812.614299,45232.107667,35170.134624,0.118000,0.930000,0.350000,192.000000,0.000000,0.000000,0.000000,0.000000,0.000000,0.000000,0.000000,0.000000,0.000000,1647148811.337369,0.000000
145.000000,26549.782044,36045.674806,35167.027732,30849.721235,23893.254863,39814.402439,45240.869551,35175.543746,0.118000,0.930000,0.350000,192.000000,0.000000,0.000000,0.000000,0.000000,0.000000,0.000000,0.000000,0.000000,0.000000,1647148811.345460,0.000000
146.000000,26553.872413,36051.106280,35170.156976,30852.291686,23895.266520,39819.386878,45253.967673,35176.460168,0.118000,0.930000,0.350000,192.000000,0.000000,0.000000,0.000000,0.000000,0.000000,0.000000,0.000000,0.000000,0.000000,1647148811.345476,0.000000
147.000000,26549.402064,36046.568876,35169.598182,30853.565735,23894.439506,39810.982622,45240.221350,35161.462147,0.118000,0.930000,0.350000,192.000000,0.000000,0.000000,0.000000,0.000000,0.000000,0.000000,0.000000,0.000000,0.000000,1647148811.351580,0.000000
148.000000,26550.519651,36045.875972,35170.715770,30854.437453,23898.887503,39812.860169,45240.511923,35179.321191,0.118000,0.930000,0.350000,192.000000,0.000000,0.000000,0.000000,0.000000,0.000000,0.000000,0.000000,0.000000,0.000000,1647148811.358976,0.000000
149.000000,26550.698465,36047.239428,35173.442682,30858.013732,23903.357852,39814.536549,45239.282577,35181.534014,0.118000,0.912000,0.338000,192.000000,3.000000,176.000000,28.000000,128.000000,10.000000,144.000000,0.000000,0.000000,0.000000,1647148811.358992,0.000000
150.000000,26549.893802,36041.807955,35171.967467,30855.487985,23900.586236,39809.820331,45232.152370,35165.619572,0.118000,0.912000,0.338000,192.000000,0.000000,0.000000,0.000000,0.000000,0.000000,0.000000,0.000000,0.000000,0.000000,1647148811.367113,0.000000
151.000000,26557.627506,36048.289960,35177.711866,30858.393712,23905.123640,39814.849474,45245.876342,35170.894584,0.118000,0.912000,0.338000,192.000000,0.000000,0.000000,0.000000,0.000000,0.000000,0.000000,0.000000,0.000000,0.000000,1647148811.367128,0.000000
152.000000,26558.119244,36053.117937,35178.784749,30858.840747,23907.425869,39811.764933,45239.170818,35166.804214,0.118000,0.912000,0.338000,192.000000,0.000000,0.000000,0.000000,0.000000,0.000000,0.000000,0.000000,0.000000,0.000000,1647148811.375030,0.000000
153.000000,26560.533233,36056.470699,35180.058799,30861.813529,23910.733928,39809.082724,45230.855969,35165.619572,0.118000,0.912000,0.338000,192.000000,0.000000,0.000000,0.000000,0.000000,0.000000,0.000000,0.000000,0.000000,0.000000,1647148811.375046,0.000000
154.000000,26560.935564,36057.565934,35183.411560,30865.769788,23912.767936,39811.206139,45231.526522,35172.794482,0.118000,0.912000,0.338000,192.000000,0.000000,0.000000,0.000000,0.000000,0.000000,0.000000,0.000000,0.000000,0.000000,1647148811.381463,0.000000
155.000000,26557.202823,36054.995484,35180.192909,30864.763959,23908.409346,39808.300413,45234.633414,35168.838223,0.118000,0.912000,0.338000,192.000000,0.000000,0.000000,0.000000,0.000000,0.000000,0.000000,0.000000,0.000000,0.000000,1647148811.381479,0.000000
156.000000,26548.038608,36047.284132,35174.917898,30857.790215,23903.111983,39802.176035,45226.475027,35165.865441,0.118000,0.912000,0.338000,192.000000,0.000000,0.000000,0.000000,0.000000,0.000000,0.000000,0.000000,0.000000,0.000000,1647148811.389729,0.000000
157.000000,26553.112454,36053.989655,35174.448511,30859.623058,23905.324805,39800.432599,45222.697583,35156.544764,0.118000,0.912000,0.338000,192.000000,0.000000,0.000000,0.000000,0.000000,0.000000,0.000000,0.000000,0.000000,0.000000,1647148811.389744,0.000000
158.000000,26556.264050,36053.050882,35172.436854,30858.952505,23904.721308,39797.415113,45214.650955,35145.704168,0.118000,0.912000,0.338000,192.000000,0.000000,0.000000,0.000000,0.000000,0.000000,0.000000,0.000000,0.000000,0.000000,1647148811.397755,0.000000
159.000000,26553.380675,36049.228734,35171.118101,30861.567660,23906.174172,39800.566709,45216.282632,35152.141470,0.120000,0.912000,0.326000,192.000000,3.000000,192.000000,28.000000,128.000000,10.000000,48.000000,0.000000,0.000000,0.000000,1647148811.397771,0.000000
160.000000,26552.777177,36050.502783,35170.983991,30862.662895,23907.224704,39805.059410,45224.709240,35159.048159,0.120000,0.912000,0.326000,192.000000,0.000000,0.000000,0.000000,0.000000,0.000000,0.000000,0.000000,0.000000,0.000000,1647148811.404784,0.000000
161.000000,26565.294154,36065.053769,35180.125854,30869.636639,23914.757242,39812.435485,45231.057135,35160.881002,0.120000,0.912000,0.326000,192.000000,0.000000,0.000000,0.000000,0.000000,0.000000,0.000000,0.000000,0.000000,0.000000,1647148811.404800,0.000000
162.000000,26559.169776,36059.644647,35174.202642,30861.835880,23909.236361,39804.187692,45220.395353,35158.668179,0.120000,0.912000,0.326000,192.000000,0.000000,0.000000,0.000000,0.000000,0.000000,0.000000,0.000000,0.000000,0.000000,1647148811.411327,0.000000
163.000000,26553.425378,36054.056710,35170.894584,30854.303343,23902.866114,39798.152721,45215.008582,35151.403862,0.120000,0.912000,0.326000,192.000000,0.000000,0.000000,0.000000,0.000000,0.000000,0.000000,0.000000,0.000000,0.000000,1647148811.419143,0.000000
164.000000,26553.738302,36053.386158,35170.045217,30855.175061,23901.435602,39794.978773,45203.184510,35144.631284,0.120000,0.912000,0.326000,192.000000,0.000000,0.000000,0.000000,0.000000,0.000000,0.000000,0.000000,0.000000,0.000000,1647148811.419159,0.000000
165.000000,26557.806320,36058.839984,35174.582621,30858.036084,23905.168343,39802.868939,45217.422571,35153.281409,0.120000,0.912000,0.326000,192.000000,0.000000,0.000000,0.000000,0.000000,0.000000,0.000000,0.000000,0.000000,0.000000,1647148811.427333,0.000000
166.000000,26561.941393,36062.058635,35179.455302,30858.863098,23908.275236,39805.528796,45225.022164,35148.721653,0.120000,0.912000,0.326000,192.000000,0.000000,0.000000,0.000000,0.000000,0.000000,0.000000,0.000000,0.000000,0.000000,1647148811.427349,0.000000
167.000000,26562.120207,36058.147080,35179.142377,30858.460767,23907.112945,39799.538529,45214.650955,35143.781918,0.120000,0.912000,0.326000,192.000000,0.000000,0.000000,0.000000,0.000000,0.000000,0.000000,0.000000,0.000000,0.000000,1647148811.434406,0.000000
168.000000,26562.567241,36057.141251,35181.578717,30862.908764,23910.599817,39799.918509,45209.621812,35141.032653,0.120000,0.912000,0.326000,192.000000,0.000000,0.000000,0.000000,0.000000,0.000000,0.000000,0.000000,0.000000,0.000000,1647148811.434423,0.000000
169.000000,26560.667343,36055.442519,35178.360066,30857.969029,23905.280102,39796.498692,45208.861853,35137.031691,0.118000,0.924000,0.322000,192.000000,3.000000,176.000000,28.000000,224.000000,10.000000,16.000000,0.000000,0.000000,0.000000,1647148811.441944,0.000000
170.000000,26558.007486,36055.040187,35177.108369,30856.337351,23903.022576,39798.644459,45207.967783,35131.220237,0.118000,0.924000,0.322000,192.000000,0.000000,0.000000,0.000000,0.000000,0.000000,0.000000,0.000000,0.000000,0.000000,1647148811.441961,0.000000
171.000000,26552.330143,36049.631065,35170.961639,30852.135223,23899.289834,39798.577404,45198.580050,35132.449583,0.118000,0.924000,0.322000,192.000000,0.000000,0.000000,0.000000,0.000000,0.000000,0.000000,0.000000,0.000000,0.000000,1647148811.449963,0.000000
172.000000,26552.553660,36051.799184,35169.374665,30852.515203,23899.736869,39798.599756,45196.076655,35131.153182,0.118000,0.924000,0.322000,192.000000,0.000000,0.000000,0.000000,0.000000,0.000000,0.000000,0.000000,0.000000,0.000000,1647148811.449979,0.000000
173.000000,26551.838404,36047.865277,35167.027732,30850.056511,23897.188770,39791.782474,45185.526632,35105.828655,0.118000,0.924000,0.322000,192.000000,0.000000,0.000000,0.000000,0.000000,0.000000,0.000000,0.000000,0.000000,0.000000,1647148811.457991,0.000000
174.000000,26554.833538,36053.520269,35170.179328,30849.609476,23899.133372,39794.196462,45188.991152,35115.350499,0.118000,0.924000,0.322000,192.000000,0.000000,0.000000,0.000000,0.000000,0.000000,0.000000,0.000000,0.000000,0.000000,1647148811.458007,0.000000
175.000000,26559.080369,36059.801109,35174.336752,30855.108005,23902.284968,39806.959308,45208.101893,35148.408729,0.118000,0.924000,0.322000,192.000000,0.000000,0.000000,0.000000,0.000000,0.000000,0.000000,0.000000,0.000000,0.000000,1647148811.464603,0.000000
176.000000,26554.051227,36051.888591,35169.419368,30850.302380,23896.875846,39802.556014,45196.188414,35136.562304,0.118000,0.924000,0.322000,192.000000,0.000000,0.000000,0.000000,0.000000,0.000000,0.000000,0.000000,0.000000,0.000000,1647148811.464619,0.000000
177.000000,26555.302925,36049.742824,35171.565136,30849.967104,23895.445334,39804.701782,45213.958050,35137.031691,0.118000,0.924000,0.322000,192.000000,0.000000,0.000000,0.000000,0.000000,0.000000,0.000000,0.000000,0.000000,0.000000,1647148811.471631,0.000000
178.000000,26559.192128,36053.006178,35171.162805,30850.212973,23895.959424,39801.907814,45200.591707,35123.039499,0.118000,0.924000,0.322000,192.000000,0.000000,0.000000,0.000000,0.000000,0.000000,0.000000,0.000000,0.000000,0.000000,1647148811.479568,0.000000
179.000000,26558.633334,36055.911905,35167.765339,30850.302380,23893.254863,39802.734828,45196.411931,35132.673101,0.114000,0.932000,0.312000,192.000000,3.000000,144.000000,29.000000,32.000000,9.000000,192.000000,0.000000,0.000000,0.000000,1647148811.479584,0.000000
180.000000,26559.370942,36058.035321,35167.005380,30848.044854,23891.734945,39807.182825,45217.936661,35132.606045,0.114000,0.932000,0.312000,192.000000,0.000000,0.000000,0.000000,0.000000,0.000000,0.000000,0.000000,0.000000,0.000000,1647148811.486740,0.000000
181.000000,26561.337896,36056.828327,35168.078264,30849.698883,23895.177113,39808.546282,45218.227234,35129.990891,0.114000,0.932000,0.312000,192.000000,0.000000,0.000000,0.000000,0.000000,0.000000,0.000000,0.000000,0.000000,0.000000,1647148811.486756,0.000000
182.000000,26558.186300,36052.425033,35168.100616,30848.223668,23895.199465,39802.980698,45197.685981,35123.933568,0.114000,0.932000,0.312000,192.000000,0.000000,0.000000,0.000000,0.000000,0.000000,0.000000,0.000000,0.000000,0.000000,1647148811.494200,0.000000
183.000000,26559.415646,36057.632990,35172.123930,30847.731930,23898.194599,39805.059410,45195.450806,35132.449583,0.114000,0.932000,0.312000,192.000000,0.000000,0.000000,0.000000,0.000000,0.000000,0.000000,0.000000,0.000000,0.000000,1647148811.494216,0.000000
184.000000,26553.850061,36050.882763,35169.329961,30842.211049,23895.266520,39806.624032,45210.024143,35134.394185,0.114000,0.932000,0.312000,192.000000,0.000000,0.000000,0.000000,0.000000,0.000000,0.000000,0.000000,0.000000,0.000000,1647148811.502185,0.000000
185.000000,26554.744131,36050.994521,35169.441720,30843.418043,23893.858361,39812.234320,45229.671327,35142.530220,0.114000,0.932000,0.312000,192.000000,0.000000,0.000000,0.000000,0.000000,0.000000,0.000000,0.000000,0.000000,0.000000,1647148811.502201,0.000000
186.000000,26559.058018,36060.091681,35174.023828,30850.950581,23900.094497,39818.492808,45227.480856,35144.608932,0.114000,0.932000,0.312000,192.000000,0.000000,0.000000,0.000000,0.000000,0.000000,0.000000,0.000000,0.000000,0.000000,1647148811.510181,0.000000
187.000000,26558.745093,36059.130556,35175.543746,30855.555040,23904.520143,39819.431581,45225.826827,35145.614761,0.114000,0.932000,0.312000,192.000000,0.000000,0.000000,0.000000,0.000000,0.000000,0.000000,0.000000,0.000000,0.000000,1647148811.510197,0.000000
188.000000,26562.276669,36060.270495,35178.717694,30859.757168,23908.118773,39821.845570,45229.581920,35150.129813,0.114000,0.932000,0.312000,192.000000,0.000000,0.000000,0.000000,0.000000,0.000000,0.000000,0.000000,0.000000,0.000000,1647148811.516673,0.000000
189.000000,26563.707180,36063.735016,35179.902337,30858.997209,23907.112945,39820.325651,45225.133923,35142.664330,0.110000,0.936000,0.312000,192.000000,3.000000,112.000000,29.000000,64.000000,9.000000,192.000000,0.000000,0.000000,0.000000,1647148811.516690,0.000000
190.000000,26564.534195,36063.444443,35180.908165,30857.969029,23906.777669,39821.778515,45218.763676,35142.440813,0.110000,0.936000,0.312000,192.000000,0.000000,0.000000,0.000000,0.000000,0.000000,0.000000,0.000000,0.000000,0.000000,1647148811.524906,0.000000
191.000000,26561.628468,36061.768062,35182.517491,30857.879622,23906.330634,39823.052564,45221.222367,35139.512734,0.110000,0.936000,0.312000,192.000000,0.000000,0.000000,0.000000,0.000000,0.000000,0.000000,0.000000,0.000000,0.000000,1647148811.524922,0.000000
192.000000,26561.851986,36063.444443,35183.076284,30854.996247,23906.554151,39824.751297,45227.771429,35149.034577,0.110000,0.936000,0.312000,192.000000,0.000000,0.000000,0.000000,0.000000,0.000000,0.000000,0.000000,0.000000,0.000000,1647148811.531931,0.000000
193.000000,26560.533233,36064.405568,35181.064627,30853.096348,23903.983701,39821.130314,45216.707315,35147.425252,0.110000,0.936000,0.312000,192.000000,0.000000,0.000000,0.000000,0.000000,0.000000,0.000000,0.000000,0.000000,0.000000,1647148811.531967,0.000000
194.000000,26567.708143,36068.808862,35187.747799,30858.460767,23909.526933,39828.193465,45224.061039,35151.381511,0.110000,0.936000,0.312000,192.000000,0.000000,0.000000,0.000000,0.000000,0.000000,0.000000,0.000000,0.000000,0.000000,1647148811.540029,0.000000
195.000000,26566.612907,36065.724321,35188.999497,30858.840747,23909.124602,39828.573445,45223.211673,35150.599200,0.110000,0.936000,0.312000,192.000000,0.000000,0.000000,0.000000,0.000000,0.000000,0.000000,0.000000,0.000000,0.000000,1647148811.546463,0.000000
196.000000,26561.404951,36063.891478,35184.953831,30857.678456,23905.950654,39822.896102,45216.796722,35141.725557,0.110000,0.936000,0.312000,192.000000,0.000000,0.000000,0.000000,0.000000,0.000000,0.000000,0.000000,0.000000,0.000000,1647148811.546479,0.000000
197.000000,26560.197957,36056.068367,35183.076284,30855.756206,23905.593026,39821.152666,45214.427437,35145.815926,0.110000,0.936000,0.312000,192.000000,0.000000,0.000000,0.000000,0.000000,0.000000,0.000000,0.000000,0.000000,0.000000,1647148811.554586,0.000000
198.000000,26553.157157,36046.300655,35171.855709,30845.496755,23895.892369,39807.898081,45205.799664,35128.135696,0.110000,0.936000,0.312000,192.000000,0.000000,0.000000,0.000000,0.000000,0.000000,0.000000,0.000000,0.000000,0.000000,1647148811.554601,0.000000
199.000000,26555.772311,36052.268571,35176.482520,30852.738721,23903.089631,39817.419924,45216.170873,35150.778014,0.108000,0.938000,0.322000,192.000000,3.000000,96.000000,29.000000,80.000000,10.000000,16.000000,0.000000,0.000000,0.000000,1647148811.562366,0.000000
200.000000,26565.405913,36063.645609,35186.093770,30864.138110,23911.940922,39826.852361,45220.574167,35155.002493,0.108000,0.938000,0.322000,192.000000,0.000000,0.000000,0.000000,0.000000,0.000000,0.000000,0.000000,0.000000,0.000000,1647148811.562382,0.000000
201.000000,26560.108550,36063.109167,35185.423217,30861.746474,23910.264541,39826.628843,45218.920138,35151.314455,0.108000,0.938000,0.322000,192.000000,0.000000,0.000000,0.000000,0.000000,0.000000,0.000000,0.000000,0.000000,0.000000,1647148811.569470,0.000000
202.000000,26559.125073,36064.047940,35182.271621,30859.846575,23908.856381,39825.131276,45220.954146,35152.387339,0.108000,0.938000,0.322000,192.000000,0.000000,0.000000,0.000000,0.000000,0.000000,0.000000,0.000000,0.000000,0.000000,1647148811.569485,0.000000
203.000000,26557.851023,36059.957571,35179.030619,30856.270296,23906.956483,39820.973852,45217.199053,35150.889772,0.108000,0.938000,0.322000,192.000000,0.000000,0.000000,0.000000,0.000000,0.000000,0.000000,0.000000,0.000000,0.000000,1647148811.577128,0.000000
204.000000,26555.839366,36055.174298,35176.951906,30854.213936,23905.101288,39820.348003,45219.702449,35150.867421,0.108000,0.938000,0.322000,192.000000,0.000000,0.000000,0.000000,0.000000,0.000000,0.000000,0.000000,0.000000,0.000000,1647148811.577144,0.000000
205.000000,26558.834500,36058.012969,35177.868328,30853.476328,23904.766012,39815.855302,45214.069809,35138.484554,0.108000,0.938000,0.322000,192.000000,0.000000,0.000000,0.000000,0.000000,0.000000,0.000000,0.000000,0.000000,0.000000,1647148811.585090,0.000000
206.000000,26567.104646,36065.210231,35183.948002,30858.237250,23909.012843,39817.375221,45209.152425,35135.757641,0.108000,0.938000,0.322000,192.000000,0.000000,0.000000,0.000000,0.000000,0.000000,0.000000,0.000000,0.000000,0.000000,1647148811.585106,0.000000
207.000000,26565.920003,36062.997408,35183.277450,30858.125491,23910.376300,39818.693974,45221.289423,35148.878115,0.108000,0.938000,0.322000,192.000000,0.000000,0.000000,0.000000,0.000000,0.000000,0.000000,0.000000,0.000000,0.000000,1647148811.592994,0.000000
208.000000,26565.964707,36064.114995,35186.272584,30860.114796,23913.371433,39819.386878,45227.704373,35157.550592,0.108000,0.938000,0.322000,192.000000,0.000000,0.000000,0.000000,0.000000,0.000000,0.000000,0.000000,0.000000,0.000000,1647148811.593010,0.000000
209.000000,26566.523500,36068.071254,35185.892604,30861.969991,23912.946750,39816.257634,45215.209748,35153.460223,0.106000,0.924000,0.322000,192.000000,3.000000,80.000000,28.000000,224.000000,10.000000,16.000000,0.000000,0.000000,0.000000,1647148811.599239,0.000000
210.000000,26561.874337,36065.523155,35180.371723,30858.684285,23908.275236,39806.534625,45199.094140,35140.987949,0.106000,0.924000,0.322000,192.000000,0.000000,0.000000,0.000000,0.000000,0.000000,0.000000,0.000000,0.000000,0.000000,1647148811.606767,0.000000
211.000000,26560.354419,36063.444443,35179.991744,30860.137148,23907.962311,39807.696916,45210.940565,35149.191040,0.106000,0.924000,0.322000,192.000000,0.000000,0.000000,0.000000,0.000000,0.000000,0.000000,0.000000,0.000000,0.000000,1647148811.606783,0.000000
212.000000,26562.388428,36060.225792,35181.288145,30863.176985,23911.002149,39809.909738,45214.360382,35151.828546,0.106000,0.924000,0.322000,192.000000,0.000000,0.000000,0.000000,0.000000,0.000000,0.000000,0.000000,0.000000,0.000000,1647148811.614825,0.000000
213.000000,26560.935564,36057.364769,35179.187081,30861.120625,23909.035195,39805.797017,45210.091199,35142.440813,0.106000,0.924000,0.322000,192.000000,0.000000,0.000000,0.000000,0.000000,0.000000,0.000000,0.000000,0.000000,0.000000,1647148811.614841,0.000000
214.000000,26561.561413,36058.012969,35177.711866,30857.723160,23906.017709,39807.562805,45223.144617,35143.133717,0.106000,0.924000,0.322000,192.000000,0.000000,0.000000,0.000000,0.000000,0.000000,0.000000,0.000000,0.000000,0.000000,1647148811.622591,0.000000
215.000000,26560.510881,36056.403644,35178.248307,30856.471462,23904.788364,39807.808674,45219.411876,35148.833412,0.106000,0.924000,0.322000,192.000000,0.000000,0.000000,0.000000,0.000000,0.000000,0.000000,0.000000,0.000000,0.000000,1647148811.622603,0.000000
216.000000,26555.906422,36049.876934,35175.186119,30852.068168,23901.033270,39802.488959,45208.928908,35150.308627,0.106000,0.924000,0.322000,192.000000,0.000000,0.000000,0.000000,0.000000,0.000000,0.000000,0.000000,0.000000,0.000000,1647148811.629335,0.000000
217.000000,26556.465215,36049.765176,35172.682723,30848.067206,23897.792268,39798.219776,45200.055265,35132.561342,0.106000,0.924000,0.322000,192.000000,0.000000,0.000000,0.000000,0.000000,0.000000,0.000000,0.000000,0.000000,0.000000,1647148811.629346,0.000000
218.000000,26558.767445,36056.202478,35176.236650,30852.314037,23901.748526,39801.639593,45202.178681,35132.181362,0.106000,0.924000,0.322000,192.000000,0.000000,0.000000,0.000000,0.000000,0.000000,0.000000,0.000000,0.000000,0.000000,1647148811.637476,0.000000
219.000000,26562.209614,36060.583420,35179.254136,30857.052607,23906.509448,39807.026363,45201.753998,35137.143449,0.118000,0.914000,0.320000,192.000000,3.000000,176.000000,28.000000,144.000000,10.000000,0.000000,0.000000,0.000000,0.000000,1647148811.637492,0.000000
220.000000,26558.745093,36056.269533,35170.894584,30851.285857,23898.105192,39798.577404,45191.427492,35143.513697,0.118000,0.914000,0.320000,192.000000,0.000000,0.000000,0.000000,0.000000,0.000000,0.000000,0.000000,0.000000,0.000000,1647148811.645476,0.000000
221.000000,26555.951125,36052.089757,35168.614706,30846.837860,23894.819486,39796.386933,45196.970725,35141.457336,0.118000,0.914000,0.320000,192.000000,0.000000,0.000000,0.000000,0.000000,0.000000,0.000000,0.000000,0.000000,0.000000,1647148811.645492,0.000000
222.000000,26553.335971,36051.396853,35168.100616,30844.580334,23894.126581,39797.258651,45205.129111,35139.244513,0.118000,0.914000,0.320000,192.000000,0.000000,0.000000,0.000000,0.000000,0.000000,0.000000,0.000000,0.000000,0.000000,1647148811.652067,0.000000
223.000000,26555.101759,36052.156812,35168.994685,30842.501622,23893.411326,39794.911718,45201.239908,35139.177458,0.118000,0.914000,0.320000,192.000000,0.000000,0.000000,0.000000,0.000000,0.000000,0.000000,0.000000,0.000000,0.000000,1647148811.652083,0.000000
224.000000,26555.146462,36052.380330,35167.295953,30840.624075,23890.058564,39788.876747,45190.265201,35133.053080,0.118000,0.914000,0.320000,192.000000,0.000000,0.000000,0.000000,0.000000,0.000000,0.000000,0.000000,0.000000,0.000000,1647148811.658949,0.000000
225.000000,26566.210576,36063.243277,35176.124892,30852.537555,23899.446297,39797.526872,45199.250603,35137.948112,0.118000,0.914000,0.320000,192.000000,0.000000,0.000000,0.000000,0.000000,0.000000,0.000000,0.000000,0.000000,0.000000,1647148811.667183,0.000000
226.000000,26562.768407,36059.085853,35173.956773,30849.475366,23896.406459,39791.223680,45192.232155,35113.763525,0.118000,0.914000,0.320000,192.000000,0.000000,0.000000,0.000000,0.000000,0.000000,0.000000,0.000000,0.000000,0.000000,1647148811.667199,0.000000
227.000000,26563.014276,36059.130556,35177.465996,30853.141052,23900.563884,39794.352924,45194.959068,35128.538028,0.118000,0.914000,0.320000,192.000000,0.000000,0.000000,0.000000,0.000000,0.000000,0.000000,0.000000,0.000000,0.000000,1647148811.675194,0.000000
228.000000,26566.232928,36062.930353,35180.796406,30860.964162,23906.822372,39804.165340,45208.638335,35151.090938,0.118000,0.914000,0.320000,192.000000,0.000000,0.000000,0.000000,0.000000,0.000000,0.000000,0.000000,0.000000,0.000000,1647148811.675210,0.000000
229.000000,26565.584727,36062.550373,35180.058799,30862.305267,23908.342291,39809.239186,45216.148521,35148.766357,0.120000,0.926000,0.310000,192.000000,3.000000,192.000000,28.000000,240.000000,9.000000,176.000000,0.000000,0.000000,0.000000,1647148811.681733,0.000000
230.000000,26560.779102,36057.454176,35172.638020,30855.420930,23902.687300,39808.032192,45204.413856,35151.873249,0.120000,0.926000,0.310000,192.000000,0.000000,0.000000,0.000000,0.000000,0.000000,0.000000,0.000000,0.000000,0.000000,1647148811.681748,0.000000
231.000000,26565.160044,36062.326856,35175.633153,30860.070093,23908.230532,39815.900006,45214.494492,35160.545726,0.120000,0.926000,0.310000,192.000000,0.000000,0.000000,0.000000,0.000000,0.000000,0.000000,0.000000,0.000000,0.000000,1647148811.689756,0.000000
232.000000,26565.294154,36062.282152,35178.762398,30861.142976,23910.353948,39814.223625,45214.583899,35151.761490,0.120000,0.926000,0.310000,192.000000,0.000000,0.000000,0.000000,0.000000,0.000000,0.000000,0.000000,0.000000,0.000000,1647148811.689772,0.000000
233.000000,26566.232928,36061.946876,35178.650639,30855.912668,23908.431698,39811.004974,45205.598498,35138.618665,0.120000,0.926000,0.310000,192.000000,0.000000,0.000000,0.000000,0.000000,0.000000,0.000000,0.000000,0.000000,0.000000,1647148811.697801,0.000000
234.000000,26561.784930,36061.455138,35175.454339,30850.391787,23905.257750,39806.579328,45200.122321,35134.438888,0.120000,0.926000,0.310000,192.000000,0.000000,0.000000,0.000000,0.000000,0.000000,0.000000,0.000000,0.000000,0.000000,1647148811.697817,0.000000
235.000000,26569.764503,36075.112054,35184.529148,30861.075921,23913.751413,39815.654137,45207.945431,35149.213391,0.120000,0.926000,0.310000,192.000000,0.000000,0.000000,0.000000,0.000000,0.000000,0.000000,0.000000,0.000000,0.000000,1647148811.704949,0.000000
236.000000,26574.748942,36080.230603,35191.838168,30866.842671,23918.400576,39823.253730,45216.863777,35158.556421,0.120000,0.926000,0.310000,192.000000,0.000000,0.000000,0.000000,0.000000,0.000000,0.000000,0.000000,0.000000,0.000000,1647148811.704965,0.000000
237.000000,26573.720762,36074.955592,35190.899395,30863.065226,23914.980759,39818.313994,45205.978478,35141.725557,0.120000,0.926000,0.310000,192.000000,0.000000,0.000000,0.000000,0.000000,0.000000,0.000000,0.000000,0.000000,0.000000,1647148811.712377,0.000000
238.000000,26573.161968,36073.212155,35190.653526,30861.321790,23913.036157,39817.598738,45205.263222,35141.993778,0.120000,0.926000,0.310000,192.000000,0.000000,0.000000,0.000000,0.000000,0.000000,0.000000,0.000000,0.000000,0.000000,1647148811.712394,0.000000
239.000000,26571.440884,36073.010990,35190.295898,30860.405369,23912.186791,39813.016631,45198.222422,35133.768336,0.120000,0.926000,0.310000,192.000000,0.000000,0.000000,0.000000,0.000000,0.000000,0.000000,0.000000,0.000000,0.000000,1647148811.719139,0.000000
240.000000,26568.870433,36072.496900,35187.032543,30854.258639,23907.627035,39806.132293,45192.232155,35127.845124,0.124000,0.940000,0.316000,192.000000,3.000000,224.000000,29.000000,96.000000,9.000000,224.000000,0.000000,0.000000,0.000000,1647148811.727217,0.000000
241.000000,26560.108550,36064.293809,35179.477653,30843.753319,23896.987605,39802.712477,45192.433321,35129.029766,0.124000,0.940000,0.316000,192.000000,0.000000,0.000000,0.000000,0.000000,0.000000,0.000000,0.000000,0.000000,0.000000,1647148811.727234,0.000000
242.000000,26552.888936,36057.141251,35174.090883,30837.785403,23889.611529,39795.895195,45184.677265,35123.017147,0.124000,0.940000,0.316000,192.000000,0.000000,0.000000,0.000000,0.000000,0.000000,0.000000,0.000000,0.000000,0.000000,1647148811.734542,0.000000
243.000000,26557.783968,36062.282152,35176.996610,30840.355854,23894.417154,39800.700820,45192.500376,35121.676042,0.124000,0.940000,0.316000,192.000000,0.000000,0.000000,0.000000,0.000000,0.000000,0.000000,0.000000,0.000000,0.000000,1647148811.734558,0.000000
244.000000,26551.838404,36056.090719,35172.347447,30837.338369,23891.690241,39799.605584,45186.353646,35120.603159,0.124000,0.940000,0.316000,192.000000,0.000000,0.000000,0.000000,0.000000,0.000000,0.000000,0.000000,0.000000,0.000000,1647148811.742083,0.000000
245.000000,26553.917116,36058.147080,35173.509738,30839.707653,23891.779648,39803.561843,45190.935754,35128.582731,0.124000,0.940000,0.316000,192.000000,0.000000,0.000000,0.000000,0.000000,0.000000,0.000000,0.000000,0.000000,0.000000,1647148811.742099,0.000000
246.000000,26554.900593,36057.968266,35172.280392,30839.953523,23890.237378,39805.305279,45193.282687,35130.504981,0.124000,0.940000,0.316000,192.000000,0.000000,0.000000,0.000000,0.000000,0.000000,0.000000,0.000000,0.000000,0.000000,1647148811.750066,0.000000
247.000000,26552.978343,36056.604809,35173.241517,30841.071110,23891.153799,39807.361639,45193.908536,35128.068641,0.124000,0.940000,0.316000,192.000000,0.000000,0.000000,0.000000,0.000000,0.000000,0.000000,0.000000,0.000000,0.000000,1647148811.750082,0.000000
248.000000,26555.168814,36059.845812,35178.114197,30844.334465,23894.908893,39814.022459,45200.211728,35144.385415,0.124000,0.940000,0.316000,192.000000,0.000000,0.000000,0.000000,0.000000,0.000000,0.000000,0.000000,0.000000,0.000000,1647148811.757984,0.000000
249.000000,26556.152291,36061.321027,35181.712828,30846.860212,23897.322881,39819.141009,45209.577109,35152.342636,0.124000,0.940000,0.316000,192.000000,0.000000,0.000000,0.000000,0.000000,0.000000,0.000000,0.000000,0.000000,0.000000,1647148811.758000,0.000000
250.000000,26554.900593,36060.717530,35181.355200,30847.754281,23899.401593,39821.130314,45212.035800,35152.834374,0.124000,0.940000,0.314000,192.000000,3.000000,224.000000,29.000000,96.000000,9.000000,208.000000,0.000000,0.000000,0.000000,1647148811.764632,0.000000
251.000000,26558.588631,36062.438615,35181.556366,30852.805776,23901.010919,39824.147800,45213.689830,35144.296008,0.124000,0.940000,0.314000,192.000000,0.000000,0.000000,0.000000,0.000000,0.000000,0.000000,0.000000,0.000000,0.000000,1647148811.764648,0.000000
252.000000,26555.057055,36059.398777,35177.756569,30852.246982,23898.529875,39822.292605,45209.510053,35139.512734,0.124000,0.940000,0.314000,192.000000,0.000000,0.000000,0.000000,0.000000,0.000000,0.000000,0.000000,0.000000,0.000000,1647148811.772680,0.000000
253.000000,26553.045398,36059.555240,35176.348409,30850.414139,23896.317052,39822.180846,45212.080504,35147.134679,0.124000,0.940000,0.314000,192.000000,0.000000,0.000000,0.000000,0.000000,0.000000,0.000000,0.000000,0.000000,0.000000,1647148811.772696,0.000000
254.000000,26551.771349,36060.806937,35174.739084,30842.523973,23891.712593,39816.145875,45207.587803,35145.771223,0.124000,0.940000,0.314000,192.000000,0.000000,0.000000,0.000000,0.000000,0.000000,0.000000,0.000000,0.000000,0.000000,1647148811.779743,0.000000
255.000000,26551.056093,36059.063501,35172.906241,30842.255752,23889.633881,39816.928186,45204.436207,35143.178420,0.124000,0.940000,0.314000,192.000000,0.000000,0.000000,0.000000,0.000000,0.000000,0.000000,0.000000,0.000000,0.000000,1647148811.779758,0.000000
0.000000,26554.118282,36056.716568,35175.499043,30846.323770,23893.165456,39824.639538,45210.068847,35159.316380,0.124000,0.940000,0.314000,192.000000,0.000000,0.000000,0.000000,0.000000,0.000000,0.000000,0.000000,0.000000,0.000000,1647148811.786879,0.000000
1.000000,26553.470082,36055.330760,35175.923726,30844.759148,23894.372451,39826.740602,45211.164082,35157.349426,0.124000,0.940000,0.314000,192.000000,0.000000,0.000000,0.000000,0.000000,0.000000,0.000000,0.000000,0.000000,0.000000,1647148811.794387,0.000000
2.000000,26552.553660,36057.498879,35176.124892,30846.212011,23896.495866,39829.802791,45213.421609,35150.085109,0.124000,0.940000,0.314000,192.000000,0.000000,0.000000,0.000000,0.000000,0.000000,0.000000,0.000000,0.000000,0.000000,1647148811.794403,0.000000
3.000000,26554.587669,36059.711702,35178.158901,30847.664875,23898.172247,39832.619111,45212.952222,35153.102595,0.124000,0.940000,0.314000,192.000000,0.000000,0.000000,0.000000,0.000000,0.000000,0.000000,0.000000,0.000000,0.000000,1647148811.802249,0.000000
4.000000,26554.967648,36062.170394,35182.808063,30851.621133,23901.972044,39842.565637,45220.060077,35168.927630,0.118000,0.944000,0.322000,192.000000,3.000000,176.000000,29.000000,128.000000,10.000000,16.000000,0.000000,0.000000,0.000000,1647148811.802266,0.000000
5.000000,26551.033741,36061.321027,35180.215261,30846.144956,23899.066317,39843.750279,45221.982327,35169.486424,0.118000,0.944000,0.322000,192.000000,0.000000,0.000000,0.000000,0.000000,0.000000,0.000000,0.000000,0.000000,0.000000,1647148811.810280,0.000000
6.000000,26548.038608,36059.085853,35175.856671,30838.165383,23894.730079,39840.553980,45220.842388,35160.411615,0.118000,0.944000,0.322000,192.000000,0.000000,0.000000,0.000000,0.000000,0.000000,0.000000,0.000000,0.000000,0.000000,1647148811.810296,0.000000
7.000000,26549.446768,36063.399740,35181.310496,30846.770805,23902.016747,39844.577294,45223.368135,35159.472842,0.118000,0.944000,0.322000,192.000000,0.000000,0.000000,0.000000,0.000000,0.000000,0.000000,0.000000,0.000000,0.000000,1647148811.816888,0.000000
8.000000,26551.167852,36064.025589,35182.673953,30850.168270,23903.089631,39843.951445,45223.412838,35163.071473,0.118000,0.944000,0.322000,192.000000,0.000000,0.000000,0.000000,0.000000,0.000000,0.000000,0.000000,0.000000,0.000000,1647148811.816904,0.000000
9.000000,26554.520613,36063.735016,35184.909127,30853.632790,23906.621207,39847.952407,45226.922062,35185.490273,0.118000,0.944000,0.322000,192.000000,0.000000,0.000000,0.000000,0.000000,0.000000,0.000000,0.000000,0.000000,0.000000,1647148811.824874,0.000000
10.000000,26552.061922,36064.450272,35183.679781,30851.039988,23905.101288,39839.592855,45217.646088,35170.604011,0.118000,0.944000,0.322000,192.000000,0.000000,0.000000,0.000000,0.000000,0.000000,0.000000,0.000000,0.000000,0.000000,1647148811.824889,0.000000
11.000000,26551.301962,36063.511498,35179.969392,30850.347084,23902.463782,39833.826105,45209.174777,35164.077302,0.118000,0.944000,0.322000,192.000000,0.000000,0.000000,0.000000,0.000000,0.000000,0.000000,0.000000,0.000000,0.000000,1647148811.832939,0.000000
12.000000,26549.714988,36060.873993,35179.187081,30855.286819,23904.743660,39836.195390,45215.433266,35167.497118,0.118000,0.944000,0.322000,192.000000,0.000000,0.000000,0.000000,0.000000,0.000000,0.000000,0.000000,0.000000,0.000000,1647148811.832955,0.000000
13.000000,26554.677076,36065.433748,35178.985915,30857.656104,23906.710614,39833.289663,45217.489626,35162.624438,0.118000,0.944000,0.322000,192.000000,0.000000,0.000000,0.000000,0.000000,0.000000,0.000000,0.000000,0.000000,0.000000,1647148811.840022,0.000000
14.000000,26550.050265,36060.315199,35175.454339,30850.347084,23902.307320,39826.248863,45210.202957,35149.459261,0.118000,0.930000,0.326000,192.000000,3.000000,176.000000,29.000000,16.000000,10.000000,48.000000,0.000000,0.000000,0.000000,1647148811.840038,0.000000
15.000000,26550.452596,36057.074196,35183.232747,30853.521032,23908.789326,39836.038928,45212.795760,35161.596258,0.118000,0.930000,0.326000,192.000000,0.000000,0.000000,0.000000,0.000000,0.000000,0.000000,0.000000,0.000000,0.000000,1647148811.846574,0.000000
16.000000,26555.235869,36060.650475,35183.053933,30851.911706,23908.610512,39835.547189,45209.375943,35169.866403,0.118000,0.930000,0.326000,192.000000,0.000000,0.000000,0.000000,0.000000,0.000000,0.000000,0.000000,0.000000,0.000000,1647148811.854580,0.000000
17.000000,26556.375808,36062.729187,35184.819720,30853.141052,23911.493887,39838.050585,45207.677210,35166.156014,0.118000,0.930000,0.326000,192.000000,0.000000,0.000000,0.000000,0.000000,0.000000,0.000000,0.000000,0.000000,0.000000,1647148811.854597,0.000000
18.000000,26549.804395,36056.783623,35177.153072,30848.268372,23907.001186,39833.446125,45206.805492,35158.668179,0.118000,0.930000,0.326000,192.000000,0.000000,0.000000,0.000000,0.000000,0.000000,0.000000,0.000000,0.000000,0.000000,1647148811.862592,0.000000
19.000000,26558.856852,36063.533850,35181.265793,30848.424834,23910.711576,39837.804715,45220.775333,35164.524336,0.118000,0.930000,0.326000,192.000000,0.000000,0.000000,0.000000,0.000000,0.000000,0.000000,0.000000,0.000000,0.000000,1647148811.862608,0.000000
20.000000,26555.302925,36061.164565,35181.846938,30848.961276,23909.370471,39836.821239,45220.149484,35161.484499,0.118000,0.930000,0.326000,192.000000,0.000000,0.000000,0.000000,0.000000,0.000000,0.000000,0.000000,0.000000,0.000000,1647148811.869651,0.000000
21.000000,26559.482701,36064.159699,35188.150130,30855.331523,23914.041986,39844.957274,45234.298138,35160.121043,0.118000,0.930000,0.326000,192.000000,0.000000,0.000000,0.000000,0.000000,0.000000,0.000000,0.000000,0.000000,0.000000,1647148811.869666,0.000000
22.000000,26553.783006,36057.230658,35185.646735,30850.794119,23912.857343,39839.659910,45227.860836,35158.109386,0.118000,0.930000,0.326000,192.000000,0.000000,0.000000,0.000000,0.000000,0.000000,0.000000,0.000000,0.000000,0.000000,1647148811.877092,0.000000
23.000000,26555.571145,36061.544545,35189.670049,30853.185755,23917.662968,39841.313939,45232.107667,35168.994685,0.118000,0.930000,0.326000,192.000000,0.000000,0.000000,0.000000,0.000000,0.000000,0.000000,0.000000,0.000000,0.000000,1647148811.877108,0.000000
24.000000,26557.247526,36062.483318,35190.050029,30852.246982,23916.232457,39840.419869,45235.415725,35169.084092,0.114000,0.908000,0.330000,192.000000,3.000000,144.000000,28.000000,96.000000,10.000000,80.000000,0.000000,0.000000,0.000000,1647148811.885173,0.000000
25.000000,26555.168814,36060.918696,35187.121950,30850.615305,23915.383090,39835.457782,45228.531388,35157.975275,0.114000,0.908000,0.330000,192.000000,0.000000,0.000000,0.000000,0.000000,0.000000,0.000000,0.000000,0.000000,0.000000,1647148811.885189,0.000000
26.000000,26556.532270,36059.801109,35186.987840,30851.799947,23914.891352,39827.724079,45220.171835,35150.263923,0.114000,0.908000,0.330000,192.000000,0.000000,0.000000,0.000000,0.000000,0.000000,0.000000,0.000000,0.000000,0.000000,1647148811.893020,0.000000
27.000000,26559.885032,36062.304504,35189.871215,30858.170194,23917.573561,39832.797925,45224.373963,35156.142432,0.114000,0.908000,0.330000,192.000000,0.000000,0.000000,0.000000,0.000000,0.000000,0.000000,0.000000,0.000000,0.000000,1647148811.893036,0.000000
28.000000,26563.841291,36065.836080,35194.676840,30865.613325,23924.748471,39837.558846,45227.838484,35150.867421,0.114000,0.908000,0.330000,192.000000,0.000000,0.000000,0.000000,0.000000,0.000000,0.000000,0.000000,0.000000,0.000000,1647148811.899869,0.000000
29.000000,26566.545852,36067.691275,35194.632136,30867.692038,23923.608532,39835.904817,45225.737420,35143.558400,0.114000,0.908000,0.330000,192.000000,0.000000,0.000000,0.000000,0.000000,0.000000,0.000000,0.000000,0.000000,0.000000,1647148811.899885,0.000000
30.000000,26565.875300,36068.406530,35193.514549,30866.663857,23923.273256,39832.060317,45218.987193,35155.248362,0.114000,0.908000,0.330000,192.000000,0.000000,0.000000,0.000000,0.000000,0.000000,0.000000,0.000000,0.000000,0.000000,1647148811.906823,0.000000
31.000000,26567.462274,36070.798167,35195.794427,30866.641506,23922.245076,39831.166247,45222.921100,35166.334828,0.114000,0.908000,0.330000,192.000000,0.000000,0.000000,0.000000,0.000000,0.000000,0.000000,0.000000,0.000000,0.000000,1647148811.914821,0.000000
32.000000,26570.546814,36071.267554,35200.667107,30870.106026,23925.106099,39832.887332,45234.365193,35156.768281,0.114000,0.908000,0.330000,192.000000,0.000000,0.000000,0.000000,0.000000,0.000000,0.000000,0.000000,0.000000,0.000000,1647148811.914837,0.000000
33.000000,26565.674134,36062.259801,35195.705020,30867.245003,23924.256733,39828.171114,45231.504170,35150.107461,0.114000,0.908000,0.330000,192.000000,0.000000,0.000000,0.000000,0.000000,0.000000,0.000000,0.000000,0.000000,0.000000,1647148811.921969,0.000000
34.000000,26565.540024,36060.270495,35190.273546,30864.607497,23921.596875,39825.332442,45224.508074,35152.677912,0.114000,0.916000,0.330000,192.000000,3.000000,144.000000,28.000000,160.000000,10.000000,80.000000,0.000000,0.000000,0.000000,1647148811.921985,0.000000
35.000000,26570.904442,36066.618391,35193.179273,30866.373285,23923.608532,39830.495695,45224.888054,35161.372740,0.114000,0.916000,0.330000,192.000000,0.000000,0.000000,0.000000,0.000000,0.000000,0.000000,0.000000,0.000000,0.000000,1647148811.929420,0.000000
36.000000,26573.229024,36067.311295,35199.147189,30870.284840,23928.950599,39837.827067,45241.897731,35161.328037,0.114000,0.916000,0.330000,192.000000,0.000000,0.000000,0.000000,0.000000,0.000000,0.000000,0.000000,0.000000,0.000000,1647148811.929436,0.000000
37.000000,26569.473931,36065.254934,35194.252157,30861.947639,23921.306303,39831.054489,45240.847199,35150.666255,0.114000,0.916000,0.330000,192.000000,0.000000,0.000000,0.000000,0.000000,0.000000,0.000000,0.000000,0.000000,0.000000,1647148811.937456,0.000000
38.000000,26571.373829,36067.758330,35194.028639,30857.767863,23917.439451,39831.903855,45236.421554,35159.249325,0.114000,0.916000,0.330000,192.000000,0.000000,0.000000,0.000000,0.000000,0.000000,0.000000,0.000000,0.000000,0.000000,1647148811.937472,0.000000
39.000000,26567.596384,36063.332684,35194.229805,30859.757168,23915.830125,39830.495695,45233.627586,35150.778014,0.114000,0.916000,0.330000,192.000000,0.000000,0.000000,0.000000,0.000000,0.000000,0.000000,0.000000,0.000000,0.000000,1647148811.945504,0.000000
40.000000,26566.836425,36060.762234,35194.140398,30859.354837,23915.673663,39831.993262,45239.662557,35146.397072,0.114000,0.916000,0.330000,192.000000,0.000000,0.000000,0.000000,0.000000,0.000000,0.000000,0.000000,0.000000,0.000000,1647148811.945520,0.000000
41.000000,26565.562375,36061.946876,35196.375572,30861.880584,23918.445279,39835.636596,45238.902597,35149.816889,0.114000,0.916000,0.330000,192.000000,0.000000,0.000000,0.000000,0.000000,0.000000,0.000000,0.000000,0.000000,0.000000,1647148811.952095,0.000000
42.000000,26564.176567,36060.471661,35194.766247,30861.768825,23915.651311,39828.998128,45228.911368,35142.060833,0.114000,0.916000,0.330000,192.000000,0.000000,0.000000,0.000000,0.000000,0.000000,0.000000,0.000000,0.000000,0.000000,1647148811.952112,0.000000
43.000000,26557.091064,36056.001312,35188.485406,30860.114796,23913.214971,39821.689108,45217.936661,35132.538990,0.114000,0.916000,0.330000,192.000000,0.000000,0.000000,0.000000,0.000000,0.000000,0.000000,0.000000,0.000000,0.000000,1647148811.960056,0.000000
44.000000,26554.967648,36053.833193,35185.333810,30858.505471,23910.309244,39820.839741,45213.019277,35130.281464,0.104000,0.922000,0.328000,192.000000,3.000000,64.000000,28.000000,208.000000,10.000000,64.000000,0.000000,0.000000,0.000000,1647148811.960072,0.000000
45.000000,26556.733436,36054.503745,35184.260927,30857.119662,23908.386994,39826.830009,45232.241777,35141.882019,0.104000,0.922000,0.328000,192.000000,0.000000,0.000000,0.000000,0.000000,0.000000,0.000000,0.000000,0.000000,0.000000,1647148811.967132,0.000000
46.000000,26554.945297,36052.223867,35183.769188,30857.365532,23907.291759,39828.998128,45240.869551,35139.199810,0.104000,0.922000,0.328000,192.000000,0.000000,0.000000,0.000000,0.000000,0.000000,0.000000,0.000000,0.000000,0.000000,1647148811.975295,0.000000
47.000000,26552.173680,36051.195687,35181.310496,30853.990418,23903.871942,39825.645366,45245.921045,35138.350444,0.104000,0.922000,0.328000,192.000000,0.000000,0.000000,0.000000,0.000000,0.000000,0.000000,0.000000,0.000000,0.000000,1647148811.975311,0.000000
48.000000,26550.653762,36054.928429,35180.952869,30852.805776,23905.525971,39829.132239,45256.895752,35154.778976,0.104000,0.922000,0.328000,192.000000,0.000000,0.000000,0.000000,0.000000,0.000000,0.000000,0.000000,0.000000,0.000000,1647148811.981746,0.000000
49.000000,26548.284477,36052.536792,35180.818758,30851.308209,23906.598855,39828.439334,45250.726670,35158.087034,0.104000,0.922000,0.328000,192.000000,0.000000,0.000000,0.000000,0.000000,0.000000,0.000000,0.000000,0.000000,0.000000,1647148811.981761,0.000000
50.000000,26545.758730,36051.374501,35181.466959,30848.737758,23907.515276,39828.372279,45238.008528,35151.985008,0.104000,0.922000,0.328000,192.000000,0.000000,0.000000,0.000000,0.000000,0.000000,0.000000,0.000000,0.000000,0.000000,1647148811.989737,0.000000
51.000000,26544.261163,36048.468774,35181.221090,30850.481194,23906.978835,39835.949521,45254.302949,35161.819775,0.104000,0.922000,0.328000,192.000000,0.000000,0.000000,0.000000,0.000000,0.000000,0.000000,0.000000,0.000000,0.000000,1647148811.989753,0.000000
52.000000,26544.462328,36047.597056,35181.913994,30851.956409,23908.610512,39841.828029,45269.591542,35166.290124,0.104000,0.922000,0.328000,192.000000,0.000000,0.000000,0.000000,0.000000,0.000000,0.000000,0.000000,0.000000,0.000000,1647148811.997757,0.000000
53.000000,26539.880221,36044.445460,35175.499043,30847.061377,23901.010919,39832.462648,45258.840353,35149.705130,0.104000,0.922000,0.328000,192.000000,0.000000,0.000000,0.000000,0.000000,0.000000,0.000000,0.000000,0.000000,0.000000,1647148811.997773,0.000000
54.000000,26530.134860,36036.398832,35167.810043,30839.864116,23891.757297,39823.946634,45243.015318,35139.691548,0.096000,0.922000,0.328000,192.000000,3.000000,0.000000,28.000000,208.000000,10.000000,64.000000,0.000000,0.000000,0.000000,1647148812.004647,0.000000
55.000000,26529.218439,36037.494068,35165.127834,30837.874810,23889.209198,39826.785305,45245.049327,35157.729406,0.096000,0.922000,0.328000,192.000000,0.000000,0.000000,0.000000,0.000000,0.000000,0.000000,0.000000,0.000000,0.000000,1647148812.004656,0.000000
56.000000,26528.547886,36034.476582,35165.083130,30836.421947,23887.175189,39830.763916,45254.191191,35156.298894,0.096000,0.922000,0.328000,192.000000,0.000000,0.000000,0.000000,0.000000,0.000000,0.000000,0.000000,0.000000,0.000000,1647148812.012365,0.000000
57.000000,26518.646064,36020.909073,35160.769243,30828.040043,23880.916700,39828.305224,45251.464278,35156.969447,0.096000,0.922000,0.328000,192.000000,0.000000,0.000000,0.000000,0.000000,0.000000,0.000000,0.000000,0.000000,0.000000,1647148812.012381,0.000000
58.000000,26517.707290,36020.685556,35161.596258,30829.403499,23881.296680,39828.864018,45246.077507,35157.841165,0.096000,0.922000,0.328000,192.000000,0.000000,0.000000,0.000000,0.000000,0.000000,0.000000,0.000000,0.000000,0.000000,1647148812.020335,0.000000
59.000000,26517.751994,36023.099544,35162.400921,30832.376281,23883.710669,39832.641462,45250.190228,35160.724540,0.096000,0.922000,0.328000,192.000000,0.000000,0.000000,0.000000,0.000000,0.000000,0.000000,0.000000,0.000000,0.000000,1647148812.020346,0.000000
60.000000,26512.253465,36016.818704,35161.082168,30828.084746,23880.670831,39830.830971,45245.764583,35150.956828,0.096000,0.922000,0.328000,192.000000,0.000000,0.000000,0.000000,0.000000,0.000000,0.000000,0.000000,0.000000,0.000000,1647148812.027180,0.000000
61.000000,26503.737450,36010.046126,35157.192964,30823.346177,23875.708744,39825.153628,45238.880246,35145.435947,0.096000,0.922000,0.328000,192.000000,0.000000,0.000000,0.000000,0.000000,0.000000,0.000000,0.000000,0.000000,0.000000,1647148812.027197,0.000000
62.000000,26502.105773,36010.917844,35155.561287,30824.463764,23875.954613,39825.086573,45231.839446,35161.439796,0.096000,0.922000,0.328000,192.000000,0.000000,0.000000,0.000000,0.000000,0.000000,0.000000,0.000000,0.000000,0.000000,1647148812.034537,0.000000
63.000000,26499.021232,36004.391134,35157.505889,30828.665892,23878.502712,39833.736698,45251.285464,35170.916935,0.096000,0.922000,0.328000,192.000000,0.000000,0.000000,0.000000,0.000000,0.000000,0.000000,0.000000,0.000000,0.000000,1647148812.042048,0.000000
64.000000,26488.091229,35986.196814,35153.996665,30823.256770,23873.786494,39834.071974,45248.133868,35172.213336,0.096000,0.924000,0.326000,192.000000,3.000000,0.000000,28.000000,224.000000,10.000000,48.000000,0.000000,0.000000,0.000000,1647148812.042063,0.000000
65.000000,26483.620880,35973.992762,35151.046234,30813.801982,23870.769008,39830.965082,45254.749984,35163.093825,0.096000,0.924000,0.326000,192.000000,0.000000,0.000000,0.000000,0.000000,0.000000,0.000000,0.000000,0.000000,0.000000,1647148812.050087,0.000000
66.000000,26466.231223,35963.465090,35147.022920,30810.963310,23868.042096,39828.551093,45249.050289,35162.959714,0.096000,0.924000,0.326000,192.000000,0.000000,0.000000,0.000000,0.000000,0.000000,0.000000,0.000000,0.000000,0.000000,1647148812.050103,0.000000
67.000000,26454.362447,35955.440814,35141.837316,30807.856418,23863.124712,39821.353831,45236.957996,35153.951961,0.096000,0.924000,0.326000,192.000000,0.000000,0.000000,0.000000,0.000000,0.000000,0.000000,0.000000,0.000000,0.000000,1647148812.057261,0.000000
68.000000,26452.037865,35946.835392,35141.949075,30811.097421,23864.488168,39825.779477,45243.909388,35155.941267,0.096000,0.924000,0.326000,192.000000,0.000000,0.000000,0.000000,0.000000,0.000000,0.000000,0.000000,0.000000,0.000000,1647148812.057277,0.000000
69.000000,26443.208926,35936.620645,35139.088051,30808.549322,23861.448331,39830.540398,45251.732499,35168.078264,0.096000,0.924000,0.326000,192.000000,0.000000,0.000000,0.000000,0.000000,0.000000,0.000000,0.000000,0.000000,0.000000,1647148812.064518,0.000000
70.000000,26432.502441,35928.998700,35137.523429,30806.694127,23861.493035,39835.256617,45261.880191,35175.811967,0.096000,0.924000,0.326000,192.000000,0.000000,0.000000,0.000000,0.000000,0.000000,0.000000,0.000000,0.000000,0.000000,1647148812.064534,0.000000
71.000000,26418.018510,35913.620700,35129.633263,30800.234473,23856.218023,39827.321747,45251.933664,35164.747854,0.096000,0.924000,0.326000,192.000000,0.000000,0.000000,0.000000,0.000000,0.000000,0.000000,0.000000,0.000000,0.000000,1647148812.072752,0.000000
72.000000,26407.155562,35903.852988,35123.620644,30793.394839,23850.227755,39817.799904,45223.792818,35149.638075,0.096000,0.924000,0.326000,192.000000,0.000000,0.000000,0.000000,0.000000,0.000000,0.000000,0.000000,0.000000,0.000000,1647148812.072768,0.000000
73.000000,26397.633719,35900.611985,35121.988967,30793.305432,23851.054770,39818.224587,45217.489626,35159.405787,0.096000,0.924000,0.326000,192.000000,0.000000,0.000000,0.000000,0.000000,0.000000,0.000000,0.000000,0.000000,0.000000,1647148812.080682,0.000000
74.000000,26394.057440,35892.453598,35123.151257,30795.026516,23852.619392,39822.605529,45231.861798,35160.031636,0.104000,0.920000,0.330000,192.000000,3.000000,64.000000,28.000000,192.000000,10.000000,80.000000,0.000000,0.000000,0.000000,1647148812.080698,0.000000
75.000000,26391.241120,35890.620755,35124.872342,30794.154798,23853.535814,39824.863055,45242.300062,35157.930572,0.104000,0.920000,0.330000,192.000000,0.000000,0.000000,0.000000,0.000000,0.000000,0.000000,0.000000,0.000000,0.000000,1647148812.087251,0.000000
76.000000,26387.128399,35883.110569,35126.079336,30794.244205,23854.295773,39830.786268,45254.057080,35164.725502,0.104000,0.920000,0.330000,192.000000,0.000000,0.000000,0.000000,0.000000,0.000000,0.000000,0.000000,0.000000,0.000000,1647148812.087267,0.000000
77.000000,26393.632757,35892.945336,35130.504981,30796.389973,23859.347267,39838.832896,45260.784955,35176.191947,0.104000,0.920000,0.330000,192.000000,0.000000,0.000000,0.000000,0.000000,0.000000,0.000000,0.000000,0.000000,0.000000,1647148812.094357,0.000000
78.000000,26399.623024,35906.825770,35130.370871,30803.542531,23862.767084,39841.112774,45257.767470,35171.945116,0.104000,0.920000,0.330000,192.000000,0.000000,0.000000,0.000000,0.000000,0.000000,0.000000,0.000000,0.000000,0.000000,1647148812.102283,0.000000
79.000000,26391.285824,35892.699467,35129.901484,30803.788400,23861.537738,39831.993262,45242.121248,35153.124947,0.104000,0.920000,0.330000,192.000000,0.000000,0.000000,0.000000,0.000000,0.000000,0.000000,0.000000,0.000000,0.000000,1647148812.102299,0.000000
80.000000,26392.112838,35891.604232,35134.371833,30804.347194,23862.744732,39832.462648,45238.589673,35153.974313,0.104000,0.920000,0.330000,192.000000,0.000000,0.000000,0.000000,0.000000,0.000000,0.000000,0.000000,0.000000,0.000000,1647148812.110325,0.000000
81.000000,26397.052574,35900.544930,35137.456374,30803.341365,23866.052790,39834.943692,45241.294234,35157.192964,0.104000,0.920000,0.330000,192.000000,0.000000,0.000000,0.000000,0.000000,0.000000,0.000000,0.000000,0.000000,0.000000,1647148812.110341,0.000000
82.000000,26408.898998,35908.971537,35145.346540,30808.862246,23873.764142,39840.710442,45252.492458,35170.045217,0.104000,0.920000,0.330000,192.000000,0.000000,0.000000,0.000000,0.000000,0.000000,0.000000,0.000000,0.000000,0.000000,1647148812.116956,0.000000
83.000000,26413.302292,35911.989023,35141.792612,30810.337461,23873.317107,39834.675471,45239.953129,35156.857688,0.104000,0.920000,0.330000,192.000000,0.000000,0.000000,0.000000,0.000000,0.000000,0.000000,0.000000,0.000000,0.000000,1647148812.116971,0.000000
84.000000,26412.050594,35916.079392,35139.535086,30809.756316,23873.875901,39832.574407,45233.180551,35152.812022,0.100000,0.906000,0.336000,192.000000,3.000000,32.000000,28.000000,80.000000,10.000000,128.000000,0.000000,0.000000,0.000000,1647148812.124976,0.000000
85.000000,26416.163315,35932.262055,35139.982121,30809.421040,23875.507578,39832.730869,45244.267016,35160.590429,0.100000,0.906000,0.336000,192.000000,0.000000,0.000000,0.000000,0.000000,0.000000,0.000000,0.000000,0.000000,0.000000,1647148812.124992,0.000000
86.000000,26426.378063,35933.178476,35147.089976,30819.479325,23881.855474,39833.960215,45236.980347,35155.561287,0.100000,0.906000,0.336000,192.000000,0.000000,0.000000,0.000000,0.000000,0.000000,0.000000,0.000000,0.000000,0.000000,1647148812.133000,0.000000
87.000000,26431.027225,35932.709090,35149.280447,30823.010900,23882.682488,39832.976739,45232.822923,35148.587543,0.100000,0.906000,0.336000,192.000000,0.000000,0.000000,0.000000,0.000000,0.000000,0.000000,0.000000,0.000000,0.000000,1647148812.133016,0.000000
88.000000,26441.286676,35948.265904,35150.889772,30820.060470,23883.911834,39837.469439,45245.563417,35156.030674,0.100000,0.906000,0.336000,192.000000,0.000000,0.000000,0.000000,0.000000,0.000000,0.000000,0.000000,0.000000,0.000000,1647148812.140165,0.000000
89.000000,26451.680237,35953.138584,35150.599200,30821.178057,23882.593081,39838.095288,45244.758754,35164.390226,0.100000,0.906000,0.336000,192.000000,0.000000,0.000000,0.000000,0.000000,0.000000,0.000000,0.000000,0.000000,0.000000,1647148812.140181,0.000000
90.000000,26447.791034,35944.466107,35150.308627,30818.004110,23877.966270,39830.383936,45225.312737,35157.729406,0.100000,0.906000,0.336000,192.000000,0.000000,0.000000,0.000000,0.000000,0.000000,0.000000,0.000000,0.000000,0.000000,1647148812.147567,0.000000
91.000000,26451.747292,35950.679892,35154.376644,30822.049775,23884.157703,39829.556922,45232.755868,35150.196868,0.100000,0.906000,0.336000,192.000000,0.000000,0.000000,0.000000,0.000000,0.000000,0.000000,0.000000,0.000000,0.000000,1647148812.147583,0.000000
92.000000,26463.124330,35961.453433,35162.356217,30832.957427,23895.758259,39832.395593,45241.696565,35149.459261,0.100000,0.906000,0.336000,192.000000,0.000000,0.000000,0.000000,0.000000,0.000000,0.000000,0.000000,0.000000,0.000000,1647148812.154565,0.000000
93.000000,26468.533453,35959.397073,35165.172537,30837.450127,23899.669814,39833.602587,45243.440001,35152.387339,0.100000,0.906000,0.336000,192.000000,0.000000,0.000000,0.000000,0.000000,0.000000,0.000000,0.000000,0.000000,0.000000,1647148812.162588,0.000000
94.000000,26469.628688,35958.033616,35163.674970,30838.210087,23900.072145,39829.981605,45236.108629,35145.391243,0.100000,0.906000,0.336000,192.000000,0.000000,0.000000,0.000000,0.000000,0.000000,0.000000,0.000000,0.000000,0.000000,1647148812.162604,0.000000
95.000000,26470.522758,35962.615724,35167.877098,30843.574505,23904.631901,39835.726003,45237.829714,35154.510755,0.100000,0.910000,0.336000,192.000000,3.000000,32.000000,28.000000,112.000000,10.000000,128.000000,0.000000,0.000000,0.000000,1647148812.169711,0.000000
96.000000,26474.814293,35968.494233,35167.653581,30844.803851,23904.497791,39834.519009,45241.674214,35152.946133,0.100000,0.910000,0.336000,192.000000,0.000000,0.000000,0.000000,0.000000,0.000000,0.000000,0.000000,0.000000,0.000000,1647148812.169727,0.000000
97.000000,26482.927976,35974.529204,35168.704113,30846.502584,23905.548323,39834.139029,45241.227179,35155.024845,0.100000,0.910000,0.336000,192.000000,0.000000,0.000000,0.000000,0.000000,0.000000,0.000000,0.000000,0.000000,0.000000,1647148812.177189,0.000000
98.000000,26489.633499,35984.028695,35172.794482,30850.794119,23909.571637,39840.621035,45237.829714,35154.443700,0.100000,0.910000,0.336000,192.000000,0.000000,0.000000,0.000000,0.000000,0.000000,0.000000,0.000000,0.000000,0.000000,1647148812.177205,0.000000
99.000000,26481.072781,35983.671067,35160.389264,30835.103194,23897.367584,39828.662852,45223.882225,35142.060833,0.100000,0.910000,0.336000,192.000000,0.000000,0.000000,0.000000,0.000000,0.000000,0.000000,0.000000,0.000000,0.000000,1647148812.185169,0.000000
100.000000,26487.018345,35993.595242,35159.875174,30833.046834,23897.211122,39824.796000,45223.032859,35138.015167,0.100000,0.910000,0.336000,192.000000,0.000000,0.000000,0.000000,0.000000,0.000000,0.000000,0.000000,0.000000,0.000000,1647148812.185186,0.000000
101.000000,26489.611148,35989.102541,35162.959714,30833.605627,23899.178076,39821.331480,45220.350649,35135.355310,0.100000,0.910000,0.336000,192.000000,0.000000,0.000000,0.000000,0.000000,0.000000,0.000000,0.000000,0.000000,0.000000,1647148812.192422,0.000000
102.000000,26494.752049,35994.109332,35163.496156,30832.309226,23898.373413,39817.129352,45218.316641,35130.326167,0.100000,0.910000,0.336000,192.000000,0.000000,0.000000,0.000000,0.000000,0.000000,0.000000,0.000000,0.000000,0.000000,1647148812.192462,0.000000
103.000000,26502.105773,36000.390172,35162.915011,30830.498735,23895.199465,39816.659965,45218.115475,35128.448621,0.100000,0.910000,0.336000,192.000000,0.000000,0.000000,0.000000,0.000000,0.000000,0.000000,0.000000,0.000000,0.000000,1647148812.199830,0.000000
104.000000,26502.329290,36003.921748,35162.579735,30829.984645,23892.204331,39810.848512,45195.517861,35126.079336,0.100000,0.910000,0.336000,192.000000,0.000000,0.000000,0.000000,0.000000,0.000000,0.000000,0.000000,0.000000,0.000000,1647148812.199846,0.000000
105.000000,26501.457572,35999.764323,35161.037464,30830.342273,23890.282081,39810.423828,45199.988210,35125.431135,0.100000,0.922000,0.314000,192.000000,3.000000,32.000000,28.000000,208.000000,9.000000,208.000000,0.000000,0.000000,0.000000,1647148812.207880,0.000000
106.000000,26505.637348,36008.503855,35163.674970,30834.857325,23896.339404,39816.749372,45227.167931,35135.690586,0.100000,0.922000,0.314000,192.000000,0.000000,0.000000,0.000000,0.000000,0.000000,0.000000,0.000000,0.000000,0.000000,1647148812.207896,0.000000
107.000000,26509.303034,36013.041259,35165.507813,30840.512316,23900.675643,39817.531683,45223.681059,35127.196923,0.100000,0.922000,0.314000,192.000000,0.000000,0.000000,0.000000,0.000000,0.000000,0.000000,0.000000,0.000000,0.000000,1647148812.214822,0.000000
108.000000,26509.705366,36010.850788,35165.396054,30841.115813,23897.948730,39813.687183,45212.460484,35118.233874,0.100000,0.922000,0.314000,192.000000,0.000000,0.000000,0.000000,0.000000,0.000000,0.000000,0.000000,0.000000,0.000000,1647148812.221952,0.000000
109.000000,26511.091174,36014.337661,35163.965543,30844.021540,23899.491000,39810.066201,45208.772446,35116.333975,0.100000,0.922000,0.314000,192.000000,0.000000,0.000000,0.000000,0.000000,0.000000,0.000000,0.000000,0.000000,0.000000,1647148812.221968,0.000000
110.000000,26511.314691,36015.723469,35163.630267,30847.776633,23902.240265,39811.452009,45219.724801,35126.794592,0.100000,0.922000,0.314000,192.000000,0.000000,0.000000,0.000000,0.000000,0.000000,0.000000,0.000000,0.000000,0.000000,1647148812.229577,0.000000
111.000000,26511.024119,36022.294882,35162.400921,30844.312113,23903.424907,39806.601680,45211.409952,35124.022975,0.100000,0.922000,0.314000,192.000000,0.000000,0.000000,0.000000,0.000000,0.000000,0.000000,0.000000,0.000000,0.000000,1647148812.229593,0.000000
112.000000,26520.545962,36033.984844,35170.045217,30848.626000,23908.722271,39808.814503,45210.158254,35122.167781,0.100000,0.922000,0.314000,192.000000,0.000000,0.000000,0.000000,0.000000,0.000000,0.000000,0.000000,0.000000,0.000000,1647148812.237439,0.000000
113.000000,26525.239828,36041.182106,35173.979124,30850.212973,23909.750451,39812.659003,45211.856987,35120.960786,0.100000,0.922000,0.314000,192.000000,0.000000,0.000000,0.000000,0.000000,0.000000,0.000000,0.000000,0.000000,0.000000,1647148812.237456,0.000000
114.000000,26519.964817,36034.677748,35171.743950,30844.312113,23906.375337,39810.334421,45201.932812,35111.975385,0.100000,0.922000,0.314000,192.000000,0.000000,0.000000,0.000000,0.000000,0.000000,0.000000,0.000000,0.000000,0.000000,1647148812.245131,0.000000
115.000000,26515.002729,36028.508667,35167.944153,30839.282970,23901.793230,39804.142988,45186.130129,35102.162969,0.100000,0.932000,0.310000,192.000000,3.000000,32.000000,29.000000,32.000000,9.000000,176.000000,0.000000,0.000000,0.000000,1647148812.245141,0.000000
116.000000,26520.925942,36038.589303,35173.576793,30845.519107,23904.766012,39809.306241,45191.002809,35111.595406,0.100000,0.932000,0.310000,192.000000,0.000000,0.000000,0.000000,0.000000,0.000000,0.000000,0.000000,0.000000,0.000000,1647148812.252093,0.000000
117.000000,26520.523610,36036.689405,35175.342581,30847.508412,23906.017709,39818.783381,45204.972649,35132.315473,0.100000,0.932000,0.310000,192.000000,0.000000,0.000000,0.000000,0.000000,0.000000,0.000000,0.000000,0.000000,0.000000,1647148812.252109,0.000000
118.000000,26520.478907,36035.281245,35173.286220,30845.072072,23904.073108,39814.737715,45197.484815,35126.593426,0.100000,0.932000,0.310000,192.000000,0.000000,0.000000,0.000000,0.000000,0.000000,0.000000,0.000000,0.000000,0.000000,1647148812.260130,0.000000
119.000000,26521.328273,36036.890571,35170.045217,30842.680436,23901.010919,39808.121599,45183.805547,35117.250397,0.100000,0.932000,0.310000,192.000000,0.000000,0.000000,0.000000,0.000000,0.000000,0.000000,0.000000,0.000000,0.000000,1647148812.260147,0.000000
120.000000,26519.182506,36039.192800,35170.693418,30846.144956,23903.648425,39809.485055,45195.204937,35117.138638,0.100000,0.932000,0.310000,192.000000,0.000000,0.000000,0.000000,0.000000,0.000000,0.000000,0.000000,0.000000,0.000000,1647148812.268159,0.000000
121.000000,26523.406985,36045.384234,35172.213336,30847.933095,23907.381166,39813.396610,45210.202957,35127.733365,0.100000,0.932000,0.310000,192.000000,0.000000,0.000000,0.000000,0.000000,0.000000,0.000000,0.000000,0.000000,0.000000,1647148812.268176,0.000000
122.000000,26522.982302,36043.819612,35171.051046,30848.313075,23908.409346,39810.557939,45199.116492,35119.597330,0.100000,0.932000,0.310000,192.000000,0.000000,0.000000,0.000000,0.000000,0.000000,0.000000,0.000000,0.000000,0.000000,1647148812.275252,0.000000
123.000000,26521.663549,36041.986768,35170.089921,30847.486061,23906.218875,39809.797980,45182.598553,35105.672193,0.100000,0.932000,0.310000,192.000000,0.000000,0.000000,0.000000,0.000000,0.000000,0.000000,0.000000,0.000000,0.000000,1647148812.275269,0.000000
124.000000,26530.045453,36050.234562,35176.460168,30853.565735,23912.276198,39821.152666,45187.247716,35119.977310,0.100000,0.932000,0.310000,192.000000,0.000000,0.000000,0.000000,0.000000,0.000000,0.000000,0.000000,0.000000,0.000000,1647148812.281823,0.000000
125.000000,26532.995884,36051.329798,35184.730313,30861.880584,23921.798041,39830.048660,45198.222422,35135.824697,0.112000,0.932000,0.308000,192.000000,3.000000,128.000000,29.000000,32.000000,9.000000,160.000000,0.000000,0.000000,0.000000,1647148812.289755,0.000000
126.000000,26536.348645,36051.977998,35190.161787,30864.763959,23925.955466,39826.427677,45191.069864,35130.773202,0.112000,0.932000,0.308000,192.000000,0.000000,0.000000,0.000000,0.000000,0.000000,0.000000,0.000000,0.000000,0.000000,1647148812.289772,0.000000
127.000000,26535.901610,36048.357016,35187.077247,30859.734817,23922.848573,39823.432544,45191.740416,35131.354348,0.112000,0.932000,0.308000,192.000000,0.000000,0.000000,0.000000,0.000000,0.000000,0.000000,0.000000,0.000000,0.000000,1647148812.297724,0.000000
128.000000,26535.722796,36044.132536,35183.948002,30853.252811,23919.093480,39820.169189,45193.617963,35129.208580,0.112000,0.932000,0.308000,192.000000,0.000000,0.000000,0.000000,0.000000,0.000000,0.000000,0.000000,0.000000,0.000000,1647148812.297740,0.000000
129.000000,26536.862735,36047.842926,35184.149168,30853.699846,23919.585218,39815.631785,45194.959068,35124.022975,0.112000,0.932000,0.308000,192.000000,0.000000,0.000000,0.000000,0.000000,0.000000,0.000000,0.000000,0.000000,0.000000,1647148812.304902,0.000000
130.000000,26536.572163,36049.027568,35180.952869,30852.671665,23918.020596,39810.446180,45189.058207,35122.905388,0.112000,0.932000,0.308000,192.000000,0.000000,0.000000,0.000000,0.000000,0.000000,0.000000,0.000000,0.000000,0.000000,1647148812.304918,0.000000
131.000000,26535.409872,36047.977036,35181.399903,30855.018598,23919.942846,39814.245977,45191.785120,35137.009339,0.112000,0.932000,0.308000,192.000000,0.000000,0.000000,0.000000,0.000000,0.000000,0.000000,0.000000,0.000000,0.000000,1647148812.312364,0.000000
132.000000,26533.688788,36044.579571,35180.282316,30854.660971,23918.534686,39812.234320,45193.349742,35131.421403,0.112000,0.932000,0.308000,192.000000,0.000000,0.000000,0.000000,0.000000,0.000000,0.000000,0.000000,0.000000,0.000000,1647148812.312380,0.000000
133.000000,26540.260201,36048.982864,35182.070456,30858.349008,23919.518163,39812.234320,45193.215632,35127.755717,0.112000,0.932000,0.308000,192.000000,0.000000,0.000000,0.000000,0.000000,0.000000,0.000000,0.000000,0.000000,0.000000,1647148812.320384,0.000000
134.000000,26538.695578,36050.681597,35180.394075,30857.253773,23918.668797,39808.211006,45186.532460,35125.118211,0.112000,0.932000,0.308000,192.000000,0.000000,0.000000,0.000000,0.000000,0.000000,0.000000,0.000000,0.000000,0.000000,1647148812.320400,0.000000
135.000000,26534.247581,36046.948856,35176.191947,30851.688189,23915.874829,39802.533663,45181.458614,35121.452525,0.118000,0.934000,0.298000,192.000000,3.000000,176.000000,29.000000,48.000000,9.000000,80.000000,0.000000,0.000000,0.000000,1647148812.327430,0.000000
136.000000,26539.053206,36051.910943,35181.735180,30852.626962,23917.618265,39804.992355,45182.889126,35121.251359,0.118000,0.934000,0.298000,192.000000,0.000000,0.000000,0.000000,0.000000,0.000000,0.000000,0.000000,0.000000,0.000000,1647148812.327445,0.000000
137.000000,26541.981285,36053.654379,35186.294936,30858.728988,23921.485117,39810.602642,45196.970725,35132.628397,0.118000,0.934000,0.298000,192.000000,0.000000,0.000000,0.000000,0.000000,0.000000,0.000000,0.000000,0.000000,0.000000,1647148812.334787,0.000000
138.000000,26545.512860,36060.292847,35192.262851,30863.936944,23926.558963,39816.458799,45201.888108,35137.635188,0.118000,0.934000,0.298000,192.000000,0.000000,0.000000,0.000000,0.000000,0.000000,0.000000,0.000000,0.000000,0.000000,1647148812.334803,0.000000
139.000000,26541.288381,36053.542620,35189.357124,30861.277087,23925.106099,39813.865997,45194.646143,35123.307720,0.118000,0.934000,0.298000,192.000000,0.000000,0.000000,0.000000,0.000000,0.000000,0.000000,0.000000,0.000000,0.000000,1647148812.341995,0.000000
140.000000,26538.136785,36048.736995,35181.109331,30852.604610,23920.076957,39807.428695,45188.477062,35118.747964,0.118000,0.934000,0.298000,192.000000,0.000000,0.000000,0.000000,0.000000,0.000000,0.000000,0.000000,0.000000,0.000000,1647148812.349949,0.000000
141.000000,26547.368055,36053.341455,35186.049066,30858.885450,23928.682378,39813.329555,45188.722931,35132.315473,0.118000,0.934000,0.298000,192.000000,0.000000,0.000000,0.000000,0.000000,0.000000,0.000000,0.000000,0.000000,0.000000,1647148812.349960,0.000000
142.000000,26549.111491,36056.135423,35187.814854,30861.053569,23931.141070,39816.637613,45187.873565,35137.434022,0.118000,0.934000,0.298000,192.000000,0.000000,0.000000,0.000000,0.000000,0.000000,0.000000,0.000000,0.000000,0.000000,1647148812.357140,0.000000
143.000000,26550.899631,36065.254934,35190.564119,30867.513224,23933.957390,39817.352869,45178.485832,35129.812077,0.118000,0.934000,0.298000,192.000000,0.000000,0.000000,0.000000,0.000000,0.000000,0.000000,0.000000,0.000000,0.000000,1647148812.357156,0.000000
144.000000,26543.188279,36057.297713,35181.601069,30861.679418,23925.821355,39812.524892,45176.004788,35127.308682,0.118000,0.934000,0.298000,192.000000,0.000000,0.000000,0.000000,0.000000,0.000000,0.000000,0.000000,0.000000,0.000000,1647148812.364638,0.000000
145.000000,26544.998770,36056.493051,35183.657430,30867.334410,23926.737777,39820.549169,45194.847309,35146.084147,0.128000,0.938000,0.294000,192.000000,4.000000,0.000000,29.000000,80.000000,9.000000,48.000000,0.000000,0.000000,0.000000,1647148812.364654,0.000000
146.000000,26543.769424,36056.828327,35184.953831,30868.608459,23926.626018,39819.655099,45196.411931,35142.843144,0.128000,0.938000,0.294000,192.000000,0.000000,0.000000,0.000000,0.000000,0.000000,0.000000,0.000000,0.000000,0.000000,1647148812.372657,0.000000
147.000000,26536.080424,36044.557219,35173.800310,30858.728988,23913.907875,39811.027326,45180.788062,35130.952016,0.128000,0.938000,0.294000,192.000000,0.000000,0.000000,0.000000,0.000000,0.000000,0.000000,0.000000,0.000000,0.000000,1647148812.372673,0.000000
148.000000,26525.619808,36036.130611,35162.892659,30846.659046,23900.943864,39806.154645,45176.764748,35129.923836,0.128000,0.938000,0.294000,192.000000,0.000000,0.000000,0.000000,0.000000,0.000000,0.000000,0.000000,0.000000,0.000000,1647148812.380704,0.000000
149.000000,26517.304959,36032.040242,35158.087034,30837.338369,23892.807829,39799.806750,45173.054358,35122.056022,0.128000,0.938000,0.294000,192.000000,0.000000,0.000000,0.000000,0.000000,0.000000,0.000000,0.000000,0.000000,0.000000,1647148812.380721,0.000000
150.000000,26517.751994,36030.833248,35158.779938,30837.539534,23892.986642,39800.343192,45171.668550,35125.967577,0.128000,0.938000,0.294000,192.000000,0.000000,0.000000,0.000000,0.000000,0.000000,0.000000,0.000000,0.000000,0.000000,1647148812.387147,0.000000
151.000000,26513.818087,36033.046071,35156.433005,30836.310188,23893.053698,39799.158549,45174.507222,35125.185266,0.128000,0.938000,0.294000,192.000000,0.000000,0.000000,0.000000,0.000000,0.000000,0.000000,0.000000,0.000000,0.000000,1647148812.387159,0.000000
152.000000,26517.751994,36039.125745,35162.311514,30842.881601,23899.826276,39808.635689,45188.320600,35128.470973,0.128000,0.938000,0.294000,192.000000,0.000000,0.000000,0.000000,0.000000,0.000000,0.000000,0.000000,0.000000,0.000000,1647148812.395309,0.000000
153.000000,26518.400194,36039.528077,35165.016075,30842.859249,23901.167381,39808.099247,45187.940620,35137.031691,0.128000,0.938000,0.294000,192.000000,0.000000,0.000000,0.000000,0.000000,0.000000,0.000000,0.000000,0.000000,0.000000,1647148812.395325,0.000000
154.000000,26510.398270,36032.442574,35161.372740,30840.065281,23901.435602,39805.171168,45180.475137,35136.048214,0.128000,0.938000,0.294000,192.000000,0.000000,0.000000,0.000000,0.000000,0.000000,0.000000,0.000000,0.000000,0.000000,1647148812.402250,0.000000
155.000000,26506.956101,36028.083983,35160.255153,30838.254790,23902.732003,39803.047753,45177.412948,35128.090993,0.132000,0.934000,0.290000,192.000000,4.000000,32.000000,29.000000,48.000000,9.000000,16.000000,0.000000,0.000000,0.000000,1647148812.410350,0.000000
156.000000,26508.833648,36028.575722,35159.875174,30840.825241,23903.827239,39804.768837,45183.582030,35129.297987,0.132000,0.934000,0.290000,192.000000,0.000000,0.000000,0.000000,0.000000,0.000000,0.000000,0.000000,0.000000,0.000000,1647148812.410366,0.000000
157.000000,26507.134915,36031.593207,35157.528240,30841.272276,23902.039099,39804.075933,45179.648123,35127.196923,0.132000,0.934000,0.290000,192.000000,0.000000,0.000000,0.000000,0.000000,0.000000,0.000000,0.000000,0.000000,0.000000,1647148812.416754,0.000000
158.000000,26503.983319,36029.603902,35154.063720,30834.253828,23896.048831,39800.991392,45181.123338,35127.219275,0.132000,0.934000,0.290000,192.000000,0.000000,0.000000,0.000000,0.000000,0.000000,0.000000,0.000000,0.000000,0.000000,1647148812.416765,0.000000
159.000000,26504.117430,36026.809934,35153.415519,30826.922456,23891.042041,39794.285869,45171.936771,35119.664385,0.132000,0.934000,0.290000,192.000000,0.000000,0.000000,0.000000,0.000000,0.000000,0.000000,0.000000,0.000000,0.000000,1647148812.424972,0.000000
160.000000,26510.331215,36029.626254,35159.271676,30834.052662,23896.764087,39803.204215,45180.989227,35130.750851,0.132000,0.934000,0.290000,192.000000,0.000000,0.000000,0.000000,0.000000,0.000000,0.000000,0.000000,0.000000,0.000000,1647148812.424988,0.000000
