%OpenBCI Raw EEG Data
%Number of channels = 8
%Sample Rate = 256 Hz
%Board = OpenBCI_GUI$BoardCytonSerial
%Channels = Fp1, Fp2, F3, F4, Fz, Pz, O1, O2
%Data recorded at AIMS Lab (http://aimsl.uiu.ac.bd) by Rana Depto (mail@ranadepto.com)
%Brainwaves were obtained via the Ultracortex Mark IV Headset using the OpenBCI Cyton Board
%Recording Application = ConcentrateToday (https://concentrate.today)
%Data type = RAW data with noise
%Day No = 4
%Subject ID = 4
%Session ID = 7
%Record starting timestamp (UTC+6) = 2022-03-16T11:13:40.587955
%Record ending timestamp (UTC+6)   = 2022-03-16T11:14:11.445102
%Recorded durations = ~30 seconds
Sample Index, EXG Channel 0, EXG Channel 1, EXG Channel 2, EXG Channel 3, EXG Channel 4, EXG Channel 5, EXG Channel 6, EXG Channel 7, Accel Channel 0, Accel Channel 1, Accel Channel 2, Other, Other, Other, Other, Other, Other, Other, Analog Channel 0, Analog Channel 1, Analog Channel 2, Timestamp, Timestamp (Formatted)
219.000000,29192.518198,24549.055046,55305.368341,32029.267493,47676.069757,48988.318323,41066.480108,34949.657017,0.168000,0.954000,0.184000,192.000000,0.000000,0.000000,0.000000,0.000000,0.000000,0.000000,0.000000,0.000000,0.000000,1647407620.587504,0.000000
220.000000,29197.301471,24553.972430,55306.888259,32029.736880,47673.946342,48987.223087,41065.474280,34974.914488,0.168000,0.954000,0.184000,192.000000,0.000000,0.000000,0.000000,0.000000,0.000000,0.000000,0.000000,0.000000,0.000000,1647407620.587521,0.000000
221.000000,29209.214951,24566.444703,55303.647256,32036.978845,47664.670368,48991.693436,41075.040826,34979.898927,0.168000,0.954000,0.184000,192.000000,0.000000,0.000000,0.000000,0.000000,0.000000,0.000000,0.000000,0.000000,0.000000,1647407620.593711,0.000000
222.000000,29212.433602,24571.362087,55305.368341,32040.242200,47666.011472,48991.425215,41070.525774,34974.668619,0.168000,0.954000,0.184000,192.000000,0.000000,0.000000,0.000000,0.000000,0.000000,0.000000,0.000000,0.000000,0.000000,1647407620.593719,0.000000
223.000000,29210.131372,24569.685706,55306.508280,32043.349092,47670.951208,48989.078282,41064.311989,34972.411093,0.172000,0.962000,0.196000,192.000000,5.000000,96.000000,30.000000,16.000000,6.000000,32.000000,0.000000,0.000000,0.000000,1647407620.601655,0.000000
224.000000,29201.905930,24559.448607,55310.062207,32040.689235,47679.042539,48983.713863,41057.002968,34960.944648,0.172000,0.962000,0.196000,192.000000,0.000000,0.000000,0.000000,0.000000,0.000000,0.000000,0.000000,0.000000,0.000000,1647407620.601660,0.000000
225.000000,29199.894273,24557.727523,55308.139957,32037.872915,47678.349635,48980.338750,41062.725015,34957.994218,0.172000,0.962000,0.196000,192.000000,0.000000,0.000000,0.000000,0.000000,0.000000,0.000000,0.000000,0.000000,0.000000,1647407620.609703,0.000000
226.000000,29195.379221,24551.401979,55302.440262,32031.145040,47670.973560,48980.606971,41064.267285,34964.677389,0.172000,0.962000,0.196000,192.000000,0.000000,0.000000,0.000000,0.000000,0.000000,0.000000,0.000000,0.000000,0.000000,1647407620.609707,0.000000
227.000000,29203.358794,24558.442778,55299.802756,32031.346206,47665.922065,48984.496174,41072.023341,34972.656962,0.172000,0.962000,0.196000,192.000000,0.000000,0.000000,0.000000,0.000000,0.000000,0.000000,0.000000,0.000000,0.000000,1647407620.616864,0.000000
228.000000,29208.656157,24565.528281,55302.708483,32038.387005,47673.544010,48988.854765,41080.986390,34958.195383,0.172000,0.962000,0.196000,192.000000,0.000000,0.000000,0.000000,0.000000,0.000000,0.000000,0.000000,0.000000,0.000000,1647407620.623298,0.000000
229.000000,29209.796096,24566.556462,55309.011675,32044.064348,47686.083339,48995.873212,41084.361504,34984.034000,0.172000,0.962000,0.196000,192.000000,0.000000,0.000000,0.000000,0.000000,0.000000,0.000000,0.000000,0.000000,0.000000,1647407620.623302,0.000000
230.000000,29222.916570,24579.520473,55310.621001,32052.178031,47688.474976,49001.438797,41093.749236,34999.032020,0.172000,0.962000,0.196000,192.000000,0.000000,0.000000,0.000000,0.000000,0.000000,0.000000,0.000000,0.000000,0.000000,1647407620.631333,0.000000
231.000000,29225.397614,24585.242520,55312.722065,32055.173165,47686.731540,49007.563175,41085.233222,34993.779361,0.172000,0.962000,0.196000,192.000000,0.000000,0.000000,0.000000,0.000000,0.000000,0.000000,0.000000,0.000000,0.000000,1647407620.631339,0.000000
232.000000,29225.665835,24587.723564,55317.304172,32058.168299,47690.151356,49006.311477,41078.706512,34979.921279,0.172000,0.962000,0.196000,192.000000,0.000000,0.000000,0.000000,0.000000,0.000000,0.000000,0.000000,0.000000,0.000000,1647407620.639276,0.000000
233.000000,29226.761070,24587.902378,55323.473254,32061.722226,47700.433159,49009.843053,41082.327495,34978.647230,0.174000,0.954000,0.200000,192.000000,5.000000,112.000000,29.000000,208.000000,6.000000,64.000000,0.000000,0.000000,0.000000,1647407620.639281,0.000000
234.000000,29228.146878,24588.595282,55325.753132,32062.102206,47703.204775,49009.865404,41080.248783,34977.462587,0.174000,0.954000,0.200000,192.000000,0.000000,0.000000,0.000000,0.000000,0.000000,0.000000,0.000000,0.000000,0.000000,1647407620.646521,0.000000
235.000000,29216.792192,24575.206587,55321.394541,32049.361712,47696.856880,48995.470881,41059.394605,34954.887325,0.174000,0.954000,0.200000,192.000000,0.000000,0.000000,0.000000,0.000000,0.000000,0.000000,0.000000,0.000000,0.000000,1647407620.646534,0.000000
236.000000,29199.715459,24556.140549,55303.468442,32030.474488,47675.578019,48977.947113,41045.804744,34941.006892,0.174000,0.954000,0.200000,192.000000,0.000000,0.000000,0.000000,0.000000,0.000000,0.000000,0.000000,0.000000,0.000000,1647407620.653888,0.000000
237.000000,29182.169340,24539.935534,55297.075843,32016.325833,47665.475031,48965.564247,41035.612349,34944.136136,0.174000,0.954000,0.200000,192.000000,0.000000,0.000000,0.000000,0.000000,0.000000,0.000000,0.000000,0.000000,0.000000,1647407620.653892,0.000000
238.000000,29190.908872,24548.943287,55289.498602,32015.811743,47658.300121,48962.345596,41048.665768,34952.294523,0.174000,0.954000,0.200000,192.000000,0.000000,0.000000,0.000000,0.000000,0.000000,0.000000,0.000000,0.000000,0.000000,1647407620.662015,0.000000
239.000000,29183.152817,24542.975371,55296.293532,32013.800086,47671.845278,48962.904389,41046.676462,34942.884438,0.174000,0.954000,0.200000,192.000000,0.000000,0.000000,0.000000,0.000000,0.000000,0.000000,0.000000,0.000000,0.000000,1647407620.662045,0.000000
240.000000,29187.533759,24547.892755,55293.454861,32010.559083,47672.180554,48954.544837,41043.770736,34940.895133,0.174000,0.954000,0.200000,192.000000,0.000000,0.000000,0.000000,0.000000,0.000000,0.000000,0.000000,0.000000,0.000000,1647407620.669096,0.000000
241.000000,29197.100305,24558.018095,55287.241076,32014.761211,47666.503211,48956.757660,41055.706567,34955.580229,0.174000,0.954000,0.200000,192.000000,0.000000,0.000000,0.000000,0.000000,0.000000,0.000000,0.000000,0.000000,0.000000,1647407620.669124,0.000000
242.000000,29199.715459,24560.968526,55285.072957,32017.979862,47667.039653,48958.858724,41059.662826,34953.702683,0.174000,0.954000,0.200000,192.000000,0.000000,0.000000,0.000000,0.000000,0.000000,0.000000,0.000000,0.000000,0.000000,1647407620.675590,0.000000
243.000000,29202.397669,24565.863558,55288.112794,32022.293749,47672.985217,48958.970482,41060.132213,34953.948552,0.164000,0.946000,0.212000,192.000000,5.000000,32.000000,29.000000,144.000000,6.000000,160.000000,0.000000,0.000000,0.000000,1647407620.683570,0.000000
244.000000,29214.154686,24577.464113,55291.130279,32032.530848,47676.919124,48964.625474,41072.224506,34961.123462,0.164000,0.946000,0.212000,192.000000,0.000000,0.000000,0.000000,0.000000,0.000000,0.000000,0.000000,0.000000,0.000000,1647407620.683574,0.000000
245.000000,29210.019614,24573.239633,55298.394596,32042.186802,47688.765548,48973.767337,41073.967942,34960.497613,0.164000,0.946000,0.212000,192.000000,0.000000,0.000000,0.000000,0.000000,0.000000,0.000000,0.000000,0.000000,0.000000,1647407620.691571,0.000000
246.000000,29193.792247,24557.816930,55297.478175,32031.234447,47688.229106,48967.285331,41061.830945,34949.925238,0.164000,0.946000,0.212000,192.000000,0.000000,0.000000,0.000000,0.000000,0.000000,0.000000,0.000000,0.000000,0.000000,1647407620.691575,0.000000
247.000000,29203.962291,24568.232842,55289.744471,32030.742709,47674.661598,48972.917971,41076.717207,34975.629744,0.164000,0.946000,0.212000,192.000000,0.000000,0.000000,0.000000,0.000000,0.000000,0.000000,0.000000,0.000000,0.000000,1647407620.698776,0.000000
248.000000,29204.409326,24566.444703,55304.675437,32037.917619,47686.060987,48986.194907,41077.544222,34983.586965,0.164000,0.946000,0.212000,192.000000,0.000000,0.000000,0.000000,0.000000,0.000000,0.000000,0.000000,0.000000,0.000000,1647407620.698779,0.000000
249.000000,29200.117791,24559.426255,55315.068998,32038.878744,47699.762607,48983.356235,41074.370274,34978.155491,0.164000,0.946000,0.212000,192.000000,0.000000,0.000000,0.000000,0.000000,0.000000,0.000000,0.000000,0.000000,0.000000,1647407620.706328,0.000000
250.000000,29204.208160,24563.851901,55308.922268,32039.616351,47692.230069,48987.290142,41086.171995,34979.831872,0.164000,0.946000,0.212000,192.000000,0.000000,0.000000,0.000000,0.000000,0.000000,0.000000,0.000000,0.000000,0.000000,1647407620.706332,0.000000
251.000000,29201.682413,24560.946174,55304.004884,32035.391871,47681.300066,48984.809099,41081.522832,34968.410131,0.164000,0.946000,0.212000,192.000000,0.000000,0.000000,0.000000,0.000000,0.000000,0.000000,0.000000,0.000000,0.000000,1647407620.714209,0.000000
252.000000,29202.844704,24562.667258,55296.740567,32029.021624,47671.487650,48987.334846,41081.634591,34983.721076,0.164000,0.946000,0.212000,192.000000,0.000000,0.000000,0.000000,0.000000,0.000000,0.000000,0.000000,0.000000,0.000000,1647407620.714215,0.000000
253.000000,29191.579424,24552.743084,55293.968951,32023.634854,47674.505135,48985.613762,41071.397492,34977.484939,0.164000,0.946000,0.212000,192.000000,0.000000,0.000000,0.000000,0.000000,0.000000,0.000000,0.000000,0.000000,0.000000,1647407620.722201,0.000000
254.000000,29202.330613,24561.504967,55293.097233,32030.407432,47674.929819,48988.161860,41072.626838,34979.898927,0.160000,0.950000,0.216000,192.000000,5.000000,0.000000,29.000000,176.000000,6.000000,192.000000,0.000000,0.000000,0.000000,1647407620.722206,0.000000
255.000000,29204.185808,24563.717790,55295.131242,32034.251932,47676.919124,48991.402863,41070.458719,34979.474244,0.160000,0.950000,0.216000,192.000000,0.000000,0.000000,0.000000,0.000000,0.000000,0.000000,0.000000,0.000000,0.000000,1647407620.728886,0.000000
0.000000,29203.224683,24563.158996,55293.365454,32032.866124,47672.113499,48991.358160,41069.028207,34969.594773,0.160000,0.950000,0.216000,192.000000,0.000000,0.000000,0.000000,0.000000,0.000000,0.000000,0.000000,0.000000,0.000000,1647407620.728891,0.000000
1.000000,29209.706689,24568.501063,55293.030178,32037.939970,47666.190286,48996.275544,41086.149643,34984.011648,0.160000,0.950000,0.216000,192.000000,0.000000,0.000000,0.000000,0.000000,0.000000,0.000000,0.000000,0.000000,0.000000,1647407620.735784,0.000000
2.000000,29210.868980,24569.015154,55301.210916,32042.946761,47675.130984,48999.427140,41086.507271,34984.592794,0.160000,0.950000,0.216000,192.000000,0.000000,0.000000,0.000000,0.000000,0.000000,0.000000,0.000000,0.000000,0.000000,1647407620.735787,0.000000
3.000000,29204.163456,24564.745970,55314.309038,32043.662017,47688.318513,48995.604991,41076.605448,34972.634610,0.160000,0.950000,0.216000,192.000000,0.000000,0.000000,0.000000,0.000000,0.000000,0.000000,0.000000,0.000000,0.000000,1647407620.743929,0.000000
4.000000,29206.890369,24567.718752,55315.068998,32042.209153,47681.635342,48988.295971,41074.906716,34974.445102,0.160000,0.950000,0.216000,192.000000,0.000000,0.000000,0.000000,0.000000,0.000000,0.000000,0.000000,0.000000,0.000000,1647407620.751885,0.000000
5.000000,29210.556055,24571.116218,55308.229364,32043.080871,47672.873458,48987.893640,41072.984466,34967.381950,0.160000,0.950000,0.216000,192.000000,0.000000,0.000000,0.000000,0.000000,0.000000,0.000000,0.000000,0.000000,0.000000,1647407620.751889,0.000000
6.000000,29208.723212,24571.227976,55307.290591,32043.952590,47675.108632,48993.526279,41077.901849,34970.555898,0.160000,0.950000,0.216000,192.000000,0.000000,0.000000,0.000000,0.000000,0.000000,0.000000,0.000000,0.000000,0.000000,1647407620.758504,0.000000
7.000000,29214.780535,24577.441761,55312.587954,32048.646456,47684.630476,49001.774073,41091.648172,34990.672468,0.160000,0.950000,0.216000,192.000000,0.000000,0.000000,0.000000,0.000000,0.000000,0.000000,0.000000,0.000000,0.000000,1647407620.758508,0.000000
8.000000,29209.214951,24568.434008,55314.957239,32043.527906,47691.358351,48996.163785,41079.712341,34977.976677,0.158000,0.954000,0.220000,192.000000,4.000000,240.000000,29.000000,208.000000,6.000000,224.000000,0.000000,0.000000,0.000000,1647407620.766499,0.000000
9.000000,29214.244093,24572.166749,55310.419835,32042.365616,47687.089167,48991.671084,41075.756082,34974.847433,0.158000,0.954000,0.220000,192.000000,0.000000,0.000000,0.000000,0.000000,0.000000,0.000000,0.000000,0.000000,0.000000,1647407620.766503,0.000000
10.000000,29219.049718,24576.145360,55302.194393,32044.109052,47676.382682,48994.934439,41082.372198,34974.735674,0.158000,0.954000,0.220000,192.000000,0.000000,0.000000,0.000000,0.000000,0.000000,0.000000,0.000000,0.000000,0.000000,1647407620.774522,0.000000
11.000000,29213.394727,24571.026811,55302.529669,32044.824308,47680.093071,48997.348427,41076.761911,34964.632686,0.158000,0.954000,0.220000,192.000000,0.000000,0.000000,0.000000,0.000000,0.000000,0.000000,0.000000,0.000000,0.000000,1647407620.774527,0.000000
12.000000,29219.563808,24575.541863,55308.229364,32049.272305,47687.089167,48996.499061,41075.778434,34963.626857,0.158000,0.954000,0.220000,192.000000,0.000000,0.000000,0.000000,0.000000,0.000000,0.000000,0.000000,0.000000,0.000000,1647407620.781139,0.000000
13.000000,29220.234361,24579.028735,55312.230326,32052.803880,47695.024037,49000.544727,41078.348884,34964.029189,0.158000,0.954000,0.220000,192.000000,0.000000,0.000000,0.000000,0.000000,0.000000,0.000000,0.000000,0.000000,0.000000,1647407620.781143,0.000000
14.000000,29222.424832,24582.873235,55312.431492,32058.727093,47699.986124,49006.333829,41084.607373,34969.505366,0.158000,0.954000,0.220000,192.000000,0.000000,0.000000,0.000000,0.000000,0.000000,0.000000,0.000000,0.000000,0.000000,1647407620.789073,0.000000
15.000000,29222.536590,24584.817837,55303.043759,32056.156642,47687.603258,49005.372704,41082.551012,34963.291581,0.158000,0.954000,0.220000,192.000000,0.000000,0.000000,0.000000,0.000000,0.000000,0.000000,0.000000,0.000000,0.000000,1647407620.789077,0.000000
16.000000,29213.528837,24577.955851,55301.322675,32052.312142,47683.624647,49002.265811,41069.654056,34950.394625,0.158000,0.954000,0.220000,192.000000,0.000000,0.000000,0.000000,0.000000,0.000000,0.000000,0.000000,0.000000,0.000000,1647407620.797160,0.000000
17.000000,29215.406384,24580.638061,55312.207974,32059.621162,47695.627534,49010.871233,41074.996123,34971.651133,0.158000,0.954000,0.220000,192.000000,0.000000,0.000000,0.000000,0.000000,0.000000,0.000000,0.000000,0.000000,0.000000,1647407620.797164,0.000000
18.000000,29224.414137,24589.131724,55315.068998,32066.706665,47701.818967,49009.351314,41083.959172,34974.646267,0.148000,0.966000,0.210000,192.000000,4.000000,160.000000,30.000000,48.000000,6.000000,144.000000,0.000000,0.000000,0.000000,1647407620.804271,0.000000
19.000000,29227.878657,24592.149209,55310.241021,32067.623087,47694.711112,49005.819739,41081.634591,34976.076779,0.148000,0.966000,0.210000,192.000000,0.000000,0.000000,0.000000,0.000000,0.000000,0.000000,0.000000,0.000000,0.000000,1647407620.810680,0.000000
20.000000,29217.842724,24580.638061,55304.273105,32059.419997,47686.217449,49000.432968,41083.713303,34962.665732,0.148000,0.966000,0.210000,192.000000,0.000000,0.000000,0.000000,0.000000,0.000000,0.000000,0.000000,0.000000,0.000000,1647407620.810684,0.000000
21.000000,29214.355852,24575.988898,55305.502451,32063.331552,47688.743197,48998.734236,41081.187556,34962.173994,0.148000,0.966000,0.210000,192.000000,0.000000,0.000000,0.000000,0.000000,0.000000,0.000000,0.000000,0.000000,0.000000,1647407620.818690,0.000000
22.000000,29220.904913,24583.208511,55305.055416,32064.426787,47693.571173,48989.234744,41075.152585,34961.436386,0.148000,0.966000,0.210000,192.000000,0.000000,0.000000,0.000000,0.000000,0.000000,0.000000,0.000000,0.000000,0.000000,1647407620.818701,0.000000
23.000000,29223.050681,24581.912110,55307.737626,32061.565764,47697.505080,48983.356235,41070.235201,34951.735729,0.148000,0.966000,0.210000,192.000000,0.000000,0.000000,0.000000,0.000000,0.000000,0.000000,0.000000,0.000000,0.000000,1647407620.826782,0.000000
24.000000,29222.424832,24578.045258,55311.917402,32063.130386,47701.148415,48982.819794,41063.417919,34942.392700,0.148000,0.966000,0.210000,192.000000,0.000000,0.000000,0.000000,0.000000,0.000000,0.000000,0.000000,0.000000,0.000000,1647407620.826788,0.000000
25.000000,29220.189657,24576.882968,55302.708483,32054.860241,47689.749025,48977.611837,41065.139003,34960.743482,0.148000,0.966000,0.210000,192.000000,0.000000,0.000000,0.000000,0.000000,0.000000,0.000000,0.000000,0.000000,0.000000,1647407620.833865,0.000000
26.000000,29219.832029,24576.860616,55300.473309,32055.262572,47686.575077,48980.897544,41075.554916,34976.076779,0.148000,0.966000,0.210000,192.000000,0.000000,0.000000,0.000000,0.000000,0.000000,0.000000,0.000000,0.000000,0.000000,1647407620.833898,0.000000
27.000000,29215.831067,24570.624479,55304.921306,32053.139156,47690.576040,48974.326131,41074.057349,34964.230354,0.148000,0.966000,0.210000,192.000000,0.000000,0.000000,0.000000,0.000000,0.000000,0.000000,0.000000,0.000000,0.000000,1647407620.841276,0.000000
28.000000,29218.893256,24572.300860,55310.531594,32048.959380,47695.806348,48966.592427,41077.164242,34956.139023,0.150000,0.954000,0.208000,192.000000,4.000000,176.000000,29.000000,208.000000,6.000000,128.000000,0.000000,0.000000,0.000000,1647407620.841281,0.000000
29.000000,29226.917532,24581.062744,55302.373207,32048.087662,47687.200926,48967.307683,41078.795919,34966.264363,0.150000,0.954000,0.208000,192.000000,0.000000,0.000000,0.000000,0.000000,0.000000,0.000000,0.000000,0.000000,0.000000,1647407620.849329,0.000000
30.000000,29223.229494,24581.129799,55292.851364,32047.886497,47678.573153,48970.727500,41075.398454,34965.727921,0.150000,0.954000,0.208000,192.000000,0.000000,0.000000,0.000000,0.000000,0.000000,0.000000,0.000000,0.000000,0.000000,1647407620.849333,0.000000
31.000000,29218.401518,24579.006383,55285.788213,32045.763081,47671.420595,48968.358215,41077.566573,34957.167203,0.150000,0.954000,0.208000,192.000000,0.000000,0.000000,0.000000,0.000000,0.000000,0.000000,0.000000,0.000000,0.000000,1647407620.857378,0.000000
32.000000,29220.033195,24577.374706,55295.712387,32052.334494,47685.256324,48973.856744,41081.299315,34959.312971,0.150000,0.954000,0.208000,192.000000,0.000000,0.000000,0.000000,0.000000,0.000000,0.000000,0.000000,0.000000,0.000000,1647407620.857382,0.000000
33.000000,29222.089556,24577.374706,55303.289628,32055.888421,47698.533261,48975.443718,41077.723036,34962.732787,0.150000,0.954000,0.208000,192.000000,0.000000,0.000000,0.000000,0.000000,0.000000,0.000000,0.000000,0.000000,0.000000,1647407620.863500,0.000000
34.000000,29222.402480,24577.531168,55298.282838,32052.379197,47696.968639,48972.917971,41074.280867,34965.169128,0.150000,0.954000,0.208000,192.000000,0.000000,0.000000,0.000000,0.000000,0.000000,0.000000,0.000000,0.000000,0.000000,1647407620.871056,0.000000
35.000000,29220.100250,24577.039430,55286.369358,32048.847622,47685.233973,48968.492325,41069.899925,34956.653113,0.150000,0.954000,0.208000,192.000000,0.000000,0.000000,0.000000,0.000000,0.000000,0.000000,0.000000,0.000000,0.000000,1647407620.871061,0.000000
36.000000,29216.702785,24574.603090,55289.185678,32049.853450,47686.843298,48972.940323,41065.608390,34949.277037,0.150000,0.954000,0.208000,192.000000,0.000000,0.000000,0.000000,0.000000,0.000000,0.000000,0.000000,0.000000,0.000000,1647407620.879026,0.000000
37.000000,29217.641558,24577.844093,55290.526782,32049.138194,47687.312685,48974.415538,41071.062216,34961.950476,0.150000,0.954000,0.208000,192.000000,0.000000,0.000000,0.000000,0.000000,0.000000,0.000000,0.000000,0.000000,0.000000,1647407620.879039,0.000000
38.000000,29223.810640,24583.946119,55300.383902,32055.486090,47695.404016,48984.473823,41076.337227,34965.526756,0.152000,0.952000,0.204000,192.000000,4.000000,192.000000,29.000000,192.000000,6.000000,96.000000,0.000000,0.000000,0.000000,1647407620.886106,0.000000
39.000000,29222.134259,24579.341659,55300.719178,32052.647418,47691.537165,48983.803270,41076.672504,34962.039883,0.152000,0.952000,0.204000,192.000000,0.000000,0.000000,0.000000,0.000000,0.000000,0.000000,0.000000,0.000000,0.000000,1647407620.886110,0.000000
40.000000,29213.573541,24572.636136,55287.866925,32041.560953,47673.678121,48980.182288,41069.497594,34955.691988,0.152000,0.952000,0.204000,192.000000,0.000000,0.000000,0.000000,0.000000,0.000000,0.000000,0.000000,0.000000,0.000000,1647407620.893560,0.000000
41.000000,29210.980739,24569.395133,55279.373262,32039.683406,47664.335092,48976.024863,41069.497594,34942.459755,0.152000,0.952000,0.204000,192.000000,0.000000,0.000000,0.000000,0.000000,0.000000,0.000000,0.000000,0.000000,0.000000,1647407620.893565,0.000000
42.000000,29209.013785,24563.382514,55279.417965,32039.169316,47668.291350,48970.973369,41060.892172,34939.151697,0.152000,0.952000,0.204000,192.000000,0.000000,0.000000,0.000000,0.000000,0.000000,0.000000,0.000000,0.000000,0.000000,1647407620.901579,0.000000
43.000000,29211.986567,24565.818854,55273.494753,32038.163488,47667.866667,48969.408747,41064.066120,34946.550124,0.152000,0.952000,0.204000,192.000000,0.000000,0.000000,0.000000,0.000000,0.000000,0.000000,0.000000,0.000000,0.000000,1647407620.901619,0.000000
44.000000,29211.561884,24565.058895,55267.303320,32036.934142,47660.311778,48969.207581,41068.849393,34940.224581,0.152000,0.952000,0.204000,192.000000,0.000000,0.000000,0.000000,0.000000,0.000000,0.000000,0.000000,0.000000,0.000000,1647407620.909601,0.000000
45.000000,29213.640596,24568.813988,55266.968044,32041.270380,47654.656786,48973.297950,41073.923239,34945.030206,0.152000,0.952000,0.204000,192.000000,0.000000,0.000000,0.000000,0.000000,0.000000,0.000000,0.000000,0.000000,0.000000,1647407620.909605,0.000000
46.000000,29207.873846,24563.695438,55272.868904,32038.968150,47653.941530,48976.874230,41064.133175,34950.171107,0.152000,0.952000,0.204000,192.000000,0.000000,0.000000,0.000000,0.000000,0.000000,0.000000,0.000000,0.000000,0.000000,1647407620.916182,0.000000
47.000000,29205.012823,24561.862595,55281.474326,32036.956493,47662.815173,48979.131756,41061.540373,34954.775566,0.152000,0.952000,0.204000,192.000000,0.000000,0.000000,0.000000,0.000000,0.000000,0.000000,0.000000,0.000000,0.000000,1647407620.916185,0.000000
48.000000,29206.800962,24564.477749,55285.944675,32036.420052,47668.358406,48976.784823,41066.390701,34953.389758,0.146000,0.962000,0.206000,192.000000,4.000000,144.000000,30.000000,16.000000,6.000000,112.000000,0.000000,0.000000,0.000000,1647407620.923357,0.000000
49.000000,29211.941864,24567.271717,55288.917457,32038.454060,47669.207772,48977.924762,41068.961152,34948.651188,0.146000,0.962000,0.206000,192.000000,0.000000,0.000000,0.000000,0.000000,0.000000,0.000000,0.000000,0.000000,0.000000,1647407620.931216,0.000000
50.000000,29217.999186,24573.038468,55284.335349,32039.437537,47662.301083,48979.221163,41073.409149,34952.406282,0.146000,0.962000,0.206000,192.000000,0.000000,0.000000,0.000000,0.000000,0.000000,0.000000,0.000000,0.000000,0.000000,1647407620.931221,0.000000
51.000000,29219.586160,24575.050125,55281.697843,32038.565819,47658.121307,48978.058872,41074.303219,34955.222601,0.146000,0.962000,0.206000,192.000000,0.000000,0.000000,0.000000,0.000000,0.000000,0.000000,0.000000,0.000000,0.000000,1647407620.939231,0.000000
52.000000,29215.249922,24569.015154,55286.101137,32040.197496,47664.826830,48977.813003,41070.771643,34941.990369,0.146000,0.962000,0.206000,192.000000,0.000000,0.000000,0.000000,0.000000,0.000000,0.000000,0.000000,0.000000,0.000000,1647407620.939235,0.000000
53.000000,29209.125544,24564.768322,55288.313960,32041.337435,47673.096975,48974.616703,41071.576306,34947.019511,0.146000,0.962000,0.206000,192.000000,0.000000,0.000000,0.000000,0.000000,0.000000,0.000000,0.000000,0.000000,0.000000,1647407620.945902,0.000000
54.000000,29205.415154,24560.342677,55288.850402,32036.978845,47676.360330,48970.503982,41068.491765,34941.565685,0.146000,0.962000,0.206000,192.000000,0.000000,0.000000,0.000000,0.000000,0.000000,0.000000,0.000000,0.000000,0.000000,1647407620.945906,0.000000
55.000000,29205.549265,24559.515662,55281.273160,32032.128517,47663.619836,48965.430136,41064.133175,34934.994273,0.146000,0.962000,0.206000,192.000000,0.000000,0.000000,0.000000,0.000000,0.000000,0.000000,0.000000,0.000000,0.000000,1647407620.953980,0.000000
56.000000,29203.403497,24556.140549,55273.606512,32025.579456,47651.035804,48963.016148,41068.581172,34938.950531,0.146000,0.962000,0.206000,192.000000,0.000000,0.000000,0.000000,0.000000,0.000000,0.000000,0.000000,0.000000,0.000000,1647407620.953983,0.000000
57.000000,29201.391840,24555.872328,55274.701747,32024.484220,47649.180609,48966.480668,41074.705550,34939.129345,0.146000,0.962000,0.206000,192.000000,0.000000,0.000000,0.000000,0.000000,0.000000,0.000000,0.000000,0.000000,0.000000,1647407620.961961,0.000000
58.000000,29200.006032,24554.844148,55282.435451,32027.926389,47653.047461,48974.884924,41075.197288,34956.809575,0.142000,0.966000,0.210000,192.000000,4.000000,112.000000,30.000000,48.000000,6.000000,144.000000,0.000000,0.000000,0.000000,1647407620.961964,0.000000
59.000000,29201.525951,24556.609935,55282.033119,32029.222790,47649.135905,48978.729424,41072.291562,34958.329494,0.142000,0.966000,0.210000,192.000000,0.000000,0.000000,0.000000,0.000000,0.000000,0.000000,0.000000,0.000000,0.000000,1647407620.969078,0.000000
60.000000,29195.960366,24553.391284,55275.126430,32029.446307,47639.949338,48979.198811,41072.738597,34958.307142,0.142000,0.966000,0.210000,192.000000,0.000000,0.000000,0.000000,0.000000,0.000000,0.000000,0.000000,0.000000,0.000000,1647407620.969081,0.000000
61.000000,29188.226663,24544.562345,55277.540419,32025.445345,47640.105801,48978.528259,41069.698759,34950.819308,0.142000,0.966000,0.210000,192.000000,0.000000,0.000000,0.000000,0.000000,0.000000,0.000000,0.000000,0.000000,0.000000,1647407620.976540,0.000000
62.000000,29187.422000,24542.617743,55275.886390,32021.913769,47640.306966,48972.403881,41067.664751,34948.695892,0.142000,0.966000,0.210000,192.000000,0.000000,0.000000,0.000000,0.000000,0.000000,0.000000,0.000000,0.000000,0.000000,1647407620.976544,0.000000
63.000000,29191.624128,24546.819871,55270.589026,32025.534752,47638.965862,48973.230895,41069.475242,34951.534563,0.142000,0.966000,0.210000,192.000000,0.000000,0.000000,0.000000,0.000000,0.000000,0.000000,0.000000,0.000000,0.000000,1647407620.983536,0.000000
64.000000,29187.667869,24543.109482,55271.259579,32026.875857,47641.893940,48973.365006,41063.306160,34942.392700,0.142000,0.966000,0.210000,192.000000,0.000000,0.000000,0.000000,0.000000,0.000000,0.000000,0.000000,0.000000,0.000000,1647407620.983542,0.000000
65.000000,29193.345212,24548.831528,55264.643462,32028.775755,47635.478990,48976.002512,41070.726940,34949.657017,0.142000,0.966000,0.210000,192.000000,0.000000,0.000000,0.000000,0.000000,0.000000,0.000000,0.000000,0.000000,0.000000,1647407620.991623,0.000000
66.000000,29180.627070,24538.393264,55265.269311,32026.250008,47639.457600,48981.255171,41074.593791,34957.077796,0.142000,0.966000,0.210000,192.000000,0.000000,0.000000,0.000000,0.000000,0.000000,0.000000,0.000000,0.000000,0.000000,1647407620.998838,0.000000
67.000000,29167.998334,24523.059967,55260.866017,32020.058575,47638.071792,48981.478689,41075.554916,34958.955343,0.142000,0.966000,0.210000,192.000000,0.000000,0.000000,0.000000,0.000000,0.000000,0.000000,0.000000,0.000000,0.000000,1647407620.998841,0.000000
68.000000,29159.079988,24508.933664,55263.436468,32014.649453,47643.860894,48981.433985,41069.721111,34946.416014,0.138000,0.964000,0.210000,192.000000,4.000000,80.000000,30.000000,32.000000,6.000000,144.000000,0.000000,0.000000,0.000000,1647407621.006234,0.000000
69.000000,29146.428901,24494.248568,55252.774686,32002.803028,47635.881321,48976.337788,41065.362521,34939.554028,0.138000,0.964000,0.210000,192.000000,0.000000,0.000000,0.000000,0.000000,0.000000,0.000000,0.000000,0.000000,0.000000,1647407621.006239,0.000000
70.000000,29138.136403,24484.950243,55241.643517,31995.695173,47620.838597,48978.617666,41068.089434,34951.869840,0.138000,0.964000,0.210000,192.000000,0.000000,0.000000,0.000000,0.000000,0.000000,0.000000,0.000000,0.000000,0.000000,1647407621.014159,0.000000
71.000000,29120.657339,24473.819074,55242.135256,31992.588281,47620.771542,48982.261000,41060.512192,34949.053520,0.138000,0.964000,0.210000,192.000000,0.000000,0.000000,0.000000,0.000000,0.000000,0.000000,0.000000,0.000000,0.000000,1647407621.014162,0.000000
72.000000,29115.114107,24474.422571,55239.385991,31993.459999,47627.968803,48984.026788,41069.810518,34957.368369,0.138000,0.964000,0.210000,192.000000,0.000000,0.000000,0.000000,0.000000,0.000000,0.000000,0.000000,0.000000,0.000000,1647407621.021356,0.000000
73.000000,29112.297787,24468.074676,55231.026439,31992.968260,47623.699620,48987.580715,41071.911582,34956.764872,0.138000,0.964000,0.210000,192.000000,0.000000,0.000000,0.000000,0.000000,0.000000,0.000000,0.000000,0.000000,0.000000,1647407621.021360,0.000000
74.000000,29097.590339,24450.260335,55225.840834,31988.430856,47624.146655,48987.379549,41061.607428,34952.272171,0.138000,0.964000,0.210000,192.000000,0.000000,0.000000,0.000000,0.000000,0.000000,0.000000,0.000000,0.000000,0.000000,1647407621.028827,0.000000
75.000000,29091.533016,24446.594649,55214.240279,31985.972164,47619.899824,48986.574887,41061.607428,34948.047691,0.138000,0.964000,0.210000,192.000000,0.000000,0.000000,0.000000,0.000000,0.000000,0.000000,0.000000,0.000000,0.000000,1647407621.028864,0.000000
76.000000,29088.247310,24448.136920,55206.819499,31987.514435,47620.056286,48989.838241,41061.070986,34944.806688,0.138000,0.964000,0.210000,192.000000,0.000000,0.000000,0.000000,0.000000,0.000000,0.000000,0.000000,0.000000,0.000000,1647407621.036839,0.000000
77.000000,29087.219129,24450.148577,55204.204345,31988.319098,47623.163178,48996.521413,41059.059329,34953.613276,0.138000,0.964000,0.210000,192.000000,0.000000,0.000000,0.000000,0.000000,0.000000,0.000000,0.000000,0.000000,0.000000,1647407621.036843,0.000000
78.000000,29087.867330,24448.807472,55205.925430,31986.866234,47627.186492,49003.964544,41066.390701,34968.544241,0.136000,0.962000,0.204000,192.000000,4.000000,64.000000,30.000000,16.000000,6.000000,96.000000,0.000000,0.000000,0.000000,1647407621.044808,0.000000
79.000000,29071.215280,24429.741434,55201.700950,31974.326906,47627.186492,49006.110311,41059.439309,34953.233296,0.136000,0.962000,0.204000,192.000000,0.000000,0.000000,0.000000,0.000000,0.000000,0.000000,0.000000,0.000000,0.000000,1647407621.044813,0.000000
80.000000,29074.612746,24433.183602,55190.413319,31964.738007,47618.312850,49001.796425,41061.808593,34947.667712,0.136000,0.962000,0.204000,192.000000,0.000000,0.000000,0.000000,0.000000,0.000000,0.000000,0.000000,0.000000,0.000000,1647407621.051064,0.000000
81.000000,29084.738086,24444.046550,55188.312255,31970.616516,47616.770579,49014.045181,41068.938800,34958.642418,0.136000,0.962000,0.204000,192.000000,0.000000,0.000000,0.000000,0.000000,0.000000,0.000000,0.000000,0.000000,0.000000,1647407621.058410,0.000000
82.000000,29078.233728,24438.704483,55196.984732,31973.902222,47630.427495,49023.231748,41069.430538,34969.885346,0.136000,0.962000,0.204000,192.000000,0.000000,0.000000,0.000000,0.000000,0.000000,0.000000,0.000000,0.000000,0.000000,1647407621.058415,0.000000
83.000000,29083.061705,24445.007675,55201.745653,31972.538766,47637.736516,49020.370724,41068.670579,34977.149663,0.136000,0.962000,0.204000,192.000000,0.000000,0.000000,0.000000,0.000000,0.000000,0.000000,0.000000,0.000000,0.000000,1647407621.066438,0.000000
84.000000,29087.755571,24450.506204,55197.744691,31970.884737,47632.193283,49017.397942,41069.989332,34979.206023,0.136000,0.962000,0.204000,192.000000,0.000000,0.000000,0.000000,0.000000,0.000000,0.000000,0.000000,0.000000,0.000000,1647407621.066442,0.000000
85.000000,29082.637022,24445.611172,55194.324874,31967.554327,47630.293385,49011.474730,41066.323646,34974.243936,0.136000,0.962000,0.204000,192.000000,0.000000,0.000000,0.000000,0.000000,0.000000,0.000000,0.000000,0.000000,0.000000,1647407621.074576,0.000000
86.000000,29088.135551,24452.003771,55195.174240,31971.778807,47633.981423,49006.155015,41071.956285,34970.511195,0.136000,0.962000,0.204000,192.000000,0.000000,0.000000,0.000000,0.000000,0.000000,0.000000,0.000000,0.000000,0.000000,1647407621.074585,0.000000
87.000000,29092.583548,24458.306963,55200.896287,31980.451284,47647.392469,49005.506814,41069.788166,34967.851337,0.136000,0.962000,0.204000,192.000000,0.000000,0.000000,0.000000,0.000000,0.000000,0.000000,0.000000,0.000000,0.000000,1647407621.081402,0.000000
88.000000,29094.349336,24459.625716,55210.641648,31983.066438,47663.932760,48997.795462,41061.786242,34959.581191,0.136000,0.962000,0.204000,192.000000,0.000000,0.000000,0.000000,0.000000,0.000000,0.000000,0.000000,0.000000,0.000000,1647407621.081414,0.000000
89.000000,29101.814819,24466.308888,55208.495880,31986.240385,47664.536257,48992.967486,41064.714320,34960.564668,0.132000,0.950000,0.214000,192.000000,4.000000,32.000000,29.000000,176.000000,6.000000,176.000000,0.000000,0.000000,0.000000,1647407621.089534,0.000000
90.000000,29111.426069,24473.148522,55202.103281,31986.799179,47655.372042,48990.687608,41066.591867,34962.598677,0.132000,0.950000,0.214000,192.000000,0.000000,0.000000,0.000000,0.000000,0.000000,0.000000,0.000000,0.000000,0.000000,1647407621.089552,0.000000
91.000000,29115.874066,24475.607213,55204.874898,31990.733086,47654.925007,48992.140471,41065.787204,34960.542317,0.132000,0.950000,0.214000,192.000000,0.000000,0.000000,0.000000,0.000000,0.000000,0.000000,0.000000,0.000000,0.000000,1647407621.097439,0.000000
92.000000,29108.140362,24467.202958,55211.133386,31985.078095,47662.546952,48983.847974,41052.197343,34942.392700,0.132000,0.950000,0.214000,192.000000,0.000000,0.000000,0.000000,0.000000,0.000000,0.000000,0.000000,0.000000,0.000000,1647407621.097451,0.000000
93.000000,29110.286130,24468.946394,55221.750465,31985.301612,47674.728653,48983.020959,41053.717262,34948.137098,0.132000,0.950000,0.214000,192.000000,0.000000,0.000000,0.000000,0.000000,0.000000,0.000000,0.000000,0.000000,0.000000,1647407621.104751,0.000000
94.000000,29115.181162,24475.584862,55228.523043,31988.207339,47679.355464,48983.713863,41058.053500,34965.973790,0.132000,0.950000,0.214000,192.000000,0.000000,0.000000,0.000000,0.000000,0.000000,0.000000,0.000000,0.000000,0.000000,1647407621.104768,0.000000
95.000000,29122.937217,24484.369097,55226.936069,31992.051839,47666.905542,48978.684721,41057.181782,34959.670598,0.132000,0.950000,0.214000,192.000000,0.000000,0.000000,0.000000,0.000000,0.000000,0.000000,0.000000,0.000000,0.000000,1647407621.111264,0.000000
96.000000,29125.440612,24485.799609,55219.336476,31991.180121,47654.768545,48974.549648,41048.889285,34951.556915,0.132000,0.950000,0.214000,192.000000,0.000000,0.000000,0.000000,0.000000,0.000000,0.000000,0.000000,0.000000,0.000000,1647407621.119206,0.000000
97.000000,29126.804069,24486.581920,55220.856395,31990.151941,47656.623740,48972.158011,41045.760041,34943.800860,0.132000,0.950000,0.214000,192.000000,0.000000,0.000000,0.000000,0.000000,0.000000,0.000000,0.000000,0.000000,0.000000,1647407621.119222,0.000000
98.000000,29138.605790,24497.310757,55228.053657,32001.931310,47665.162106,48982.976256,41063.462623,34959.871764,0.132000,0.950000,0.214000,192.000000,0.000000,0.000000,0.000000,0.000000,0.000000,0.000000,0.000000,0.000000,0.000000,1647407621.127192,0.000000
99.000000,29150.698084,24508.196057,55229.685334,32008.882702,47669.990083,48987.133680,41071.218678,34970.421788,0.146000,0.954000,0.210000,192.000000,4.000000,144.000000,29.000000,208.000000,6.000000,144.000000,0.000000,0.000000,0.000000,1647407621.127209,0.000000
100.000000,29146.138328,24503.390432,55231.473473,32009.553255,47669.140717,48990.173517,41067.575344,34973.483977,0.146000,0.954000,0.210000,192.000000,0.000000,0.000000,0.000000,0.000000,0.000000,0.000000,0.000000,0.000000,0.000000,1647407621.133662,0.000000
101.000000,29142.047959,24500.708222,55230.579404,32009.910883,47669.006606,48984.160898,41059.729881,34957.211907,0.146000,0.954000,0.210000,192.000000,0.000000,0.000000,0.000000,0.000000,0.000000,0.000000,0.000000,0.000000,0.000000,1647407621.133673,0.000000
102.000000,29147.747653,24506.519676,55234.245090,32015.632929,47675.488612,48983.512698,41055.997140,34942.102127,0.146000,0.954000,0.210000,192.000000,0.000000,0.000000,0.000000,0.000000,0.000000,0.000000,0.000000,0.000000,0.000000,1647407621.141817,0.000000
103.000000,29144.730168,24504.440964,55242.671697,32016.437592,47684.429310,48985.993741,41050.565666,34954.105014,0.146000,0.954000,0.210000,192.000000,0.000000,0.000000,0.000000,0.000000,0.000000,0.000000,0.000000,0.000000,0.000000,1647407621.141834,0.000000
104.000000,29144.283133,24504.753888,55251.545340,32016.683461,47694.867575,48993.638038,41053.225524,34973.953363,0.146000,0.954000,0.210000,192.000000,0.000000,0.000000,0.000000,0.000000,0.000000,0.000000,0.000000,0.000000,0.000000,1647407621.149831,0.000000
105.000000,29155.660171,24517.494383,55245.488017,32014.649453,47682.864688,48997.415483,41061.987407,34975.205061,0.146000,0.954000,0.210000,192.000000,0.000000,0.000000,0.000000,0.000000,0.000000,0.000000,0.000000,0.000000,0.000000,1647407621.149847,0.000000
106.000000,29158.096511,24520.109537,55240.995317,32016.594054,47677.500269,49002.466977,41062.814422,34974.959192,0.146000,0.954000,0.210000,192.000000,0.000000,0.000000,0.000000,0.000000,0.000000,0.000000,0.000000,0.000000,0.000000,1647407621.156820,0.000000
107.000000,29158.878822,24522.791746,55243.945747,32020.416203,47686.373912,49006.356180,41063.194402,34977.306125,0.146000,0.954000,0.210000,192.000000,0.000000,0.000000,0.000000,0.000000,0.000000,0.000000,0.000000,0.000000,0.000000,1647407621.156855,0.000000
108.000000,29153.804976,24517.740252,55249.220759,32015.878798,47698.153281,48999.069512,41055.415995,34964.476224,0.146000,0.954000,0.210000,192.000000,0.000000,0.000000,0.000000,0.000000,0.000000,0.000000,0.000000,0.000000,0.000000,1647407621.164218,0.000000
109.000000,29157.381255,24521.830621,55248.594910,32016.661110,47698.533261,48993.973314,41059.282846,34965.817328,0.146000,0.964000,0.208000,192.000000,4.000000,144.000000,30.000000,32.000000,6.000000,128.000000,0.000000,0.000000,0.000000,1647407621.164233,0.000000
110.000000,29166.768988,24532.000665,55252.864093,32023.321929,47697.795653,48995.336770,41065.384873,34971.718189,0.146000,0.964000,0.208000,192.000000,0.000000,0.000000,0.000000,0.000000,0.000000,0.000000,0.000000,0.000000,0.000000,1647407621.171496,0.000000
111.000000,29174.010953,24539.264982,55252.104134,32025.020662,47689.167880,48997.348427,41067.731806,34967.985447,0.146000,0.964000,0.208000,192.000000,0.000000,0.000000,0.000000,0.000000,0.000000,0.000000,0.000000,0.000000,0.000000,1647407621.179442,0.000000
112.000000,29166.366657,24530.659560,55258.273215,32019.455078,47696.365141,48993.950962,41058.612294,34957.949514,0.146000,0.964000,0.208000,192.000000,0.000000,0.000000,0.000000,0.000000,0.000000,0.000000,0.000000,0.000000,0.000000,1647407621.179458,0.000000
113.000000,29166.545471,24530.234877,55262.542398,32017.264607,47702.869499,48986.150203,41054.588980,34959.089453,0.146000,0.964000,0.208000,192.000000,0.000000,0.000000,0.000000,0.000000,0.000000,0.000000,0.000000,0.000000,0.000000,1647407621.186330,0.000000
114.000000,29173.116883,24534.816985,55266.163381,32018.315139,47703.785921,48982.976256,41053.359634,34965.750273,0.146000,0.964000,0.208000,192.000000,0.000000,0.000000,0.000000,0.000000,0.000000,0.000000,0.000000,0.000000,0.000000,1647407621.186347,0.000000
115.000000,29178.101322,24538.594429,55265.157552,32020.505610,47698.533261,48985.211430,41054.745442,34966.130253,0.146000,0.964000,0.208000,192.000000,0.000000,0.000000,0.000000,0.000000,0.000000,0.000000,0.000000,0.000000,0.000000,1647407621.194057,0.000000
116.000000,29180.895290,24541.611915,55266.655119,32024.037185,47694.688761,48986.664294,41061.920352,34965.929087,0.146000,0.964000,0.208000,192.000000,0.000000,0.000000,0.000000,0.000000,0.000000,0.000000,0.000000,0.000000,0.000000,1647407621.194073,0.000000
117.000000,29179.598889,24541.030769,55271.416041,32027.367595,47695.918107,48985.636113,41060.959227,34965.303238,0.146000,0.964000,0.208000,192.000000,0.000000,0.000000,0.000000,0.000000,0.000000,0.000000,0.000000,0.000000,0.000000,1647407621.201997,0.000000
118.000000,29175.866148,24536.381607,55270.969006,32022.472563,47697.080397,48976.091918,41055.281884,34960.944648,0.146000,0.964000,0.208000,192.000000,0.000000,0.000000,0.000000,0.000000,0.000000,0.000000,0.000000,0.000000,0.000000,1647407621.202014,0.000000
119.000000,29174.681506,24535.353426,55267.795058,32020.840886,47697.482729,48977.835355,41052.912599,34956.183726,0.138000,0.958000,0.206000,192.000000,4.000000,80.000000,29.000000,240.000000,6.000000,112.000000,0.000000,0.000000,0.000000,1647407621.210047,0.000000
120.000000,29173.675677,24536.672179,55261.201294,32015.767040,47688.586734,48976.427195,41046.899980,34947.220677,0.138000,0.958000,0.206000,192.000000,0.000000,0.000000,0.000000,0.000000,0.000000,0.000000,0.000000,0.000000,0.000000,1647407621.210064,0.000000
121.000000,29179.554186,24545.679932,55259.211988,32019.700947,47679.154298,48982.708035,41053.739614,34950.014645,0.138000,0.958000,0.206000,192.000000,0.000000,0.000000,0.000000,0.000000,0.000000,0.000000,0.000000,0.000000,0.000000,1647407621.216655,0.000000
122.000000,29181.677602,24549.166804,55267.213913,32024.484220,47686.105691,48991.469919,41060.847468,34957.189555,0.138000,0.958000,0.206000,192.000000,0.000000,0.000000,0.000000,0.000000,0.000000,0.000000,0.000000,0.000000,0.000000,1647407621.216672,0.000000
123.000000,29182.951651,24550.776130,55270.589026,32025.534752,47690.419577,48994.241535,41061.115689,34969.415959,0.138000,0.958000,0.206000,192.000000,0.000000,0.000000,0.000000,0.000000,0.000000,0.000000,0.000000,0.000000,0.000000,1647407621.224668,0.000000
124.000000,29178.235433,24545.523470,55273.852381,32024.931255,47693.325304,48988.519488,41051.705605,34955.356712,0.138000,0.958000,0.206000,192.000000,0.000000,0.000000,0.000000,0.000000,0.000000,0.000000,0.000000,0.000000,0.000000,1647407621.224684,0.000000
125.000000,29178.190729,24545.903450,55269.583198,32023.053708,47687.357388,48980.226991,41047.659939,34941.453927,0.138000,0.958000,0.206000,192.000000,0.000000,0.000000,0.000000,0.000000,0.000000,0.000000,0.000000,0.000000,0.000000,1647407621.231746,0.000000
126.000000,29183.286927,24549.569136,55268.398555,32022.830191,47681.970618,48980.629323,41047.123497,34954.172069,0.138000,0.958000,0.206000,192.000000,0.000000,0.000000,0.000000,0.000000,0.000000,0.000000,0.000000,0.000000,0.000000,1647407621.231764,0.000000
127.000000,29193.568730,24561.750837,55273.673567,32035.593037,47681.322417,48992.565154,41057.897038,34976.769683,0.138000,0.958000,0.206000,192.000000,0.000000,0.000000,0.000000,0.000000,0.000000,0.000000,0.000000,0.000000,0.000000,1647407621.238525,0.000000
128.000000,29197.860265,24568.031677,55288.828050,32047.193592,47694.465243,48998.801291,41059.327550,34974.847433,0.138000,0.958000,0.206000,192.000000,0.000000,0.000000,0.000000,0.000000,0.000000,0.000000,0.000000,0.000000,0.000000,1647407621.246013,0.000000
129.000000,29203.425849,24572.725543,55292.493736,32047.059482,47697.482729,48997.616648,41064.580210,34970.645305,0.142000,0.958000,0.200000,192.000000,4.000000,112.000000,29.000000,240.000000,6.000000,64.000000,0.000000,0.000000,0.000000,1647407621.246034,0.000000
130.000000,29201.391840,24571.406790,55290.370320,32043.662017,47693.459415,48996.052026,41067.374178,34971.069988,0.142000,0.958000,0.200000,192.000000,0.000000,0.000000,0.000000,0.000000,0.000000,0.000000,0.000000,0.000000,0.000000,1647407621.254124,0.000000
131.000000,29202.732945,24572.993764,55290.660893,32045.986598,47692.900621,48997.840166,41064.647265,34971.673485,0.142000,0.958000,0.200000,192.000000,0.000000,0.000000,0.000000,0.000000,0.000000,0.000000,0.000000,0.000000,0.000000,1647407621.254141,0.000000
132.000000,29202.464724,24570.088037,55284.380053,32042.812651,47691.313647,48990.732311,41052.465564,34953.188593,0.142000,0.958000,0.200000,192.000000,0.000000,0.000000,0.000000,0.000000,0.000000,0.000000,0.000000,0.000000,0.000000,1647407621.262192,0.000000
133.000000,29186.438523,24550.954944,55271.818372,32026.942912,47682.127080,48975.980160,41028.459791,34935.195438,0.142000,0.958000,0.200000,192.000000,0.000000,0.000000,0.000000,0.000000,0.000000,0.000000,0.000000,0.000000,0.000000,1647407621.262209,0.000000
134.000000,29171.060523,24533.632342,55263.414116,32014.157714,47675.578019,48963.776107,41015.808703,34926.366499,0.142000,0.958000,0.200000,192.000000,0.000000,0.000000,0.000000,0.000000,0.000000,0.000000,0.000000,0.000000,0.000000,1647407621.268623,0.000000
135.000000,29178.146026,24541.231935,55253.132314,32012.481333,47663.396318,48965.832468,41036.796991,34941.297465,0.142000,0.958000,0.200000,192.000000,0.000000,0.000000,0.000000,0.000000,0.000000,0.000000,0.000000,0.000000,0.000000,1647407621.268635,0.000000
136.000000,29186.237357,24548.764473,55247.343212,32015.029432,47654.433269,48971.062776,41048.889285,34945.343130,0.142000,0.958000,0.200000,192.000000,0.000000,0.000000,0.000000,0.000000,0.000000,0.000000,0.000000,0.000000,0.000000,1647407621.278199,0.000000
137.000000,29182.772837,24545.970505,55253.422887,32017.264607,47662.658711,48973.141488,41042.787259,34935.217790,0.142000,0.958000,0.200000,192.000000,0.000000,0.000000,0.000000,0.000000,0.000000,0.000000,0.000000,0.000000,0.000000,1647407621.278211,0.000000
138.000000,29184.851549,24551.781959,55258.586140,32023.187819,47674.594542,48971.979197,41038.495724,34932.200305,0.142000,0.958000,0.200000,192.000000,0.000000,0.000000,0.000000,0.000000,0.000000,0.000000,0.000000,0.000000,0.000000,1647407621.284985,0.000000
139.000000,29192.227625,24561.281450,55265.783401,32033.044938,47682.730577,48980.338750,41048.777526,34951.735729,0.146000,0.958000,0.200000,192.000000,4.000000,144.000000,29.000000,240.000000,6.000000,64.000000,0.000000,0.000000,0.000000,1647407621.285001,0.000000
140.000000,29192.160570,24559.605069,55264.665814,32034.788374,47679.087243,48983.155070,41050.655073,34957.591886,0.146000,0.958000,0.200000,192.000000,0.000000,0.000000,0.000000,0.000000,0.000000,0.000000,0.000000,0.000000,0.000000,1647407621.293220,0.000000
141.000000,29198.776686,24565.438874,55262.408288,32037.627046,47671.152374,48984.965561,41055.550105,34958.083625,0.146000,0.958000,0.200000,192.000000,0.000000,0.000000,0.000000,0.000000,0.000000,0.000000,0.000000,0.000000,0.000000,1647407621.293229,0.000000
142.000000,29198.933148,24564.455398,55272.600683,32037.403528,47678.193173,48991.715788,41058.098204,34960.899944,0.146000,0.958000,0.200000,192.000000,0.000000,0.000000,0.000000,0.000000,0.000000,0.000000,0.000000,0.000000,0.000000,1647407621.299307,0.000000
143.000000,29196.563863,24562.577851,55277.987454,32035.660092,47685.435138,48993.146299,41059.573419,34964.364465,0.146000,0.958000,0.200000,192.000000,0.000000,0.000000,0.000000,0.000000,0.000000,0.000000,0.000000,0.000000,0.000000,1647407621.306622,0.000000
144.000000,29196.697974,24562.220223,55281.697843,32034.967188,47687.804423,48994.308590,41060.512192,34955.915505,0.146000,0.958000,0.200000,192.000000,0.000000,0.000000,0.000000,0.000000,0.000000,0.000000,0.000000,0.000000,0.000000,1647407621.306639,0.000000
145.000000,29190.260671,24554.017133,55274.210009,32026.205304,47678.863726,48990.441738,41054.879553,34958.217735,0.146000,0.958000,0.200000,192.000000,0.000000,0.000000,0.000000,0.000000,0.000000,0.000000,0.000000,0.000000,0.000000,1647407621.314647,0.000000
146.000000,29204.364622,24568.165787,55262.788267,32028.686348,47664.335092,48996.432006,41069.587001,34985.352753,0.146000,0.958000,0.200000,192.000000,0.000000,0.000000,0.000000,0.000000,0.000000,0.000000,0.000000,0.000000,0.000000,1647407621.314664,0.000000
147.000000,29207.717384,24571.362087,55265.582236,32037.180011,47672.962865,49009.172500,41074.973771,34981.038866,0.146000,0.958000,0.200000,192.000000,0.000000,0.000000,0.000000,0.000000,0.000000,0.000000,0.000000,0.000000,0.000000,1647407621.321650,0.000000
148.000000,29198.284948,24563.181348,55272.488925,32034.229581,47685.166917,49001.192928,41063.842602,34967.784282,0.146000,0.958000,0.200000,192.000000,0.000000,0.000000,0.000000,0.000000,0.000000,0.000000,0.000000,0.000000,0.000000,1647407621.321667,0.000000
149.000000,29199.536645,24567.070552,55276.109907,32034.654264,47686.843298,49000.142396,41066.971846,34975.428578,0.146000,0.962000,0.194000,192.000000,4.000000,144.000000,30.000000,16.000000,6.000000,16.000000,0.000000,0.000000,0.000000,1647407621.329080,0.000000
150.000000,29204.074049,24568.903395,55272.578332,32035.011892,47680.026016,49001.483500,41067.932971,34971.069988,0.146000,0.962000,0.194000,192.000000,0.000000,0.000000,0.000000,0.000000,0.000000,0.000000,0.000000,0.000000,0.000000,1647407621.329114,0.000000
151.000000,29196.541512,24560.856767,55273.382994,32033.581380,47676.069757,49002.377570,41062.523849,34968.611296,0.146000,0.962000,0.194000,192.000000,0.000000,0.000000,0.000000,0.000000,0.000000,0.000000,0.000000,0.000000,0.000000,1647407621.338473,0.000000
152.000000,29192.898177,24557.347543,55277.629826,32028.619293,47679.534278,48995.962619,41060.355730,34972.478148,0.146000,0.962000,0.194000,192.000000,0.000000,0.000000,0.000000,0.000000,0.000000,0.000000,0.000000,0.000000,0.000000,1647407621.338489,0.000000
153.000000,29198.933148,24562.108464,55272.600683,32027.300540,47676.472089,48996.566116,41068.111785,34973.640439,0.146000,0.962000,0.194000,192.000000,0.000000,0.000000,0.000000,0.000000,0.000000,0.000000,0.000000,0.000000,0.000000,1647407621.345323,0.000000
154.000000,29192.585253,24554.039485,55271.997186,32021.578493,47676.449737,48998.510718,41069.162317,34980.368314,0.146000,0.962000,0.194000,192.000000,0.000000,0.000000,0.000000,0.000000,0.000000,0.000000,0.000000,0.000000,0.000000,1647407621.345339,0.000000
155.000000,29197.323823,24560.901470,55262.274177,32024.327758,47665.005644,48995.940268,41071.978637,34980.100093,0.146000,0.962000,0.194000,192.000000,0.000000,0.000000,0.000000,0.000000,0.000000,0.000000,0.000000,0.000000,0.000000,1647407621.352514,0.000000
156.000000,29188.383125,24554.575927,55254.316956,32022.405508,47655.059118,48993.168651,41062.233277,34963.917430,0.146000,0.962000,0.194000,192.000000,0.000000,0.000000,0.000000,0.000000,0.000000,0.000000,0.000000,0.000000,0.000000,1647407621.352531,0.000000
157.000000,29183.890424,24551.334924,55251.031250,32017.398717,47650.991100,48981.702206,41059.998102,34942.370348,0.146000,0.962000,0.194000,192.000000,0.000000,0.000000,0.000000,0.000000,0.000000,0.000000,0.000000,0.000000,0.000000,1647407621.358963,0.000000
158.000000,29191.490017,24559.672124,55253.020555,32022.025528,47654.187400,48986.932515,41065.943666,34964.297410,0.146000,0.962000,0.194000,192.000000,0.000000,0.000000,0.000000,0.000000,0.000000,0.000000,0.000000,0.000000,0.000000,1647407621.368373,0.000000
159.000000,29192.920529,24560.901470,55256.373317,32024.663034,47658.993025,48991.358160,41064.982541,34979.563651,0.142000,0.962000,0.196000,192.000000,4.000000,112.000000,30.000000,16.000000,6.000000,32.000000,0.000000,0.000000,0.000000,1647407621.368389,0.000000
160.000000,29188.986622,24555.380589,55259.837837,32023.701909,47654.790897,48990.441738,41067.105957,34972.254631,0.142000,0.962000,0.196000,192.000000,0.000000,0.000000,0.000000,0.000000,0.000000,0.000000,0.000000,0.000000,0.000000,1647407621.375545,0.000000
161.000000,29196.630919,24563.427217,55253.825218,32024.037185,47642.251568,48988.430081,41078.259477,34976.881442,0.142000,0.962000,0.196000,192.000000,0.000000,0.000000,0.000000,0.000000,0.000000,0.000000,0.000000,0.000000,0.000000,1647407621.375562,0.000000
162.000000,29188.383125,24557.392246,55254.674584,32024.283054,47647.750097,48993.481576,41072.962114,34971.762892,0.142000,0.962000,0.196000,192.000000,0.000000,0.000000,0.000000,0.000000,0.000000,0.000000,0.000000,0.000000,0.000000,1647407621.381769,0.000000
163.000000,29187.980793,24555.201775,55264.263483,32027.993444,47666.279693,48993.459224,41071.665713,34970.488843,0.142000,0.962000,0.196000,192.000000,0.000000,0.000000,0.000000,0.000000,0.000000,0.000000,0.000000,0.000000,0.000000,1647407621.381785,0.000000
164.000000,29197.055602,24561.952002,55268.130334,32031.681482,47673.856935,48993.995666,41075.912544,34970.779415,0.142000,0.962000,0.196000,192.000000,0.000000,0.000000,0.000000,0.000000,0.000000,0.000000,0.000000,0.000000,0.000000,1647407621.389487,0.000000
165.000000,29195.602738,24561.750837,55265.492829,32027.009967,47666.637321,48997.147262,41074.169108,34976.836738,0.142000,0.962000,0.196000,192.000000,0.000000,0.000000,0.000000,0.000000,0.000000,0.000000,0.000000,0.000000,0.000000,1647407621.389504,0.000000
166.000000,29195.379221,24562.980183,55264.263483,32023.187819,47661.608179,49001.461148,41070.793995,34979.228375,0.142000,0.962000,0.196000,192.000000,0.000000,0.000000,0.000000,0.000000,0.000000,0.000000,0.000000,0.000000,0.000000,1647407621.397535,0.000000
167.000000,29196.049773,24561.415560,55261.268349,32023.433688,47657.495458,49001.572907,41064.490803,34974.758026,0.142000,0.962000,0.196000,192.000000,0.000000,0.000000,0.000000,0.000000,0.000000,0.000000,0.000000,0.000000,0.000000,1647407621.397552,0.000000
168.000000,29188.494884,24554.620630,55270.924302,32020.371499,47663.306911,49001.796425,41061.540373,34962.956305,0.142000,0.962000,0.196000,192.000000,0.000000,0.000000,0.000000,0.000000,0.000000,0.000000,0.000000,0.000000,0.000000,1647407621.404137,0.000000
169.000000,29188.941918,24555.872328,55279.239151,32021.757307,47671.331188,49008.770169,41069.385835,34970.377084,0.148000,0.956000,0.196000,192.000000,4.000000,160.000000,29.000000,224.000000,6.000000,32.000000,0.000000,0.000000,0.000000,1647407621.404154,0.000000
170.000000,29193.926357,24559.515662,55277.272198,32023.411336,47667.643150,49012.525262,41069.385835,34968.834814,0.148000,0.956000,0.196000,192.000000,0.000000,0.000000,0.000000,0.000000,0.000000,0.000000,0.000000,0.000000,0.000000,1647407621.412218,0.000000
171.000000,29195.982718,24560.946174,55270.030233,32025.065365,47661.116440,49006.177367,41065.809556,34952.182764,0.148000,0.956000,0.196000,192.000000,0.000000,0.000000,0.000000,0.000000,0.000000,0.000000,0.000000,0.000000,0.000000,1647407621.412251,0.000000
172.000000,29200.631881,24565.997668,55277.965102,32034.587209,47667.397281,49013.978125,41072.068044,34977.082607,0.148000,0.956000,0.196000,192.000000,0.000000,0.000000,0.000000,0.000000,0.000000,0.000000,0.000000,0.000000,0.000000,1647407621.419174,0.000000
173.000000,29196.675622,24561.437912,55290.973817,32038.766985,47686.910354,49015.565099,41066.725977,34971.964058,0.148000,0.956000,0.196000,192.000000,0.000000,0.000000,0.000000,0.000000,0.000000,0.000000,0.000000,0.000000,0.000000,1647407621.426863,0.000000
174.000000,29203.627015,24567.428180,55282.435451,32039.571648,47683.602295,49003.763378,41062.255628,34958.038921,0.148000,0.956000,0.196000,192.000000,0.000000,0.000000,0.000000,0.000000,0.000000,0.000000,0.000000,0.000000,0.000000,1647407621.426873,0.000000
175.000000,29201.883579,24567.696401,55276.713404,32039.348130,47679.713092,49009.284259,41064.893134,34985.822139,0.148000,0.956000,0.196000,192.000000,0.000000,0.000000,0.000000,0.000000,0.000000,0.000000,0.000000,0.000000,0.000000,1647407621.433451,0.000000
176.000000,29210.511352,24575.340697,55273.025366,32039.661055,47678.081414,49012.435855,41074.370274,34989.376067,0.148000,0.956000,0.196000,192.000000,0.000000,0.000000,0.000000,0.000000,0.000000,0.000000,0.000000,0.000000,0.000000,1647407621.433457,0.000000
177.000000,29211.137201,24573.261985,55276.288721,32037.761156,47684.228144,49012.927593,41072.582134,34981.128273,0.148000,0.956000,0.196000,192.000000,0.000000,0.000000,0.000000,0.000000,0.000000,0.000000,0.000000,0.000000,0.000000,1647407621.441469,0.000000
178.000000,29206.331576,24565.260060,55282.435451,32035.168354,47694.308781,49004.903317,41062.143870,34971.807596,0.148000,0.956000,0.196000,192.000000,0.000000,0.000000,0.000000,0.000000,0.000000,0.000000,0.000000,0.000000,0.000000,1647407621.441474,0.000000
179.000000,29206.063355,24562.980183,55285.296474,32033.290807,47696.163976,49002.198756,41060.467489,34974.310991,0.152000,0.950000,0.190000,192.000000,4.000000,192.000000,29.000000,176.000000,5.000000,240.000000,0.000000,0.000000,0.000000,1647407621.449427,0.000000
180.000000,29207.337404,24564.745970,55276.936922,32027.099374,47686.910354,48995.180308,41050.632721,34952.741558,0.152000,0.950000,0.190000,192.000000,0.000000,0.000000,0.000000,0.000000,0.000000,0.000000,0.000000,0.000000,0.000000,1647407621.449433,0.000000
181.000000,29210.153724,24571.116218,55265.984567,32029.043976,47676.025054,48996.208488,41052.845544,34966.152604,0.152000,0.950000,0.190000,192.000000,0.000000,0.000000,0.000000,0.000000,0.000000,0.000000,0.000000,0.000000,0.000000,1647407621.456547,0.000000
182.000000,29211.897160,24572.412619,55269.739660,32039.437537,47686.016284,49011.452378,41067.932971,34984.905718,0.152000,0.950000,0.190000,192.000000,0.000000,0.000000,0.000000,0.000000,0.000000,0.000000,0.000000,0.000000,0.000000,1647407621.456552,0.000000
183.000000,29206.465686,24563.740142,55271.907779,32035.727148,47693.325304,49003.383398,41067.597695,34971.002933,0.152000,0.950000,0.190000,192.000000,0.000000,0.000000,0.000000,0.000000,0.000000,0.000000,0.000000,0.000000,0.000000,1647407621.464102,0.000000
184.000000,29203.850532,24558.375723,55266.051622,32029.982749,47687.603258,48992.431044,41060.780413,34949.768776,0.152000,0.950000,0.190000,192.000000,0.000000,0.000000,0.000000,0.000000,0.000000,0.000000,0.000000,0.000000,0.000000,1647407621.464107,0.000000
185.000000,29207.739736,24561.504967,55261.983605,32025.780621,47676.852069,48992.229878,41060.355730,34956.139023,0.152000,0.950000,0.190000,192.000000,0.000000,0.000000,0.000000,0.000000,0.000000,0.000000,0.000000,0.000000,0.000000,1647407621.472428,0.000000
186.000000,29205.951596,24561.527319,55256.373317,32022.383156,47667.531391,48995.895564,41063.797899,34969.997104,0.152000,0.950000,0.190000,192.000000,0.000000,0.000000,0.000000,0.000000,0.000000,0.000000,0.000000,0.000000,0.000000,1647407621.472445,0.000000
187.000000,29205.079878,24558.733351,55259.726078,32023.478392,47670.392414,48997.102558,41062.590905,34960.587020,0.152000,0.950000,0.190000,192.000000,0.000000,0.000000,0.000000,0.000000,0.000000,0.000000,0.000000,0.000000,0.000000,1647407621.479434,0.000000
188.000000,29206.398631,24557.973392,55266.051622,32027.613464,47680.048368,49001.975239,41066.793033,34964.409168,0.152000,0.950000,0.190000,192.000000,0.000000,0.000000,0.000000,0.000000,0.000000,0.000000,0.000000,0.000000,0.000000,1647407621.479451,0.000000
189.000000,29199.536645,24554.173595,55267.102154,32024.372461,47685.189269,49003.204585,41066.971846,34972.254631,0.152000,0.950000,0.190000,192.000000,0.000000,0.000000,0.000000,0.000000,0.000000,0.000000,0.000000,0.000000,0.000000,1647407621.486752,0.000000
190.000000,29208.499695,24566.534110,55267.035099,32027.434650,47682.618819,49009.910108,41075.823137,34982.245860,0.150000,0.958000,0.188000,192.000000,4.000000,176.000000,29.000000,240.000000,5.000000,224.000000,0.000000,0.000000,0.000000,1647407621.494032,0.000000
191.000000,29206.264520,24565.260060,55264.978738,32027.769927,47674.728653,49014.536919,41079.935858,34978.557823,0.150000,0.958000,0.188000,192.000000,0.000000,0.000000,0.000000,0.000000,0.000000,0.000000,0.000000,0.000000,0.000000,1647407621.494049,0.000000
192.000000,29198.888445,24557.772226,55265.381070,32025.110069,47673.320493,49010.357143,41074.817309,34971.427616,0.150000,0.958000,0.188000,192.000000,0.000000,0.000000,0.000000,0.000000,0.000000,0.000000,0.000000,0.000000,0.000000,1647407621.502073,0.000000
193.000000,29199.067259,24559.068627,55272.667739,32025.467697,47681.478880,49012.838186,41079.533527,34974.869785,0.150000,0.958000,0.188000,192.000000,0.000000,0.000000,0.000000,0.000000,0.000000,0.000000,0.000000,0.000000,0.000000,1647407621.502109,0.000000
194.000000,29199.447238,24559.627421,55274.098250,32022.025528,47680.875383,49006.870271,41078.281829,34974.065122,0.150000,0.958000,0.188000,192.000000,0.000000,0.000000,0.000000,0.000000,0.000000,0.000000,0.000000,0.000000,0.000000,1647407621.509262,0.000000
195.000000,29200.564826,24561.124988,55270.499619,32025.087717,47674.236914,49013.776960,41082.103977,34979.049561,0.150000,0.958000,0.188000,192.000000,0.000000,0.000000,0.000000,0.000000,0.000000,0.000000,0.000000,0.000000,0.000000,1647407621.509279,0.000000
196.000000,29194.172227,24553.167767,55271.125468,32021.533790,47675.175688,49012.301744,41072.582134,34969.594773,0.150000,0.958000,0.188000,192.000000,0.000000,0.000000,0.000000,0.000000,0.000000,0.000000,0.000000,0.000000,0.000000,1647407621.516621,0.000000
197.000000,29188.874863,24547.646886,55270.231398,32011.564912,47675.980350,48997.124910,41063.082643,34961.682255,0.150000,0.958000,0.188000,192.000000,0.000000,0.000000,0.000000,0.000000,0.000000,0.000000,0.000000,0.000000,0.000000,1647407621.516632,0.000000
198.000000,29197.547340,24556.587584,55272.623035,32016.214075,47681.478880,48998.622477,41068.715283,34970.801767,0.150000,0.958000,0.188000,192.000000,0.000000,0.000000,0.000000,0.000000,0.000000,0.000000,0.000000,0.000000,0.000000,1647407621.524578,0.000000
199.000000,29197.614395,24557.079322,55272.980663,32019.186857,47682.998798,48998.197794,41065.139003,34964.610334,0.150000,0.958000,0.188000,192.000000,0.000000,0.000000,0.000000,0.000000,0.000000,0.000000,0.000000,0.000000,0.000000,1647407621.524590,0.000000
200.000000,29202.330613,24559.493310,55268.309148,32021.533790,47679.087243,48994.129776,41062.188573,34967.314895,0.144000,0.954000,0.200000,192.000000,4.000000,128.000000,29.000000,208.000000,6.000000,64.000000,0.000000,0.000000,0.000000,1647407621.532753,0.000000
201.000000,29211.137201,24568.657526,55260.240169,32026.875857,47670.414766,48990.732311,41065.049596,34971.293506,0.144000,0.954000,0.200000,192.000000,0.000000,0.000000,0.000000,0.000000,0.000000,0.000000,0.000000,0.000000,0.000000,1647407621.532770,0.000000
202.000000,29207.203294,24563.807197,55268.219741,32026.629988,47679.310760,48988.295971,41060.847468,34963.112767,0.144000,0.954000,0.200000,192.000000,0.000000,0.000000,0.000000,0.000000,0.000000,0.000000,0.000000,0.000000,0.000000,1647407621.539001,0.000000
203.000000,29208.030308,24563.650735,55276.333425,32028.015796,47686.955057,48988.050102,41058.388777,34958.307142,0.144000,0.954000,0.200000,192.000000,0.000000,0.000000,0.000000,0.000000,0.000000,0.000000,0.000000,0.000000,0.000000,1647407621.539010,0.000000
204.000000,29206.420983,24562.510796,55277.406308,32027.568761,47694.286429,48988.184212,41054.074890,34949.768776,0.144000,0.954000,0.200000,192.000000,0.000000,0.000000,0.000000,0.000000,0.000000,0.000000,0.000000,0.000000,0.000000,1647407621.546078,0.000000
205.000000,29211.628939,24567.674049,55275.796983,32027.926389,47697.706246,48991.291105,41061.585076,34960.542317,0.144000,0.954000,0.200000,192.000000,0.000000,0.000000,0.000000,0.000000,0.000000,0.000000,0.000000,0.000000,0.000000,1647407621.554316,0.000000
206.000000,29215.540494,24570.445665,55271.348986,32029.848639,47692.565345,48989.368855,41066.100128,34953.345055,0.144000,0.954000,0.200000,192.000000,0.000000,0.000000,0.000000,0.000000,0.000000,0.000000,0.000000,0.000000,0.000000,1647407621.554332,0.000000
207.000000,29210.712518,24568.143435,55271.639558,32030.630950,47693.638229,48989.525317,41061.652131,34947.824174,0.144000,0.954000,0.200000,192.000000,0.000000,0.000000,0.000000,0.000000,0.000000,0.000000,0.000000,0.000000,0.000000,1647407621.562376,0.000000
208.000000,29208.522047,24567.204662,55285.117660,32034.900133,47705.395246,48992.654561,41059.506364,34959.156508,0.144000,0.954000,0.200000,192.000000,0.000000,0.000000,0.000000,0.000000,0.000000,0.000000,0.000000,0.000000,0.000000,1647407621.562393,0.000000
209.000000,29207.225645,24565.193005,55291.420852,32038.543467,47707.630421,48994.263887,41055.684216,34963.246878,0.144000,0.954000,0.200000,192.000000,0.000000,0.000000,0.000000,0.000000,0.000000,0.000000,0.000000,0.000000,0.000000,1647407621.568816,0.000000
210.000000,29212.165381,24571.563252,55283.307169,32036.732976,47696.208679,48993.034541,41057.517059,34971.226450,0.148000,0.952000,0.206000,192.000000,4.000000,160.000000,29.000000,192.000000,6.000000,112.000000,0.000000,0.000000,0.000000,1647407621.568832,0.000000
211.000000,29205.303395,24565.751799,55284.268294,32036.889438,47692.431234,48997.750759,41059.595771,34965.638514,0.148000,0.952000,0.206000,192.000000,0.000000,0.000000,0.000000,0.000000,0.000000,0.000000,0.000000,0.000000,0.000000,1647407621.576743,0.000000
212.000000,29202.755297,24562.175520,55281.541381,32031.457964,47685.792766,48992.475747,41061.875649,34966.890212,0.148000,0.952000,0.206000,192.000000,0.000000,0.000000,0.000000,0.000000,0.000000,0.000000,0.000000,0.000000,0.000000,1647407621.576759,0.000000
213.000000,29205.303395,24564.209528,55281.206105,32030.362729,47683.557592,48997.482538,41067.195364,34975.987372,0.148000,0.952000,0.206000,192.000000,0.000000,0.000000,0.000000,0.000000,0.000000,0.000000,0.000000,0.000000,0.000000,1647407621.584893,0.000000
214.000000,29201.056564,24560.968526,55287.241076,32029.066328,47693.884098,48993.548631,41057.919390,34962.844546,0.148000,0.952000,0.206000,192.000000,0.000000,0.000000,0.000000,0.000000,0.000000,0.000000,0.000000,0.000000,0.000000,1647407621.584917,0.000000
215.000000,29200.698936,24560.074456,55283.553038,32026.607636,47688.474976,48995.783805,41061.786242,34973.863956,0.148000,0.952000,0.206000,192.000000,0.000000,0.000000,0.000000,0.000000,0.000000,0.000000,0.000000,0.000000,0.000000,1647407621.591904,0.000000
216.000000,29199.447238,24558.845110,55268.733831,32020.460906,47671.375891,48990.419387,41062.635608,34973.931011,0.148000,0.952000,0.206000,192.000000,0.000000,0.000000,0.000000,0.000000,0.000000,0.000000,0.000000,0.000000,0.000000,1647407621.591916,0.000000
217.000000,29204.431677,24564.634212,55272.153648,32027.836982,47674.482784,48998.555422,41071.241030,34969.103035,0.148000,0.952000,0.206000,192.000000,0.000000,0.000000,0.000000,0.000000,0.000000,0.000000,0.000000,0.000000,0.000000,1647407621.599465,0.000000
218.000000,29195.714497,24555.648810,55285.207067,32027.389947,47689.436101,48991.112291,41063.149698,34958.932991,0.148000,0.952000,0.206000,192.000000,0.000000,0.000000,0.000000,0.000000,0.000000,0.000000,0.000000,0.000000,0.000000,1647407621.599477,0.000000
219.000000,29198.731983,24557.973392,55283.642445,32024.372461,47684.026978,48985.434948,41062.456794,34969.706532,0.148000,0.952000,0.206000,192.000000,0.000000,0.000000,0.000000,0.000000,0.000000,0.000000,0.000000,0.000000,0.000000,1647407621.608012,0.000000
220.000000,29206.711555,24568.970450,55275.729928,32024.864200,47670.615932,48987.647770,41063.842602,34976.523814,0.152000,0.946000,0.214000,192.000000,4.000000,192.000000,29.000000,144.000000,6.000000,176.000000,0.000000,0.000000,0.000000,1647407621.614626,0.000000
221.000000,29204.923416,24565.863558,55275.305244,32023.858371,47663.888057,48988.966523,41059.461660,34962.106939,0.152000,0.946000,0.214000,192.000000,0.000000,0.000000,0.000000,0.000000,0.000000,0.000000,0.000000,0.000000,0.000000,1647407621.614642,0.000000
222.000000,29200.631881,24556.252307,55281.206105,32026.361767,47668.336054,48993.660390,41065.876611,34972.344038,0.152000,0.946000,0.214000,192.000000,0.000000,0.000000,0.000000,0.000000,0.000000,0.000000,0.000000,0.000000,0.000000,1647407621.621701,0.000000
223.000000,29206.108058,24557.615764,55286.279951,32027.725223,47674.013397,48998.398959,41073.967942,34979.340134,0.152000,0.946000,0.214000,192.000000,0.000000,0.000000,0.000000,0.000000,0.000000,0.000000,0.000000,0.000000,0.000000,1647407621.621718,0.000000
224.000000,29205.191637,24555.872328,55293.767785,32030.742709,47678.640208,49000.902355,41070.548126,34970.444139,0.152000,0.946000,0.214000,192.000000,0.000000,0.000000,0.000000,0.000000,0.000000,0.000000,0.000000,0.000000,0.000000,1647407621.629005,0.000000
225.000000,29210.801925,24562.644906,55290.727948,32032.061461,47672.784051,49001.729369,41077.164242,34971.293506,0.152000,0.946000,0.214000,192.000000,0.000000,0.000000,0.000000,0.000000,0.000000,0.000000,0.000000,0.000000,0.000000,1647407621.629021,0.000000
226.000000,29208.298529,24560.968526,55283.150707,32028.574589,47659.238894,49004.500986,41078.103015,34982.223509,0.152000,0.946000,0.214000,192.000000,0.000000,0.000000,0.000000,0.000000,0.000000,0.000000,0.000000,0.000000,0.000000,1647407621.637230,0.000000
227.000000,29210.556055,24562.488444,55280.580256,32026.786450,47650.991100,49003.249288,41076.158413,34981.061218,0.152000,0.946000,0.214000,192.000000,0.000000,0.000000,0.000000,0.000000,0.000000,0.000000,0.000000,0.000000,0.000000,1647407621.637247,0.000000
228.000000,29201.861227,24557.191081,55292.270218,32027.613464,47664.357443,49000.880003,41066.882439,34969.393607,0.152000,0.946000,0.214000,192.000000,0.000000,0.000000,0.000000,0.000000,0.000000,0.000000,0.000000,0.000000,0.000000,1647407621.645276,0.000000
229.000000,29200.386012,24556.475825,55299.914515,32028.239313,47672.225257,48997.259020,41061.965056,34957.681293,0.152000,0.946000,0.214000,192.000000,0.000000,0.000000,0.000000,0.000000,0.000000,0.000000,0.000000,0.000000,0.000000,1647407621.645292,0.000000
230.000000,29204.677547,24559.806235,55297.768748,32030.854467,47668.693682,48996.096730,41063.082643,34960.363503,0.152000,0.952000,0.206000,192.000000,4.000000,192.000000,29.000000,192.000000,6.000000,112.000000,0.000000,0.000000,0.000000,1647407621.651857,0.000000
231.000000,29208.723212,24566.288241,55290.526782,32033.648435,47660.624702,48998.242497,41067.374178,34970.958229,0.152000,0.952000,0.206000,192.000000,0.000000,0.000000,0.000000,0.000000,0.000000,0.000000,0.000000,0.000000,0.000000,1647407621.651875,0.000000
232.000000,29205.951596,24564.388342,55296.025311,32034.810726,47661.339958,48999.628305,41068.849393,34970.488843,0.152000,0.952000,0.206000,192.000000,0.000000,0.000000,0.000000,0.000000,0.000000,0.000000,0.000000,0.000000,0.000000,1647407621.659672,0.000000
233.000000,29210.556055,24567.115255,55304.340160,32037.627046,47664.513906,49001.438797,41074.102053,34971.986410,0.152000,0.952000,0.206000,192.000000,0.000000,0.000000,0.000000,0.000000,0.000000,0.000000,0.000000,0.000000,0.000000,1647407621.659688,0.000000
234.000000,29211.405422,24566.981145,55302.216745,32033.715491,47660.669406,48993.034541,41065.720149,34959.625895,0.152000,0.952000,0.206000,192.000000,0.000000,0.000000,0.000000,0.000000,0.000000,0.000000,0.000000,0.000000,0.000000,1647407621.666814,0.000000
235.000000,29209.572579,24566.981145,55295.153593,32029.826287,47650.678176,48991.089939,41068.223544,34944.203191,0.152000,0.952000,0.206000,192.000000,0.000000,0.000000,0.000000,0.000000,0.000000,0.000000,0.000000,0.000000,0.000000,1647407621.674073,0.000000
236.000000,29205.258692,24561.974354,55292.851364,32029.178086,47649.068850,48989.078282,41065.921314,34946.863049,0.152000,0.952000,0.206000,192.000000,0.000000,0.000000,0.000000,0.000000,0.000000,0.000000,0.000000,0.000000,0.000000,1647407621.674089,0.000000
237.000000,29204.074049,24561.974354,55294.907724,32033.000235,47654.835600,48991.022884,41065.787204,34977.797863,0.152000,0.952000,0.206000,192.000000,0.000000,0.000000,0.000000,0.000000,0.000000,0.000000,0.000000,0.000000,0.000000,1647407621.681491,0.000000
238.000000,29198.486113,24555.805273,55295.667684,32026.652339,47659.104783,48984.809099,41063.820250,34970.600602,0.152000,0.952000,0.206000,192.000000,0.000000,0.000000,0.000000,0.000000,0.000000,0.000000,0.000000,0.000000,0.000000,1647407621.681507,0.000000
239.000000,29197.435581,24552.296049,55289.811527,32019.164505,47651.415783,48980.338750,41063.373216,34968.074854,0.152000,0.952000,0.206000,192.000000,0.000000,0.000000,0.000000,0.000000,0.000000,0.000000,0.000000,0.000000,0.000000,1647407621.689508,0.000000
240.000000,29202.956462,24559.448607,55286.078785,32021.802011,47643.413859,48982.506869,41064.356692,34970.824119,0.158000,0.952000,0.204000,192.000000,4.000000,240.000000,29.000000,192.000000,6.000000,96.000000,0.000000,0.000000,0.000000,1647407621.689524,0.000000
241.000000,29204.029346,24561.035581,55279.462669,32019.298615,47632.014469,48979.757605,41062.054463,34971.517023,0.158000,0.952000,0.204000,192.000000,0.000000,0.000000,0.000000,0.000000,0.000000,0.000000,0.000000,0.000000,0.000000,1647407621.697528,0.000000
242.000000,29195.468628,24550.127929,55278.769765,32015.722336,47636.797742,48976.181325,41058.947570,34958.642418,0.158000,0.952000,0.204000,192.000000,0.000000,0.000000,0.000000,0.000000,0.000000,0.000000,0.000000,0.000000,0.000000,1647407621.697544,0.000000
243.000000,29200.676584,24555.648810,55284.514163,32020.103278,47644.822019,48979.735253,41067.955323,34963.626857,0.158000,0.952000,0.204000,192.000000,0.000000,0.000000,0.000000,0.000000,0.000000,0.000000,0.000000,0.000000,0.000000,1647407621.704200,0.000000
244.000000,29203.917587,24562.063761,55295.824146,32028.395775,47654.813248,48988.541840,41067.754158,34971.606430,0.158000,0.952000,0.204000,192.000000,0.000000,0.000000,0.000000,0.000000,0.000000,0.000000,0.000000,0.000000,0.000000,1647407621.704217,0.000000
245.000000,29202.531779,24559.649773,55297.813451,32028.820459,47655.550856,48990.866422,41065.988370,34969.348904,0.158000,0.952000,0.204000,192.000000,0.000000,0.000000,0.000000,0.000000,0.000000,0.000000,0.000000,0.000000,0.000000,1647407621.712131,0.000000
246.000000,29202.218855,24556.095845,55291.711425,32024.484220,47646.297234,48980.808137,41055.415995,34948.494726,0.158000,0.952000,0.204000,192.000000,0.000000,0.000000,0.000000,0.000000,0.000000,0.000000,0.000000,0.000000,0.000000,1647407621.712148,0.000000
247.000000,29210.265483,24562.175520,55286.078785,32028.105203,47641.804533,48978.640017,41054.141945,34952.741558,0.158000,0.952000,0.204000,192.000000,0.000000,0.000000,0.000000,0.000000,0.000000,0.000000,0.000000,0.000000,0.000000,1647407621.720166,0.000000
248.000000,29213.327672,24565.304764,55293.544268,32032.128517,47658.389528,48988.407730,41052.219695,34964.632686,0.158000,0.952000,0.204000,192.000000,0.000000,0.000000,0.000000,0.000000,0.000000,0.000000,0.000000,0.000000,0.000000,1647407621.720182,0.000000
249.000000,29214.489962,24569.350430,55292.158460,32031.681482,47664.402147,48986.999570,41046.072965,34948.427671,0.158000,0.952000,0.204000,192.000000,0.000000,0.000000,0.000000,0.000000,0.000000,0.000000,0.000000,0.000000,0.000000,1647407621.727276,0.000000
250.000000,29208.633805,24565.707095,55285.028253,32030.094508,47663.396318,48986.932515,41041.401451,34938.168220,0.158000,0.952000,0.190000,192.000000,4.000000,240.000000,29.000000,192.000000,5.000000,240.000000,0.000000,0.000000,0.000000,1647407621.727292,0.000000
251.000000,29211.606587,24567.696401,55280.624960,32031.457964,47660.915275,48993.794500,41046.944683,34965.906735,0.158000,0.952000,0.190000,192.000000,0.000000,0.000000,0.000000,0.000000,0.000000,0.000000,0.000000,0.000000,0.000000,1647407621.733816,0.000000
252.000000,29217.999186,24570.847997,55280.155573,32035.369520,47662.882228,48993.123948,41050.565666,34969.706532,0.158000,0.952000,0.190000,192.000000,0.000000,0.000000,0.000000,0.000000,0.000000,0.000000,0.000000,0.000000,0.000000,1647407621.741857,0.000000
253.000000,29221.530762,24575.921843,55287.554000,32039.996331,47669.073661,49003.293991,41073.878535,34969.214793,0.158000,0.952000,0.190000,192.000000,0.000000,0.000000,0.000000,0.000000,0.000000,0.000000,0.000000,0.000000,0.000000,1647407621.741873,0.000000
254.000000,29208.276177,24564.365991,55298.327541,32035.950665,47682.395301,49000.902355,41070.883402,34963.001008,0.158000,0.952000,0.190000,192.000000,0.000000,0.000000,0.000000,0.000000,0.000000,0.000000,0.000000,0.000000,0.000000,1647407621.749900,0.000000
255.000000,29208.879675,24561.728485,55292.650198,32033.581380,47675.108632,48999.024808,41077.052483,34966.532584,0.158000,0.952000,0.190000,192.000000,0.000000,0.000000,0.000000,0.000000,0.000000,0.000000,0.000000,0.000000,0.000000,1647407621.749917,0.000000
0.000000,29204.319919,24557.101674,55288.313960,32027.166429,47667.106708,48992.878079,41066.144832,34961.056407,0.158000,0.952000,0.190000,192.000000,0.000000,0.000000,0.000000,0.000000,0.000000,0.000000,0.000000,0.000000,0.000000,1647407621.756980,0.000000
1.000000,29205.325747,24558.554537,55287.933980,32030.407432,47663.731595,48991.894602,41068.447062,34967.896040,0.158000,0.952000,0.190000,192.000000,0.000000,0.000000,0.000000,0.000000,0.000000,0.000000,0.000000,0.000000,0.000000,1647407621.757015,0.000000
2.000000,29205.593968,24557.034619,55295.377111,32033.179049,47674.572191,48992.475747,41069.497594,34961.704607,0.158000,0.952000,0.190000,192.000000,0.000000,0.000000,0.000000,0.000000,0.000000,0.000000,0.000000,0.000000,0.000000,1647407621.764413,0.000000
3.000000,29203.872884,24556.721694,55302.686131,32033.871953,47680.651865,48992.788672,41068.894096,34967.538413,0.158000,0.952000,0.190000,192.000000,0.000000,0.000000,0.000000,0.000000,0.000000,0.000000,0.000000,0.000000,0.000000,1647407621.764429,0.000000
4.000000,29209.572579,24563.829549,55296.964085,32034.408395,47669.699510,48994.688570,41076.672504,34975.540337,0.148000,0.956000,0.190000,192.000000,4.000000,160.000000,29.000000,224.000000,5.000000,240.000000,0.000000,0.000000,0.000000,1647407621.773659,0.000000
5.000000,29203.023517,24556.520528,55293.656027,32030.809764,47663.306911,48992.699265,41067.061253,34963.135119,0.148000,0.956000,0.190000,192.000000,0.000000,0.000000,0.000000,0.000000,0.000000,0.000000,0.000000,0.000000,0.000000,1647407621.773675,0.000000
6.000000,29205.258692,24559.158034,55292.270218,32030.049804,47660.401185,48984.987913,41063.239105,34953.926200,0.148000,0.956000,0.190000,192.000000,0.000000,0.000000,0.000000,0.000000,0.000000,0.000000,0.000000,0.000000,0.000000,1647407621.780144,0.000000
7.000000,29208.544398,24563.762494,55296.181774,32035.101299,47667.419632,48985.032616,41065.250762,34953.970904,0.148000,0.956000,0.190000,192.000000,0.000000,0.000000,0.000000,0.000000,0.000000,0.000000,0.000000,0.000000,0.000000,1647407621.780161,0.000000
8.000000,29208.276177,24567.204662,55300.473309,32040.689235,47678.483746,48993.347465,41071.397492,34970.891174,0.148000,0.956000,0.190000,192.000000,0.000000,0.000000,0.000000,0.000000,0.000000,0.000000,0.000000,0.000000,0.000000,1647407621.787034,0.000000
9.000000,29206.532741,24563.807197,55299.467480,32038.118784,47681.702397,48993.168651,41066.189535,34970.399436,0.148000,0.956000,0.190000,192.000000,0.000000,0.000000,0.000000,0.000000,0.000000,0.000000,0.000000,0.000000,0.000000,1647407621.787051,0.000000
10.000000,29212.321843,24571.004459,55290.459727,32038.275246,47670.727691,48988.720654,41066.100128,34969.773587,0.148000,0.956000,0.190000,192.000000,0.000000,0.000000,0.000000,0.000000,0.000000,0.000000,0.000000,0.000000,0.000000,1647407621.794141,0.000000
11.000000,29209.505523,24568.881043,55297.947561,32043.662017,47675.354502,48997.527241,41072.582134,34980.234203,0.148000,0.956000,0.190000,192.000000,0.000000,0.000000,0.000000,0.000000,0.000000,0.000000,0.000000,0.000000,0.000000,1647407621.802143,0.000000
12.000000,29206.622148,24563.203700,55306.888259,32041.806822,47684.161089,48992.878079,41070.615181,34972.455796,0.148000,0.956000,0.190000,192.000000,0.000000,0.000000,0.000000,0.000000,0.000000,0.000000,0.000000,0.000000,0.000000,1647407621.802159,0.000000
13.000000,29204.968119,24562.443741,55310.285724,32045.405453,47688.519679,48993.660390,41075.241992,34966.756101,0.148000,0.956000,0.190000,192.000000,0.000000,0.000000,0.000000,0.000000,0.000000,0.000000,0.000000,0.000000,0.000000,1647407621.809253,0.000000
14.000000,29201.168323,24559.783883,55312.610306,32043.796127,47687.469147,48991.402863,41070.637533,34967.158433,0.146000,0.952000,0.188000,192.000000,4.000000,144.000000,29.000000,192.000000,5.000000,224.000000,0.000000,0.000000,0.000000,1647407621.809271,0.000000
15.000000,29206.398631,24565.707095,55305.591858,32039.772813,47674.661598,48989.413558,41068.692931,34963.984485,0.146000,0.952000,0.188000,192.000000,0.000000,0.000000,0.000000,0.000000,0.000000,0.000000,0.000000,0.000000,0.000000,1647407621.816620,0.000000
16.000000,29208.544398,24568.635174,55303.960181,32037.738805,47673.544010,48988.787709,41069.117614,34959.804709,0.146000,0.952000,0.188000,192.000000,0.000000,0.000000,0.000000,0.000000,0.000000,0.000000,0.000000,0.000000,0.000000,1647407621.816638,0.000000
17.000000,29214.445259,24575.541863,55301.613248,32036.956493,47673.342845,48992.274581,41071.598658,34971.517023,0.146000,0.952000,0.188000,192.000000,0.000000,0.000000,0.000000,0.000000,0.000000,0.000000,0.000000,0.000000,0.000000,1647407621.824645,0.000000
18.000000,29208.007957,24569.037505,55306.731797,32036.330645,47679.243705,48996.208488,41068.178841,34964.945610,0.146000,0.952000,0.188000,192.000000,0.000000,0.000000,0.000000,0.000000,0.000000,0.000000,0.000000,0.000000,0.000000,1647407621.824657,0.000000
19.000000,29199.357831,24560.946174,55309.816338,32031.390909,47681.680045,48995.672047,41075.621972,34960.363503,0.146000,0.952000,0.188000,192.000000,0.000000,0.000000,0.000000,0.000000,0.000000,0.000000,0.000000,0.000000,0.000000,1647407621.832763,0.000000
20.000000,29207.650329,24569.104561,55300.875640,32029.289845,47667.576095,48995.046198,41079.399416,34970.086511,0.146000,0.952000,0.188000,192.000000,0.000000,0.000000,0.000000,0.000000,0.000000,0.000000,0.000000,0.000000,0.000000,1647407621.832780,0.000000
21.000000,29208.924378,24567.137607,55306.776501,32035.302464,47676.248571,49001.103521,41073.587963,34960.877593,0.146000,0.952000,0.188000,192.000000,0.000000,0.000000,0.000000,0.000000,0.000000,0.000000,0.000000,0.000000,0.000000,1647407621.839362,0.000000
22.000000,29216.725137,24573.977241,55314.331390,32043.818479,47683.177612,49005.707980,41072.939762,34974.780378,0.146000,0.952000,0.188000,192.000000,0.000000,0.000000,0.000000,0.000000,0.000000,0.000000,0.000000,0.000000,0.000000,1647407621.839397,0.000000
23.000000,29220.055547,24578.604052,55320.567527,32049.294656,47689.637266,49009.843053,41073.990294,34993.533491,0.146000,0.952000,0.188000,192.000000,0.000000,0.000000,0.000000,0.000000,0.000000,0.000000,0.000000,0.000000,0.000000,1647407621.847344,0.000000
24.000000,29221.955445,24584.795485,55316.879489,32052.379197,47683.512888,49011.362971,41078.214774,34988.303183,0.152000,0.956000,0.190000,192.000000,4.000000,192.000000,29.000000,224.000000,5.000000,240.000000,0.000000,0.000000,0.000000,1647407621.847360,0.000000
25.000000,29219.072070,24580.526302,55312.364437,32049.451119,47678.148470,49005.260945,41071.933934,34974.467453,0.152000,0.956000,0.190000,192.000000,0.000000,0.000000,0.000000,0.000000,0.000000,0.000000,0.000000,0.000000,0.000000,1647407621.854358,0.000000
26.000000,29218.557980,24579.140494,55307.402349,32048.713511,47675.287446,49010.915936,41080.740521,34983.966945,0.152000,0.956000,0.190000,192.000000,0.000000,0.000000,0.000000,0.000000,0.000000,0.000000,0.000000,0.000000,0.000000,1647407621.862405,0.000000
27.000000,29196.161532,24554.575927,55305.547155,32035.369520,47680.249534,49002.757550,41064.826079,34973.305163,0.152000,0.956000,0.190000,192.000000,0.000000,0.000000,0.000000,0.000000,0.000000,0.000000,0.000000,0.000000,0.000000,1647407621.862421,0.000000
28.000000,29194.529855,24551.849014,55291.934942,32020.617368,47666.257342,48984.362064,41058.656998,34959.089453,0.152000,0.956000,0.190000,192.000000,0.000000,0.000000,0.000000,0.000000,0.000000,0.000000,0.000000,0.000000,0.000000,1647407621.869053,0.000000
29.000000,29194.731020,24553.480691,55282.211933,32020.863237,47653.852123,48985.390244,41063.999064,34961.816366,0.152000,0.956000,0.190000,192.000000,0.000000,0.000000,0.000000,0.000000,0.000000,0.000000,0.000000,0.000000,0.000000,1647407621.869070,0.000000
30.000000,29189.456009,24548.563307,55282.904837,32018.449249,47652.555722,48985.949038,41058.992274,34953.970904,0.152000,0.956000,0.190000,192.000000,0.000000,0.000000,0.000000,0.000000,0.000000,0.000000,0.000000,0.000000,0.000000,1647407621.877085,0.000000
31.000000,29194.239282,24553.123063,55284.871791,32020.393851,47654.589731,48986.708997,41062.009759,34961.391683,0.152000,0.956000,0.190000,192.000000,0.000000,0.000000,0.000000,0.000000,0.000000,0.000000,0.000000,0.000000,0.000000,1647407621.877102,0.000000
32.000000,29199.536645,24558.822758,55287.174021,32029.021624,47662.435193,48990.754663,41067.396530,34966.711398,0.152000,0.956000,0.190000,192.000000,0.000000,0.000000,0.000000,0.000000,0.000000,0.000000,0.000000,0.000000,0.000000,1647407621.884961,0.000000
33.000000,29198.240244,24556.587584,55286.950503,32029.267493,47665.072699,48988.407730,41067.530640,34962.866898,0.152000,0.956000,0.190000,192.000000,0.000000,0.000000,0.000000,0.000000,0.000000,0.000000,0.000000,0.000000,0.000000,1647407621.884978,0.000000
34.000000,29204.141105,24564.969488,55279.976759,32032.463793,47654.299158,48987.670122,41069.117614,34956.474299,0.152000,0.956000,0.190000,192.000000,0.000000,0.000000,0.000000,0.000000,0.000000,0.000000,0.000000,0.000000,0.000000,1647407621.892206,0.000000
35.000000,29204.856361,24565.975316,55278.658006,32036.665921,47648.308891,48991.022884,41073.207983,34957.703645,0.156000,0.962000,0.190000,192.000000,4.000000,224.000000,30.000000,16.000000,5.000000,240.000000,0.000000,0.000000,0.000000,1647407621.892224,0.000000
36.000000,29208.387936,24570.333906,55288.582181,32045.807784,47657.338996,49001.461148,41082.685123,34992.929994,0.156000,0.962000,0.190000,192.000000,0.000000,0.000000,0.000000,0.000000,0.000000,0.000000,0.000000,0.000000,0.000000,1647407621.899638,0.000000
37.000000,29211.181904,24571.496197,55298.528707,32048.847622,47668.179592,49009.016038,41085.814367,34990.717172,0.156000,0.962000,0.190000,192.000000,0.000000,0.000000,0.000000,0.000000,0.000000,0.000000,0.000000,0.000000,0.000000,1647407621.899655,0.000000
38.000000,29203.492904,24562.421389,55299.981570,32041.225677,47668.470164,48998.734236,41071.129271,34968.119558,0.156000,0.962000,0.190000,192.000000,0.000000,0.000000,0.000000,0.000000,0.000000,0.000000,0.000000,0.000000,0.000000,1647407621.907608,0.000000
39.000000,29206.309224,24564.477749,55291.644370,32036.330645,47657.294292,48996.230840,41069.832870,34958.463604,0.156000,0.962000,0.190000,192.000000,0.000000,0.000000,0.000000,0.000000,0.000000,0.000000,0.000000,0.000000,0.000000,1647407621.907624,0.000000
40.000000,29208.343233,24565.595337,55293.030178,32035.034243,47658.121307,48999.963582,41074.973771,34953.948552,0.156000,0.962000,0.190000,192.000000,0.000000,0.000000,0.000000,0.000000,0.000000,0.000000,0.000000,0.000000,0.000000,1647407621.914798,0.000000
41.000000,29206.108058,24565.438874,55293.276047,32034.698967,47661.317606,49002.757550,41073.923239,34975.138006,0.156000,0.962000,0.190000,192.000000,0.000000,0.000000,0.000000,0.000000,0.000000,0.000000,0.000000,0.000000,0.000000,1647407621.921225,0.000000
42.000000,29215.607550,24573.597261,55293.432509,32036.889438,47663.776298,49004.635096,41074.482033,34993.980526,0.156000,0.962000,0.190000,192.000000,0.000000,0.000000,0.000000,0.000000,0.000000,0.000000,0.000000,0.000000,0.000000,1647407621.921241,0.000000
43.000000,29214.154686,24575.117180,55296.628809,32039.057557,47673.007568,49004.188061,41069.363483,34975.383875,0.156000,0.962000,0.190000,192.000000,0.000000,0.000000,0.000000,0.000000,0.000000,0.000000,0.000000,0.000000,0.000000,1647407621.929628,0.000000
44.000000,29211.114849,24571.250328,55291.107928,32036.844735,47669.051310,48999.985933,41072.783300,34980.770645,0.156000,0.962000,0.190000,192.000000,0.000000,0.000000,0.000000,0.000000,0.000000,0.000000,0.000000,0.000000,0.000000,1647407621.929644,0.000000
45.000000,29212.590064,24571.406790,55286.101137,32041.851526,47663.843353,49001.707018,41075.554916,34981.821177,0.154000,0.962000,0.188000,192.000000,4.000000,208.000000,30.000000,16.000000,5.000000,224.000000,0.000000,0.000000,0.000000,1647407621.937278,0.000000
46.000000,29215.339329,24572.591433,55284.469460,32046.143060,47666.145583,49001.125872,41072.403320,34980.077741,0.154000,0.962000,0.188000,192.000000,0.000000,0.000000,0.000000,0.000000,0.000000,0.000000,0.000000,0.000000,0.000000,1647407621.937295,0.000000
47.000000,29211.673643,24568.903395,55292.717253,32045.539563,47681.769452,49001.885832,41063.529678,34965.996142,0.154000,0.962000,0.188000,192.000000,0.000000,0.000000,0.000000,0.000000,0.000000,0.000000,0.000000,0.000000,0.000000,1647407621.944370,0.000000
48.000000,29206.063355,24563.538976,55294.818317,32037.716453,47681.143603,48997.482538,41057.941742,34963.962133,0.154000,0.962000,0.188000,192.000000,0.000000,0.000000,0.000000,0.000000,0.000000,0.000000,0.000000,0.000000,0.000000,1647407621.944386,0.000000
49.000000,29205.795134,24562.801369,55290.191506,32032.843773,47672.716996,48995.537936,41062.903829,34961.279924,0.154000,0.962000,0.188000,192.000000,0.000000,0.000000,0.000000,0.000000,0.000000,0.000000,0.000000,0.000000,0.000000,1647407621.951873,0.000000
50.000000,29215.518143,24575.050125,55285.452936,32036.755328,47667.151411,49000.254154,41069.721111,34967.024322,0.154000,0.962000,0.188000,192.000000,0.000000,0.000000,0.000000,0.000000,0.000000,0.000000,0.000000,0.000000,0.000000,1647407621.951889,0.000000
51.000000,29215.004053,24573.709020,55286.995207,32038.543467,47669.408938,49002.645791,41063.015588,34965.414997,0.154000,0.962000,0.188000,192.000000,0.000000,0.000000,0.000000,0.000000,0.000000,0.000000,0.000000,0.000000,0.000000,1647407621.959967,0.000000
52.000000,29209.684337,24565.841206,55297.634637,32037.112956,47681.054196,48996.767282,41054.454870,34962.509270,0.154000,0.962000,0.188000,192.000000,0.000000,0.000000,0.000000,0.000000,0.000000,0.000000,0.000000,0.000000,0.000000,1647407621.959983,0.000000
53.000000,29213.528837,24567.495235,55306.910611,32041.113918,47687.290333,48997.907221,41069.497594,34971.405264,0.154000,0.962000,0.188000,192.000000,0.000000,0.000000,0.000000,0.000000,0.000000,0.000000,0.000000,0.000000,0.000000,1647407621.967852,0.000000
54.000000,29217.529800,24571.227976,55304.094291,32042.544430,47680.026016,48999.874175,41074.236163,34968.052503,0.154000,0.962000,0.188000,192.000000,0.000000,0.000000,0.000000,0.000000,0.000000,0.000000,0.000000,0.000000,0.000000,1647407621.967869,0.000000
55.000000,29218.625035,24571.630308,55299.847460,32044.489031,47676.360330,48999.471843,41072.135099,34966.152604,0.154000,0.954000,0.186000,192.000000,4.000000,208.000000,29.000000,208.000000,5.000000,208.000000,0.000000,0.000000,0.000000,1647407621.974043,0.000000
56.000000,29222.558942,24576.614747,55303.535498,32051.060444,47685.636304,49005.640925,41074.191460,34974.355695,0.154000,0.954000,0.186000,192.000000,0.000000,0.000000,0.000000,0.000000,0.000000,0.000000,0.000000,0.000000,0.000000,1647407621.974060,0.000000
57.000000,29224.883524,24581.554482,55316.097178,32056.469566,47700.030828,49005.998553,41074.303219,34972.388741,0.154000,0.954000,0.186000,192.000000,0.000000,0.000000,0.000000,0.000000,0.000000,0.000000,0.000000,0.000000,0.000000,1647407621.981576,0.000000
58.000000,29214.758183,24572.233805,55318.667629,32045.271342,47703.718865,49000.410616,41067.485937,34965.571459,0.154000,0.954000,0.186000,192.000000,0.000000,0.000000,0.000000,0.000000,0.000000,0.000000,0.000000,0.000000,0.000000,1647407621.989481,0.000000
59.000000,29212.701823,24573.820779,55309.972800,32037.850563,47690.106653,48993.794500,41064.602562,34956.407244,0.154000,0.954000,0.186000,192.000000,0.000000,0.000000,0.000000,0.000000,0.000000,0.000000,0.000000,0.000000,0.000000,1647407621.989498,0.000000
60.000000,29215.339329,24574.446627,55301.814413,32035.101299,47677.276752,48999.181271,41067.977675,34961.682255,0.154000,0.954000,0.186000,192.000000,0.000000,0.000000,0.000000,0.000000,0.000000,0.000000,0.000000,0.000000,0.000000,1647407621.997569,0.000000
61.000000,29210.690166,24568.389305,55295.175945,32028.999272,47670.861801,49002.936364,41064.356692,34969.483014,0.154000,0.954000,0.186000,192.000000,0.000000,0.000000,0.000000,0.000000,0.000000,0.000000,0.000000,0.000000,0.000000,1647407621.997585,0.000000
62.000000,29204.163456,24560.610898,55305.927134,32028.127554,47683.267019,49007.607878,41067.597695,34971.181747,0.154000,0.954000,0.186000,192.000000,0.000000,0.000000,0.000000,0.000000,0.000000,0.000000,0.000000,0.000000,0.000000,1647407622.003838,0.000000
63.000000,29212.187733,24567.830511,55307.670570,32031.346206,47681.925915,49004.746855,41069.832870,34962.241049,0.154000,0.954000,0.186000,192.000000,0.000000,0.000000,0.000000,0.000000,0.000000,0.000000,0.000000,0.000000,0.000000,1647407622.003849,0.000000
64.000000,29216.591026,24573.440799,55296.293532,32030.519191,47666.726728,49002.086997,41070.235201,34963.023360,0.154000,0.954000,0.186000,192.000000,0.000000,0.000000,0.000000,0.000000,0.000000,0.000000,0.000000,0.000000,0.000000,1647407622.013233,0.000000
65.000000,29207.337404,24564.276584,55302.037931,32033.357863,47671.442946,49009.351314,41069.050559,34987.275003,0.160000,0.958000,0.186000,192.000000,5.000000,0.000000,29.000000,240.000000,5.000000,208.000000,0.000000,0.000000,0.000000,1647407622.013257,0.000000
66.000000,29209.214951,24565.416523,55303.937829,32037.515287,47675.846240,49006.110311,41070.212849,34989.487826,0.160000,0.958000,0.186000,192.000000,0.000000,0.000000,0.000000,0.000000,0.000000,0.000000,0.000000,0.000000,0.000000,1647407622.020198,0.000000
67.000000,29208.790268,24565.550633,55307.402349,32040.175145,47682.864688,49007.026733,41069.050559,34981.731770,0.160000,0.958000,0.186000,192.000000,0.000000,0.000000,0.000000,0.000000,0.000000,0.000000,0.000000,0.000000,0.000000,1647407622.020215,0.000000
68.000000,29212.098326,24568.121084,55308.385826,32043.907886,47682.104728,49004.053951,41065.116652,34972.835776,0.160000,0.958000,0.186000,192.000000,0.000000,0.000000,0.000000,0.000000,0.000000,0.000000,0.000000,0.000000,0.000000,1647407622.026694,0.000000
69.000000,29219.183829,24575.519511,55304.898954,32050.412244,47675.510964,49004.366875,41070.950457,34974.221584,0.160000,0.958000,0.186000,192.000000,0.000000,0.000000,0.000000,0.000000,0.000000,0.000000,0.000000,0.000000,0.000000,1647407622.026706,0.000000
70.000000,29219.653215,24577.732334,55300.026274,32054.949648,47669.610103,49009.239556,41073.766777,34977.328477,0.160000,0.958000,0.186000,192.000000,0.000000,0.000000,0.000000,0.000000,0.000000,0.000000,0.000000,0.000000,0.000000,1647407622.034813,0.000000
71.000000,29229.331521,24589.824628,55299.467480,32067.444273,47671.800574,49017.442646,41081.031094,34989.107846,0.160000,0.958000,0.186000,192.000000,0.000000,0.000000,0.000000,0.000000,0.000000,0.000000,0.000000,0.000000,0.000000,1647407622.034830,0.000000
72.000000,29227.856306,24593.579721,55312.878527,32082.822273,47689.927839,49029.646698,41081.411073,34989.711343,0.160000,0.958000,0.186000,192.000000,0.000000,0.000000,0.000000,0.000000,0.000000,0.000000,0.000000,0.000000,0.000000,1647407622.041837,0.000000
73.000000,29220.413175,24587.678860,55318.578222,32080.497692,47694.442891,49021.175387,41077.655980,34978.893099,0.160000,0.958000,0.186000,192.000000,0.000000,0.000000,0.000000,0.000000,0.000000,0.000000,0.000000,0.000000,0.000000,1647407622.049845,0.000000
74.000000,29224.771765,24591.188084,55317.795911,32079.693029,47689.793729,49014.894547,41073.967942,34973.238107,0.160000,0.958000,0.186000,192.000000,0.000000,0.000000,0.000000,0.000000,0.000000,0.000000,0.000000,0.000000,0.000000,1647407622.049862,0.000000
75.000000,29226.604608,24593.423258,55300.540364,32073.523947,47668.425461,49007.540823,41069.318780,34974.668619,0.158000,0.960000,0.194000,192.000000,4.000000,240.000000,30.000000,0.000000,6.000000,16.000000,0.000000,0.000000,0.000000,1647407622.056508,0.000000
76.000000,29226.671663,24590.450476,55301.032102,32066.214927,47666.972597,49007.987858,41070.905753,34976.657924,0.158000,0.960000,0.194000,192.000000,0.000000,0.000000,0.000000,0.000000,0.000000,0.000000,0.000000,0.000000,0.000000,1647407622.056524,0.000000
77.000000,29224.257675,24586.561273,55308.542288,32065.052636,47682.887040,49009.016038,41071.173974,34973.394570,0.158000,0.960000,0.194000,192.000000,0.000000,0.000000,0.000000,0.000000,0.000000,0.000000,0.000000,0.000000,0.000000,1647407622.064112,0.000000
78.000000,29211.673643,24575.497159,55306.977666,32059.196479,47692.118310,49005.082131,41066.368349,34965.303238,0.158000,0.960000,0.194000,192.000000,0.000000,0.000000,0.000000,0.000000,0.000000,0.000000,0.000000,0.000000,0.000000,1647407622.064122,0.000000
79.000000,29219.429698,24584.147285,55287.464593,32053.586191,47673.275789,48997.259020,41070.391663,34973.640439,0.158000,0.960000,0.194000,192.000000,0.000000,0.000000,0.000000,0.000000,0.000000,0.000000,0.000000,0.000000,0.000000,1647407622.072280,0.000000
80.000000,29217.708614,24579.788694,55283.150707,32050.725168,47665.005644,48999.583602,41069.587001,34977.283773,0.158000,0.960000,0.194000,192.000000,0.000000,0.000000,0.000000,0.000000,0.000000,0.000000,0.000000,0.000000,0.000000,1647407622.072296,0.000000
81.000000,29213.014747,24576.100657,55284.782384,32044.086700,47665.855010,48991.246401,41066.904791,34969.438311,0.158000,0.960000,0.194000,192.000000,0.000000,0.000000,0.000000,0.000000,0.000000,0.000000,0.000000,0.000000,0.000000,1647407622.079470,0.000000
82.000000,29207.784439,24570.468017,55287.799870,32039.281075,47674.728653,48985.189078,41066.033073,34958.888287,0.158000,0.960000,0.194000,192.000000,0.000000,0.000000,0.000000,0.000000,0.000000,0.000000,0.000000,0.000000,0.000000,1647407622.079487,0.000000
83.000000,29206.979776,24571.607956,55290.057396,32038.722281,47680.182478,48982.216296,41066.815384,34957.301314,0.158000,0.960000,0.194000,192.000000,0.000000,0.000000,0.000000,0.000000,0.000000,0.000000,0.000000,0.000000,0.000000,1647407622.087086,0.000000
84.000000,29212.455954,24578.782866,55284.782384,32041.404491,47671.420595,48981.970427,41071.844527,34969.125386,0.158000,0.960000,0.194000,192.000000,0.000000,0.000000,0.000000,0.000000,0.000000,0.000000,0.000000,0.000000,0.000000,1647407622.087102,0.000000
85.000000,29216.099288,24580.280433,55275.953445,32044.712549,47660.423536,48982.037483,41071.576306,34977.596698,0.152000,0.952000,0.202000,192.000000,4.000000,192.000000,29.000000,192.000000,6.000000,80.000000,0.000000,0.000000,0.000000,1647407622.096443,0.000000
86.000000,29208.432640,24570.400962,55280.557904,32045.919543,47665.184458,48981.635151,41066.144832,34969.237145,0.152000,0.952000,0.202000,192.000000,0.000000,0.000000,0.000000,0.000000,0.000000,0.000000,0.000000,0.000000,0.000000,1647407622.096478,0.000000
87.000000,29207.940901,24569.417485,55284.491811,32044.265514,47670.191249,48979.668198,41066.211887,34964.319761,0.152000,0.952000,0.202000,192.000000,0.000000,0.000000,0.000000,0.000000,0.000000,0.000000,0.000000,0.000000,0.000000,1647407622.102581,0.000000
88.000000,29209.058488,24570.311555,55289.096271,32042.745595,47672.046443,48985.077320,41065.429576,34965.437349,0.152000,0.952000,0.202000,192.000000,0.000000,0.000000,0.000000,0.000000,0.000000,0.000000,0.000000,0.000000,0.000000,1647407622.109404,0.000000
89.000000,29202.710593,24564.924784,55295.153593,32038.878744,47674.862763,48990.329980,41062.859125,34958.843584,0.152000,0.952000,0.202000,192.000000,0.000000,0.000000,0.000000,0.000000,0.000000,0.000000,0.000000,0.000000,0.000000,1647407622.109421,0.000000
90.000000,29201.570654,24560.499139,55289.610361,32031.077985,47663.664539,48987.670122,41061.830945,34958.195383,0.152000,0.952000,0.202000,192.000000,0.000000,0.000000,0.000000,0.000000,0.000000,0.000000,0.000000,0.000000,0.000000,1647407622.116686,0.000000
91.000000,29214.467611,24572.859654,55281.340215,32030.407432,47647.660690,48988.184212,41069.162317,34962.285753,0.152000,0.952000,0.202000,192.000000,0.000000,0.000000,0.000000,0.000000,0.000000,0.000000,0.000000,0.000000,0.000000,1647407622.116702,0.000000
92.000000,29206.488038,24570.266851,55291.711425,32035.883610,47657.249589,48995.761454,41071.688065,34962.956305,0.152000,0.952000,0.202000,192.000000,0.000000,0.000000,0.000000,0.000000,0.000000,0.000000,0.000000,0.000000,0.000000,1647407622.124683,0.000000
93.000000,29203.649366,24567.830511,55301.993227,32037.962322,47671.331188,48997.951925,41071.308085,34968.521889,0.152000,0.952000,0.202000,192.000000,0.000000,0.000000,0.000000,0.000000,0.000000,0.000000,0.000000,0.000000,0.000000,1647407622.124699,0.000000
94.000000,29209.840800,24574.111351,55300.249791,32039.079909,47666.056176,48992.207526,41068.737634,34965.884383,0.152000,0.952000,0.202000,192.000000,0.000000,0.000000,0.000000,0.000000,0.000000,0.000000,0.000000,0.000000,0.000000,1647407622.132741,0.000000
95.000000,29210.690166,24577.866444,55292.203163,32037.515287,47654.165048,48992.319285,41063.529678,34958.284790,0.148000,0.948000,0.202000,192.000000,4.000000,160.000000,29.000000,160.000000,6.000000,80.000000,0.000000,0.000000,0.000000,1647407622.132757,0.000000
96.000000,29213.260616,24582.180331,55295.287704,32041.449194,47662.055214,48995.247363,41068.737634,34965.146776,0.148000,0.948000,0.202000,192.000000,0.000000,0.000000,0.000000,0.000000,0.000000,0.000000,0.000000,0.000000,0.000000,1647407622.139324,0.000000
97.000000,29208.834971,24578.179369,55306.262410,32045.271342,47678.461394,48999.382436,41066.949495,34963.805671,0.148000,0.948000,0.202000,192.000000,0.000000,0.000000,0.000000,0.000000,0.000000,0.000000,0.000000,0.000000,0.000000,1647407622.139340,0.000000
98.000000,29203.492904,24572.323212,55300.942695,32039.795165,47680.271885,48982.976256,41051.012701,34938.883476,0.148000,0.948000,0.202000,192.000000,0.000000,0.000000,0.000000,0.000000,0.000000,0.000000,0.000000,0.000000,0.000000,1647407622.147372,0.000000
99.000000,29210.287834,24580.481598,55293.477213,32038.185839,47670.593580,48974.013206,41044.262474,34920.599749,0.148000,0.948000,0.202000,192.000000,0.000000,0.000000,0.000000,0.000000,0.000000,0.000000,0.000000,0.000000,0.000000,1647407622.147389,0.000000
100.000000,29214.691128,24585.533093,55287.106965,32043.639665,47663.105746,48976.382491,41054.991311,34937.989406,0.148000,0.948000,0.202000,192.000000,0.000000,0.000000,0.000000,0.000000,0.000000,0.000000,0.000000,0.000000,0.000000,1647407622.155164,0.000000
101.000000,29221.843686,24595.770192,55293.141936,32055.933125,47673.991045,48989.122985,41067.843564,34961.905773,0.148000,0.948000,0.202000,192.000000,0.000000,0.000000,0.000000,0.000000,0.000000,0.000000,0.000000,0.000000,0.000000,1647407622.155180,0.000000
102.000000,29224.436489,24598.161828,55293.656027,32060.068197,47678.260228,48993.660390,41067.329474,34968.477186,0.148000,0.948000,0.202000,192.000000,0.000000,0.000000,0.000000,0.000000,0.000000,0.000000,0.000000,0.000000,0.000000,1647407622.161582,0.000000
103.000000,29214.422907,24588.572930,55303.803719,32062.191613,47693.280601,48995.180308,41053.471393,34949.813479,0.148000,0.948000,0.202000,192.000000,0.000000,0.000000,0.000000,0.000000,0.000000,0.000000,0.000000,0.000000,0.000000,1647407622.168804,0.000000
104.000000,29221.128431,24595.680785,55297.746396,32058.794148,47683.602295,48989.570020,41054.521925,34948.919409,0.148000,0.948000,0.202000,192.000000,0.000000,0.000000,0.000000,0.000000,0.000000,0.000000,0.000000,0.000000,0.000000,1647407622.168820,0.000000
105.000000,29221.240189,24598.631215,55293.678378,32058.727093,47678.193173,48988.988875,41053.918428,34924.533656,0.136000,0.960000,0.204000,192.000000,4.000000,64.000000,30.000000,0.000000,6.000000,96.000000,0.000000,0.000000,0.000000,1647407622.176870,0.000000
106.000000,29221.530762,24595.725488,55288.693939,32058.011837,47672.873458,48982.842145,41053.739614,34906.674612,0.136000,0.960000,0.204000,192.000000,0.000000,0.000000,0.000000,0.000000,0.000000,0.000000,0.000000,0.000000,0.000000,1647407622.176886,0.000000
107.000000,29216.769840,24587.991785,55301.613248,32060.917564,47687.692665,48996.901393,41058.567591,34971.405264,0.136000,0.960000,0.204000,192.000000,0.000000,0.000000,0.000000,0.000000,0.000000,0.000000,0.000000,0.000000,0.000000,1647407622.185069,0.000000
108.000000,29221.262541,24590.830456,55301.970875,32060.090549,47691.783034,48996.029675,41060.847468,34978.267250,0.136000,0.960000,0.204000,192.000000,0.000000,0.000000,0.000000,0.000000,0.000000,0.000000,0.000000,0.000000,0.000000,1647407622.185085,0.000000
109.000000,29224.548247,24593.289148,55291.487907,32059.777625,47683.401130,48993.839204,41059.796936,34960.654075,0.136000,0.960000,0.204000,192.000000,0.000000,0.000000,0.000000,0.000000,0.000000,0.000000,0.000000,0.000000,0.000000,1647407622.191461,0.000000
110.000000,29216.479268,24585.644851,55288.291608,32058.347113,47680.763624,48994.487404,41057.740576,34953.590924,0.136000,0.960000,0.204000,192.000000,0.000000,0.000000,0.000000,0.000000,0.000000,0.000000,0.000000,0.000000,0.000000,1647407622.191478,0.000000
111.000000,29213.126506,24582.269738,55286.458765,32054.100281,47677.969656,48989.927648,41061.406262,34959.447081,0.136000,0.960000,0.204000,192.000000,0.000000,0.000000,0.000000,0.000000,0.000000,0.000000,0.000000,0.000000,0.000000,1647407622.199671,0.000000
112.000000,29216.188695,24584.907244,55283.262465,32056.804843,47675.220391,48996.879041,41069.698759,34962.442215,0.136000,0.960000,0.204000,192.000000,0.000000,0.000000,0.000000,0.000000,0.000000,0.000000,0.000000,0.000000,0.000000,1647407622.199687,0.000000
113.000000,29217.261579,24583.968471,55284.827088,32060.828157,47680.763624,48998.086035,41069.408187,34958.038921,0.136000,0.960000,0.204000,192.000000,0.000000,0.000000,0.000000,0.000000,0.000000,0.000000,0.000000,0.000000,0.000000,1647407622.207656,0.000000
114.000000,29212.634768,24582.761476,55286.481117,32062.817462,47686.753891,48994.889736,41064.691969,34949.299389,0.136000,0.960000,0.204000,192.000000,0.000000,0.000000,0.000000,0.000000,0.000000,0.000000,0.000000,0.000000,0.000000,1647407622.207673,0.000000
115.000000,29218.155648,24586.225997,55280.401442,32061.319895,47680.830679,48990.777015,41067.843564,34950.685197,0.134000,0.958000,0.208000,192.000000,4.000000,48.000000,29.000000,240.000000,6.000000,128.000000,0.000000,0.000000,0.000000,1647407622.214766,0.000000
116.000000,29210.466648,24575.944194,55284.603570,32057.676561,47689.749025,48999.717712,41068.961152,34957.323665,0.134000,0.958000,0.208000,192.000000,0.000000,0.000000,0.000000,0.000000,0.000000,0.000000,0.000000,0.000000,0.000000,1647407622.214782,0.000000
117.000000,29204.744602,24571.362087,55293.588971,32057.117767,47706.825758,49003.495157,41071.285733,34969.661828,0.134000,0.958000,0.208000,192.000000,0.000000,0.000000,0.000000,0.000000,0.000000,0.000000,0.000000,0.000000,0.000000,1647407622.221089,0.000000
118.000000,29207.203294,24573.127875,55293.544268,32053.921468,47708.748008,49006.423236,41071.911582,34972.232279,0.134000,0.958000,0.208000,192.000000,0.000000,0.000000,0.000000,0.000000,0.000000,0.000000,0.000000,0.000000,0.000000,1647407622.221106,0.000000
119.000000,29211.807753,24577.330002,55282.144878,32048.959380,47693.615877,48997.460186,41066.547163,34967.203136,0.134000,0.958000,0.208000,192.000000,0.000000,0.000000,0.000000,0.000000,0.000000,0.000000,0.000000,0.000000,0.000000,1647407622.229146,0.000000
120.000000,29210.399593,24573.306688,55270.521971,32047.908848,47679.891906,48996.566116,41064.311989,34970.846471,0.134000,0.958000,0.208000,192.000000,0.000000,0.000000,0.000000,0.000000,0.000000,0.000000,0.000000,0.000000,0.000000,1647407622.237119,0.000000
121.000000,29205.325747,24566.645869,55265.224608,32043.885534,47676.717958,48991.469919,41057.472355,34962.553974,0.134000,0.958000,0.208000,192.000000,0.000000,0.000000,0.000000,0.000000,0.000000,0.000000,0.000000,0.000000,0.000000,1647407622.237130,0.000000
122.000000,29205.638672,24565.997668,55268.443259,32041.493898,47682.216487,48985.390244,41054.991311,34955.088491,0.134000,0.958000,0.208000,192.000000,0.000000,0.000000,0.000000,0.000000,0.000000,0.000000,0.000000,0.000000,0.000000,1647407622.244522,0.000000
123.000000,29211.159552,24572.233805,55270.007881,32040.175145,47682.775281,48979.779956,41056.779451,34954.417939,0.134000,0.958000,0.208000,192.000000,0.000000,0.000000,0.000000,0.000000,0.000000,0.000000,0.000000,0.000000,0.000000,1647407622.244538,0.000000
124.000000,29211.651291,24575.050125,55263.972910,32039.191668,47675.332150,48976.896581,41053.538448,34951.400453,0.134000,0.958000,0.208000,192.000000,0.000000,0.000000,0.000000,0.000000,0.000000,0.000000,0.000000,0.000000,0.000000,1647407622.251895,0.000000
125.000000,29211.248959,24575.407752,55256.306262,32038.945799,47667.263170,48975.153145,41056.868858,34953.903848,0.134000,0.958000,0.208000,192.000000,0.000000,0.000000,0.000000,0.000000,0.000000,0.000000,0.000000,0.000000,0.000000,1647407622.251912,0.000000
126.000000,29211.472477,24576.570043,55259.346099,32044.198459,47669.923028,48977.164802,41055.371291,34951.400453,0.146000,0.956000,0.210000,192.000000,4.000000,144.000000,29.000000,224.000000,6.000000,144.000000,0.000000,0.000000,0.000000,1647407622.259949,0.000000
127.000000,29206.108058,24572.926709,55264.956387,32043.483203,47676.337978,48977.634189,41051.258570,34945.611351,0.146000,0.956000,0.210000,192.000000,0.000000,0.000000,0.000000,0.000000,0.000000,0.000000,0.000000,0.000000,0.000000,1647407622.259965,0.000000
128.000000,29206.800962,24572.569081,55263.369413,32040.935104,47675.913295,48978.617666,41054.745442,34956.161375,0.146000,0.956000,0.210000,192.000000,0.000000,0.000000,0.000000,0.000000,0.000000,0.000000,0.000000,0.000000,0.000000,1647407622.267048,0.000000
129.000000,29204.610491,24567.159959,55263.816448,32037.224714,47674.840412,48980.562267,41052.353806,34953.657979,0.146000,0.956000,0.210000,192.000000,0.000000,0.000000,0.000000,0.000000,0.000000,0.000000,0.000000,0.000000,0.000000,1647407622.267084,0.000000
130.000000,29205.124581,24568.232842,55260.284872,32036.665921,47673.342845,48983.088014,41057.919390,34960.475261,0.146000,0.956000,0.210000,192.000000,0.000000,0.000000,0.000000,0.000000,0.000000,0.000000,0.000000,0.000000,0.000000,1647407622.274363,0.000000
131.000000,29206.845666,24569.909223,55254.026384,32043.147927,47673.208734,48991.089939,41064.580210,34966.689046,0.146000,0.956000,0.210000,192.000000,0.000000,0.000000,0.000000,0.000000,0.000000,0.000000,0.000000,0.000000,0.000000,1647407622.274380,0.000000
132.000000,29198.977852,24561.192043,55266.655119,32047.126537,47693.504118,48993.347465,41056.891210,34965.236183,0.146000,0.956000,0.210000,192.000000,0.000000,0.000000,0.000000,0.000000,0.000000,0.000000,0.000000,0.000000,0.000000,1647407622.282556,0.000000
133.000000,29202.017689,24561.795540,55268.800887,32044.980770,47695.806348,48989.257096,41054.521925,34959.670598,0.146000,0.956000,0.210000,192.000000,0.000000,0.000000,0.000000,0.000000,0.000000,0.000000,0.000000,0.000000,0.000000,1647407622.282571,0.000000
134.000000,29206.420983,24565.394171,55268.331500,32043.170278,47688.542031,48995.493233,41062.859125,34962.285753,0.146000,0.956000,0.210000,192.000000,0.000000,0.000000,0.000000,0.000000,0.000000,0.000000,0.000000,0.000000,0.000000,1647407622.289526,0.000000
135.000000,29204.409326,24564.410694,55263.123544,32037.895267,47677.410862,48995.314419,41062.970884,34963.671561,0.146000,0.956000,0.210000,192.000000,0.000000,0.000000,0.000000,0.000000,0.000000,0.000000,0.000000,0.000000,0.000000,1647407622.296679,0.000000
136.000000,29211.807753,24571.652659,55259.055526,32037.582342,47669.207772,48995.001494,41066.614219,34972.411093,0.158000,0.948000,0.204000,192.000000,4.000000,240.000000,29.000000,160.000000,6.000000,96.000000,0.000000,0.000000,0.000000,1647407622.296695,0.000000
137.000000,29213.640596,24570.803293,55265.135201,32040.286903,47674.706301,48997.907221,41069.452890,34975.629744,0.158000,0.948000,0.204000,192.000000,0.000000,0.000000,0.000000,0.000000,0.000000,0.000000,0.000000,0.000000,0.000000,1647407622.304267,0.000000
138.000000,29208.723212,24565.662392,55268.510314,32038.275246,47677.656731,48989.234744,41060.132213,34965.124424,0.158000,0.948000,0.204000,192.000000,0.000000,0.000000,0.000000,0.000000,0.000000,0.000000,0.000000,0.000000,0.000000,1647407622.304283,0.000000
139.000000,29208.834971,24567.651697,55266.006919,32037.492935,47670.995911,48984.384416,41052.912599,34960.385854,0.158000,0.948000,0.204000,192.000000,0.000000,0.000000,0.000000,0.000000,0.000000,0.000000,0.000000,0.000000,0.000000,1647407622.312171,0.000000
140.000000,29214.042928,24576.011250,55254.652232,32036.732976,47665.676196,48986.016093,41065.049596,34973.416921,0.158000,0.948000,0.204000,192.000000,0.000000,0.000000,0.000000,0.000000,0.000000,0.000000,0.000000,0.000000,0.000000,1647407622.312187,0.000000
141.000000,29218.222704,24581.845055,55261.603625,32042.969113,47675.510964,48995.292067,41068.692931,34973.059293,0.158000,0.948000,0.204000,192.000000,0.000000,0.000000,0.000000,0.000000,0.000000,0.000000,0.000000,0.000000,0.000000,1647407622.320248,0.000000
142.000000,29212.679471,24575.206587,55267.258616,32041.203325,47684.094034,48984.384416,41053.314931,34961.279924,0.158000,0.948000,0.204000,192.000000,0.000000,0.000000,0.000000,0.000000,0.000000,0.000000,0.000000,0.000000,0.000000,1647407622.320265,0.000000
143.000000,29210.198427,24571.093866,55267.236265,32039.415185,47688.251458,48983.020959,41055.393643,34960.609372,0.158000,0.948000,0.204000,192.000000,0.000000,0.000000,0.000000,0.000000,0.000000,0.000000,0.000000,0.000000,0.000000,1647407622.326585,0.000000
144.000000,29212.657119,24573.440799,55258.809657,32035.235409,47678.483746,48977.813003,41061.674483,34965.817328,0.158000,0.948000,0.204000,192.000000,0.000000,0.000000,0.000000,0.000000,0.000000,0.000000,0.000000,0.000000,0.000000,1647407622.326602,0.000000
145.000000,29212.925340,24573.932537,55252.193541,32036.174182,47668.470164,48979.154107,41055.661864,34960.587020,0.158000,0.948000,0.204000,192.000000,0.000000,0.000000,0.000000,0.000000,0.000000,0.000000,0.000000,0.000000,0.000000,1647407622.334784,0.000000
146.000000,29205.415154,24565.818854,55257.289738,32033.670787,47672.940513,48976.874230,41049.850410,34953.076834,0.158000,0.944000,0.210000,192.000000,4.000000,240.000000,29.000000,128.000000,6.000000,144.000000,0.000000,0.000000,0.000000,1647407622.334801,0.000000
147.000000,29214.154686,24572.591433,55259.301395,32038.029377,47676.293275,48978.707073,41052.174992,34953.948552,0.158000,0.944000,0.210000,192.000000,0.000000,0.000000,0.000000,0.000000,0.000000,0.000000,0.000000,0.000000,0.000000,1647407622.342838,0.000000
148.000000,29213.707651,24570.423313,55274.545285,32043.214982,47691.492461,48984.786747,41046.810573,34941.900962,0.158000,0.944000,0.210000,192.000000,0.000000,0.000000,0.000000,0.000000,0.000000,0.000000,0.000000,0.000000,0.000000,1647407622.342856,0.000000
149.000000,29210.131372,24565.707095,55272.533628,32038.811688,47687.133871,48977.589485,41049.068099,34950.104052,0.158000,0.944000,0.210000,192.000000,0.000000,0.000000,0.000000,0.000000,0.000000,0.000000,0.000000,0.000000,0.000000,1647407622.349941,0.000000
150.000000,29211.248959,24564.768322,55257.736773,32031.457964,47668.201943,48971.621570,41051.146811,34958.329494,0.158000,0.944000,0.210000,192.000000,0.000000,0.000000,0.000000,0.000000,0.000000,0.000000,0.000000,0.000000,0.000000,1647407622.356422,0.000000
151.000000,29215.808715,24571.406790,55252.461762,32034.274284,47664.089222,48972.403881,41054.633684,34957.547183,0.158000,0.944000,0.210000,192.000000,0.000000,0.000000,0.000000,0.000000,0.000000,0.000000,0.000000,0.000000,0.000000,1647407622.356439,0.000000
152.000000,29213.148858,24569.350430,55263.682337,32041.605656,47678.483746,48976.136622,41055.639512,34952.383930,0.158000,0.944000,0.210000,192.000000,0.000000,0.000000,0.000000,0.000000,0.000000,0.000000,0.000000,0.000000,0.000000,1647407622.364533,0.000000
153.000000,29212.031271,24567.785808,55275.707576,32043.974941,47688.162051,48976.158974,41052.666730,34948.181802,0.158000,0.944000,0.210000,192.000000,0.000000,0.000000,0.000000,0.000000,0.000000,0.000000,0.000000,0.000000,0.000000,1647407622.364550,0.000000
154.000000,29213.305320,24569.730409,55273.584160,32041.695063,47685.301028,48970.079299,41049.448079,34933.273188,0.158000,0.944000,0.210000,192.000000,0.000000,0.000000,0.000000,0.000000,0.000000,0.000000,0.000000,0.000000,0.000000,1647407622.372284,0.000000
155.000000,29220.122602,24575.743029,55268.689128,32043.863183,47678.260228,48971.219238,41054.656035,34931.663863,0.158000,0.944000,0.210000,192.000000,0.000000,0.000000,0.000000,0.000000,0.000000,0.000000,0.000000,0.000000,0.000000,1647407622.372300,0.000000
156.000000,29211.472477,24566.042372,55274.835858,32039.504592,47683.468185,48968.559381,41040.306215,34948.539430,0.164000,0.952000,0.200000,192.000000,5.000000,32.000000,29.000000,192.000000,6.000000,64.000000,0.000000,0.000000,0.000000,1647407622.379559,0.000000
157.000000,29212.075974,24569.819816,55276.981625,32040.018682,47685.725711,48967.128869,41041.624968,34953.300351,0.164000,0.952000,0.200000,192.000000,0.000000,0.000000,0.000000,0.000000,0.000000,0.000000,0.000000,0.000000,0.000000,1647407622.379575,0.000000
158.000000,29215.942826,24574.558386,55279.060337,32043.572610,47689.503156,48975.443718,41053.046710,34955.289657,0.164000,0.952000,0.200000,192.000000,0.000000,0.000000,0.000000,0.000000,0.000000,0.000000,0.000000,0.000000,0.000000,1647407622.386938,0.000000
159.000000,29220.681396,24578.045258,55268.152686,32042.119746,47679.713092,48981.277523,41062.032111,34958.173032,0.164000,0.952000,0.200000,192.000000,0.000000,0.000000,0.000000,0.000000,0.000000,0.000000,0.000000,0.000000,0.000000,1647407622.386954,0.000000
160.000000,29221.709576,24575.608918,55267.169209,32040.644531,47678.081414,48991.425215,41066.256591,34966.197308,0.164000,0.952000,0.200000,192.000000,0.000000,0.000000,0.000000,0.000000,0.000000,0.000000,0.000000,0.000000,0.000000,1647407622.395614,0.000000
161.000000,29213.081802,24569.529244,55265.761049,32037.247066,47676.002702,48992.632209,41062.926181,34968.387779,0.164000,0.952000,0.200000,192.000000,0.000000,0.000000,0.000000,0.000000,0.000000,0.000000,0.000000,0.000000,0.000000,1647407622.395630,0.000000
