%OpenBCI Raw EEG Data
%Number of channels = 8
%Sample Rate = 256 Hz
%Board = OpenBCI_GUI$BoardCytonSerial
%Channels = Fp1, Fp2, F3, F4, Fz, Pz, O1, O2
%Data recorded at AIMS Lab (http://aimsl.uiu.ac.bd) by Rana Depto (mail@ranadepto.com)
%Brainwaves were obtained via the Ultracortex Mark IV Headset using the OpenBCI Cyton Board
%Recording Application = ConcentrateToday (https://concentrate.today)
%Data type = RAW data with noise
%Day No = 4
%Subject ID = 7
%Session ID = 7
%Record starting timestamp (UTC+6) = 2022-03-21T12:48:22.984897
%Record ending timestamp (UTC+6)   = 2022-03-21T12:48:44.663910
%Recorded durations = ~21 seconds
Sample Index, EXG Channel 0, EXG Channel 1, EXG Channel 2, EXG Channel 3, EXG Channel 4, EXG Channel 5, EXG Channel 6, EXG Channel 7, Accel Channel 0, Accel Channel 1, Accel Channel 2, Other, Other, Other, Other, Other, Other, Other, Analog Channel 0, Analog Channel 1, Analog Channel 2, Timestamp, Timestamp (Formatted)
219.000000,20444.157177,15708.157803,11748.032182,5471.237656,3979.705749,42266.500564,43296.401894,43175.344846,0.076000,0.978000,0.126000,192.000000,0.000000,0.000000,0.000000,0.000000,0.000000,0.000000,0.000000,0.000000,0.000000,1647845302.984687,0.000000
220.000000,20444.045418,15706.973160,11745.908766,5467.147287,3975.771841,42266.098233,43303.062714,43181.178651,0.076000,0.978000,0.126000,192.000000,0.000000,0.000000,0.000000,0.000000,0.000000,0.000000,0.000000,0.000000,0.000000,1647845302.984694,0.000000
221.000000,20438.412778,15701.854611,11739.940851,5465.113278,3971.189734,42262.879582,43311.981060,43187.347732,0.076000,0.978000,0.126000,192.000000,0.000000,0.000000,0.000000,0.000000,0.000000,0.000000,0.000000,0.000000,0.000000,1647845302.992890,0.000000
222.000000,20444.805377,15707.777823,11752.927214,5478.703139,3982.656179,42274.435434,43299.262917,43165.934761,0.076000,0.978000,0.126000,192.000000,0.000000,0.000000,0.000000,0.000000,0.000000,0.000000,0.000000,0.000000,0.000000,1647845302.992896,0.000000
223.000000,20443.508976,15707.867230,11752.100200,5474.188086,3978.699920,42268.109890,43299.866414,43158.156354,0.078000,0.974000,0.128000,192.000000,2.000000,112.000000,30.000000,112.000000,4.000000,0.000000,0.000000,0.000000,0.000000,1647845302.999918,0.000000
224.000000,20443.531328,15710.929419,11750.736743,5470.410641,3977.761147,42264.555963,43314.372696,43166.225334,0.078000,0.974000,0.128000,192.000000,0.000000,0.000000,0.000000,0.000000,0.000000,0.000000,0.000000,0.000000,0.000000,1647845302.999923,0.000000
225.000000,20439.619772,15707.554306,11752.055496,5471.237656,3980.242190,42264.779480,43322.709897,43170.807442,0.078000,0.974000,0.128000,192.000000,0.000000,0.000000,0.000000,0.000000,0.000000,0.000000,0.000000,0.000000,0.000000,1647845303.007421,0.000000
226.000000,20443.754845,15706.302608,11746.378153,5471.908208,3978.454051,42256.509335,43314.529158,43161.062081,0.078000,0.974000,0.128000,192.000000,0.000000,0.000000,0.000000,0.000000,0.000000,0.000000,0.000000,0.000000,0.000000,1647845303.007427,0.000000
227.000000,20446.235889,15707.151974,11742.891281,5469.896551,3974.207219,42255.279989,43319.826522,43166.180630,0.078000,0.974000,0.128000,192.000000,0.000000,0.000000,0.000000,0.000000,0.000000,0.000000,0.000000,0.000000,0.000000,1647845303.015314,0.000000
228.000000,20433.785967,15700.893486,11736.386923,5461.805220,3965.847667,42250.004977,43327.157894,43173.489651,0.078000,0.974000,0.128000,192.000000,0.000000,0.000000,0.000000,0.000000,0.000000,0.000000,0.000000,0.000000,0.000000,1647845303.015319,0.000000
229.000000,20438.010447,15703.843916,11743.606537,5468.778964,3973.134336,42258.163364,43327.135542,43171.075663,0.078000,0.974000,0.128000,192.000000,0.000000,0.000000,0.000000,0.000000,0.000000,0.000000,0.000000,0.000000,0.000000,1647845303.023498,0.000000
230.000000,20444.648915,15709.677721,11747.473389,5475.909171,3978.901086,42260.934980,43329.705993,43174.316665,0.078000,0.974000,0.128000,192.000000,0.000000,0.000000,0.000000,0.000000,0.000000,0.000000,0.000000,0.000000,0.000000,1647845303.023506,0.000000
231.000000,20447.353476,15713.902201,11750.714392,5481.944142,3983.483193,42264.421852,43316.138484,43156.368215,0.078000,0.974000,0.128000,192.000000,0.000000,0.000000,0.000000,0.000000,0.000000,0.000000,0.000000,0.000000,0.000000,1647845303.029433,0.000000
232.000000,20449.096912,15718.059625,11754.067153,5486.369787,3987.841784,42270.300361,43303.733266,43142.398374,0.078000,0.974000,0.128000,192.000000,0.000000,0.000000,0.000000,0.000000,0.000000,0.000000,0.000000,0.000000,0.000000,1647845303.029439,0.000000
233.000000,20459.311659,15730.129567,11764.818342,5496.182203,3998.414159,42281.185661,43297.363019,43132.027165,0.078000,0.978000,0.124000,192.000000,2.000000,112.000000,30.000000,144.000000,3.000000,224.000000,0.000000,0.000000,0.000000,1647845303.037017,0.000000
234.000000,20451.980287,15723.267582,11755.587072,5479.485450,3986.724196,42268.892201,43315.222062,43145.102935,0.078000,0.978000,0.124000,192.000000,0.000000,0.000000,0.000000,0.000000,0.000000,0.000000,0.000000,0.000000,0.000000,1647845303.045129,0.000000
235.000000,20445.095950,15717.992570,11754.290671,5474.299845,3984.734891,42266.187640,43317.926624,43147.472220,0.078000,0.978000,0.124000,192.000000,0.000000,0.000000,0.000000,0.000000,0.000000,0.000000,0.000000,0.000000,0.000000,1647845303.045143,0.000000
236.000000,20456.741209,15726.530937,11764.527770,5488.090871,3995.106100,42275.597724,43307.041324,43138.218598,0.078000,0.978000,0.124000,192.000000,0.000000,0.000000,0.000000,0.000000,0.000000,0.000000,0.000000,0.000000,0.000000,1647845303.053143,0.000000
237.000000,20463.804360,15729.794291,11765.645357,5494.081139,3998.928249,42281.722102,43303.018010,43138.196246,0.078000,0.978000,0.124000,192.000000,0.000000,0.000000,0.000000,0.000000,0.000000,0.000000,0.000000,0.000000,0.000000,1647845303.053151,0.000000
238.000000,20456.718857,15726.888564,11763.276072,5489.834307,3994.770824,42280.269239,43301.140463,43138.442116,0.078000,0.978000,0.124000,192.000000,0.000000,0.000000,0.000000,0.000000,0.000000,0.000000,0.000000,0.000000,0.000000,1647845303.059668,0.000000
239.000000,20451.510900,15724.340466,11751.697868,5477.183220,3985.159574,42274.681303,43315.244414,43153.149563,0.078000,0.978000,0.124000,192.000000,0.000000,0.000000,0.000000,0.000000,0.000000,0.000000,0.000000,0.000000,0.000000,1647845303.059675,0.000000
240.000000,20458.127017,15727.983800,11757.352860,5483.955799,3988.892315,42284.292553,43312.986888,43148.299235,0.078000,0.978000,0.124000,192.000000,0.000000,0.000000,0.000000,0.000000,0.000000,0.000000,0.000000,0.000000,0.000000,1647845303.067616,0.000000
241.000000,20452.494377,15719.758358,11754.760057,5481.318293,3986.075996,42287.667666,43307.600118,43146.466392,0.078000,0.978000,0.124000,192.000000,0.000000,0.000000,0.000000,0.000000,0.000000,0.000000,0.000000,0.000000,0.000000,1647845303.067622,0.000000
242.000000,20449.119264,15721.166518,11753.888339,5479.060767,3984.198449,42286.952411,43304.895557,43146.131116,0.078000,0.978000,0.124000,192.000000,0.000000,0.000000,0.000000,0.000000,0.000000,0.000000,0.000000,0.000000,0.000000,1647845303.075760,0.000000
243.000000,20446.392351,15718.260791,11752.547235,5479.328988,3983.058510,42283.286724,43306.996621,43151.227313,0.074000,0.980000,0.124000,192.000000,2.000000,80.000000,30.000000,160.000000,3.000000,224.000000,0.000000,0.000000,0.000000,1647845303.075766,0.000000
244.000000,20442.637258,15708.023692,11739.650278,5471.237656,3974.833068,42270.859155,43319.088914,43168.907543,0.074000,0.980000,0.124000,192.000000,0.000000,0.000000,0.000000,0.000000,0.000000,0.000000,0.000000,0.000000,0.000000,1647845303.082740,0.000000
245.000000,20446.012371,15709.834183,11740.499644,5469.538923,3973.670778,42269.741567,43323.291042,43176.440081,0.074000,0.980000,0.124000,192.000000,0.000000,0.000000,0.000000,0.000000,0.000000,0.000000,0.000000,0.000000,0.000000,1647845303.082746,0.000000
246.000000,20455.087180,15722.127643,11752.077848,5478.814897,3982.253847,42284.940754,43307.197786,43160.011549,0.074000,0.980000,0.124000,192.000000,0.000000,0.000000,0.000000,0.000000,0.000000,0.000000,0.000000,0.000000,0.000000,1647845303.090235,0.000000
247.000000,20453.723723,15725.279239,11746.758133,5473.472830,3977.917609,42286.572431,43293.831443,43152.970749,0.074000,0.980000,0.124000,192.000000,0.000000,0.000000,0.000000,0.000000,0.000000,0.000000,0.000000,0.000000,0.000000,1647845303.090242,0.000000
248.000000,20459.088142,15725.011018,11747.741610,5478.345511,3979.973969,42290.260469,43288.757597,43152.099031,0.074000,0.980000,0.124000,192.000000,0.000000,0.000000,0.000000,0.000000,0.000000,0.000000,0.000000,0.000000,0.000000,1647845303.097408,0.000000
249.000000,20449.767464,15716.047968,11746.042877,5473.182258,3975.995359,42287.555908,43308.695353,43171.589753,0.074000,0.980000,0.124000,192.000000,0.000000,0.000000,0.000000,0.000000,0.000000,0.000000,0.000000,0.000000,0.000000,1647845303.105348,0.000000
250.000000,20445.297115,15714.528050,11742.332487,5470.790621,3971.636769,42282.750283,43308.784760,43174.361369,0.074000,0.980000,0.124000,192.000000,0.000000,0.000000,0.000000,0.000000,0.000000,0.000000,0.000000,0.000000,0.000000,1647845303.105354,0.000000
251.000000,20451.645011,15723.982838,11748.635679,5479.999540,3979.303417,42289.791082,43293.786740,43163.274904,0.074000,0.980000,0.124000,192.000000,0.000000,0.000000,0.000000,0.000000,0.000000,0.000000,0.000000,0.000000,0.000000,1647845303.111891,0.000000
252.000000,20457.009430,15728.430835,11753.910691,5483.799336,3983.796118,42292.406236,43280.554507,43151.920218,0.074000,0.980000,0.124000,192.000000,0.000000,0.000000,0.000000,0.000000,0.000000,0.000000,0.000000,0.000000,0.000000,1647845303.111897,0.000000
253.000000,20456.674153,15730.531899,11750.736743,5474.791583,3977.694092,42287.958239,43281.336818,43156.859953,0.074000,0.980000,0.124000,192.000000,0.000000,0.000000,0.000000,0.000000,0.000000,0.000000,0.000000,0.000000,0.000000,1647845303.120077,0.000000
254.000000,20454.148406,15730.397788,11748.590976,5472.981092,3977.001187,42290.841614,43286.075388,43163.006683,0.072000,0.976000,0.124000,192.000000,2.000000,64.000000,30.000000,128.000000,3.000000,224.000000,0.000000,0.000000,0.000000,1647845303.120084,0.000000
255.000000,20454.930717,15729.056684,11748.658031,5476.758537,3978.118775,42292.249774,43291.283344,43166.426500,0.072000,0.976000,0.124000,192.000000,0.000000,0.000000,0.000000,0.000000,0.000000,0.000000,0.000000,0.000000,0.000000,1647845303.128038,0.000000
0.000000,20454.930717,15729.414312,11747.629851,5480.513630,3976.867077,42295.043742,43290.255164,43161.732633,0.072000,0.976000,0.124000,192.000000,0.000000,0.000000,0.000000,0.000000,0.000000,0.000000,0.000000,0.000000,0.000000,1647845303.128045,0.000000
1.000000,20451.309735,15721.971181,11744.634717,5476.311502,3973.268446,42289.478158,43284.331952,43155.317683,0.072000,0.976000,0.124000,192.000000,0.000000,0.000000,0.000000,0.000000,0.000000,0.000000,0.000000,0.000000,0.000000,1647845303.135074,0.000000
2.000000,20453.768427,15720.473614,11744.478255,5472.064671,3972.642597,42290.059303,43279.548678,43154.937703,0.072000,0.976000,0.124000,192.000000,0.000000,0.000000,0.000000,0.000000,0.000000,0.000000,0.000000,0.000000,0.000000,1647845303.135081,0.000000
3.000000,20454.506034,15721.412387,11746.936947,5474.612769,3974.251923,42292.763864,43282.610867,43158.446927,0.072000,0.976000,0.124000,192.000000,0.000000,0.000000,0.000000,0.000000,0.000000,0.000000,0.000000,0.000000,0.000000,1647845303.142562,0.000000
4.000000,20454.930717,15725.525108,11755.028278,5481.050072,3981.069205,42300.363457,43274.363074,43147.047537,0.072000,0.976000,0.124000,192.000000,0.000000,0.000000,0.000000,0.000000,0.000000,0.000000,0.000000,0.000000,0.000000,1647845303.142568,0.000000
5.000000,20453.254337,15727.201489,11756.727011,5481.698272,3982.455013,42302.598632,43262.404890,43138.218598,0.072000,0.976000,0.124000,192.000000,0.000000,0.000000,0.000000,0.000000,0.000000,0.000000,0.000000,0.000000,0.000000,1647845303.150613,0.000000
6.000000,20446.571165,15722.865250,11745.886415,5471.997615,3972.888466,42294.999039,43268.350454,43150.132078,0.072000,0.976000,0.124000,192.000000,0.000000,0.000000,0.000000,0.000000,0.000000,0.000000,0.000000,0.000000,0.000000,1647845303.150618,0.000000
7.000000,20451.041514,15726.843861,11747.339278,5473.383423,3973.491964,42294.149672,43258.403928,43146.399337,0.072000,0.976000,0.124000,192.000000,0.000000,0.000000,0.000000,0.000000,0.000000,0.000000,0.000000,0.000000,0.000000,1647845303.157631,0.000000
8.000000,20450.147444,15724.921611,11741.460769,5468.309578,3969.781574,42291.445111,43263.544829,43155.608255,0.072000,0.980000,0.134000,192.000000,2.000000,64.000000,30.000000,160.000000,4.000000,48.000000,0.000000,0.000000,0.000000,1647845303.165550,0.000000
9.000000,20457.277651,15732.163576,11749.060362,5483.240543,3978.655217,42300.519919,43268.462213,43165.778299,0.072000,0.980000,0.134000,192.000000,0.000000,0.000000,0.000000,0.000000,0.000000,0.000000,0.000000,0.000000,0.000000,1647845303.165557,0.000000
10.000000,20463.759656,15737.617402,11758.001060,5492.784738,3987.148879,42309.080638,43250.133783,43147.606331,0.072000,0.980000,0.134000,192.000000,0.000000,0.000000,0.000000,0.000000,0.000000,0.000000,0.000000,0.000000,0.000000,1647845303.173636,0.000000
11.000000,20456.875319,15731.314210,11746.847540,5478.256104,3976.174173,42302.531576,43250.357300,43149.461526,0.072000,0.980000,0.134000,192.000000,0.000000,0.000000,0.000000,0.000000,0.000000,0.000000,0.000000,0.000000,0.000000,1647845303.173640,0.000000
12.000000,20458.842273,15729.838995,11746.378153,5477.406737,3973.827240,42303.559757,43254.335911,43150.288540,0.072000,0.980000,0.134000,192.000000,0.000000,0.000000,0.000000,0.000000,0.000000,0.000000,0.000000,0.000000,0.000000,1647845303.181805,0.000000
13.000000,20452.136749,15726.486233,11746.936947,5476.892647,3974.207219,42299.827015,43264.505954,43158.938665,0.072000,0.980000,0.134000,192.000000,0.000000,0.000000,0.000000,0.000000,0.000000,0.000000,0.000000,0.000000,0.000000,1647845303.181811,0.000000
14.000000,20450.974459,15723.960486,11744.366496,5481.742976,3975.391862,42302.688039,43259.499164,43155.876476,0.072000,0.980000,0.134000,192.000000,0.000000,0.000000,0.000000,0.000000,0.000000,0.000000,0.000000,0.000000,0.000000,1647845303.188345,0.000000
15.000000,20445.788854,15717.120852,11737.929194,5476.467964,3969.401594,42297.144806,43268.149289,43163.811346,0.072000,0.980000,0.134000,192.000000,0.000000,0.000000,0.000000,0.000000,0.000000,0.000000,0.000000,0.000000,0.000000,1647845303.188352,0.000000
16.000000,20436.691694,15713.544573,11736.811607,5471.997615,3966.160591,42290.349876,43278.945181,43177.423558,0.072000,0.980000,0.134000,192.000000,0.000000,0.000000,0.000000,0.000000,0.000000,0.000000,0.000000,0.000000,0.000000,1647845303.194954,0.000000
17.000000,20446.906441,15724.943963,11746.869892,5482.346473,3976.889429,42300.810492,43272.932562,43173.847279,0.072000,0.980000,0.134000,192.000000,0.000000,0.000000,0.000000,0.000000,0.000000,0.000000,0.000000,0.000000,0.000000,1647845303.194960,0.000000
18.000000,20456.383581,15737.125663,11753.016621,5487.532078,3981.940923,42306.331373,43269.803318,43167.208811,0.070000,0.980000,0.134000,192.000000,2.000000,48.000000,30.000000,160.000000,4.000000,48.000000,0.000000,0.000000,0.000000,1647845303.202934,0.000000
19.000000,20463.759656,15745.395809,11753.284842,5485.296903,3982.656179,42308.275975,43277.715835,43171.299180,0.070000,0.980000,0.134000,192.000000,0.000000,0.000000,0.000000,0.000000,0.000000,0.000000,0.000000,0.000000,0.000000,1647845303.202942,0.000000
20.000000,20449.901575,15729.190794,11742.712467,5468.421336,3971.860286,42300.363457,43289.428149,43183.659695,0.070000,0.980000,0.134000,192.000000,0.000000,0.000000,0.000000,0.000000,0.000000,0.000000,0.000000,0.000000,0.000000,1647845303.211346,0.000000
21.000000,20442.324333,15716.651465,11742.623060,5468.711909,3969.133373,42302.978611,43276.844117,43169.198116,0.070000,0.980000,0.134000,192.000000,0.000000,0.000000,0.000000,0.000000,0.000000,0.000000,0.000000,0.000000,0.000000,1647845303.211352,0.000000
22.000000,20447.800511,15716.718521,11747.316926,5473.741051,3971.636769,42305.571414,43278.699312,43168.147584,0.070000,0.980000,0.134000,192.000000,0.000000,0.000000,0.000000,0.000000,0.000000,0.000000,0.000000,0.000000,0.000000,1647845303.217535,0.000000
23.000000,20453.187281,15717.634942,11745.372325,5471.729394,3970.340368,42301.302231,43292.624449,43176.663599,0.070000,0.980000,0.134000,192.000000,0.000000,0.000000,0.000000,0.000000,0.000000,0.000000,0.000000,0.000000,0.000000,1647845303.224514,0.000000
24.000000,20460.630412,15721.904125,11742.220729,5473.785755,3973.626074,42303.000963,43293.183242,43172.796747,0.070000,0.980000,0.134000,192.000000,0.000000,0.000000,0.000000,0.000000,0.000000,0.000000,0.000000,0.000000,0.000000,1647845303.224519,0.000000
25.000000,20458.864624,15726.843861,11748.568624,5477.697310,3978.029368,42306.823111,43288.779949,43164.548953,0.070000,0.980000,0.134000,192.000000,0.000000,0.000000,0.000000,0.000000,0.000000,0.000000,0.000000,0.000000,0.000000,1647845303.232511,0.000000
26.000000,20465.324279,15741.461902,11757.934005,5483.061729,3985.494850,42316.948452,43269.982132,43138.933854,0.070000,0.980000,0.134000,192.000000,0.000000,0.000000,0.000000,0.000000,0.000000,0.000000,0.000000,0.000000,0.000000,1647845303.232515,0.000000
27.000000,20465.123113,15744.635850,11755.765886,5479.731319,3984.891353,42320.323565,43267.098757,43132.116572,0.070000,0.980000,0.134000,192.000000,0.000000,0.000000,0.000000,0.000000,0.000000,0.000000,0.000000,0.000000,0.000000,1647845303.240586,0.000000
28.000000,20456.405932,15723.178175,11745.618194,5472.019967,3975.101289,42313.148655,43295.306658,43166.493555,0.074000,0.982000,0.132000,192.000000,2.000000,80.000000,30.000000,176.000000,4.000000,32.000000,0.000000,0.000000,0.000000,1647845303.240594,0.000000
29.000000,20458.506996,15721.613553,11755.430610,5479.485450,3981.225667,42317.060210,43309.768237,43180.463395,0.074000,0.982000,0.132000,192.000000,0.000000,0.000000,0.000000,0.000000,0.000000,0.000000,0.000000,0.000000,0.000000,1647845303.247116,0.000000
30.000000,20457.389409,15728.229669,11753.955395,5478.457269,3979.370472,42309.460617,43312.383391,43184.732578,0.074000,0.982000,0.132000,192.000000,0.000000,0.000000,0.000000,0.000000,0.000000,0.000000,0.000000,0.000000,0.000000,1647845303.247122,0.000000
31.000000,20466.486569,15742.087751,11758.090467,5485.185145,3986.277161,42309.974707,43303.353286,43169.287523,0.074000,0.982000,0.132000,192.000000,0.000000,0.000000,0.000000,0.000000,0.000000,0.000000,0.000000,0.000000,0.000000,1647845303.255125,0.000000
32.000000,20459.132845,15730.889527,11749.753267,5470.835325,3975.615379,42296.161329,43309.812940,43172.126194,0.074000,0.982000,0.132000,192.000000,0.000000,0.000000,0.000000,0.000000,0.000000,0.000000,0.000000,0.000000,0.000000,1647845303.255129,0.000000
33.000000,20467.045363,15732.588259,11744.902938,5467.594322,3970.966216,42292.652105,43314.640917,43174.406072,0.074000,0.982000,0.132000,192.000000,0.000000,0.000000,0.000000,0.000000,0.000000,0.000000,0.000000,0.000000,0.000000,1647845303.263108,0.000000
34.000000,20465.771313,15724.318114,11739.605575,5470.365938,3971.480307,42295.446073,43328.588406,43186.140738,0.074000,0.982000,0.132000,192.000000,0.000000,0.000000,0.000000,0.000000,0.000000,0.000000,0.000000,0.000000,0.000000,1647845303.263113,0.000000
35.000000,20456.227119,15719.333675,11741.058438,5475.462136,3973.871943,42293.054437,43329.817752,43183.212660,0.074000,0.982000,0.132000,192.000000,0.000000,0.000000,0.000000,0.000000,0.000000,0.000000,0.000000,0.000000,0.000000,1647845303.270308,0.000000
36.000000,20460.697467,15725.994495,11752.413124,5484.849868,3983.259676,42299.737608,43328.655461,43178.541145,0.074000,0.982000,0.132000,192.000000,0.000000,0.000000,0.000000,0.000000,0.000000,0.000000,0.000000,0.000000,0.000000,1647845303.270312,0.000000
37.000000,20461.658592,15728.766111,11759.789200,5486.101566,3987.730025,42304.654992,43335.182170,43179.971657,0.074000,0.982000,0.132000,192.000000,0.000000,0.000000,0.000000,0.000000,0.000000,0.000000,0.000000,0.000000,0.000000,1647845303.276843,0.000000
38.000000,20461.055095,15727.112082,11757.174046,5480.178354,3982.656179,42301.011658,43350.984854,43190.365218,0.072000,0.976000,0.138000,192.000000,2.000000,64.000000,30.000000,128.000000,4.000000,80.000000,0.000000,0.000000,0.000000,1647845303.276847,0.000000
39.000000,20463.491435,15733.303515,11757.956357,5481.675921,3984.287856,42305.996097,43361.624284,43195.841395,0.072000,0.976000,0.138000,192.000000,0.000000,0.000000,0.000000,0.000000,0.000000,0.000000,0.000000,0.000000,0.000000,1647845303.284703,0.000000
40.000000,20467.447694,15741.193681,11767.701717,5486.414491,3990.009903,42316.836693,43357.399804,43193.159186,0.072000,0.976000,0.138000,192.000000,0.000000,0.000000,0.000000,0.000000,0.000000,0.000000,0.000000,0.000000,0.000000,1647845303.292700,0.000000
41.000000,20470.040497,15738.243251,11767.612310,5488.090871,3991.105138,42322.201112,43349.710804,43185.090206,0.072000,0.976000,0.138000,192.000000,0.000000,0.000000,0.000000,0.000000,0.000000,0.000000,0.000000,0.000000,0.000000,1647845303.292704,0.000000
42.000000,20475.628433,15742.177158,11769.199284,5498.529136,3994.234382,42325.330356,43355.656368,43187.280677,0.072000,0.976000,0.138000,192.000000,0.000000,0.000000,0.000000,0.000000,0.000000,0.000000,0.000000,0.000000,0.000000,1647845303.299882,0.000000
43.000000,20473.706183,15737.684457,11766.695889,5496.517479,3993.988513,42323.341051,43366.318150,43192.265116,0.072000,0.976000,0.138000,192.000000,0.000000,0.000000,0.000000,0.000000,0.000000,0.000000,0.000000,0.000000,0.000000,1647845303.299892,0.000000
44.000000,20464.117284,15727.201489,11754.245967,5485.140441,3983.617304,42307.448960,43385.048912,43210.325326,0.072000,0.976000,0.138000,192.000000,0.000000,0.000000,0.000000,0.000000,0.000000,0.000000,0.000000,0.000000,0.000000,1647845303.307430,0.000000
45.000000,20466.441866,15734.644620,11755.408258,5488.314389,3986.411272,42306.264318,43381.874964,43206.793750,0.072000,0.976000,0.138000,192.000000,0.000000,0.000000,0.000000,0.000000,0.000000,0.000000,0.000000,0.000000,0.000000,1647845303.307434,0.000000
46.000000,20459.132845,15732.118873,11750.624985,5482.614694,3982.812641,42304.431475,43385.272430,43207.553709,0.072000,0.976000,0.138000,192.000000,0.000000,0.000000,0.000000,0.000000,0.000000,0.000000,0.000000,0.000000,0.000000,1647845303.315441,0.000000
47.000000,20469.884034,15736.388056,11758.448095,5489.789604,3992.133318,42316.076734,43384.870098,43203.083361,0.072000,0.976000,0.138000,192.000000,0.000000,0.000000,0.000000,0.000000,0.000000,0.000000,0.000000,0.000000,0.000000,1647845303.315446,0.000000
48.000000,20466.978308,15738.109140,11755.251796,5487.912057,3989.026426,42311.159350,43402.349162,43221.389439,0.074000,0.976000,0.146000,192.000000,2.000000,80.000000,30.000000,128.000000,4.000000,144.000000,0.000000,0.000000,0.000000,1647845303.323354,0.000000
49.000000,20453.053171,15729.235498,11746.579319,5480.535982,3980.599818,42299.871719,43417.347183,43236.499219,0.074000,0.976000,0.146000,192.000000,0.000000,0.000000,0.000000,0.000000,0.000000,0.000000,0.000000,0.000000,0.000000,1647845303.323360,0.000000
50.000000,20449.141616,15724.921611,11744.411200,5480.223057,3978.185830,42299.379980,43423.806837,43245.126992,0.074000,0.976000,0.146000,192.000000,0.000000,0.000000,0.000000,0.000000,0.000000,0.000000,0.000000,0.000000,0.000000,1647845303.330022,0.000000
51.000000,20468.878206,15743.272393,11765.377136,5502.574802,3997.810662,42316.233196,43408.719410,43226.284471,0.074000,0.976000,0.146000,192.000000,0.000000,0.000000,0.000000,0.000000,0.000000,0.000000,0.000000,0.000000,0.000000,1647845303.330026,0.000000
52.000000,20462.038572,15730.308381,11758.157522,5496.942162,3991.932153,42310.466446,43413.525035,43225.859788,0.074000,0.976000,0.146000,192.000000,0.000000,0.000000,0.000000,0.000000,0.000000,0.000000,0.000000,0.000000,0.000000,1647845303.338050,0.000000
53.000000,20459.065790,15723.736968,11753.262490,5492.002427,3985.785423,42301.257527,43423.538616,43235.403983,0.074000,0.976000,0.146000,192.000000,0.000000,0.000000,0.000000,0.000000,0.000000,0.000000,0.000000,0.000000,0.000000,1647845303.338054,0.000000
54.000000,20470.532235,15736.879794,11761.800857,5501.144290,3994.994342,42308.343030,43416.676631,43227.402059,0.074000,0.976000,0.146000,192.000000,0.000000,0.000000,0.000000,0.000000,0.000000,0.000000,0.000000,0.000000,0.000000,1647845303.345137,0.000000
55.000000,20466.464217,15732.588259,11756.257624,5494.058787,3990.412234,42305.772579,43419.045915,43226.552692,0.074000,0.976000,0.146000,192.000000,0.000000,0.000000,0.000000,0.000000,0.000000,0.000000,0.000000,0.000000,0.000000,1647845303.352975,0.000000
56.000000,20456.450636,15725.256887,11744.344144,5483.397005,3978.878734,42296.943640,43437.351994,43242.869466,0.074000,0.976000,0.146000,192.000000,0.000000,0.000000,0.000000,0.000000,0.000000,0.000000,0.000000,0.000000,0.000000,1647845303.352979,0.000000
57.000000,20464.318450,15732.543556,11746.936947,5487.017988,3981.873868,42298.977649,43447.410279,43248.211533,0.074000,0.976000,0.146000,192.000000,0.000000,0.000000,0.000000,0.000000,0.000000,0.000000,0.000000,0.000000,0.000000,1647845303.359692,0.000000
58.000000,20464.296098,15731.403617,11744.679421,5485.542772,3980.152783,42298.172986,43447.633797,43244.121163,0.074000,0.972000,0.148000,192.000000,2.000000,80.000000,30.000000,96.000000,4.000000,160.000000,0.000000,0.000000,0.000000,1647845303.359696,0.000000
59.000000,20465.503092,15735.695152,11746.646374,5486.526249,3980.577467,42297.815358,43460.687215,43251.877219,0.074000,0.972000,0.148000,192.000000,0.000000,0.000000,0.000000,0.000000,0.000000,0.000000,0.000000,0.000000,0.000000,1647845303.367766,0.000000
60.000000,20461.993869,15742.177158,11749.216825,5483.642874,3983.684359,42302.218652,43464.710529,43252.078384,0.074000,0.972000,0.148000,192.000000,0.000000,0.000000,0.000000,0.000000,0.000000,0.000000,0.000000,0.000000,0.000000,1647845303.367771,0.000000
61.000000,20451.868528,15722.798195,11729.614345,5470.589455,3966.428812,42291.154539,43469.985541,43256.906361,0.074000,0.972000,0.148000,192.000000,0.000000,0.000000,0.000000,0.000000,0.000000,0.000000,0.000000,0.000000,0.000000,1647845303.375713,0.000000
62.000000,20460.742171,15728.788463,11730.955449,5474.031624,3966.160591,42296.474254,43473.092434,43257.040472,0.074000,0.972000,0.148000,192.000000,0.000000,0.000000,0.000000,0.000000,0.000000,0.000000,0.000000,0.000000,0.000000,1647845303.375718,0.000000
63.000000,20474.667308,15752.861292,11743.807703,5477.026758,3976.554153,42306.398428,43479.373274,43255.319387,0.074000,0.972000,0.148000,192.000000,0.000000,0.000000,0.000000,0.000000,0.000000,0.000000,0.000000,0.000000,0.000000,1647845303.382292,0.000000
64.000000,20482.378660,15758.091600,11751.854331,5489.588438,3990.501641,42312.992193,43482.770739,43253.307730,0.074000,0.972000,0.148000,192.000000,0.000000,0.000000,0.000000,0.000000,0.000000,0.000000,0.000000,0.000000,0.000000,1647845303.382297,0.000000
65.000000,20500.036538,15740.880756,11737.795083,5487.599133,3979.728100,42301.190472,43497.835815,43267.344626,0.074000,0.972000,0.148000,192.000000,0.000000,0.000000,0.000000,0.000000,0.000000,0.000000,0.000000,0.000000,0.000000,1647845303.390333,0.000000
66.000000,20500.997663,15746.915727,11747.339278,5487.554429,3980.666874,42303.649164,43507.111789,43276.262972,0.074000,0.972000,0.148000,192.000000,0.000000,0.000000,0.000000,0.000000,0.000000,0.000000,0.000000,0.000000,0.000000,1647845303.390338,0.000000
67.000000,20453.991944,15736.008076,11749.619156,5488.224982,3979.906914,42298.776483,43514.018478,43281.001542,0.074000,0.972000,0.148000,192.000000,0.000000,0.000000,0.000000,0.000000,0.000000,0.000000,0.000000,0.000000,0.000000,1647845303.398264,0.000000
68.000000,20448.873395,15730.196623,11754.558892,5493.634104,3984.332560,42299.692905,43522.378030,43286.321257,0.074000,0.976000,0.148000,192.000000,2.000000,80.000000,30.000000,128.000000,4.000000,160.000000,0.000000,0.000000,0.000000,1647845303.398268,0.000000
69.000000,20452.539081,15731.180099,11755.899996,5495.712816,3986.746548,42302.688039,43525.239053,43285.583649,0.074000,0.976000,0.148000,192.000000,0.000000,0.000000,0.000000,0.000000,0.000000,0.000000,0.000000,0.000000,0.000000,1647845303.405464,0.000000
70.000000,20462.373848,15740.053742,11749.038011,5486.816822,3983.416138,42301.905728,43534.000937,43292.646801,0.074000,0.976000,0.148000,192.000000,0.000000,0.000000,0.000000,0.000000,0.000000,0.000000,0.000000,0.000000,0.000000,1647845303.411834,0.000000
71.000000,20465.905424,15750.961393,11744.321793,5480.804203,3980.555115,42296.854233,43541.175847,43298.346495,0.074000,0.976000,0.148000,192.000000,0.000000,0.000000,0.000000,0.000000,0.000000,0.000000,0.000000,0.000000,0.000000,1647845303.411839,0.000000
72.000000,20472.789761,15747.496873,11752.010793,5494.617581,3987.171231,42300.922251,43536.794905,43291.372751,0.074000,0.976000,0.148000,192.000000,0.000000,0.000000,0.000000,0.000000,0.000000,0.000000,0.000000,0.000000,0.000000,1647845303.419895,0.000000
73.000000,20472.365078,15741.819530,11759.565682,5499.490261,3990.255772,42306.376077,43539.611225,43289.808129,0.074000,0.976000,0.148000,192.000000,0.000000,0.000000,0.000000,0.000000,0.000000,0.000000,0.000000,0.000000,0.000000,1647845303.419899,0.000000
74.000000,20489.777087,15764.640661,11752.524883,5485.118089,3985.293685,42310.578204,43548.686033,43301.319277,0.074000,0.976000,0.148000,192.000000,0.000000,0.000000,0.000000,0.000000,0.000000,0.000000,0.000000,0.000000,0.000000,1647845303.427965,0.000000
75.000000,20497.577846,15807.041920,11729.591993,5446.248406,3963.590141,42304.073847,43556.240923,43313.545682,0.074000,0.976000,0.148000,192.000000,0.000000,0.000000,0.000000,0.000000,0.000000,0.000000,0.000000,0.000000,0.000000,1647845303.427969,0.000000
76.000000,20486.893712,15779.728088,11723.735836,5447.656566,3954.425926,42296.116626,43557.582028,43315.691449,0.074000,0.976000,0.148000,192.000000,0.000000,0.000000,0.000000,0.000000,0.000000,0.000000,0.000000,0.000000,0.000000,1647845303.435004,0.000000
77.000000,20466.128941,15728.810814,11738.890319,5478.479621,3970.563885,42300.229347,43556.889124,43314.953842,0.074000,0.976000,0.148000,192.000000,0.000000,0.000000,0.000000,0.000000,0.000000,0.000000,0.000000,0.000000,0.000000,1647845303.435010,0.000000
78.000000,20450.303906,15708.940114,11749.440342,5491.018950,3984.489022,42309.348859,43559.481926,43317.591347,0.068000,0.986000,0.144000,192.000000,2.000000,32.000000,30.000000,208.000000,4.000000,128.000000,0.000000,0.000000,0.000000,1647845303.442581,0.000000
79.000000,20461.613889,15721.635905,11754.178912,5494.930505,3990.121661,42317.127266,43560.107775,43318.932452,0.068000,0.986000,0.144000,192.000000,0.000000,0.000000,0.000000,0.000000,0.000000,0.000000,0.000000,0.000000,0.000000,1647845303.442586,0.000000
80.000000,20463.871415,15731.381265,11745.305269,5483.307598,3982.834993,42314.221539,43557.090289,43318.150141,0.068000,0.986000,0.144000,192.000000,0.000000,0.000000,0.000000,0.000000,0.000000,0.000000,0.000000,0.000000,0.000000,1647845303.450595,0.000000
81.000000,20466.397162,15734.376399,11751.094371,5482.793508,3984.176097,42316.210844,43544.148629,43309.254147,0.068000,0.986000,0.144000,192.000000,0.000000,0.000000,0.000000,0.000000,0.000000,0.000000,0.000000,0.000000,0.000000,1647845303.450599,0.000000
82.000000,20468.855854,15731.381265,11745.305269,5473.808107,3977.671740,42311.271109,43544.461554,43316.987850,0.068000,0.986000,0.144000,192.000000,0.000000,0.000000,0.000000,0.000000,0.000000,0.000000,0.000000,0.000000,0.000000,1647845303.457770,0.000000
83.000000,20464.452560,15733.079998,11743.003040,5469.382461,3977.403519,42315.026202,43538.270120,43313.344516,0.068000,0.986000,0.144000,192.000000,0.000000,0.000000,0.000000,0.000000,0.000000,0.000000,0.000000,0.000000,0.000000,1647845303.457774,0.000000
84.000000,20488.570093,15754.940004,11755.028278,5480.714796,3992.535650,42329.063097,43526.066068,43297.094798,0.068000,0.986000,0.144000,192.000000,0.000000,0.000000,0.000000,0.000000,0.000000,0.000000,0.000000,0.000000,0.000000,1647845303.464147,0.000000
85.000000,20493.107497,15765.579434,11745.864063,5468.242522,3985.628961,42322.446981,43531.966928,43300.961650,0.068000,0.986000,0.144000,192.000000,0.000000,0.000000,0.000000,0.000000,0.000000,0.000000,0.000000,0.000000,0.000000,1647845303.472423,0.000000
86.000000,20493.174552,15773.737821,11747.719258,5470.947083,3982.030330,42326.894978,43514.979603,43284.399007,0.068000,0.986000,0.144000,192.000000,0.000000,0.000000,0.000000,0.000000,0.000000,0.000000,0.000000,0.000000,0.000000,1647845303.472483,0.000000
87.000000,20489.039479,15763.076039,11756.883473,5485.229848,3987.059472,42333.287577,43505.524815,43272.351417,0.068000,0.986000,0.144000,192.000000,0.000000,0.000000,0.000000,0.000000,0.000000,0.000000,0.000000,0.000000,0.000000,1647845303.480333,0.000000
88.000000,20481.551645,15750.313193,11757.531674,5493.097662,3987.953542,42332.773487,43510.151626,43274.407777,0.066000,0.988000,0.142000,192.000000,2.000000,16.000000,30.000000,224.000000,4.000000,112.000000,0.000000,0.000000,0.000000,1647845303.480339,0.000000
89.000000,20472.186264,15748.323887,11758.895130,5485.878049,3983.997283,42333.891074,43523.786190,43286.477719,0.066000,0.988000,0.142000,192.000000,0.000000,0.000000,0.000000,0.000000,0.000000,0.000000,0.000000,0.000000,0.000000,1647845303.487283,0.000000
90.000000,20471.582767,15759.924443,11750.982612,5476.579723,3979.795156,42332.952301,43533.665661,43295.574879,0.066000,0.988000,0.142000,192.000000,0.000000,0.000000,0.000000,0.000000,0.000000,0.000000,0.000000,0.000000,0.000000,1647845303.487287,0.000000
91.000000,20488.525389,15773.670766,11751.116723,5481.944142,3985.897182,42334.896902,43548.887199,43300.112283,0.066000,0.988000,0.142000,192.000000,0.000000,0.000000,0.000000,0.000000,0.000000,0.000000,0.000000,0.000000,0.000000,1647845303.494952,0.000000
92.000000,20490.939378,15777.403507,11748.210996,5478.859601,3982.231496,42328.571359,43569.607266,43306.147254,0.066000,0.988000,0.142000,192.000000,0.000000,0.000000,0.000000,0.000000,0.000000,0.000000,0.000000,0.000000,0.000000,1647845303.494958,0.000000
93.000000,20481.641052,15761.533768,11746.199339,5479.820726,3978.431699,42323.318699,43599.223328,43322.285214,0.066000,0.988000,0.142000,192.000000,0.000000,0.000000,0.000000,0.000000,0.000000,0.000000,0.000000,0.000000,0.000000,1647845303.502909,0.000000
94.000000,20478.176532,15744.099408,11753.664822,5489.610790,3986.165403,42325.062135,43618.334069,43332.768182,0.066000,0.988000,0.142000,192.000000,0.000000,0.000000,0.000000,0.000000,0.000000,0.000000,0.000000,0.000000,0.000000,1647845303.502913,0.000000
95.000000,20474.712011,15737.259774,11750.826150,5489.186107,3987.551211,42322.379926,43629.331127,43339.071374,0.066000,0.988000,0.142000,192.000000,0.000000,0.000000,0.000000,0.000000,0.000000,0.000000,0.000000,0.000000,0.000000,1647845303.510910,0.000000
96.000000,20471.582767,15736.544518,11737.236290,5479.038415,3976.352987,42311.986364,43637.713031,43352.460069,0.066000,0.988000,0.142000,192.000000,0.000000,0.000000,0.000000,0.000000,0.000000,0.000000,0.000000,0.000000,0.000000,1647845303.510914,0.000000
97.000000,20484.725593,15747.608632,11746.378153,5487.554429,3984.936057,42323.341051,43630.180494,43345.978063,0.066000,0.988000,0.142000,192.000000,0.000000,0.000000,0.000000,0.000000,0.000000,0.000000,0.000000,0.000000,0.000000,1647845303.517408,0.000000
98.000000,20487.430154,15757.801027,11753.530711,5490.571915,3987.752377,42323.341051,43633.533255,43359.791441,0.066000,0.988000,0.142000,192.000000,0.000000,0.000000,0.000000,0.000000,0.000000,0.000000,0.000000,0.000000,0.000000,1647845303.517412,0.000000
99.000000,20483.160971,15768.395754,11758.112819,5490.437805,3991.865098,42323.609271,43627.610043,43367.100461,0.068000,0.980000,0.142000,192.000000,2.000000,32.000000,30.000000,160.000000,4.000000,112.000000,0.000000,0.000000,0.000000,1647845303.524799,0.000000
100.000000,20484.233854,15765.847655,11756.972880,5493.790566,3992.356836,42323.542216,43611.069752,43362.920685,0.068000,0.980000,0.142000,192.000000,0.000000,0.000000,0.000000,0.000000,0.000000,0.000000,0.000000,0.000000,0.000000,1647845303.524810,0.000000
101.000000,20484.569130,15762.897225,11757.263453,5489.700197,3989.518164,42325.732687,43583.800624,43343.228798,0.068000,0.980000,0.142000,192.000000,0.000000,0.000000,0.000000,0.000000,0.000000,0.000000,0.000000,0.000000,0.000000,1647845303.532921,0.000000
102.000000,20482.780991,15769.558045,11759.275110,5483.084081,3989.272295,42328.146676,43576.715121,43336.590330,0.068000,0.980000,0.142000,192.000000,0.000000,0.000000,0.000000,0.000000,0.000000,0.000000,0.000000,0.000000,0.000000,1647845303.540920,0.000000
103.000000,20482.535122,15773.201379,11756.816418,5487.085043,3990.523993,42328.683117,43577.765653,43339.987795,0.068000,0.980000,0.142000,192.000000,0.000000,0.000000,0.000000,0.000000,0.000000,0.000000,0.000000,0.000000,0.000000,1647845303.540936,0.000000
104.000000,20498.337805,15775.660071,11758.023412,5489.543735,3991.641580,42337.065022,43561.381824,43325.794438,0.068000,0.980000,0.142000,192.000000,0.000000,0.000000,0.000000,0.000000,0.000000,0.000000,0.000000,0.000000,0.000000,1647845303.547281,0.000000
105.000000,20509.044291,15785.539542,11762.359650,5499.713778,3998.078882,42347.525638,43540.170019,43310.327030,0.068000,0.980000,0.142000,192.000000,0.000000,0.000000,0.000000,0.000000,0.000000,0.000000,0.000000,0.000000,0.000000,1647845303.547298,0.000000
106.000000,20483.451543,15772.977862,11771.076831,5505.011142,4002.817452,42354.454679,43525.037888,43301.587498,0.068000,0.980000,0.142000,192.000000,0.000000,0.000000,0.000000,0.000000,0.000000,0.000000,0.000000,0.000000,0.000000,1647845303.555554,0.000000
107.000000,20475.807247,15762.427838,11772.864970,5507.291020,4001.990438,42359.372063,43530.603472,43310.863472,0.068000,0.980000,0.142000,192.000000,0.000000,0.000000,0.000000,0.000000,0.000000,0.000000,0.000000,0.000000,0.000000,1647845303.555590,0.000000
108.000000,20474.399087,15762.919577,11763.767810,5502.261877,3994.659066,42351.012510,43537.979548,43322.888711,0.068000,0.980000,0.142000,192.000000,0.000000,0.000000,0.000000,0.000000,0.000000,0.000000,0.000000,0.000000,0.000000,1647845303.563591,0.000000
109.000000,20470.532235,15762.025507,11757.777543,5496.942162,3990.591048,42344.195228,43537.353699,43327.828446,0.072000,0.980000,0.148000,192.000000,2.000000,64.000000,30.000000,160.000000,4.000000,160.000000,0.000000,0.000000,0.000000,1647845303.563603,0.000000
110.000000,20471.716877,15763.120742,11759.900959,5499.713778,3991.552173,42338.182609,43532.101039,43327.224949,0.072000,0.980000,0.148000,192.000000,0.000000,0.000000,0.000000,0.000000,0.000000,0.000000,0.000000,0.000000,0.000000,1647845303.570347,0.000000
111.000000,20479.361174,15767.881664,11767.053517,5506.151081,3996.581316,42338.137905,43511.000992,43309.812940,0.072000,0.980000,0.148000,192.000000,0.000000,0.000000,0.000000,0.000000,0.000000,0.000000,0.000000,0.000000,0.000000,1647845303.570358,0.000000
112.000000,20477.193055,15765.422972,11759.543331,5500.741959,3991.641580,42332.214693,43511.380972,43316.518464,0.072000,0.980000,0.148000,192.000000,0.000000,0.000000,0.000000,0.000000,0.000000,0.000000,0.000000,0.000000,0.000000,1647845303.578087,0.000000
113.000000,20484.569130,15774.721298,11767.321738,5509.995581,3999.419987,42345.715147,43501.546204,43310.304679,0.072000,0.980000,0.148000,192.000000,0.000000,0.000000,0.000000,0.000000,0.000000,0.000000,0.000000,0.000000,0.000000,1647845303.578104,0.000000
114.000000,20487.899540,15785.114859,11772.216770,5513.169529,4003.912688,42356.779260,43495.667695,43311.198748,0.072000,0.980000,0.148000,192.000000,0.000000,0.000000,0.000000,0.000000,0.000000,0.000000,0.000000,0.000000,0.000000,1647845303.586209,0.000000
115.000000,20488.838314,15788.199399,11774.787220,5517.662229,4006.349028,42356.779260,43495.287716,43310.550548,0.072000,0.980000,0.148000,192.000000,0.000000,0.000000,0.000000,0.000000,0.000000,0.000000,0.000000,0.000000,0.000000,1647845303.586221,0.000000
116.000000,20480.635223,15776.218864,11772.015604,5517.215194,4003.555060,42351.280731,43498.886347,43305.499054,0.072000,0.980000,0.148000,192.000000,0.000000,0.000000,0.000000,0.000000,0.000000,0.000000,0.000000,0.000000,0.000000,1647845303.593162,0.000000
117.000000,20482.110439,15773.536655,11774.742517,5516.790511,4005.365551,42353.985292,43503.311992,43302.168644,0.072000,0.980000,0.148000,192.000000,0.000000,0.000000,0.000000,0.000000,0.000000,0.000000,0.000000,0.000000,0.000000,1647845303.599736,0.000000
118.000000,20488.435982,15780.242178,11777.983520,5524.591270,4011.758150,42361.517830,43508.654059,43301.274574,0.072000,0.980000,0.148000,192.000000,0.000000,0.000000,0.000000,0.000000,0.000000,0.000000,0.000000,0.000000,0.000000,1647845303.599747,0.000000
119.000000,20485.217331,15778.454039,11777.402374,5521.752598,4008.584202,42361.830754,43518.913510,43307.153083,0.082000,0.976000,0.152000,192.000000,2.000000,144.000000,30.000000,128.000000,4.000000,192.000000,0.000000,0.000000,0.000000,1647845303.607740,0.000000
120.000000,20482.669232,15775.593016,11775.524828,5516.209366,4004.158557,42357.516868,43531.564597,43319.826522,0.082000,0.976000,0.152000,192.000000,0.000000,0.000000,0.000000,0.000000,0.000000,0.000000,0.000000,0.000000,0.000000,1647845303.607758,0.000000
121.000000,20478.958843,15774.721298,11773.468467,5513.437750,4001.811624,42356.421632,43525.864902,43312.048115,0.082000,0.976000,0.152000,192.000000,0.000000,0.000000,0.000000,0.000000,0.000000,0.000000,0.000000,0.000000,0.000000,1647845303.615432,0.000000
122.000000,20474.622604,15771.681460,11767.657014,5509.369732,3996.290743,42351.280731,43533.777420,43320.653536,0.082000,0.976000,0.152000,192.000000,0.000000,0.000000,0.000000,0.000000,0.000000,0.000000,0.000000,0.000000,0.000000,1647845303.615440,0.000000
123.000000,20473.482665,15770.854446,11768.819305,5509.012104,3995.240211,42350.274903,43534.693841,43325.816789,0.082000,0.976000,0.152000,192.000000,0.000000,0.000000,0.000000,0.000000,0.000000,0.000000,0.000000,0.000000,0.000000,1647845303.622571,0.000000
124.000000,20484.166799,15784.019623,11773.557874,5516.544642,4003.845633,42360.668464,43534.805600,43328.923682,0.082000,0.976000,0.152000,192.000000,0.000000,0.000000,0.000000,0.000000,0.000000,0.000000,0.000000,0.000000,0.000000,1647845303.622577,0.000000
125.000000,20486.200808,15779.526923,11768.707546,5514.242412,3999.107063,42354.633493,43539.655929,43337.819676,0.082000,0.976000,0.152000,192.000000,0.000000,0.000000,0.000000,0.000000,0.000000,0.000000,0.000000,0.000000,0.000000,1647845303.630099,0.000000
126.000000,20477.058944,15778.588149,11772.887322,5518.668058,3999.330580,42352.823001,43522.333327,43328.163723,0.082000,0.976000,0.152000,192.000000,0.000000,0.000000,0.000000,0.000000,0.000000,0.000000,0.000000,0.000000,0.000000,1647845303.630104,0.000000
127.000000,20473.214444,15777.358803,11772.417935,5520.791473,4000.649333,42355.304045,43512.498559,43325.012127,0.082000,0.976000,0.152000,192.000000,0.000000,0.000000,0.000000,0.000000,0.000000,0.000000,0.000000,0.000000,0.000000,1647845303.638085,0.000000
128.000000,20466.128941,15770.943853,11763.656052,5508.609773,3991.216897,42348.911446,43521.796885,43341.641824,0.082000,0.976000,0.152000,192.000000,0.000000,0.000000,0.000000,0.000000,0.000000,0.000000,0.000000,0.000000,0.000000,1647845303.638092,0.000000
129.000000,20474.399087,15781.762097,11772.775563,5508.855642,3997.005999,42360.534353,43515.069010,43339.563112,0.088000,0.970000,0.158000,192.000000,2.000000,192.000000,30.000000,80.000000,4.000000,240.000000,0.000000,0.000000,0.000000,1647845303.646100,0.000000
130.000000,20472.275671,15783.863161,11774.586055,5508.229793,4000.090539,42372.380778,43504.027248,43335.092763,0.088000,0.970000,0.158000,192.000000,0.000000,0.000000,0.000000,0.000000,0.000000,0.000000,0.000000,0.000000,0.000000,1647845303.646106,0.000000
131.000000,20468.498226,15772.977862,11772.350880,5514.309468,3995.955467,42375.621781,43493.723094,43332.991699,0.088000,0.970000,0.158000,192.000000,0.000000,0.000000,0.000000,0.000000,0.000000,0.000000,0.000000,0.000000,0.000000,1647845303.652191,0.000000
132.000000,20468.364116,15767.769905,11771.479162,5522.311392,3994.971990,42375.688836,43486.056445,43328.655461,0.088000,0.970000,0.158000,192.000000,0.000000,0.000000,0.000000,0.000000,0.000000,0.000000,0.000000,0.000000,0.000000,1647845303.659698,0.000000
133.000000,20449.879223,15748.860329,11760.504456,5510.710837,3985.673664,42360.668464,43495.846509,43344.122868,0.088000,0.970000,0.158000,192.000000,0.000000,0.000000,0.000000,0.000000,0.000000,0.000000,0.000000,0.000000,0.000000,1647845303.659704,0.000000
134.000000,20441.698485,15747.921556,11757.017583,5507.670999,3985.159574,42353.895885,43491.845547,43338.534932,0.088000,0.970000,0.158000,192.000000,0.000000,0.000000,0.000000,0.000000,0.000000,0.000000,0.000000,0.000000,0.000000,1647845303.667752,0.000000
135.000000,20457.188244,15765.981766,11776.754174,5523.093703,4001.543403,42367.709263,43468.666788,43312.070467,0.088000,0.970000,0.158000,192.000000,0.000000,0.000000,0.000000,0.000000,0.000000,0.000000,0.000000,0.000000,0.000000,1647845303.667758,0.000000
136.000000,20464.452560,15771.502646,11775.435421,5521.842005,4001.386941,42367.083414,43461.402471,43307.823635,0.088000,0.970000,0.158000,192.000000,0.000000,0.000000,0.000000,0.000000,0.000000,0.000000,0.000000,0.000000,0.000000,1647845303.675743,0.000000
137.000000,20459.803398,15770.787391,11774.183723,5521.462026,4001.185775,42363.730653,43464.241143,43311.735190,0.088000,0.970000,0.158000,192.000000,0.000000,0.000000,0.000000,0.000000,0.000000,0.000000,0.000000,0.000000,0.000000,1647845303.675749,0.000000
138.000000,20451.443845,15763.612481,11768.819305,5511.671962,3995.508432,42355.974597,43475.640532,43323.268690,0.088000,0.970000,0.158000,192.000000,0.000000,0.000000,0.000000,0.000000,0.000000,0.000000,0.000000,0.000000,0.000000,1647845303.682310,0.000000
139.000000,20453.477854,15765.087696,11766.941758,5511.671962,3994.882583,42357.136888,43478.836832,43330.175380,0.094000,0.974000,0.160000,192.000000,2.000000,240.000000,30.000000,112.000000,5.000000,0.000000,0.000000,0.000000,0.000000,1647845303.682315,0.000000
140.000000,20445.565336,15759.388001,11758.716316,5502.306581,3986.455975,42354.029996,43474.545297,43328.364888,0.094000,0.974000,0.160000,192.000000,0.000000,0.000000,0.000000,0.000000,0.000000,0.000000,0.000000,0.000000,0.000000,1647845303.691081,0.000000
141.000000,20453.030819,15766.562911,11764.773639,5509.414436,3993.608534,42359.081490,43454.920465,43304.225004,0.094000,0.974000,0.160000,192.000000,0.000000,0.000000,0.000000,0.000000,0.000000,0.000000,0.000000,0.000000,0.000000,1647845303.691106,0.000000
142.000000,20451.533252,15768.507513,11764.594825,5513.571860,3996.581316,42361.003740,43464.978750,43314.305641,0.094000,0.974000,0.160000,192.000000,0.000000,0.000000,0.000000,0.000000,0.000000,0.000000,0.000000,0.000000,0.000000,1647845303.698471,0.000000
143.000000,20443.106645,15759.231539,11761.510284,5505.078197,3988.691150,42352.375967,43479.686198,43334.176342,0.094000,0.974000,0.160000,192.000000,0.000000,0.000000,0.000000,0.000000,0.000000,0.000000,0.000000,0.000000,0.000000,1647845303.698480,0.000000
144.000000,20453.097874,15763.165446,11760.012717,5509.548546,3990.144013,42354.812307,43469.359692,43323.760429,0.094000,0.974000,0.160000,192.000000,0.000000,0.000000,0.000000,0.000000,0.000000,0.000000,0.000000,0.000000,0.000000,1647845303.705071,0.000000
145.000000,20448.605174,15762.852521,11752.524883,5502.239526,3983.863173,42351.593656,43462.274189,43312.003411,0.094000,0.974000,0.160000,192.000000,0.000000,0.000000,0.000000,0.000000,0.000000,0.000000,0.000000,0.000000,0.000000,1647845303.705079,0.000000
146.000000,20441.631429,15761.131437,11756.145865,5497.031569,3983.952580,42347.972673,43469.359692,43319.737115,0.094000,0.974000,0.160000,192.000000,0.000000,0.000000,0.000000,0.000000,0.000000,0.000000,0.000000,0.000000,0.000000,1647845303.712005,0.000000
147.000000,20441.139691,15759.343297,11758.246929,5500.786662,3985.919533,42346.788030,43480.781434,43328.521350,0.094000,0.974000,0.160000,192.000000,0.000000,0.000000,0.000000,0.000000,0.000000,0.000000,0.000000,0.000000,0.000000,1647845303.719975,0.000000
148.000000,20450.527424,15768.127533,11761.152656,5505.972267,3991.082786,42349.581999,43483.262477,43326.844970,0.094000,0.974000,0.160000,192.000000,0.000000,0.000000,0.000000,0.000000,0.000000,0.000000,0.000000,0.000000,0.000000,1647845303.719984,0.000000
149.000000,20456.383581,15771.636757,11764.840694,5514.264764,3995.821356,42351.683063,43470.924314,43314.350344,0.100000,0.976000,0.164000,192.000000,3.000000,32.000000,30.000000,128.000000,5.000000,32.000000,0.000000,0.000000,0.000000,1647845303.728035,0.000000
150.000000,20453.433150,15772.195550,11763.857217,5514.443578,3994.234382,42346.095126,43467.593904,43310.729362,0.100000,0.976000,0.164000,192.000000,0.000000,0.000000,0.000000,0.000000,0.000000,0.000000,0.000000,0.000000,0.000000,1647845303.728046,0.000000
151.000000,20443.017238,15763.456018,11755.631775,5504.295886,3985.383092,42339.367251,43478.032169,43325.682679,0.100000,0.976000,0.164000,192.000000,0.000000,0.000000,0.000000,0.000000,0.000000,0.000000,0.000000,0.000000,0.000000,1647845303.734911,0.000000
152.000000,20438.859813,15756.169350,11752.681345,5500.384331,3980.935094,42337.959091,43481.854317,43332.432906,0.100000,0.976000,0.164000,192.000000,0.000000,0.000000,0.000000,0.000000,0.000000,0.000000,0.000000,0.000000,0.000000,1647845303.734919,0.000000
153.000000,20442.257278,15759.902091,11753.418953,5505.905212,3984.779595,42338.137905,43487.978695,43342.848819,0.100000,0.976000,0.164000,192.000000,0.000000,0.000000,0.000000,0.000000,0.000000,0.000000,0.000000,0.000000,0.000000,1647845303.743018,0.000000
154.000000,20443.643086,15762.472542,11756.637604,5505.726398,3987.573563,42335.790972,43485.050617,43334.511618,0.100000,0.976000,0.164000,192.000000,0.000000,0.000000,0.000000,0.000000,0.000000,0.000000,0.000000,0.000000,0.000000,1647845303.743036,0.000000
155.000000,20442.056113,15767.658146,11756.883473,5500.272572,3986.724196,42340.864818,43478.769777,43329.281310,0.100000,0.976000,0.164000,192.000000,0.000000,0.000000,0.000000,0.000000,0.000000,0.000000,0.000000,0.000000,0.000000,1647845303.750869,0.000000
156.000000,20440.200918,15768.507513,11748.680383,5497.433901,3980.376301,42337.981443,43474.120614,43331.248263,0.100000,0.976000,0.164000,192.000000,0.000000,0.000000,0.000000,0.000000,0.000000,0.000000,0.000000,0.000000,0.000000,1647845303.750885,0.000000
157.000000,20439.619772,15773.290786,11744.142979,5493.544697,3974.609551,42328.593710,43470.812556,43322.620490,0.100000,0.976000,0.164000,192.000000,0.000000,0.000000,0.000000,0.000000,0.000000,0.000000,0.000000,0.000000,0.000000,1647845303.757904,0.000000
158.000000,20437.496357,15770.273300,11743.807703,5494.125842,3974.833068,42329.912463,43471.371349,43329.348365,0.100000,0.976000,0.164000,192.000000,0.000000,0.000000,0.000000,0.000000,0.000000,0.000000,0.000000,0.000000,0.000000,1647845303.757915,0.000000
159.000000,20445.677095,15765.154751,11752.122551,5503.312409,3982.902048,42342.518847,43458.764965,43318.932452,0.106000,0.962000,0.168000,192.000000,3.000000,80.000000,30.000000,16.000000,5.000000,64.000000,0.000000,0.000000,0.000000,1647845303.765497,0.000000
160.000000,20443.486624,15754.045934,11751.921386,5496.942162,3979.146955,42339.367251,43449.623102,43307.778932,0.106000,0.962000,0.168000,192.000000,0.000000,0.000000,0.000000,0.000000,0.000000,0.000000,0.000000,0.000000,0.000000,1647845303.765509,0.000000
161.000000,20440.938525,15748.212129,11755.743534,5502.977133,3980.756281,42335.276882,43431.898169,43290.031646,0.106000,0.962000,0.168000,192.000000,0.000000,0.000000,0.000000,0.000000,0.000000,0.000000,0.000000,0.000000,0.000000,1647845303.772418,0.000000
162.000000,20433.517746,15753.554196,11756.458790,5503.290058,3981.382129,42324.905673,43431.138209,43285.091911,0.106000,0.962000,0.168000,192.000000,0.000000,0.000000,0.000000,0.000000,0.000000,0.000000,0.000000,0.000000,0.000000,1647845303.772429,0.000000
163.000000,20435.484700,15753.308326,11749.887377,5500.607848,3979.303417,42315.763809,43441.554122,43296.737170,0.106000,0.962000,0.168000,192.000000,0.000000,0.000000,0.000000,0.000000,0.000000,0.000000,0.000000,0.000000,0.000000,1647845303.780285,0.000000
164.000000,20443.978363,15757.063419,11754.402429,5505.480529,3983.125565,42318.580129,43430.333546,43288.802301,0.106000,0.962000,0.168000,192.000000,0.000000,0.000000,0.000000,0.000000,0.000000,0.000000,0.000000,0.000000,0.000000,1647845303.787657,0.000000
165.000000,20448.247546,15764.663013,11755.855293,5501.792491,3982.276199,42323.452809,43405.612517,43264.349492,0.106000,0.962000,0.168000,192.000000,0.000000,0.000000,0.000000,0.000000,0.000000,0.000000,0.000000,0.000000,0.000000,1647845303.787669,0.000000
166.000000,20435.887031,15757.443399,11745.931118,5491.018950,3972.374376,42321.105876,43397.677648,43264.528306,0.106000,0.962000,0.168000,192.000000,0.000000,0.000000,0.000000,0.000000,0.000000,0.000000,0.000000,0.000000,0.000000,1647845303.795331,0.000000
167.000000,20428.175679,15751.810760,11737.236290,5483.374653,3963.500734,42315.897920,43394.302534,43266.003521,0.106000,0.962000,0.168000,192.000000,0.000000,0.000000,0.000000,0.000000,0.000000,0.000000,0.000000,0.000000,0.000000,1647845303.795347,0.000000
168.000000,20428.890935,15756.236405,11740.343182,5487.599133,3966.629978,42321.999946,43390.927421,43267.881068,0.106000,0.962000,0.168000,192.000000,0.000000,0.000000,0.000000,0.000000,0.000000,0.000000,0.000000,0.000000,0.000000,1647845303.802963,0.000000
169.000000,20437.049322,15757.063419,11740.276127,5494.036435,3974.028405,42325.464466,43383.216069,43263.611885,0.112000,0.956000,0.180000,192.000000,3.000000,128.000000,29.000000,224.000000,5.000000,160.000000,0.000000,0.000000,0.000000,1647845303.802975,0.000000
170.000000,20452.159101,15764.640661,11745.685249,5509.414436,3983.572600,42329.867760,43363.501831,43251.586646,0.112000,0.956000,0.180000,192.000000,0.000000,0.000000,0.000000,0.000000,0.000000,0.000000,0.000000,0.000000,0.000000,1647845303.811083,0.000000
171.000000,20445.833557,15772.463771,11754.000098,5515.337648,3989.361702,42332.773487,43346.425098,43237.437992,0.112000,0.956000,0.180000,192.000000,0.000000,0.000000,0.000000,0.000000,0.000000,0.000000,0.000000,0.000000,0.000000,1647845303.811107,0.000000
172.000000,20446.392351,15773.871931,11754.491836,5515.896441,3990.166365,42333.220522,43334.019880,43225.368050,0.112000,0.956000,0.180000,192.000000,0.000000,0.000000,0.000000,0.000000,0.000000,0.000000,0.000000,0.000000,0.000000,1647845303.817654,0.000000
173.000000,20457.747037,15780.175123,11754.894168,5518.735113,3994.279086,42342.965882,43330.443600,43223.535207,0.112000,0.956000,0.180000,192.000000,0.000000,0.000000,0.000000,0.000000,0.000000,0.000000,0.000000,0.000000,0.000000,1647845303.817665,0.000000
174.000000,20440.871470,15767.345222,11740.253775,5504.832328,3979.504583,42327.185551,43346.112173,43245.283454,0.112000,0.956000,0.180000,192.000000,0.000000,0.000000,0.000000,0.000000,0.000000,0.000000,0.000000,0.000000,0.000000,1647845303.825826,0.000000
175.000000,20438.278668,15766.965242,11751.139075,5512.163700,3986.053644,42335.500400,43336.210351,43234.040527,0.112000,0.956000,0.180000,192.000000,0.000000,0.000000,0.000000,0.000000,0.000000,0.000000,0.000000,0.000000,0.000000,1647845303.825841,0.000000
176.000000,20441.184395,15769.826266,11748.814493,5512.521328,3987.595914,42335.858027,43342.290025,43235.895721,0.112000,0.956000,0.180000,192.000000,0.000000,0.000000,0.000000,0.000000,0.000000,0.000000,0.000000,0.000000,0.000000,1647845303.835238,0.000000
177.000000,20455.847139,15775.905940,11752.189607,5514.153005,3988.646446,42339.814286,43335.629205,43222.775247,0.112000,0.956000,0.180000,192.000000,0.000000,0.000000,0.000000,0.000000,0.000000,0.000000,0.000000,0.000000,0.000000,1647845303.835249,0.000000
178.000000,20449.029857,15775.257739,11750.669688,5508.676828,3986.813603,42337.199132,43346.067470,43226.016250,0.112000,0.956000,0.180000,192.000000,0.000000,0.000000,0.000000,0.000000,0.000000,0.000000,0.000000,0.000000,0.000000,1647845303.842247,0.000000
179.000000,20448.806339,15786.143039,11761.823209,5517.729284,3995.910763,42345.268112,43343.295854,43215.063896,0.112000,0.956000,0.190000,192.000000,3.000000,128.000000,29.000000,224.000000,5.000000,240.000000,0.000000,0.000000,0.000000,1647845303.848434,0.000000
180.000000,20443.151348,15785.070155,11753.530711,5511.426093,3991.060435,42337.266187,43342.334729,43210.750009,0.112000,0.956000,0.190000,192.000000,0.000000,0.000000,0.000000,0.000000,0.000000,0.000000,0.000000,0.000000,0.000000,1647845303.848445,0.000000
181.000000,20439.239793,15769.133361,11747.160464,5506.173433,3986.612438,42334.069888,43339.585464,43207.061971,0.112000,0.956000,0.190000,192.000000,0.000000,0.000000,0.000000,0.000000,0.000000,0.000000,0.000000,0.000000,0.000000,1647845303.857240,0.000000
182.000000,20453.254337,15779.057536,11756.659956,5520.456197,4000.202298,42344.128173,43341.708880,43205.318535,0.112000,0.956000,0.190000,192.000000,0.000000,0.000000,0.000000,0.000000,0.000000,0.000000,0.000000,0.000000,0.000000,1647845303.857252,0.000000
183.000000,20452.024991,15778.498742,11753.508360,5519.115093,3998.592973,42344.239932,43355.321092,43216.047372,0.112000,0.956000,0.190000,192.000000,0.000000,0.000000,0.000000,0.000000,0.000000,0.000000,0.000000,0.000000,0.000000,1647845303.863463,0.000000
184.000000,20445.028895,15775.593016,11743.472426,5508.945049,3986.835955,42333.265225,43367.391034,43225.502160,0.112000,0.956000,0.190000,192.000000,0.000000,0.000000,0.000000,0.000000,0.000000,0.000000,0.000000,0.000000,0.000000,1647845303.863478,0.000000
185.000000,20441.519671,15772.128495,11741.438418,5501.412511,3982.991455,42326.760867,43362.406595,43216.159131,0.112000,0.956000,0.190000,192.000000,0.000000,0.000000,0.000000,0.000000,0.000000,0.000000,0.000000,0.000000,0.000000,1647845303.869940,0.000000
186.000000,20441.005581,15769.669803,11741.974859,5494.706988,3981.024501,42325.240949,43347.363871,43203.083361,0.112000,0.956000,0.190000,192.000000,0.000000,0.000000,0.000000,0.000000,0.000000,0.000000,0.000000,0.000000,0.000000,1647845303.869956,0.000000
187.000000,20453.544909,15777.984652,11749.328583,5507.000447,3990.412234,42334.919254,43344.033461,43197.495424,0.112000,0.956000,0.190000,192.000000,0.000000,0.000000,0.000000,0.000000,0.000000,0.000000,0.000000,0.000000,0.000000,1647845303.878046,0.000000
188.000000,20456.227119,15779.795144,11748.210996,5511.828424,3991.373359,42336.617987,43347.296816,43199.685895,0.112000,0.956000,0.190000,192.000000,0.000000,0.000000,0.000000,0.000000,0.000000,0.000000,0.000000,0.000000,0.000000,1647845303.878057,0.000000
189.000000,20450.639182,15776.598844,11737.191586,5503.066540,3980.041025,42330.314795,43351.454240,43203.463340,0.114000,0.950000,0.194000,192.000000,3.000000,144.000000,29.000000,176.000000,6.000000,16.000000,0.000000,0.000000,0.000000,1647845303.885949,0.000000
190.000000,20443.844252,15773.491952,11729.904917,5495.578706,3971.100327,42326.917330,43366.161688,43223.266986,0.114000,0.950000,0.194000,192.000000,0.000000,0.000000,0.000000,0.000000,0.000000,0.000000,0.000000,0.000000,0.000000,1647845303.885965,0.000000
191.000000,20449.454540,15772.977862,11733.302383,5500.965476,3976.174173,42333.756963,43354.650540,43217.388477,0.114000,0.950000,0.194000,192.000000,0.000000,0.000000,0.000000,0.000000,0.000000,0.000000,0.000000,0.000000,0.000000,1647845303.893116,0.000000
192.000000,20446.057075,15769.133361,11730.776636,5498.618543,3972.754356,42334.561626,43334.735135,43202.077532,0.114000,0.950000,0.194000,192.000000,0.000000,0.000000,0.000000,0.000000,0.000000,0.000000,0.000000,0.000000,0.000000,1647845303.893127,0.000000
193.000000,20443.486624,15774.408373,11731.268374,5502.395988,3974.542496,42337.914388,43344.033461,43212.404038,0.114000,0.950000,0.194000,192.000000,0.000000,0.000000,0.000000,0.000000,0.000000,0.000000,0.000000,0.000000,0.000000,1647845303.901225,0.000000
194.000000,20443.866604,15779.482219,11744.478255,5513.370694,3986.858307,42351.750118,43340.680699,43206.950212,0.114000,0.950000,0.194000,192.000000,0.000000,0.000000,0.000000,0.000000,0.000000,0.000000,0.000000,0.000000,0.000000,1647845303.907594,0.000000
195.000000,20436.110549,15769.669803,11740.253775,5506.665171,3979.772804,42348.844391,43338.892560,43206.167901,0.114000,0.950000,0.194000,192.000000,0.000000,0.000000,0.000000,0.000000,0.000000,0.000000,0.000000,0.000000,0.000000,1647845303.907606,0.000000
196.000000,20441.363208,15773.827228,11737.146883,5505.636991,3978.454051,42349.671406,43329.169551,43196.064913,0.114000,0.950000,0.194000,192.000000,0.000000,0.000000,0.000000,0.000000,0.000000,0.000000,0.000000,0.000000,0.000000,1647845303.915682,0.000000
197.000000,20443.039589,15773.559007,11730.508415,5501.524270,3972.195562,42344.262283,43330.063621,43193.315648,0.114000,0.950000,0.194000,192.000000,0.000000,0.000000,0.000000,0.000000,0.000000,0.000000,0.000000,0.000000,0.000000,1647845303.915693,0.000000
198.000000,20449.298078,15778.610501,11732.743589,5504.832328,3975.391862,42344.083469,43333.706955,43189.962887,0.114000,0.950000,0.194000,192.000000,0.000000,0.000000,0.000000,0.000000,0.000000,0.000000,0.000000,0.000000,0.000000,1647845303.924257,0.000000
199.000000,20445.163005,15774.989519,11727.893260,5497.411549,3970.049795,42336.573283,43340.703051,43197.741294,0.114000,0.950000,0.194000,192.000000,0.000000,0.000000,0.000000,0.000000,0.000000,0.000000,0.000000,0.000000,0.000000,1647845303.924268,0.000000
200.000000,20449.789816,15778.722260,11735.604612,5500.786662,3974.296626,42340.775411,43325.012127,43184.933744,0.104000,0.956000,0.200000,192.000000,3.000000,64.000000,29.000000,224.000000,6.000000,64.000000,0.000000,0.000000,0.000000,1647845303.930303,0.000000
201.000000,20460.272784,15789.629911,11741.527825,5505.502880,3980.219839,42349.917275,43319.759467,43178.161165,0.104000,0.956000,0.200000,192.000000,0.000000,0.000000,0.000000,0.000000,0.000000,0.000000,0.000000,0.000000,0.000000,1647845303.930319,0.000000
202.000000,20450.661534,15784.444306,11731.648354,5494.774043,3971.189734,42342.496496,43330.778877,43185.939573,0.104000,0.956000,0.200000,192.000000,0.000000,0.000000,0.000000,0.000000,0.000000,0.000000,0.000000,0.000000,0.000000,1647845303.938173,0.000000
203.000000,20451.555604,15786.388908,11733.637659,5492.963552,3970.675644,42340.931873,43330.801228,43181.133948,0.104000,0.956000,0.200000,192.000000,0.000000,0.000000,0.000000,0.000000,0.000000,0.000000,0.000000,0.000000,0.000000,1647845303.938182,0.000000
204.000000,20443.933659,15775.682423,11726.708618,5485.878049,3964.037176,42331.521789,43332.343499,43176.954171,0.104000,0.956000,0.200000,192.000000,0.000000,0.000000,0.000000,0.000000,0.000000,0.000000,0.000000,0.000000,0.000000,1647845303.946159,0.000000
205.000000,20442.257278,15775.369498,11725.993362,5489.789604,3961.824353,42333.511094,43330.331842,43178.429386,0.104000,0.956000,0.200000,192.000000,0.000000,0.000000,0.000000,0.000000,0.000000,0.000000,0.000000,0.000000,0.000000,1647845303.946171,0.000000
206.000000,20448.024028,15785.271321,11728.720275,5494.349360,3966.071184,42342.384737,43330.108324,43175.948343,0.104000,0.956000,0.200000,192.000000,0.000000,0.000000,0.000000,0.000000,0.000000,0.000000,0.000000,0.000000,0.000000,1647845303.952916,0.000000
207.000000,20454.528386,15791.261588,11727.401522,5495.265781,3969.200429,42350.699586,43317.412533,43165.599485,0.104000,0.956000,0.200000,192.000000,0.000000,0.000000,0.000000,0.000000,0.000000,0.000000,0.000000,0.000000,0.000000,1647845303.952927,0.000000
208.000000,20447.465235,15797.676539,11726.708618,5489.744900,3967.836972,42352.912408,43323.581615,43176.574192,0.104000,0.956000,0.200000,192.000000,0.000000,0.000000,0.000000,0.000000,0.000000,0.000000,0.000000,0.000000,0.000000,1647845303.960087,0.000000
209.000000,20434.769444,15787.618254,11727.937964,5486.593304,3964.059527,42353.270036,43324.073353,43180.843375,0.104000,0.956000,0.200000,192.000000,0.000000,0.000000,0.000000,0.000000,0.000000,0.000000,0.000000,0.000000,0.000000,1647845303.968109,0.000000
210.000000,20439.016275,15780.778620,11729.010848,5496.785700,3966.294702,42358.500345,43315.356173,43176.797709,0.094000,0.954000,0.200000,192.000000,2.000000,240.000000,29.000000,208.000000,6.000000,64.000000,0.000000,0.000000,0.000000,1647845303.968125,0.000000
211.000000,20444.335990,15781.046841,11734.978763,5505.704046,3973.715481,42361.808403,43304.582632,43165.443023,0.094000,0.954000,0.200000,192.000000,0.000000,0.000000,0.000000,0.000000,0.000000,0.000000,0.000000,0.000000,0.000000,1647845303.975056,0.000000
212.000000,20437.630467,15775.928292,11728.586165,5494.259953,3968.127545,42353.739423,43321.391144,43178.116462,0.094000,0.954000,0.200000,192.000000,0.000000,0.000000,0.000000,0.000000,0.000000,0.000000,0.000000,0.000000,0.000000,1647845303.975067,0.000000
213.000000,20453.187281,15789.384042,11736.632793,5503.468872,3978.409347,42359.707339,43313.500978,43165.979465,0.094000,0.954000,0.200000,192.000000,0.000000,0.000000,0.000000,0.000000,0.000000,0.000000,0.000000,0.000000,0.000000,1647845303.982572,0.000000
214.000000,20470.979270,15792.960321,11736.319868,5502.664209,3981.024501,42361.048443,43306.370772,43151.316720,0.094000,0.954000,0.200000,192.000000,0.000000,0.000000,0.000000,0.000000,0.000000,0.000000,0.000000,0.000000,0.000000,1647845303.982604,0.000000
215.000000,20457.881148,15784.600769,11737.929194,5499.467909,3974.833068,42357.114536,43310.595251,43156.010587,0.094000,0.954000,0.200000,192.000000,0.000000,0.000000,0.000000,0.000000,0.000000,0.000000,0.000000,0.000000,0.000000,1647845303.990491,0.000000
216.000000,20448.269897,15786.724184,11744.187682,5508.006276,3979.839859,42363.730653,43295.038437,43134.083525,0.094000,0.954000,0.200000,192.000000,0.000000,0.000000,0.000000,0.000000,0.000000,0.000000,0.000000,0.000000,0.000000,1647845303.990502,0.000000
217.000000,20446.951145,15784.645472,11738.108008,5503.781796,3975.414214,42356.846315,43299.799359,43138.129191,0.094000,0.954000,0.200000,192.000000,0.000000,0.000000,0.000000,0.000000,0.000000,0.000000,0.000000,0.000000,0.000000,1647845303.998439,0.000000
218.000000,20448.672229,15793.049728,11735.626964,5498.015046,3973.670778,42353.068871,43306.035496,43142.107802,0.094000,0.954000,0.200000,192.000000,0.000000,0.000000,0.000000,0.000000,0.000000,0.000000,0.000000,0.000000,0.000000,1647845303.998451,0.000000
219.000000,20449.901575,15794.502591,11728.742627,5485.587476,3968.641635,42347.816211,43321.972289,43161.017377,0.094000,0.954000,0.200000,192.000000,0.000000,0.000000,0.000000,0.000000,0.000000,0.000000,0.000000,0.000000,0.000000,1647845304.004970,0.000000
220.000000,20453.701371,15798.838830,11736.208109,5498.104453,3976.285932,42345.357519,43301.162815,43137.212770,0.090000,0.950000,0.202000,192.000000,2.000000,208.000000,29.000000,176.000000,6.000000,80.000000,0.000000,0.000000,0.000000,1647845304.004976,0.000000
221.000000,20453.902537,15798.235333,11742.511301,5504.631162,3981.158612,42348.911446,43290.836309,43123.734668,0.090000,0.950000,0.202000,192.000000,0.000000,0.000000,0.000000,0.000000,0.000000,0.000000,0.000000,0.000000,0.000000,1647845304.013203,0.000000
222.000000,20441.430264,15788.020586,11729.502586,5491.398930,3968.284007,42339.657824,43316.920795,43150.400299,0.090000,0.950000,0.202000,192.000000,0.000000,0.000000,0.000000,0.000000,0.000000,0.000000,0.000000,0.000000,0.000000,1647845304.013214,0.000000
223.000000,20448.426360,15797.743594,11734.956412,5494.841098,3974.341330,42344.284635,43322.240510,43156.904657,0.090000,0.950000,0.202000,192.000000,0.000000,0.000000,0.000000,0.000000,0.000000,0.000000,0.000000,0.000000,0.000000,1647845304.020396,0.000000
224.000000,20471.046325,15801.744557,11731.938926,5499.624371,3980.868039,42345.782202,43325.325051,43160.682101,0.090000,0.950000,0.202000,192.000000,0.000000,0.000000,0.000000,0.000000,0.000000,0.000000,0.000000,0.000000,0.000000,1647845304.020412,0.000000
225.000000,20465.167816,15799.218810,11741.773694,5501.367808,3984.399615,42348.978501,43319.692411,43154.401261,0.090000,0.950000,0.202000,192.000000,0.000000,0.000000,0.000000,0.000000,0.000000,0.000000,0.000000,0.000000,0.000000,1647845304.028046,0.000000
226.000000,20457.970555,15809.925295,11754.849464,5504.988790,3992.178022,42356.466336,43310.930528,43144.074755,0.090000,0.950000,0.202000,192.000000,0.000000,0.000000,0.000000,0.000000,0.000000,0.000000,0.000000,0.000000,0.000000,1647845304.034593,0.000000
227.000000,20459.065790,15802.348054,11752.077848,5504.742921,3990.300475,42353.292388,43304.895557,43135.759906,0.090000,0.950000,0.202000,192.000000,0.000000,0.000000,0.000000,0.000000,0.000000,0.000000,0.000000,0.000000,0.000000,1647845304.034600,0.000000
228.000000,20462.083276,15800.582266,11738.599746,5501.591325,3982.052682,42345.245760,43325.481513,43151.339072,0.090000,0.950000,0.202000,192.000000,0.000000,0.000000,0.000000,0.000000,0.000000,0.000000,0.000000,0.000000,0.000000,1647845304.042624,0.000000
229.000000,20455.623621,15795.597827,11732.005981,5497.322142,3975.548324,42336.975615,43341.887694,43163.498421,0.090000,0.950000,0.202000,192.000000,0.000000,0.000000,0.000000,0.000000,0.000000,0.000000,0.000000,0.000000,0.000000,1647845304.042630,0.000000
230.000000,20459.624584,15794.346129,11737.772732,5497.120976,3974.162516,42335.098068,43336.590330,43154.267151,0.096000,0.950000,0.198000,192.000000,3.000000,0.000000,29.000000,176.000000,6.000000,48.000000,0.000000,0.000000,0.000000,1647845304.050640,0.000000
231.000000,20459.021087,15801.208115,11748.546272,5506.307543,3984.489022,42345.424574,43324.408629,43133.994118,0.096000,0.950000,0.198000,192.000000,0.000000,0.000000,0.000000,0.000000,0.000000,0.000000,0.000000,0.000000,0.000000,1647845304.050645,0.000000
232.000000,20455.891842,15806.259609,11753.173083,5505.435825,3989.071129,42350.543124,43339.004319,43137.928025,0.096000,0.950000,0.198000,192.000000,0.000000,0.000000,0.000000,0.000000,0.000000,0.000000,0.000000,0.000000,0.000000,1647845304.057699,0.000000
233.000000,20461.815055,15816.854336,11758.068115,5508.341552,3994.234382,42355.348749,43358.271522,43146.712261,0.096000,0.950000,0.198000,192.000000,0.000000,0.000000,0.000000,0.000000,0.000000,0.000000,0.000000,0.000000,0.000000,1647845304.057703,0.000000
234.000000,20462.999697,15810.528792,11752.860159,5510.912002,3993.876755,42353.672368,43368.329807,43155.496497,0.096000,0.950000,0.198000,192.000000,0.000000,0.000000,0.000000,0.000000,0.000000,0.000000,0.000000,0.000000,0.000000,1647845304.065153,0.000000
235.000000,20459.222252,15801.588094,11736.699848,5502.932430,3982.767938,42340.887170,43384.311305,43170.986256,0.096000,0.950000,0.198000,192.000000,0.000000,0.000000,0.000000,0.000000,0.000000,0.000000,0.000000,0.000000,0.000000,1647845304.065164,0.000000
236.000000,20462.329145,15812.808670,11749.976784,5518.064561,3992.423891,42348.933798,43377.985761,43166.001817,0.096000,0.950000,0.198000,192.000000,0.000000,0.000000,0.000000,0.000000,0.000000,0.000000,0.000000,0.000000,0.000000,1647845304.073432,0.000000
237.000000,20459.199901,15814.306237,11749.730915,5510.554375,3989.585220,42342.340033,43373.291895,43157.955189,0.096000,0.950000,0.198000,192.000000,0.000000,0.000000,0.000000,0.000000,0.000000,0.000000,0.000000,0.000000,0.000000,1647845304.073438,0.000000
238.000000,20458.730514,15808.897115,11743.159502,5501.300752,3981.158612,42332.549969,43367.793365,43152.456659,0.096000,0.950000,0.198000,192.000000,0.000000,0.000000,0.000000,0.000000,0.000000,0.000000,0.000000,0.000000,0.000000,1647845304.081412,0.000000
239.000000,20460.026915,15812.227525,11742.556005,5499.959648,3979.906914,42326.872626,43372.174307,43158.804555,0.096000,0.950000,0.198000,192.000000,0.000000,0.000000,0.000000,0.000000,0.000000,0.000000,0.000000,0.000000,0.000000,1647845304.081421,0.000000
240.000000,20457.724685,15806.125499,11738.935022,5493.008255,3973.469612,42323.922196,43369.782671,43161.330302,0.092000,0.958000,0.192000,192.000000,2.000000,224.000000,29.000000,240.000000,6.000000,0.000000,0.000000,0.000000,0.000000,1647845304.087534,0.000000
241.000000,20465.368982,15813.769795,11738.510339,5493.522345,3975.637731,42328.996042,43354.628188,43152.613122,0.092000,0.958000,0.192000,192.000000,0.000000,0.000000,0.000000,0.000000,0.000000,0.000000,0.000000,0.000000,0.000000,1647845304.095000,0.000000
242.000000,20473.348555,15823.515156,11740.901976,5493.455290,3978.230533,42335.835676,43351.901275,43147.114592,0.092000,0.958000,0.192000,192.000000,0.000000,0.000000,0.000000,0.000000,0.000000,0.000000,0.000000,0.000000,0.000000,1647845304.095011,0.000000
243.000000,20468.408819,15820.900002,11737.638621,5486.883877,3977.358815,42335.746269,43363.859458,43153.037805,0.092000,0.958000,0.192000,192.000000,0.000000,0.000000,0.000000,0.000000,0.000000,0.000000,0.000000,0.000000,0.000000,1647845304.103232,0.000000
244.000000,20472.365078,15830.041865,11749.485046,5499.087930,3988.020597,42346.452754,43359.746737,43145.929950,0.092000,0.958000,0.192000,192.000000,0.000000,0.000000,0.000000,0.000000,0.000000,0.000000,0.000000,0.000000,0.000000,1647845304.103247,0.000000
245.000000,20469.235834,15819.245973,11750.736743,5506.776930,3989.920496,42349.559647,43351.521295,43138.218598,0.092000,0.958000,0.192000,192.000000,0.000000,0.000000,0.000000,0.000000,0.000000,0.000000,0.000000,0.000000,0.000000,1647845304.110051,0.000000
246.000000,20470.375773,15823.269287,11757.576377,5517.304601,3998.481214,42353.739423,43342.602949,43129.546121,0.092000,0.958000,0.192000,192.000000,0.000000,0.000000,0.000000,0.000000,0.000000,0.000000,0.000000,0.000000,0.000000,1647845304.110062,0.000000
247.000000,20474.175569,15833.171109,11758.045764,5526.759389,4002.325714,42353.381795,43338.490228,43128.830865,0.092000,0.958000,0.192000,192.000000,0.000000,0.000000,0.000000,0.000000,0.000000,0.000000,0.000000,0.000000,0.000000,1647845304.117645,0.000000
248.000000,20477.170703,15842.156511,11753.709525,5524.434808,3999.487042,42341.490667,43343.899351,43140.632587,0.092000,0.958000,0.192000,192.000000,0.000000,0.000000,0.000000,0.000000,0.000000,0.000000,0.000000,0.000000,0.000000,1647845304.117657,0.000000
249.000000,20478.623566,15837.462644,11749.149769,5515.315296,3994.368493,42331.387679,43352.124793,43155.697662,0.092000,0.958000,0.192000,192.000000,0.000000,0.000000,0.000000,0.000000,0.000000,0.000000,0.000000,0.000000,0.000000,1647845304.125619,0.000000
250.000000,20479.092953,15833.193461,11750.602633,5519.204500,3998.704731,42337.288539,43343.787592,43153.261322,0.088000,0.960000,0.170000,192.000000,2.000000,192.000000,30.000000,0.000000,5.000000,80.000000,0.000000,0.000000,0.000000,1647845304.125628,0.000000
251.000000,20467.402991,15827.627877,11756.302328,5518.355133,4001.431644,42339.858990,43331.292967,43147.651034,0.088000,0.960000,0.170000,192.000000,0.000000,0.000000,0.000000,0.000000,0.000000,0.000000,0.000000,0.000000,0.000000,1647845304.133508,0.000000
252.000000,20464.854892,15827.002028,11759.945662,5517.103436,4003.622115,42340.484839,43316.786685,43132.943586,0.088000,0.960000,0.170000,192.000000,0.000000,0.000000,0.000000,0.000000,0.000000,0.000000,0.000000,0.000000,0.000000,1647845304.133515,0.000000
253.000000,20461.591537,15824.453929,11747.763961,5505.100549,3996.246039,42332.952301,43319.446542,43140.230255,0.088000,0.960000,0.170000,192.000000,0.000000,0.000000,0.000000,0.000000,0.000000,0.000000,0.000000,0.000000,0.000000,1647845304.140185,0.000000
254.000000,20460.965688,15823.962191,11741.281955,5499.602020,3988.758205,42331.745306,43322.553435,43150.377947,0.088000,0.960000,0.170000,192.000000,0.000000,0.000000,0.000000,0.000000,0.000000,0.000000,0.000000,0.000000,0.000000,1647845304.140191,0.000000
255.000000,20461.792703,15826.331476,11746.042877,5501.367808,3987.931190,42337.869684,43307.421304,43135.648148,0.088000,0.960000,0.170000,192.000000,0.000000,0.000000,0.000000,0.000000,0.000000,0.000000,0.000000,0.000000,0.000000,1647845304.147178,0.000000
0.000000,20472.275671,15833.998124,11754.782409,5503.804148,3992.602705,42342.943530,43287.438844,43114.503397,0.088000,0.960000,0.170000,192.000000,0.000000,0.000000,0.000000,0.000000,0.000000,0.000000,0.000000,0.000000,0.000000,1647845304.155089,0.000000
1.000000,20469.325241,15829.706589,11746.668726,5496.808052,3984.421967,42333.108763,43288.623487,43114.078714,0.088000,0.960000,0.170000,192.000000,0.000000,0.000000,0.000000,0.000000,0.000000,0.000000,0.000000,0.000000,0.000000,1647845304.155101,0.000000
2.000000,20466.575976,15826.622048,11742.086618,5490.169584,3978.856382,42326.358536,43295.641934,43120.672479,0.088000,0.960000,0.170000,192.000000,0.000000,0.000000,0.000000,0.000000,0.000000,0.000000,0.000000,0.000000,0.000000,1647845304.163239,0.000000
3.000000,20461.099799,15821.324685,11737.102179,5482.704101,3973.067280,42317.060210,43306.750751,43133.256511,0.088000,0.960000,0.170000,192.000000,0.000000,0.000000,0.000000,0.000000,0.000000,0.000000,0.000000,0.000000,0.000000,1647845304.163243,0.000000
4.000000,20460.853930,15822.419920,11738.912670,5484.693406,3973.916647,42313.215710,43309.723533,43137.659805,0.090000,0.972000,0.158000,192.000000,2.000000,208.000000,30.000000,96.000000,4.000000,240.000000,0.000000,0.000000,0.000000,1647845304.169807,0.000000
5.000000,20463.044401,15821.548202,11743.248909,5488.761424,3977.805850,42311.159350,43303.509748,43128.093258,0.090000,0.972000,0.158000,192.000000,0.000000,0.000000,0.000000,0.000000,0.000000,0.000000,0.000000,0.000000,0.000000,1647845304.169812,0.000000
6.000000,20463.379677,15820.497670,11744.947641,5490.527211,3979.817507,42309.415914,43304.962612,43128.115610,0.090000,0.972000,0.158000,192.000000,0.000000,0.000000,0.000000,0.000000,0.000000,0.000000,0.000000,0.000000,0.000000,1647845304.177965,0.000000
7.000000,20469.593462,15828.678409,11747.942775,5496.338665,3985.405443,42313.103952,43308.181263,43132.831828,0.090000,0.972000,0.158000,192.000000,0.000000,0.000000,0.000000,0.000000,0.000000,0.000000,0.000000,0.000000,0.000000,1647845304.177974,0.000000
8.000000,20468.855854,15829.058388,11743.517130,5491.510688,3981.359778,42309.639431,43310.707010,43140.029089,0.090000,0.972000,0.158000,192.000000,0.000000,0.000000,0.000000,0.000000,0.000000,0.000000,0.000000,0.000000,0.000000,1647845304.186122,0.000000
9.000000,20473.013279,15836.300354,11754.983575,5500.540793,3989.451109,42314.713277,43292.512690,43125.858083,0.090000,0.972000,0.158000,192.000000,0.000000,0.000000,0.000000,0.000000,0.000000,0.000000,0.000000,0.000000,0.000000,1647845304.186138,0.000000
10.000000,20475.181398,15838.759045,11761.353822,5506.106377,3995.620191,42314.534463,43281.470928,43115.531578,0.090000,0.972000,0.158000,192.000000,0.000000,0.000000,0.000000,0.000000,0.000000,0.000000,0.000000,0.000000,0.000000,1647845304.192991,0.000000
11.000000,20473.437962,15835.562746,11758.828075,5502.395988,3992.669760,42308.924175,43278.229925,43110.457732,0.090000,0.972000,0.158000,192.000000,0.000000,0.000000,0.000000,0.000000,0.000000,0.000000,0.000000,0.000000,0.000000,1647845304.193001,0.000000
12.000000,20483.563302,15844.503444,11760.012717,5501.814842,3995.351970,42312.254585,43274.675998,43104.378057,0.090000,0.972000,0.158000,192.000000,0.000000,0.000000,0.000000,0.000000,0.000000,0.000000,0.000000,0.000000,0.000000,1647845304.200637,0.000000
13.000000,20474.622604,15843.654077,11747.965127,5485.453365,3984.332560,42306.063152,43277.022931,43106.769694,0.090000,0.972000,0.158000,192.000000,0.000000,0.000000,0.000000,0.000000,0.000000,0.000000,0.000000,0.000000,0.000000,1647845304.200649,0.000000
14.000000,20471.448656,15840.949516,11747.093409,5482.279418,3978.454051,42303.380943,43272.709045,43103.372229,0.090000,0.984000,0.150000,192.000000,2.000000,208.000000,30.000000,192.000000,4.000000,176.000000,0.000000,0.000000,0.000000,1647845304.207722,0.000000
15.000000,20477.148351,15845.285755,11748.613328,5491.130709,3981.940923,42308.298327,43257.755728,43089.424740,0.090000,0.984000,0.150000,192.000000,0.000000,0.000000,0.000000,0.000000,0.000000,0.000000,0.000000,0.000000,0.000000,1647845304.215638,0.000000
16.000000,20479.338822,15845.017534,11750.982612,5495.757520,3984.287856,42310.399391,43255.542905,43086.407255,0.090000,0.984000,0.150000,192.000000,0.000000,0.000000,0.000000,0.000000,0.000000,0.000000,0.000000,0.000000,0.000000,1647845304.215650,0.000000
17.000000,20474.734363,15840.010743,11746.176987,5488.426148,3978.565810,42303.358591,43264.617713,43096.823167,0.090000,0.984000,0.150000,192.000000,0.000000,0.000000,0.000000,0.000000,0.000000,0.000000,0.000000,0.000000,0.000000,1647845304.222479,0.000000
18.000000,20465.726610,15835.227470,11741.617232,5479.194877,3971.100327,42293.032085,43274.094853,43109.273089,0.090000,0.984000,0.150000,192.000000,0.000000,0.000000,0.000000,0.000000,0.000000,0.000000,0.000000,0.000000,0.000000,1647845304.222491,0.000000
19.000000,20464.407857,15839.004915,11748.345107,5481.005368,3975.235400,42298.798835,43266.472908,43101.874662,0.090000,0.984000,0.150000,192.000000,0.000000,0.000000,0.000000,0.000000,0.000000,0.000000,0.000000,0.000000,0.000000,1647845304.230288,0.000000
20.000000,20471.359250,15840.077798,11754.000098,5491.018950,3982.387958,42307.068981,43260.192068,43089.245926,0.090000,0.984000,0.150000,192.000000,0.000000,0.000000,0.000000,0.000000,0.000000,0.000000,0.000000,0.000000,0.000000,1647845304.230299,0.000000
21.000000,20471.985098,15846.358639,11758.425743,5496.718645,3987.171231,42311.382867,43269.915076,43094.208013,0.090000,0.984000,0.150000,192.000000,0.000000,0.000000,0.000000,0.000000,0.000000,0.000000,0.000000,0.000000,0.000000,1647845304.238242,0.000000
22.000000,20481.641052,15857.534511,11765.690060,5506.307543,3997.810662,42315.584995,43273.044321,43092.844557,0.090000,0.984000,0.150000,192.000000,0.000000,0.000000,0.000000,0.000000,0.000000,0.000000,0.000000,0.000000,0.000000,1647845304.238266,0.000000
23.000000,20479.137657,15862.451895,11764.348956,5505.324066,3996.558964,42311.226405,43270.272704,43087.860118,0.090000,0.984000,0.150000,192.000000,0.000000,0.000000,0.000000,0.000000,0.000000,0.000000,0.000000,0.000000,0.000000,1647845304.245615,0.000000
24.000000,20480.702279,15851.141912,11762.404354,5510.353209,3997.855365,42312.053420,43260.057957,43077.488908,0.088000,0.990000,0.146000,192.000000,2.000000,192.000000,30.000000,240.000000,4.000000,144.000000,0.000000,0.000000,0.000000,1647845304.245627,0.000000
25.000000,20477.729497,15834.780435,11762.337299,5509.570898,3997.229516,42310.354687,43249.552637,43073.912629,0.088000,0.990000,0.146000,192.000000,0.000000,0.000000,0.000000,0.000000,0.000000,0.000000,0.000000,0.000000,0.000000,1647845304.252954,0.000000
26.000000,20469.638165,15828.521946,11763.119610,5509.727360,3994.502603,42302.933908,43243.584722,43071.699807,0.088000,0.990000,0.146000,192.000000,0.000000,0.000000,0.000000,0.000000,0.000000,0.000000,0.000000,0.000000,0.000000,1647845304.252965,0.000000
27.000000,20472.052154,15833.819310,11759.632738,5507.268668,3991.619228,42298.530614,43245.439916,43071.185717,0.088000,0.990000,0.146000,192.000000,0.000000,0.000000,0.000000,0.000000,0.000000,0.000000,0.000000,0.000000,0.000000,1647845304.260969,0.000000
28.000000,20468.654688,15833.841662,11748.814493,5491.913020,3980.353949,42288.338219,43250.849038,43079.768786,0.088000,0.990000,0.146000,192.000000,0.000000,0.000000,0.000000,0.000000,0.000000,0.000000,0.000000,0.000000,0.000000,1647845304.260983,0.000000
29.000000,20466.553624,15836.970906,11750.490874,5488.381444,3977.559981,42288.226460,43254.671187,43089.871775,0.088000,0.990000,0.146000,192.000000,0.000000,0.000000,0.000000,0.000000,0.000000,0.000000,0.000000,0.000000,0.000000,1647845304.268134,0.000000
30.000000,20468.632337,15832.165281,11748.099237,5486.928581,3975.391862,42286.348913,43244.501143,43082.406292,0.088000,0.990000,0.146000,192.000000,0.000000,0.000000,0.000000,0.000000,0.000000,0.000000,0.000000,0.000000,0.000000,1647845304.268150,0.000000
31.000000,20470.375773,15830.980638,11752.256662,5493.522345,3979.214010,42293.255603,43239.449649,43074.180850,0.088000,0.990000,0.146000,192.000000,0.000000,0.000000,0.000000,0.000000,0.000000,0.000000,0.000000,0.000000,0.000000,1647845304.275226,0.000000
32.000000,20467.648860,15829.974810,11748.479217,5490.616618,3975.056586,42294.149672,43237.661509,43070.381054,0.088000,0.990000,0.146000,192.000000,0.000000,0.000000,0.000000,0.000000,0.000000,0.000000,0.000000,0.000000,0.000000,1647845304.282455,0.000000
33.000000,20465.570148,15836.300354,11749.663860,5487.286209,3977.962312,42299.067056,43238.242655,43073.577353,0.088000,0.990000,0.146000,192.000000,0.000000,0.000000,0.000000,0.000000,0.000000,0.000000,0.000000,0.000000,0.000000,1647845304.282463,0.000000
34.000000,20467.559453,15837.641458,11754.894168,5490.750729,3981.136260,42305.347896,43228.564349,43065.262504,0.082000,0.986000,0.144000,192.000000,2.000000,144.000000,30.000000,208.000000,4.000000,128.000000,0.000000,0.000000,0.000000,1647845304.290430,0.000000
35.000000,20462.954994,15835.339229,11758.962185,5498.707950,3981.158612,42307.694829,43220.942404,43057.461745,0.082000,0.986000,0.144000,192.000000,0.000000,0.000000,0.000000,0.000000,0.000000,0.000000,0.000000,0.000000,0.000000,1647845304.290435,0.000000
36.000000,20455.333049,15833.126406,11763.074906,5496.293962,3979.549286,42300.430512,43219.489541,43049.884504,0.082000,0.986000,0.144000,192.000000,0.000000,0.000000,0.000000,0.000000,0.000000,0.000000,0.000000,0.000000,0.000000,1647845304.298686,0.000000
37.000000,20461.770351,15839.407246,11762.091429,5498.484433,3982.633827,42298.709428,43222.439971,43045.458859,0.082000,0.986000,0.144000,192.000000,0.000000,0.000000,0.000000,0.000000,0.000000,0.000000,0.000000,0.000000,0.000000,1647845304.298695,0.000000
38.000000,20461.636241,15830.466548,11750.490874,5489.946066,3976.218876,42288.584088,43244.434088,43066.357740,0.082000,0.986000,0.144000,192.000000,0.000000,0.000000,0.000000,0.000000,0.000000,0.000000,0.000000,0.000000,0.000000,1647845304.305428,0.000000
39.000000,20466.106590,15829.818348,11748.389810,5493.879973,3977.962312,42284.940754,43247.183352,43069.419929,0.082000,0.986000,0.144000,192.000000,0.000000,0.000000,0.000000,0.000000,0.000000,0.000000,0.000000,0.000000,0.000000,1647845304.305445,0.000000
40.000000,20470.599290,15836.278002,11747.160464,5491.153060,3976.688263,42282.772634,43234.308748,43056.008882,0.082000,0.986000,0.144000,192.000000,0.000000,0.000000,0.000000,0.000000,0.000000,0.000000,0.000000,0.000000,0.000000,1647845304.313428,0.000000
41.000000,20480.277596,15845.397514,11752.189607,5495.981037,3982.007978,42291.199242,43227.223245,43046.464687,0.082000,0.986000,0.144000,192.000000,0.000000,0.000000,0.000000,0.000000,0.000000,0.000000,0.000000,0.000000,0.000000,1647845304.313439,0.000000
42.000000,20463.245566,15833.238165,11754.670650,5497.545659,3984.198449,42286.661838,43234.353451,43051.516181,0.082000,0.986000,0.144000,192.000000,0.000000,0.000000,0.000000,0.000000,0.000000,0.000000,0.000000,0.000000,0.000000,1647845304.321355,0.000000
43.000000,20453.790778,15824.610391,11755.050630,5497.992694,3982.902048,42281.565640,43244.054108,43057.305283,0.082000,0.986000,0.144000,192.000000,0.000000,0.000000,0.000000,0.000000,0.000000,0.000000,0.000000,0.000000,0.000000,1647845304.321388,0.000000
44.000000,20455.891842,15830.399493,11760.012717,5499.244392,3984.913705,42284.873698,43246.222227,43059.741623,0.082000,0.986000,0.144000,192.000000,0.000000,0.000000,0.000000,0.000000,0.000000,0.000000,0.000000,0.000000,0.000000,1647845304.328516,0.000000
45.000000,20453.410799,15830.421845,11759.073944,5494.997560,3983.796118,42283.644352,43235.024003,43053.796059,0.080000,0.982000,0.148000,192.000000,2.000000,128.000000,30.000000,176.000000,4.000000,160.000000,0.000000,0.000000,0.000000,1647845304.328532,0.000000
46.000000,20465.503092,15841.038923,11769.445153,5505.346418,3995.284914,42295.893108,43218.506064,43035.087649,0.080000,0.982000,0.148000,192.000000,0.000000,0.000000,0.000000,0.000000,0.000000,0.000000,0.000000,0.000000,0.000000,1647845304.335106,0.000000
47.000000,20466.061886,15844.771665,11763.588996,5499.490261,3991.172193,42291.199242,43237.862675,43050.331539,0.080000,0.982000,0.148000,192.000000,0.000000,0.000000,0.000000,0.000000,0.000000,0.000000,0.000000,0.000000,0.000000,1647845304.343043,0.000000
48.000000,20462.865587,15841.821234,11758.671613,5497.590363,3985.360740,42290.483986,43244.009405,43056.746490,0.080000,0.982000,0.148000,192.000000,0.000000,0.000000,0.000000,0.000000,0.000000,0.000000,0.000000,0.000000,0.000000,1647845304.343060,0.000000
49.000000,20465.950127,15846.336287,11763.633700,5504.318238,3989.026426,42297.949469,43222.059992,43029.499713,0.080000,0.982000,0.148000,192.000000,0.000000,0.000000,0.000000,0.000000,0.000000,0.000000,0.000000,0.000000,0.000000,1647845304.350891,0.000000
50.000000,20463.312622,15844.279926,11756.503493,5495.422244,3981.985626,42298.597669,43218.684878,43023.643556,0.080000,0.982000,0.148000,192.000000,0.000000,0.000000,0.000000,0.000000,0.000000,0.000000,0.000000,0.000000,0.000000,1647845304.350907,0.000000
51.000000,20476.678965,15849.219662,11766.092392,5507.000447,3990.769862,42312.343992,43214.572157,43014.211120,0.080000,0.982000,0.148000,192.000000,0.000000,0.000000,0.000000,0.000000,0.000000,0.000000,0.000000,0.000000,0.000000,1647845304.357520,0.000000
52.000000,20473.259148,15842.134159,11763.074906,5505.033494,3988.579391,42307.516015,43230.352489,43028.516236,0.080000,0.982000,0.148000,192.000000,0.000000,0.000000,0.000000,0.000000,0.000000,0.000000,0.000000,0.000000,0.000000,1647845304.357537,0.000000
53.000000,20460.317488,15823.001066,11745.193511,5493.991732,3975.794193,42290.707504,43252.614826,43051.896161,0.080000,0.982000,0.148000,192.000000,0.000000,0.000000,0.000000,0.000000,0.000000,0.000000,0.000000,0.000000,0.000000,1647845304.365734,0.000000
54.000000,20465.883072,15828.834871,11762.896092,5507.559241,3986.791252,42298.687076,43248.323291,43047.001129,0.080000,0.982000,0.148000,192.000000,0.000000,0.000000,0.000000,0.000000,0.000000,0.000000,0.000000,0.000000,0.000000,1647845304.365751,0.000000
55.000000,20463.759656,15827.985505,11761.376174,5503.021837,3984.086690,42293.613230,43241.036623,43041.234379,0.080000,0.980000,0.158000,192.000000,2.000000,128.000000,30.000000,160.000000,4.000000,240.000000,0.000000,0.000000,0.000000,1647845304.373641,0.000000
56.000000,20463.022049,15829.259554,11762.471409,5503.759444,3987.014769,42295.982515,43238.935559,43034.528856,0.080000,0.980000,0.158000,192.000000,0.000000,0.000000,0.000000,0.000000,0.000000,0.000000,0.000000,0.000000,0.000000,1647845304.373653,0.000000
57.000000,20472.052154,15841.418903,11775.033090,5515.047075,3999.710560,42307.784236,43242.377727,43027.197483,0.080000,0.980000,0.158000,192.000000,0.000000,0.000000,0.000000,0.000000,0.000000,0.000000,0.000000,0.000000,0.000000,1647845304.380814,0.000000
58.000000,20466.888901,15843.899947,11768.931063,5507.469834,3993.429720,42304.498530,43261.980207,43038.753335,0.080000,0.980000,0.158000,192.000000,0.000000,0.000000,0.000000,0.000000,0.000000,0.000000,0.000000,0.000000,0.000000,1647845304.380830,0.000000
59.000000,20466.643031,15849.420828,11770.406278,5507.469834,3991.887449,42310.935832,43256.481678,43027.309242,0.080000,0.980000,0.158000,192.000000,0.000000,0.000000,0.000000,0.000000,0.000000,0.000000,0.000000,0.000000,0.000000,1647845304.388309,0.000000
60.000000,20460.742171,15842.000048,11764.483066,5502.463043,3984.399615,42309.304155,43252.614826,43019.910815,0.080000,0.980000,0.158000,192.000000,0.000000,0.000000,0.000000,0.000000,0.000000,0.000000,0.000000,0.000000,0.000000,1647845304.388326,0.000000
61.000000,20457.724685,15828.745464,11760.839732,5498.618543,3981.136260,42304.677344,43255.297036,43017.832103,0.080000,0.980000,0.158000,192.000000,0.000000,0.000000,0.000000,0.000000,0.000000,0.000000,0.000000,0.000000,0.000000,1647845304.395073,0.000000
62.000000,20457.903499,15827.002028,11759.319813,5498.082101,3981.248019,42305.236138,43273.290190,43036.451106,0.080000,0.980000,0.158000,192.000000,0.000000,0.000000,0.000000,0.000000,0.000000,0.000000,0.000000,0.000000,0.000000,1647845304.403327,0.000000
63.000000,20459.177549,15833.282868,11766.494723,5507.045151,3986.791252,42308.253623,43267.746957,43031.064335,0.080000,0.980000,0.158000,192.000000,0.000000,0.000000,0.000000,0.000000,0.000000,0.000000,0.000000,0.000000,0.000000,1647845304.403338,0.000000
64.000000,20473.482665,15848.146778,11773.043784,5518.221023,3998.637676,42313.729800,43253.933579,43015.708687,0.080000,0.980000,0.158000,192.000000,0.000000,0.000000,0.000000,0.000000,0.000000,0.000000,0.000000,0.000000,0.000000,1647845304.410267,0.000000
65.000000,20477.908311,15854.114694,11775.748345,5519.629183,4001.431644,42311.695792,43248.300940,43008.846701,0.078000,0.970000,0.162000,192.000000,2.000000,112.000000,30.000000,80.000000,5.000000,16.000000,0.000000,0.000000,0.000000,1647845304.410290,0.000000
66.000000,20471.336898,15847.364467,11774.764869,5519.718590,4000.247002,42310.041763,43253.419489,43010.657193,0.078000,0.970000,0.162000,192.000000,0.000000,0.000000,0.000000,0.000000,0.000000,0.000000,0.000000,0.000000,0.000000,1647845304.417725,0.000000
67.000000,20456.785912,15828.052560,11766.159447,5511.336686,3993.764996,42308.566547,43271.971437,43027.510408,0.078000,0.970000,0.162000,192.000000,0.000000,0.000000,0.000000,0.000000,0.000000,0.000000,0.000000,0.000000,0.000000,1647845304.417743,0.000000
68.000000,20452.337915,15816.630818,11764.036031,5504.519404,3990.546345,42310.600556,43278.185222,43026.862207,0.078000,0.970000,0.162000,192.000000,0.000000,0.000000,0.000000,0.000000,0.000000,0.000000,0.000000,0.000000,0.000000,1647845304.426077,0.000000
69.000000,20442.033761,15811.489917,11755.363554,5492.449462,3981.248019,42301.883376,43275.346550,43022.637728,0.078000,0.970000,0.162000,192.000000,0.000000,0.000000,0.000000,0.000000,0.000000,0.000000,0.000000,0.000000,0.000000,1647845304.426092,0.000000
70.000000,20438.166909,15807.533658,11750.334412,5485.475717,3976.509449,42300.922251,43265.176507,43014.367582,0.078000,0.970000,0.162000,192.000000,0.000000,0.000000,0.000000,0.000000,0.000000,0.000000,0.000000,0.000000,0.000000,1647845304.433724,0.000000
71.000000,20445.185357,15819.022455,11758.381040,5493.611752,3984.958408,42310.444094,43266.361149,43016.446294,0.078000,0.970000,0.162000,192.000000,0.000000,0.000000,0.000000,0.000000,0.000000,0.000000,0.000000,0.000000,0.000000,1647845304.433735,0.000000
72.000000,20452.539081,15831.941763,11768.551084,5503.200651,3993.206202,42320.569434,43269.244524,43017.809751,0.078000,0.970000,0.162000,192.000000,0.000000,0.000000,0.000000,0.000000,0.000000,0.000000,0.000000,0.000000,0.000000,1647845304.441772,0.000000
73.000000,20457.009430,15833.260516,11774.563703,5507.201613,3996.022522,42324.391583,43267.143460,43011.841835,0.078000,0.970000,0.162000,192.000000,0.000000,0.000000,0.000000,0.000000,0.000000,0.000000,0.000000,0.000000,0.000000,1647845304.441783,0.000000
74.000000,20455.780084,15832.589964,11772.864970,5511.247279,3995.799005,42322.894016,43265.981169,43013.831140,0.078000,0.970000,0.162000,192.000000,0.000000,0.000000,0.000000,0.000000,0.000000,0.000000,0.000000,0.000000,0.000000,1647845304.449715,0.000000
75.000000,20459.088142,15833.394627,11773.960206,5516.321125,3999.755263,42323.609271,43255.609960,43003.348172,0.078000,0.966000,0.170000,192.000000,2.000000,112.000000,30.000000,48.000000,5.000000,80.000000,0.000000,0.000000,0.000000,1647845304.449726,0.000000
76.000000,20455.377752,15828.566650,11768.372270,5513.124825,3996.357798,42313.886263,43255.073518,43005.337477,0.078000,0.966000,0.170000,192.000000,0.000000,0.000000,0.000000,0.000000,0.000000,0.000000,0.000000,0.000000,0.000000,1647845304.455749,0.000000
77.000000,20462.686773,15837.306182,11779.145811,5522.981944,4007.220746,42322.715202,43242.981224,42992.373466,0.078000,0.966000,0.170000,192.000000,0.000000,0.000000,0.000000,0.000000,0.000000,0.000000,0.000000,0.000000,0.000000,1647845304.462816,0.000000
78.000000,20449.320429,15823.761025,11763.499589,5503.759444,3991.708635,42309.170045,43258.292169,43009.003163,0.078000,0.966000,0.170000,192.000000,0.000000,0.000000,0.000000,0.000000,0.000000,0.000000,0.000000,0.000000,0.000000,1647845304.462831,0.000000
79.000000,20449.476892,15817.994275,11764.885398,5504.899383,3991.373359,42309.058286,43252.190143,42999.682486,0.078000,0.966000,0.170000,192.000000,0.000000,0.000000,0.000000,0.000000,0.000000,0.000000,0.000000,0.000000,0.000000,1647845304.470104,0.000000
80.000000,20455.020124,15820.810595,11762.024374,5506.665171,3991.641580,42309.482969,43246.199876,42991.434692,0.078000,0.966000,0.170000,192.000000,0.000000,0.000000,0.000000,0.000000,0.000000,0.000000,0.000000,0.000000,0.000000,1647845304.470121,0.000000
81.000000,20451.645011,15828.343133,11770.160409,5510.040284,3997.430682,42314.735629,43241.215437,42987.724303,0.078000,0.966000,0.170000,192.000000,0.000000,0.000000,0.000000,0.000000,0.000000,0.000000,0.000000,0.000000,0.000000,1647845304.478029,0.000000
82.000000,20449.521595,15828.432540,11770.830962,5506.665171,3999.911726,42321.262338,43251.027852,42996.799111,0.078000,0.966000,0.170000,192.000000,0.000000,0.000000,0.000000,0.000000,0.000000,0.000000,0.000000,0.000000,0.000000,1647845304.478040,0.000000
83.000000,20449.968630,15823.828080,11764.706584,5502.351284,3995.888412,42318.848350,43262.114318,43007.952631,0.078000,0.966000,0.170000,192.000000,0.000000,0.000000,0.000000,0.000000,0.000000,0.000000,0.000000,0.000000,0.000000,1647845304.486161,0.000000
84.000000,20450.505072,15832.254688,11770.652148,5504.921735,3999.665856,42328.839580,43264.707120,43010.903062,0.078000,0.966000,0.170000,192.000000,0.000000,0.000000,0.000000,0.000000,0.000000,0.000000,0.000000,0.000000,0.000000,1647845304.486172,0.000000
85.000000,20452.069694,15837.462644,11770.071002,5502.395988,3998.816490,42325.620928,43258.962722,43012.110056,0.078000,0.960000,0.182000,192.000000,2.000000,112.000000,30.000000,0.000000,5.000000,176.000000,0.000000,0.000000,0.000000,1647845304.492859,0.000000
86.000000,20446.012371,15824.610391,11760.459752,5495.981037,3991.149842,42313.461579,43258.515687,43008.623184,0.078000,0.960000,0.182000,192.000000,0.000000,0.000000,0.000000,0.000000,0.000000,0.000000,0.000000,0.000000,0.000000,1647845304.492883,0.000000
87.000000,20445.431226,15822.844603,11760.996194,5494.818746,3991.440414,42308.879472,43257.442803,42999.369562,0.078000,0.960000,0.182000,192.000000,0.000000,0.000000,0.000000,0.000000,0.000000,0.000000,0.000000,0.000000,0.000000,1647845304.500771,0.000000
88.000000,20446.012371,15824.722150,11761.577339,5499.177337,3992.937981,42306.532539,43260.661454,43001.828253,0.078000,0.960000,0.182000,192.000000,0.000000,0.000000,0.000000,0.000000,0.000000,0.000000,0.000000,0.000000,0.000000,1647845304.500784,0.000000
89.000000,20447.442883,15827.829042,11769.221636,5509.347380,4001.006961,42309.192396,43252.704233,42996.396780,0.078000,0.960000,0.182000,192.000000,0.000000,0.000000,0.000000,0.000000,0.000000,0.000000,0.000000,0.000000,0.000000,1647845304.509375,0.000000
90.000000,20448.381656,15825.571516,11769.623967,5511.291982,4003.711522,42308.521844,43253.397137,42996.732056,0.078000,0.960000,0.182000,192.000000,0.000000,0.000000,0.000000,0.000000,0.000000,0.000000,0.000000,0.000000,0.000000,1647845304.509386,0.000000
91.000000,20449.901575,15826.175013,11772.283825,5511.962534,4006.773711,42307.448960,43256.056995,42997.201442,0.078000,0.960000,0.182000,192.000000,0.000000,0.000000,0.000000,0.000000,0.000000,0.000000,0.000000,0.000000,0.000000,1647845304.515684,0.000000
92.000000,20449.789816,15828.968981,11773.803744,5511.023761,4008.248926,42304.632640,43265.467079,43004.354001,0.078000,0.960000,0.182000,192.000000,0.000000,0.000000,0.000000,0.000000,0.000000,0.000000,0.000000,0.000000,0.000000,1647845304.515695,0.000000
93.000000,20456.562395,15833.953420,11773.781392,5515.360000,4012.093426,42305.772579,43268.305751,43009.092570,0.078000,0.960000,0.182000,192.000000,0.000000,0.000000,0.000000,0.000000,0.000000,0.000000,0.000000,0.000000,0.000000,1647845304.523097,0.000000
94.000000,20453.321392,15830.086569,11769.154581,5511.448444,4006.818415,42304.051495,43263.120146,43004.018724,0.078000,0.960000,0.182000,192.000000,0.000000,0.000000,0.000000,0.000000,0.000000,0.000000,0.000000,0.000000,0.000000,1647845304.530162,0.000000
95.000000,20444.000714,15825.437406,11760.996194,5501.747787,3997.207164,42292.965030,43257.286341,42999.928355,0.082000,0.950000,0.194000,192.000000,2.000000,144.000000,29.000000,176.000000,6.000000,16.000000,0.000000,0.000000,0.000000,1647845304.530178,0.000000
96.000000,20442.056113,15824.163356,11755.855293,5497.992694,3992.490946,42293.836748,43258.381576,43000.151873,0.082000,0.950000,0.194000,192.000000,0.000000,0.000000,0.000000,0.000000,0.000000,0.000000,0.000000,0.000000,0.000000,1647845304.537669,0.000000
97.000000,20450.438017,15827.851394,11760.593863,5502.954781,3996.156632,42301.928079,43266.450556,43002.364695,0.082000,0.950000,0.194000,192.000000,0.000000,0.000000,0.000000,0.000000,0.000000,0.000000,0.000000,0.000000,0.000000,1647845304.537686,0.000000
98.000000,20451.555604,15836.009781,11760.884435,5501.613677,3994.390845,42302.799797,43281.806205,43017.563882,0.082000,0.950000,0.194000,192.000000,0.000000,0.000000,0.000000,0.000000,0.000000,0.000000,0.000000,0.000000,0.000000,1647845304.545709,0.000000
99.000000,20447.375828,15834.400455,11758.381040,5499.780834,3991.663932,42298.955297,43283.728455,43013.652326,0.082000,0.950000,0.194000,192.000000,0.000000,0.000000,0.000000,0.000000,0.000000,0.000000,0.000000,0.000000,0.000000,1647845304.545725,0.000000
100.000000,20444.380694,15829.572478,11760.593863,5502.708912,3993.273257,42299.961126,43269.915076,42999.548376,0.082000,0.950000,0.194000,192.000000,0.000000,0.000000,0.000000,0.000000,0.000000,0.000000,0.000000,0.000000,0.000000,1647845304.553646,0.000000
101.000000,20435.618810,15817.994275,11754.402429,5496.249258,3987.864135,42291.646277,43271.032664,42998.475492,0.082000,0.950000,0.194000,192.000000,0.000000,0.000000,0.000000,0.000000,0.000000,0.000000,0.000000,0.000000,0.000000,1647845304.553657,0.000000
102.000000,20442.771368,15824.029246,11759.051592,5500.898421,3993.832051,42299.491739,43288.489376,43015.999259,0.082000,0.950000,0.194000,192.000000,0.000000,0.000000,0.000000,0.000000,0.000000,0.000000,0.000000,0.000000,0.000000,1647845304.560441,0.000000
103.000000,20441.877299,15823.895135,11755.788238,5499.579668,3993.675589,42300.430512,43311.690487,43037.568693,0.082000,0.950000,0.194000,192.000000,0.000000,0.000000,0.000000,0.000000,0.000000,0.000000,0.000000,0.000000,0.000000,1647845304.560453,0.000000
104.000000,20443.754845,15827.046731,11756.190569,5503.312409,3995.396673,42302.732742,43301.363981,43026.303414,0.082000,0.950000,0.194000,192.000000,0.000000,0.000000,0.000000,0.000000,0.000000,0.000000,0.000000,0.000000,0.000000,1647845304.568521,0.000000
105.000000,20442.592554,15827.583173,11757.308156,5500.943124,3991.976856,42305.839635,43289.316391,43011.774780,0.090000,0.942000,0.204000,192.000000,2.000000,208.000000,29.000000,112.000000,6.000000,96.000000,0.000000,0.000000,0.000000,1647845304.568537,0.000000
106.000000,20432.511918,15817.346074,11752.346069,5495.779871,3982.544420,42299.156463,43310.863472,43032.785420,0.090000,0.942000,0.204000,192.000000,0.000000,0.000000,0.000000,0.000000,0.000000,0.000000,0.000000,0.000000,0.000000,1647845304.576521,0.000000
107.000000,20439.955049,15824.968019,11760.504456,5507.536889,3993.005036,42309.930004,43313.389219,43030.706707,0.090000,0.942000,0.204000,192.000000,0.000000,0.000000,0.000000,0.000000,0.000000,0.000000,0.000000,0.000000,0.000000,1647845304.576556,0.000000
108.000000,20443.821900,15832.992295,11757.397563,5505.860508,3991.820394,42310.175873,43318.440714,43031.086687,0.090000,0.942000,0.204000,192.000000,0.000000,0.000000,0.000000,0.000000,0.000000,0.000000,0.000000,0.000000,0.000000,1647845304.583697,0.000000
109.000000,20451.354438,15833.215813,11758.336336,5506.888688,3994.614362,42309.639431,43310.841121,43020.626071,0.090000,0.942000,0.204000,192.000000,0.000000,0.000000,0.000000,0.000000,0.000000,0.000000,0.000000,0.000000,0.000000,1647845304.589958,0.000000
110.000000,20452.829653,15830.131272,11755.631775,5502.865374,3994.100272,42305.839635,43315.177359,43024.783495,0.090000,0.942000,0.204000,192.000000,0.000000,0.000000,0.000000,0.000000,0.000000,0.000000,0.000000,0.000000,0.000000,1647845304.589975,0.000000
111.000000,20446.146482,15822.218755,11747.540444,5492.292999,3985.159574,42296.496605,43317.881920,43030.326728,0.090000,0.942000,0.204000,192.000000,0.000000,0.000000,0.000000,0.000000,0.000000,0.000000,0.000000,0.000000,0.000000,1647845304.597970,0.000000
112.000000,20442.994886,15822.844603,11745.752304,5494.125842,3982.007978,42295.423722,43328.163723,43041.144972,0.090000,0.942000,0.204000,192.000000,0.000000,0.000000,0.000000,0.000000,0.000000,0.000000,0.000000,0.000000,0.000000,1647845304.597987,0.000000
113.000000,20451.890880,15832.321743,11746.914595,5497.880935,3982.365606,42291.400408,43334.533970,43044.721251,0.090000,0.942000,0.204000,192.000000,0.000000,0.000000,0.000000,0.000000,0.000000,0.000000,0.000000,0.000000,0.000000,1647845304.606026,0.000000
114.000000,20453.455502,15831.762949,11745.908766,5498.082101,3982.030330,42295.021390,43335.025708,43050.286835,0.090000,0.942000,0.204000,192.000000,0.000000,0.000000,0.000000,0.000000,0.000000,0.000000,0.000000,0.000000,0.000000,1647845304.606043,0.000000
115.000000,20461.233909,15838.669638,11757.039935,5507.268668,3993.273257,42304.453826,43320.161798,43029.767934,0.086000,0.940000,0.214000,192.000000,2.000000,176.000000,29.000000,96.000000,6.000000,176.000000,0.000000,0.000000,0.000000,1647845304.613260,0.000000
116.000000,20458.171720,15835.428636,11751.295537,5499.914944,3988.780557,42300.408161,43332.544664,43035.668795,0.086000,0.940000,0.214000,192.000000,0.000000,0.000000,0.000000,0.000000,0.000000,0.000000,0.000000,0.000000,0.000000,1647845304.613271,0.000000
117.000000,20444.537156,15817.703702,11742.801874,5489.722549,3979.236362,42291.199242,43343.072336,43046.285873,0.086000,0.940000,0.214000,192.000000,0.000000,0.000000,0.000000,0.000000,0.000000,0.000000,0.000000,0.000000,0.000000,1647845304.620692,0.000000
118.000000,20439.575069,15810.528792,11741.125493,5483.531115,3975.213048,42289.522861,43345.307511,43049.325710,0.086000,0.940000,0.214000,192.000000,0.000000,0.000000,0.000000,0.000000,0.000000,0.000000,0.000000,0.000000,0.000000,1647845304.620703,0.000000
119.000000,20433.093063,15811.959304,11734.889356,5476.982054,3969.289836,42292.942678,43353.309435,43055.383033,0.086000,0.940000,0.214000,192.000000,0.000000,0.000000,0.000000,0.000000,0.000000,0.000000,0.000000,0.000000,0.000000,1647845304.628830,0.000000
120.000000,20441.296153,15819.625952,11743.450075,5490.795432,3980.644522,42305.258489,43345.285159,43046.665853,0.086000,0.940000,0.214000,192.000000,0.000000,0.000000,0.000000,0.000000,0.000000,0.000000,0.000000,0.000000,0.000000,1647845304.628846,0.000000
121.000000,20437.608115,15818.865993,11738.800912,5489.476680,3977.045891,42299.871719,43357.444508,43053.460783,0.086000,0.940000,0.214000,192.000000,0.000000,0.000000,0.000000,0.000000,0.000000,0.000000,0.000000,0.000000,0.000000,1647845304.635938,0.000000
122.000000,20445.051246,15826.800862,11743.561833,5494.751691,3982.231496,42302.978611,43366.899296,43064.077862,0.086000,0.940000,0.214000,192.000000,0.000000,0.000000,0.000000,0.000000,0.000000,0.000000,0.000000,0.000000,0.000000,1647845304.635954,0.000000
123.000000,20442.346685,15823.492804,11736.968069,5487.643836,3979.124603,42299.804664,43380.399749,43080.931077,0.086000,0.940000,0.214000,192.000000,0.000000,0.000000,0.000000,0.000000,0.000000,0.000000,0.000000,0.000000,0.000000,1647845304.642366,0.000000
124.000000,20452.449674,15830.041865,11749.149769,5497.120976,3987.350045,42309.974707,43371.950790,43073.353836,0.086000,0.940000,0.214000,192.000000,0.000000,0.000000,0.000000,0.000000,0.000000,0.000000,0.000000,0.000000,0.000000,1647845304.650179,0.000000
125.000000,20457.747037,15831.226508,11749.574453,5498.707950,3989.853441,42308.655954,43370.073243,43070.157536,0.088000,0.942000,0.220000,192.000000,2.000000,192.000000,29.000000,112.000000,6.000000,224.000000,0.000000,0.000000,0.000000,1647845304.650195,0.000000
126.000000,20450.125092,15822.911659,11737.973897,5484.291075,3977.783498,42289.992248,43389.496909,43088.664781,0.088000,0.942000,0.220000,192.000000,0.000000,0.000000,0.000000,0.000000,0.000000,0.000000,0.000000,0.000000,0.000000,1647845304.658079,0.000000
127.000000,20453.142578,15827.046731,11742.511301,5486.079214,3979.906914,42288.852309,43406.216014,43099.170101,0.088000,0.942000,0.220000,192.000000,0.000000,0.000000,0.000000,0.000000,0.000000,0.000000,0.000000,0.000000,0.000000,1647845304.658090,0.000000
128.000000,20442.257278,15816.943743,11734.062342,5480.290113,3971.502658,42275.709483,43422.264567,43108.781351,0.088000,0.942000,0.220000,192.000000,0.000000,0.000000,0.000000,0.000000,0.000000,0.000000,0.000000,0.000000,0.000000,1647845304.665509,0.000000
129.000000,20440.893822,15817.100205,11733.458845,5481.854735,3970.094498,42283.756111,43427.852503,43117.051496,0.088000,0.942000,0.220000,192.000000,0.000000,0.000000,0.000000,0.000000,0.000000,0.000000,0.000000,0.000000,0.000000,1647845304.665533,0.000000
130.000000,20451.041514,15831.561784,11737.213938,5484.894572,3975.615379,42295.222556,43429.551235,43131.580130,0.088000,0.942000,0.220000,192.000000,0.000000,0.000000,0.000000,0.000000,0.000000,0.000000,0.000000,0.000000,0.000000,1647845304.672889,0.000000
131.000000,20459.512825,15842.782359,11739.560871,5486.861525,3980.488060,42297.278917,43421.728125,43125.321642,0.088000,0.942000,0.220000,192.000000,0.000000,0.000000,0.000000,0.000000,0.000000,0.000000,0.000000,0.000000,0.000000,1647845304.672900,0.000000
132.000000,20448.627525,15833.573441,11732.788293,5481.944142,3977.559981,42288.494681,43425.773791,43127.757982,0.088000,0.942000,0.220000,192.000000,0.000000,0.000000,0.000000,0.000000,0.000000,0.000000,0.000000,0.000000,0.000000,1647845304.681087,0.000000
133.000000,20437.295191,15821.481147,11734.598784,5481.072424,3974.654254,42283.465538,43420.230558,43122.862950,0.088000,0.942000,0.220000,192.000000,0.000000,0.000000,0.000000,0.000000,0.000000,0.000000,0.000000,0.000000,0.000000,1647845304.681102,0.000000
134.000000,20436.825804,15821.212926,11728.764979,5479.664264,3970.072147,42284.314905,43420.275261,43131.624834,0.088000,0.942000,0.220000,192.000000,0.000000,0.000000,0.000000,0.000000,0.000000,0.000000,0.000000,0.000000,0.000000,1647845304.688846,0.000000
135.000000,20443.039589,15823.515156,11731.938926,5483.575819,3972.575542,42289.969896,43408.808817,43131.513075,0.088000,0.942000,0.220000,192.000000,0.000000,0.000000,0.000000,0.000000,0.000000,0.000000,0.000000,0.000000,0.000000,1647845304.688856,0.000000
136.000000,20448.336953,15823.582211,11741.013734,5490.393101,3978.968141,42294.484948,43392.827319,43119.085505,0.082000,0.940000,0.210000,192.000000,2.000000,144.000000,29.000000,96.000000,6.000000,144.000000,0.000000,0.000000,0.000000,1647845304.695368,0.000000
137.000000,20453.433150,15827.717284,11745.372325,5495.869278,3984.176097,42293.389713,43384.244249,43114.056362,0.082000,0.940000,0.210000,192.000000,0.000000,0.000000,0.000000,0.000000,0.000000,0.000000,0.000000,0.000000,0.000000,1647845304.695375,0.000000
138.000000,20451.801473,15828.589002,11740.097313,5486.727415,3979.392824,42283.934925,43386.054741,43115.755095,0.082000,0.940000,0.210000,192.000000,0.000000,0.000000,0.000000,0.000000,0.000000,0.000000,0.000000,0.000000,0.000000,1647845304.702369,0.000000
139.000000,20457.858796,15834.959249,11741.170197,5486.101566,3981.940923,42287.779425,43382.634924,43115.419819,0.082000,0.940000,0.210000,192.000000,0.000000,0.000000,0.000000,0.000000,0.000000,0.000000,0.000000,0.000000,0.000000,1647845304.710529,0.000000
140.000000,20455.064828,15837.842624,11738.040952,5480.848906,3979.593990,42291.422759,43380.779729,43122.460618,0.082000,0.940000,0.210000,192.000000,0.000000,0.000000,0.000000,0.000000,0.000000,0.000000,0.000000,0.000000,0.000000,1647845304.710544,0.000000
141.000000,20460.473950,15839.027266,11742.690115,5482.190011,3983.036158,42291.869794,43369.246229,43114.279880,0.082000,0.940000,0.210000,192.000000,0.000000,0.000000,0.000000,0.000000,0.000000,0.000000,0.000000,0.000000,0.000000,1647845304.718452,0.000000
142.000000,20450.974459,15833.282868,11743.338316,5479.083118,3983.304379,42283.376131,43362.071319,43105.965031,0.082000,0.940000,0.210000,192.000000,0.000000,0.000000,0.000000,0.000000,0.000000,0.000000,0.000000,0.000000,0.000000,1647845304.718462,0.000000
143.000000,20437.451653,15820.274153,11731.961278,5469.650682,3973.581371,42265.159460,43371.302589,43116.380944,0.082000,0.940000,0.210000,192.000000,0.000000,0.000000,0.000000,0.000000,0.000000,0.000000,0.000000,0.000000,0.000000,1647845304.725257,0.000000
144.000000,20442.592554,15823.269287,11731.201319,5465.783830,3972.307321,42263.483079,43366.429909,43115.062191,0.082000,0.940000,0.210000,192.000000,0.000000,0.000000,0.000000,0.000000,0.000000,0.000000,0.000000,0.000000,0.000000,1647845304.725269,0.000000
145.000000,20440.267973,15824.476281,11730.128435,5462.006386,3968.485173,42266.925248,43359.724386,43104.869795,0.082000,0.940000,0.210000,192.000000,0.000000,0.000000,0.000000,0.000000,0.000000,0.000000,0.000000,0.000000,0.000000,1647845304.733263,0.000000
146.000000,20443.888956,15825.213888,11725.680438,5464.733298,3965.870019,42268.668684,43362.920685,43106.859101,0.078000,0.950000,0.216000,192.000000,2.000000,112.000000,29.000000,176.000000,6.000000,192.000000,0.000000,0.000000,0.000000,1647845304.733275,0.000000
147.000000,20455.444807,15834.020476,11733.660011,5476.803240,3975.570676,42280.112777,43369.603857,43113.743438,0.078000,0.950000,0.216000,192.000000,0.000000,0.000000,0.000000,0.000000,0.000000,0.000000,0.000000,0.000000,0.000000,1647845304.741287,0.000000
148.000000,20456.338877,15838.557880,11735.537557,5478.390214,3981.650350,42279.866908,43368.709787,43114.190473,0.078000,0.950000,0.216000,192.000000,0.000000,0.000000,0.000000,0.000000,0.000000,0.000000,0.000000,0.000000,0.000000,1647845304.741303,0.000000
149.000000,20443.307810,15833.640496,11728.854385,5469.874200,3975.078937,42272.379073,43359.992607,43107.775522,0.078000,0.950000,0.216000,192.000000,0.000000,0.000000,0.000000,0.000000,0.000000,0.000000,0.000000,0.000000,0.000000,1647845304.747882,0.000000
150.000000,20443.531328,15832.969944,11734.241156,5472.601112,3978.454051,42271.954390,43340.613644,43087.480138,0.078000,0.950000,0.216000,192.000000,0.000000,0.000000,0.000000,0.000000,0.000000,0.000000,0.000000,0.000000,0.000000,1647845304.747917,0.000000
151.000000,20443.263107,15827.538470,11722.640601,5461.469944,3969.870981,42258.275122,43344.681662,43092.933964,0.078000,0.950000,0.216000,192.000000,0.000000,0.000000,0.000000,0.000000,0.000000,0.000000,0.000000,0.000000,0.000000,1647845304.755695,0.000000
152.000000,20443.777197,15825.683275,11719.354894,5461.268778,3968.619283,42255.369396,43357.824487,43116.492703,0.078000,0.950000,0.216000,192.000000,0.000000,0.000000,0.000000,0.000000,0.000000,0.000000,0.000000,0.000000,0.000000,1647845304.755706,0.000000
153.000000,20453.835482,15838.669638,11738.778560,5475.439784,3983.840821,42267.640503,43342.133563,43104.802740,0.078000,0.950000,0.216000,192.000000,0.000000,0.000000,0.000000,0.000000,0.000000,0.000000,0.000000,0.000000,0.000000,1647845304.762884,0.000000
154.000000,20462.865587,15851.141912,11742.533653,5478.412566,3989.138185,42268.489870,43336.635034,43099.326563,0.078000,0.950000,0.216000,192.000000,0.000000,0.000000,0.000000,0.000000,0.000000,0.000000,0.000000,0.000000,0.000000,1647845304.762895,0.000000
155.000000,20464.385505,15853.421790,11735.358743,5473.249313,3987.171231,42266.254695,43332.052926,43091.771673,0.078000,0.950000,0.216000,192.000000,0.000000,0.000000,0.000000,0.000000,0.000000,0.000000,0.000000,0.000000,0.000000,1647845304.770826,0.000000
156.000000,20456.785912,15849.934918,11734.062342,5473.986921,3984.667836,42260.018559,43335.539798,43098.924231,0.080000,0.954000,0.196000,192.000000,2.000000,128.000000,29.000000,208.000000,6.000000,32.000000,0.000000,0.000000,0.000000,1647845304.777416,0.000000
157.000000,20461.658592,15854.718191,11736.431627,5474.031624,3987.864135,42257.537515,43334.355156,43098.052513,0.080000,0.954000,0.196000,192.000000,0.000000,0.000000,0.000000,0.000000,0.000000,0.000000,0.000000,0.000000,0.000000,1647845304.777433,0.000000
158.000000,20459.021087,15848.169130,11726.261583,5467.929598,3982.678531,42251.569599,43351.565999,43114.436342,0.080000,0.954000,0.196000,192.000000,0.000000,0.000000,0.000000,0.000000,0.000000,0.000000,0.000000,0.000000,0.000000,1647845304.785550,0.000000
159.000000,20462.954994,15854.226453,11731.313077,5475.708005,3990.635752,42259.415061,43347.810906,43109.206034,0.080000,0.954000,0.196000,192.000000,0.000000,0.000000,0.000000,0.000000,0.000000,0.000000,0.000000,0.000000,0.000000,1647845304.785567,0.000000
160.000000,20480.769334,15872.219607,11741.639583,5477.831421,3999.330580,42263.952466,43331.337670,43092.621039,0.080000,0.954000,0.196000,192.000000,0.000000,0.000000,0.000000,0.000000,0.000000,0.000000,0.000000,0.000000,0.000000,1647845304.793493,0.000000
161.000000,20483.563302,15882.412002,11742.287784,5474.970397,3999.889374,42258.722157,43333.215217,43091.637563,0.080000,0.954000,0.196000,192.000000,0.000000,0.000000,0.000000,0.000000,0.000000,0.000000,0.000000,0.000000,0.000000,1647845304.793504,0.000000
162.000000,20467.492398,15856.640441,11732.564775,5468.935426,3993.966161,42240.863114,43345.598083,43102.835787,0.080000,0.954000,0.196000,192.000000,0.000000,0.000000,0.000000,0.000000,0.000000,0.000000,0.000000,0.000000,0.000000,1647845304.800787,0.000000
163.000000,20466.508921,15845.553976,11735.515205,5472.019967,3996.357798,42246.160477,43356.773955,43105.160368,0.080000,0.954000,0.196000,192.000000,0.000000,0.000000,0.000000,0.000000,0.000000,0.000000,0.000000,0.000000,0.000000,1647845304.800802,0.000000
164.000000,20467.760619,15851.633650,11741.349011,5473.942217,3995.821356,42255.414099,43367.301627,43112.804665,0.080000,0.954000,0.196000,192.000000,0.000000,0.000000,0.000000,0.000000,0.000000,0.000000,0.000000,0.000000,0.000000,1647845304.808188,0.000000
165.000000,20467.000659,15856.461627,11735.872833,5468.086060,3989.518164,42249.446183,43371.280238,43114.972784,0.080000,0.954000,0.196000,192.000000,0.000000,0.000000,0.000000,0.000000,0.000000,0.000000,0.000000,0.000000,0.000000,1647845304.808205,0.000000
