%OpenBCI Raw EEG Data
%Number of channels = 8
%Sample Rate = 256 Hz
%Board = OpenBCI_GUI$BoardCytonSerial
%Channels = Fp1, Fp2, F3, F4, Fz, Pz, O1, O2
%Data recorded at AIMS Lab (http://aimsl.uiu.ac.bd) by Rana Depto (mail@ranadepto.com)
%Brainwaves were obtained via the Ultracortex Mark IV Headset using the OpenBCI Cyton Board
%Recording Application = ConcentrateToday (https://concentrate.today)
%Data type = RAW data with noise
%Day No = 4
%Subject ID = 8
%Session ID = 7
%Record starting timestamp (UTC+6) = 2022-03-21T15:32:44.568095
%Record ending timestamp (UTC+6)   = 2022-03-21T15:33:20.432619
%Recorded durations = ~35 seconds
Sample Index, EXG Channel 0, EXG Channel 1, EXG Channel 2, EXG Channel 3, EXG Channel 4, EXG Channel 5, EXG Channel 6, EXG Channel 7, Accel Channel 0, Accel Channel 1, Accel Channel 2, Other, Other, Other, Other, Other, Other, Other, Analog Channel 0, Analog Channel 1, Analog Channel 2, Timestamp, Timestamp (Formatted)
219.000000,23822.109261,10002.875030,17825.717369,18671.842655,-9307.042874,19539.023285,35085.399161,35643.231647,-0.084000,0.978000,0.054000,192.000000,0.000000,0.000000,0.000000,0.000000,0.000000,0.000000,0.000000,0.000000,0.000000,1647855164.574549,0.000000
220.000000,23831.787566,10013.067426,17832.467596,18682.571493,-9300.493813,19548.388666,35100.196016,35656.977970,-0.084000,0.978000,0.054000,192.000000,0.000000,0.000000,0.000000,0.000000,0.000000,0.000000,0.000000,0.000000,0.000000,1647855164.574558,0.000000
221.000000,23820.321121,9998.739958,17820.062377,18673.876664,-9311.624981,19535.916392,35087.544928,35648.372549,-0.084000,0.978000,0.054000,192.000000,0.000000,0.000000,0.000000,0.000000,0.000000,0.000000,0.000000,0.000000,0.000000,1647855164.582546,0.000000
222.000000,23816.208400,9991.050958,17812.395729,18669.003984,-9315.849461,19530.820195,35082.269917,35643.231647,-0.086000,0.974000,0.056000,192.000000,253.000000,80.000000,30.000000,112.000000,1.000000,192.000000,0.000000,0.000000,0.000000,1647855164.582553,0.000000
223.000000,23811.022796,9987.832306,17809.668816,18667.998155,-9318.911650,19533.256535,35084.907423,35644.840973,-0.086000,0.974000,0.056000,192.000000,0.000000,0.000000,0.000000,0.000000,0.000000,0.000000,0.000000,0.000000,0.000000,1647855164.590549,0.000000
224.000000,23820.611694,9994.738995,17816.821375,18675.016603,-9311.826147,19544.834738,35097.089123,35654.362816,-0.086000,0.974000,0.056000,192.000000,0.000000,0.000000,0.000000,0.000000,0.000000,0.000000,0.000000,0.000000,0.000000,1647855164.590553,0.000000
225.000000,23815.515496,9990.134536,17814.072110,18670.702716,-9315.916516,19542.644267,35094.384562,35652.507621,-0.086000,0.974000,0.056000,192.000000,0.000000,0.000000,0.000000,0.000000,0.000000,0.000000,0.000000,0.000000,0.000000,1647855164.597151,0.000000
226.000000,23813.190915,9992.414414,17815.681436,18672.289690,-9313.569583,19545.348828,35095.569205,35651.479441,-0.086000,0.974000,0.056000,192.000000,0.000000,0.000000,0.000000,0.000000,0.000000,0.000000,0.000000,0.000000,0.000000,1647855164.597156,0.000000
227.000000,23808.787621,9993.375539,17810.652293,18668.244024,-9317.458787,19536.341075,35087.634335,35643.075185,-0.086000,0.974000,0.056000,192.000000,0.000000,0.000000,0.000000,0.000000,0.000000,0.000000,0.000000,0.000000,0.000000,1647855164.604227,0.000000
228.000000,23810.240485,9995.454251,17803.902066,18661.873777,-9325.840691,19520.605447,35074.089178,35627.786592,-0.086000,0.974000,0.056000,192.000000,0.000000,0.000000,0.000000,0.000000,0.000000,0.000000,0.000000,0.000000,0.000000,1647855164.604231,0.000000
229.000000,23811.469830,9985.664187,17804.997302,18655.749399,-9329.394618,19517.923238,35072.233984,35624.187961,-0.086000,0.974000,0.056000,192.000000,0.000000,0.000000,0.000000,0.000000,0.000000,0.000000,0.000000,0.000000,0.000000,1647855164.612226,0.000000
230.000000,23788.380478,9966.642853,17796.637749,18645.802873,-9336.703639,19512.938799,35065.282591,35618.197694,-0.086000,0.974000,0.056000,192.000000,0.000000,0.000000,0.000000,0.000000,0.000000,0.000000,0.000000,0.000000,0.000000,1647855164.620149,0.000000
231.000000,23794.348394,9974.600074,17799.834049,18649.021524,-9333.149711,19515.799822,35066.936620,35619.002356,-0.086000,0.974000,0.056000,192.000000,0.000000,0.000000,0.000000,0.000000,0.000000,0.000000,0.000000,0.000000,0.000000,1647855164.620154,0.000000
232.000000,23808.318234,9982.244370,17809.311188,18655.347068,-9325.952450,19520.225468,35072.502204,35626.601950,-0.090000,0.978000,0.052000,192.000000,253.000000,48.000000,30.000000,144.000000,1.000000,160.000000,0.000000,0.000000,0.000000,1647855164.626839,0.000000
233.000000,23808.407641,9984.501896,17812.418081,18660.845597,-9321.951487,19525.120500,35078.246603,35633.016900,-0.090000,0.978000,0.052000,192.000000,0.000000,0.000000,0.000000,0.000000,0.000000,0.000000,0.000000,0.000000,0.000000,1647855164.626844,0.000000
234.000000,23800.942159,9980.925617,17806.718386,18656.732876,-9326.600650,19523.198250,35077.553699,35632.256941,-0.090000,0.978000,0.052000,192.000000,0.000000,0.000000,0.000000,0.000000,0.000000,0.000000,0.000000,0.000000,0.000000,1647855164.634846,0.000000
235.000000,23804.071403,9984.792469,17808.551229,18658.342202,-9325.572470,19528.719131,35082.985173,35637.911932,-0.090000,0.978000,0.052000,192.000000,0.000000,0.000000,0.000000,0.000000,0.000000,0.000000,0.000000,0.000000,0.000000,1647855164.634851,0.000000
236.000000,23797.678804,9980.635045,17801.555133,18653.111893,-9332.657973,19522.661808,35080.057094,35636.012034,-0.090000,0.978000,0.052000,192.000000,0.000000,0.000000,0.000000,0.000000,0.000000,0.000000,0.000000,0.000000,0.000000,1647855164.642744,0.000000
237.000000,23802.775002,9982.825516,17801.018691,18654.877681,-9331.026296,19524.002913,35082.582841,35637.174325,-0.090000,0.978000,0.052000,192.000000,0.000000,0.000000,0.000000,0.000000,0.000000,0.000000,0.000000,0.000000,0.000000,1647855164.642748,0.000000
238.000000,23810.396947,9987.027644,17807.657159,18662.097295,-9322.130301,19531.714264,35091.858815,35646.472650,-0.090000,0.978000,0.052000,192.000000,0.000000,0.000000,0.000000,0.000000,0.000000,0.000000,0.000000,0.000000,0.000000,1647855164.649417,0.000000
239.000000,23803.579665,9979.070423,17804.393805,18655.123550,-9328.388790,19526.461604,35084.795664,35642.002301,-0.090000,0.978000,0.052000,192.000000,0.000000,0.000000,0.000000,0.000000,0.000000,0.000000,0.000000,0.000000,0.000000,1647855164.649421,0.000000
240.000000,23812.274493,9983.361957,17810.451127,18659.996231,-9322.420874,19529.792014,35084.616850,35639.945941,-0.090000,0.978000,0.052000,192.000000,0.000000,0.000000,0.000000,0.000000,0.000000,0.000000,0.000000,0.000000,0.000000,1647855164.657459,0.000000
241.000000,23819.941142,9989.463984,17816.888430,18669.071039,-9314.553060,19531.200174,35082.649896,35638.582485,-0.090000,0.978000,0.052000,192.000000,0.000000,0.000000,0.000000,0.000000,0.000000,0.000000,0.000000,0.000000,0.000000,1647855164.657462,0.000000
242.000000,23806.753612,9982.199667,17810.674645,18660.711486,-9322.733798,19519.532564,35067.003675,35625.260845,-0.088000,0.978000,0.058000,192.000000,253.000000,64.000000,30.000000,144.000000,1.000000,208.000000,0.000000,0.000000,0.000000,1647855164.665468,0.000000
243.000000,23818.801203,9998.516440,17822.990456,18671.485027,-9308.473385,19534.150605,35077.017257,35635.810868,-0.088000,0.978000,0.058000,192.000000,0.000000,0.000000,0.000000,0.000000,0.000000,0.000000,0.000000,0.000000,0.000000,1647855164.665492,0.000000
244.000000,23817.415394,10000.170469,17821.962276,18670.501550,-9306.126452,19536.609296,35076.458463,35636.861400,-0.088000,0.978000,0.058000,192.000000,0.000000,0.000000,0.000000,0.000000,0.000000,0.000000,0.000000,0.000000,0.000000,1647855164.672521,0.000000
245.000000,23811.849810,9995.163679,17816.039063,18666.321774,-9310.775615,19532.138948,35073.038646,35632.949845,-0.088000,0.978000,0.058000,192.000000,0.000000,0.000000,0.000000,0.000000,0.000000,0.000000,0.000000,0.000000,0.000000,1647855164.679059,0.000000
246.000000,23821.259895,10006.384254,17823.303380,18675.508341,-9302.237249,19540.409093,35083.186338,35646.204429,-0.088000,0.978000,0.058000,192.000000,0.000000,0.000000,0.000000,0.000000,0.000000,0.000000,0.000000,0.000000,0.000000,1647855164.679063,0.000000
247.000000,23815.694310,9997.778833,17814.206220,18665.427705,-9312.049665,19530.931953,35075.944373,35642.426985,-0.088000,0.978000,0.058000,192.000000,0.000000,0.000000,0.000000,0.000000,0.000000,0.000000,0.000000,0.000000,0.000000,1647855164.686960,0.000000
248.000000,23811.268665,9990.358053,17809.847630,18656.978745,-9319.045761,19528.652075,35077.307830,35644.460993,-0.088000,0.978000,0.058000,192.000000,0.000000,0.000000,0.000000,0.000000,0.000000,0.000000,0.000000,0.000000,0.000000,1647855164.686964,0.000000
249.000000,23812.565066,9988.793431,17809.691168,18660.666783,-9319.761016,19534.150605,35085.265051,35651.613552,-0.088000,0.978000,0.058000,192.000000,0.000000,0.000000,0.000000,0.000000,0.000000,0.000000,0.000000,0.000000,0.000000,1647855164.695061,0.000000
250.000000,23808.698214,9984.121917,17801.331616,18656.531710,-9328.589955,19528.763834,35082.359324,35649.713653,-0.088000,0.978000,0.058000,192.000000,0.000000,0.000000,0.000000,0.000000,0.000000,0.000000,0.000000,0.000000,0.000000,1647855164.695065,0.000000
251.000000,23812.386252,9991.430937,17805.846668,18659.079809,-9323.985496,19532.474224,35086.896728,35652.351159,-0.088000,0.978000,0.058000,192.000000,0.000000,0.000000,0.000000,0.000000,0.000000,0.000000,0.000000,0.000000,0.000000,1647855164.702147,0.000000
252.000000,23803.624368,9987.049995,17806.181944,18656.397600,-9322.912612,19529.479090,35081.934641,35647.590238,-0.088000,0.978000,0.058000,192.000000,0.000000,0.000000,0.000000,0.000000,0.000000,0.000000,0.000000,0.000000,0.000000,1647855164.702151,0.000000
253.000000,23812.900342,9996.571838,17816.106119,18667.931100,-9313.368417,19538.755064,35089.333068,35654.206354,-0.084000,0.978000,0.050000,192.000000,253.000000,96.000000,30.000000,144.000000,1.000000,144.000000,0.000000,0.000000,0.000000,1647855164.709619,0.000000
254.000000,23808.094717,9990.536867,17810.272313,18663.281937,-9320.520976,19537.682180,35085.175644,35651.054758,-0.084000,0.978000,0.050000,192.000000,0.000000,0.000000,0.000000,0.000000,0.000000,0.000000,0.000000,0.000000,0.000000,1647855164.709623,0.000000
255.000000,23800.003386,9983.674882,17807.992435,18662.499626,-9323.493758,19539.872651,35084.125112,35650.294799,-0.084000,0.978000,0.050000,192.000000,0.000000,0.000000,0.000000,0.000000,0.000000,0.000000,0.000000,0.000000,0.000000,1647855164.717700,0.000000
0.000000,23805.859543,9989.642798,17811.166383,18667.886396,-9318.799891,19543.426578,35087.187301,35653.066415,-0.084000,0.978000,0.050000,192.000000,0.000000,0.000000,0.000000,0.000000,0.000000,0.000000,0.000000,0.000000,0.000000,1647855164.717704,0.000000
1.000000,23819.427051,9999.410510,17820.576468,18675.128362,-9309.210993,19547.516948,35094.004583,35657.961447,-0.084000,0.978000,0.050000,192.000000,0.000000,0.000000,0.000000,0.000000,0.000000,0.000000,0.000000,0.000000,0.000000,1647855164.725667,0.000000
2.000000,23819.270589,9997.957647,17821.381130,18673.139056,-9306.998170,19543.337171,35090.294193,35655.703921,-0.084000,0.978000,0.050000,192.000000,0.000000,0.000000,0.000000,0.000000,0.000000,0.000000,0.000000,0.000000,0.000000,1647855164.725670,0.000000
3.000000,23809.748746,9995.297789,17818.095424,18671.060344,-9309.255696,19537.078683,35082.873414,35647.701996,-0.084000,0.978000,0.050000,192.000000,0.000000,0.000000,0.000000,0.000000,0.000000,0.000000,0.000000,0.000000,0.000000,1647855164.731800,0.000000
4.000000,23807.357109,9989.285170,17817.089595,18667.081734,-9313.100196,19529.210869,35074.469158,35638.828354,-0.084000,0.978000,0.050000,192.000000,0.000000,0.000000,0.000000,0.000000,0.000000,0.000000,0.000000,0.000000,0.000000,1647855164.739304,0.000000
5.000000,23801.925636,9981.149135,17811.747529,18662.119646,-9318.799891,19517.185630,35063.740321,35626.803115,-0.084000,0.978000,0.050000,192.000000,0.000000,0.000000,0.000000,0.000000,0.000000,0.000000,0.000000,0.000000,0.000000,1647855164.739308,0.000000
6.000000,23807.290054,9987.541734,17817.715444,18668.109914,-9312.295534,19521.343055,35066.534289,35629.373566,-0.084000,0.978000,0.050000,192.000000,0.000000,0.000000,0.000000,0.000000,0.000000,0.000000,0.000000,0.000000,0.000000,1647855164.747315,0.000000
7.000000,23816.230752,9999.321103,17824.935058,18676.961205,-9304.181850,19533.122424,35080.906460,35639.722424,-0.086000,0.978000,0.050000,192.000000,253.000000,80.000000,30.000000,144.000000,1.000000,144.000000,0.000000,0.000000,0.000000,1647855164.747318,0.000000
8.000000,23814.643778,9998.739958,17824.152747,18680.269263,-9304.785348,19541.638439,35092.551719,35647.858459,-0.086000,0.978000,0.050000,192.000000,0.000000,0.000000,0.000000,0.000000,0.000000,0.000000,0.000000,0.000000,0.000000,1647855164.755342,0.000000
9.000000,23808.631159,9991.497992,17819.660046,18674.770734,-9309.747435,19544.231241,35094.988059,35651.211220,-0.086000,0.978000,0.050000,192.000000,0.000000,0.000000,0.000000,0.000000,0.000000,0.000000,0.000000,0.000000,0.000000,1647855164.755346,0.000000
10.000000,23803.691423,9985.217152,17818.453052,18670.836827,-9311.356760,19548.299259,35094.675135,35656.352121,-0.086000,0.978000,0.050000,192.000000,0.000000,0.000000,0.000000,0.000000,0.000000,0.000000,0.000000,0.000000,0.000000,1647855164.761960,0.000000
11.000000,23799.176371,9978.846905,17816.039063,18667.975803,-9316.318848,19545.505291,35087.790798,35657.268543,-0.086000,0.978000,0.050000,192.000000,0.000000,0.000000,0.000000,0.000000,0.000000,0.000000,0.000000,0.000000,0.000000,1647855164.761965,0.000000
12.000000,23800.472772,9980.411527,17818.117776,18665.740629,-9314.441301,19545.281773,35081.577013,35657.760281,-0.086000,0.978000,0.050000,192.000000,0.000000,0.000000,0.000000,0.000000,0.000000,0.000000,0.000000,0.000000,0.000000,1647855164.769903,0.000000
13.000000,23798.304653,9978.779850,17815.480270,18660.733838,-9318.375208,19538.464491,35072.099873,35652.954656,-0.086000,0.978000,0.050000,192.000000,0.000000,0.000000,0.000000,0.000000,0.000000,0.000000,0.000000,0.000000,0.000000,1647855164.769907,0.000000
14.000000,23808.161772,9986.357091,17821.336427,18666.679402,-9310.820319,19544.298296,35079.230080,35658.274371,-0.086000,0.978000,0.050000,192.000000,0.000000,0.000000,0.000000,0.000000,0.000000,0.000000,0.000000,0.000000,0.000000,1647855164.777961,0.000000
15.000000,23815.470793,9994.984865,17827.393750,18672.401449,-9303.824223,19546.511119,35083.409856,35660.956581,-0.086000,0.978000,0.050000,192.000000,0.000000,0.000000,0.000000,0.000000,0.000000,0.000000,0.000000,0.000000,0.000000,1647855164.777964,0.000000
16.000000,23825.774947,10005.713702,17836.937945,18684.337280,-9292.715406,19552.657849,35089.757751,35667.527994,-0.086000,0.978000,0.050000,192.000000,0.000000,0.000000,0.000000,0.000000,0.000000,0.000000,0.000000,0.000000,0.000000,1647855164.785049,0.000000
17.000000,23831.251124,10008.172394,17841.251831,18689.679347,-9286.859249,19550.646192,35087.790798,35667.751511,-0.086000,0.978000,0.054000,192.000000,253.000000,80.000000,30.000000,144.000000,1.000000,176.000000,0.000000,0.000000,0.000000,1647855164.785053,0.000000
18.000000,23823.495069,9994.671940,17831.104139,18677.162370,-9296.694016,19536.519889,35074.111530,35656.083900,-0.086000,0.978000,0.054000,192.000000,0.000000,0.000000,0.000000,0.000000,0.000000,0.000000,0.000000,0.000000,0.000000,1647855164.791545,0.000000
19.000000,23825.842002,9999.186993,17839.731913,18682.929120,-9289.653217,19541.146701,35080.079446,35656.933267,-0.086000,0.978000,0.054000,192.000000,0.000000,0.000000,0.000000,0.000000,0.000000,0.000000,0.000000,0.000000,0.000000,1647855164.799528,0.000000
20.000000,23829.552392,10001.690388,17847.778541,18689.858161,-9284.936998,19544.097131,35083.611021,35658.363778,-0.086000,0.978000,0.054000,192.000000,0.000000,0.000000,0.000000,0.000000,0.000000,0.000000,0.000000,0.000000,0.000000,1647855164.799532,0.000000
21.000000,23823.092738,9994.560181,17842.257660,18685.186647,-9289.966141,19536.475186,35078.224251,35652.328807,-0.086000,0.978000,0.054000,192.000000,0.000000,0.000000,0.000000,0.000000,0.000000,0.000000,0.000000,0.000000,0.000000,1647855164.807571,0.000000
22.000000,23825.126746,9997.220039,17845.029276,18685.678385,-9286.412214,19543.985372,35084.996830,35654.586334,-0.086000,0.978000,0.054000,192.000000,0.000000,0.000000,0.000000,0.000000,0.000000,0.000000,0.000000,0.000000,0.000000,1647855164.807576,0.000000
23.000000,23821.014025,9991.699158,17836.155633,18679.330490,-9293.520068,19542.934840,35080.749998,35649.221915,-0.086000,0.978000,0.054000,192.000000,0.000000,0.000000,0.000000,0.000000,0.000000,0.000000,0.000000,0.000000,0.000000,1647855164.814227,0.000000
24.000000,23814.956703,9996.638894,17831.461767,18675.687155,-9297.744548,19544.365352,35082.493434,35651.725310,-0.086000,0.978000,0.054000,192.000000,0.000000,0.000000,0.000000,0.000000,0.000000,0.000000,0.000000,0.000000,0.000000,1647855164.814232,0.000000
25.000000,23820.410528,10005.624295,17839.396636,18683.867894,-9292.201315,19554.401285,35091.143559,35662.409444,-0.086000,0.978000,0.054000,192.000000,0.000000,0.000000,0.000000,0.000000,0.000000,0.000000,0.000000,0.000000,0.000000,1647855164.822230,0.000000
26.000000,23815.314330,9995.834231,17835.842709,18680.269263,-9296.962237,19553.127236,35084.438036,35661.761244,-0.086000,0.978000,0.054000,192.000000,0.000000,0.000000,0.000000,0.000000,0.000000,0.000000,0.000000,0.000000,0.000000,1647855164.822235,0.000000
27.000000,23812.207438,9989.866315,17832.534651,18677.519998,-9301.142013,19553.596622,35081.778178,35661.202450,-0.084000,0.974000,0.058000,192.000000,253.000000,96.000000,30.000000,112.000000,1.000000,208.000000,0.000000,0.000000,0.000000,1647855164.830174,0.000000
28.000000,23810.285188,9988.301693,17832.199375,18678.794048,-9300.806737,19551.875538,35080.191205,35660.844822,-0.084000,0.974000,0.058000,192.000000,0.000000,0.000000,0.000000,0.000000,0.000000,0.000000,0.000000,0.000000,0.000000,1647855164.830200,0.000000
29.000000,23802.506781,9983.071385,17830.232421,18677.743516,-9303.198374,19547.762817,35074.759731,35659.414310,-0.084000,0.974000,0.058000,192.000000,0.000000,0.000000,0.000000,0.000000,0.000000,0.000000,0.000000,0.000000,0.000000,1647855164.837397,0.000000
30.000000,23809.815801,9991.185068,17836.692075,18682.884417,-9293.341254,19555.496520,35084.438036,35666.209241,-0.084000,0.974000,0.058000,192.000000,0.000000,0.000000,0.000000,0.000000,0.000000,0.000000,0.000000,0.000000,0.000000,1647855164.837401,0.000000
31.000000,23815.828421,9991.386234,17836.043875,18682.482086,-9294.078862,19553.306050,35084.527443,35664.152880,-0.084000,0.974000,0.058000,192.000000,0.000000,0.000000,0.000000,0.000000,0.000000,0.000000,0.000000,0.000000,0.000000,1647855164.844848,0.000000
32.000000,23817.482450,9990.134536,17830.880622,18677.877626,-9298.705673,19548.388666,35080.705295,35661.493023,-0.084000,0.974000,0.058000,192.000000,0.000000,0.000000,0.000000,0.000000,0.000000,0.000000,0.000000,0.000000,0.000000,1647855164.844852,0.000000
33.000000,23811.849810,9993.710815,17832.378189,18676.536521,-9296.962237,19552.099055,35088.282536,35664.175232,-0.084000,0.974000,0.058000,192.000000,0.000000,0.000000,0.000000,0.000000,0.000000,0.000000,0.000000,0.000000,0.000000,1647855164.851863,0.000000
34.000000,23811.715700,10001.198650,17839.776616,18683.130286,-9291.150783,19560.145683,35098.787856,35671.394845,-0.084000,0.974000,0.058000,192.000000,0.000000,0.000000,0.000000,0.000000,0.000000,0.000000,0.000000,0.000000,0.000000,1647855164.851867,0.000000
35.000000,23809.949912,9996.281266,17840.983610,18684.516094,-9291.217839,19559.721000,35098.899615,35670.232555,-0.084000,0.974000,0.058000,192.000000,0.000000,0.000000,0.000000,0.000000,0.000000,0.000000,0.000000,0.000000,0.000000,1647855164.859869,0.000000
36.000000,23805.099583,9985.865353,17831.752340,18674.189588,-9301.432586,19549.975640,35090.473007,35662.185927,-0.084000,0.974000,0.058000,192.000000,0.000000,0.000000,0.000000,0.000000,0.000000,0.000000,0.000000,0.000000,0.000000,1647855164.867125,0.000000
37.000000,23805.546618,9984.501896,17827.594915,18672.826132,-9305.679417,19548.321610,35090.182434,35660.978932,-0.088000,0.974000,0.064000,192.000000,253.000000,64.000000,30.000000,112.000000,2.000000,0.000000,0.000000,0.000000,0.000000,1647855164.867129,0.000000
38.000000,23799.310481,9972.543713,17820.397654,18666.411181,-9312.407292,19541.258459,35084.169815,35654.094595,-0.088000,0.974000,0.064000,192.000000,0.000000,0.000000,0.000000,0.000000,0.000000,0.000000,0.000000,0.000000,0.000000,1647855164.874593,0.000000
39.000000,23793.789601,9967.358108,17816.083767,18659.772713,-9316.251792,19532.988314,35074.871489,35649.043101,-0.088000,0.974000,0.064000,192.000000,0.000000,0.000000,0.000000,0.000000,0.000000,0.000000,0.000000,0.000000,0.000000,1647855164.874598,0.000000
40.000000,23804.406679,9982.959626,17823.884526,18667.171141,-9306.551135,19538.509195,35081.487606,35656.106252,-0.088000,0.974000,0.064000,192.000000,0.000000,0.000000,0.000000,0.000000,0.000000,0.000000,0.000000,0.000000,0.000000,1647855164.882451,0.000000
41.000000,23812.945046,9992.079138,17828.868965,18676.625928,-9299.733853,19542.420750,35084.952126,35662.431796,-0.088000,0.974000,0.064000,192.000000,0.000000,0.000000,0.000000,0.000000,0.000000,0.000000,0.000000,0.000000,0.000000,1647855164.882455,0.000000
42.000000,23811.603941,9995.566010,17829.204241,18679.598710,-9298.459804,19542.197233,35084.303926,35664.063473,-0.088000,0.974000,0.064000,192.000000,0.000000,0.000000,0.000000,0.000000,0.000000,0.000000,0.000000,0.000000,0.000000,1647855164.890496,0.000000
43.000000,23812.498011,9999.522269,17834.725122,18688.204132,-9291.597818,19548.813349,35088.953088,35670.344313,-0.088000,0.974000,0.064000,192.000000,0.000000,0.000000,0.000000,0.000000,0.000000,0.000000,0.000000,0.000000,0.000000,1647855164.890500,0.000000
44.000000,23802.663243,9985.150097,17824.175098,18676.849446,-9302.438414,19540.520852,35078.850100,35659.816642,-0.088000,0.974000,0.064000,192.000000,0.000000,0.000000,0.000000,0.000000,0.000000,0.000000,0.000000,0.000000,0.000000,1647855164.897197,0.000000
45.000000,23791.934406,9976.321158,17818.385997,18667.461713,-9311.066188,19535.022323,35070.602306,35652.552325,-0.088000,0.974000,0.064000,192.000000,0.000000,0.000000,0.000000,0.000000,0.000000,0.000000,0.000000,0.000000,0.000000,1647855164.897200,0.000000
46.000000,23800.517476,9983.943103,17829.159537,18675.865969,-9303.108967,19541.772549,35074.290344,35658.944924,-0.088000,0.974000,0.064000,192.000000,0.000000,0.000000,0.000000,0.000000,0.000000,0.000000,0.000000,0.000000,0.000000,1647855164.905143,0.000000
47.000000,23790.280377,9971.314367,17817.871907,18663.348992,-9315.782406,19528.920296,35061.147518,35647.858459,-0.096000,0.974000,0.064000,192.000000,253.000000,0.000000,30.000000,112.000000,2.000000,0.000000,0.000000,0.000000,0.000000,1647855164.905147,0.000000
48.000000,23800.897455,9983.361957,17827.192584,18671.172103,-9307.691074,19538.531546,35073.932716,35655.256886,-0.096000,0.974000,0.064000,192.000000,0.000000,0.000000,0.000000,0.000000,0.000000,0.000000,0.000000,0.000000,0.000000,1647855164.913124,0.000000
49.000000,23806.798316,9991.185068,17831.014732,18675.977728,-9302.103138,19541.370218,35078.090141,35657.603819,-0.096000,0.974000,0.064000,192.000000,0.000000,0.000000,0.000000,0.000000,0.000000,0.000000,0.000000,0.000000,0.000000,1647855164.913128,0.000000
50.000000,23790.146266,9970.040318,17808.998264,18654.318888,-9323.002019,19518.616142,35054.441995,35634.559171,-0.096000,0.974000,0.064000,192.000000,0.000000,0.000000,0.000000,0.000000,0.000000,0.000000,0.000000,0.000000,0.000000,1647855164.920347,0.000000
51.000000,23800.383365,9978.288111,17821.135261,18662.499626,-9310.105063,19533.368293,35069.216498,35646.584409,-0.096000,0.974000,0.064000,192.000000,0.000000,0.000000,0.000000,0.000000,0.000000,0.000000,0.000000,0.000000,0.000000,1647855164.926747,0.000000
52.000000,23804.473734,9982.154963,17826.946715,18666.433533,-9305.277086,19536.877517,35074.089178,35653.915781,-0.096000,0.974000,0.064000,192.000000,0.000000,0.000000,0.000000,0.000000,0.000000,0.000000,0.000000,0.000000,0.000000,1647855164.926750,0.000000
53.000000,23801.568008,9980.031548,17817.693093,18659.191568,-9314.173080,19526.282790,35064.477928,35642.739909,-0.096000,0.974000,0.064000,192.000000,0.000000,0.000000,0.000000,0.000000,0.000000,0.000000,0.000000,0.000000,0.000000,1647855164.934748,0.000000
54.000000,23803.892589,9986.513553,17818.855383,18660.957356,-9313.435473,19527.445081,35065.282591,35647.143203,-0.096000,0.974000,0.064000,192.000000,0.000000,0.000000,0.000000,0.000000,0.000000,0.000000,0.000000,0.000000,0.000000,1647855164.934752,0.000000
55.000000,23804.183162,9984.725414,17818.922438,18663.103123,-9313.211955,19528.003875,35067.741283,35650.160688,-0.096000,0.974000,0.064000,192.000000,0.000000,0.000000,0.000000,0.000000,0.000000,0.000000,0.000000,0.000000,0.000000,1647855164.942823,0.000000
56.000000,23810.553409,9992.436766,17826.812604,18670.568606,-9307.400502,19533.837680,35074.715027,35656.128604,-0.096000,0.974000,0.064000,192.000000,0.000000,0.000000,0.000000,0.000000,0.000000,0.000000,0.000000,0.000000,0.000000,1647855164.942827,0.000000
57.000000,23808.117069,9994.023740,17829.606572,18670.769771,-9306.417025,19535.491709,35075.452635,35656.016845,-0.092000,0.970000,0.058000,192.000000,253.000000,32.000000,30.000000,80.000000,1.000000,208.000000,0.000000,0.000000,0.000000,1647855164.950094,0.000000
58.000000,23801.903284,9989.039301,17828.623096,18668.646356,-9307.758130,19537.212793,35076.078484,35657.357950,-0.092000,0.970000,0.058000,192.000000,0.000000,0.000000,0.000000,0.000000,0.000000,0.000000,0.000000,0.000000,0.000000,1647855164.950097,0.000000
59.000000,23795.823609,9983.071385,17823.638657,18663.550158,-9311.781444,19537.346904,35076.100835,35659.883697,-0.092000,0.970000,0.058000,192.000000,0.000000,0.000000,0.000000,0.000000,0.000000,0.000000,0.000000,0.000000,0.000000,1647855164.957426,0.000000
60.000000,23794.951891,9977.952835,17817.871907,18656.777579,-9316.005923,19533.167128,35073.440978,35658.386130,-0.092000,0.970000,0.058000,192.000000,0.000000,0.000000,0.000000,0.000000,0.000000,0.000000,0.000000,0.000000,0.000000,1647855164.957430,0.000000
61.000000,23805.256045,9991.229772,17823.683360,18665.271242,-9310.865022,19532.429520,35072.748074,35658.587296,-0.092000,0.970000,0.058000,192.000000,0.000000,0.000000,0.000000,0.000000,0.000000,0.000000,0.000000,0.000000,0.000000,1647855164.965425,0.000000
62.000000,23809.972264,10000.818670,17825.695017,18672.401449,-9307.311095,19532.988314,35074.759731,35660.554249,-0.092000,0.970000,0.058000,192.000000,0.000000,0.000000,0.000000,0.000000,0.000000,0.000000,0.000000,0.000000,0.000000,1647855164.965429,0.000000
63.000000,23793.007290,9977.349338,17811.188735,18660.577376,-9319.381037,19524.360540,35068.009504,35655.033368,-0.092000,0.970000,0.058000,192.000000,0.000000,0.000000,0.000000,0.000000,0.000000,0.000000,0.000000,0.000000,0.000000,1647855164.972620,0.000000
64.000000,23784.960662,9968.408640,17808.506526,18656.464655,-9320.833900,19523.689988,35065.886088,35652.105290,-0.092000,0.970000,0.058000,192.000000,0.000000,0.000000,0.000000,0.000000,0.000000,0.000000,0.000000,0.000000,0.000000,1647855164.972624,0.000000
65.000000,23794.236635,9982.959626,17818.430700,18664.891263,-9312.988438,19527.556840,35067.763635,35653.401691,-0.092000,0.970000,0.058000,192.000000,0.000000,0.000000,0.000000,0.000000,0.000000,0.000000,0.000000,0.000000,0.000000,1647855164.979074,0.000000
66.000000,23794.750726,9978.489277,17818.989494,18661.292632,-9314.821281,19519.845488,35060.633428,35645.153897,-0.092000,0.970000,0.058000,192.000000,0.000000,0.000000,0.000000,0.000000,0.000000,0.000000,0.000000,0.000000,0.000000,1647855164.987113,0.000000
67.000000,23791.643833,9973.638949,17813.066281,18652.709562,-9320.923307,19512.871744,35053.302056,35634.469764,-0.090000,0.978000,0.060000,192.000000,253.000000,48.000000,30.000000,144.000000,1.000000,224.000000,0.000000,0.000000,0.000000,1647855164.987117,0.000000
68.000000,23792.314385,9979.472754,17814.317979,18655.950565,-9319.626906,19517.520907,35054.509050,35634.559171,-0.090000,0.978000,0.060000,192.000000,0.000000,0.000000,0.000000,0.000000,0.000000,0.000000,0.000000,0.000000,0.000000,1647855164.995101,0.000000
69.000000,23789.386307,9975.650606,17814.630904,18655.235309,-9320.699790,19517.565610,35053.838498,35635.855572,-0.090000,0.978000,0.060000,192.000000,0.000000,0.000000,0.000000,0.000000,0.000000,0.000000,0.000000,0.000000,0.000000,1647855164.995105,0.000000
70.000000,23795.622444,9980.344472,17819.123604,18657.202263,-9317.011752,19521.633628,35061.482794,35643.723386,-0.090000,0.978000,0.060000,192.000000,0.000000,0.000000,0.000000,0.000000,0.000000,0.000000,0.000000,0.000000,0.000000,1647855165.002402,0.000000
71.000000,23801.143325,9984.546600,17821.090558,18662.834902,-9313.390769,19521.946552,35063.382693,35646.584409,-0.090000,0.978000,0.060000,192.000000,0.000000,0.000000,0.000000,0.000000,0.000000,0.000000,0.000000,0.000000,0.000000,1647855165.002408,0.000000
72.000000,23807.111240,9987.631141,17824.577430,18668.601652,-9306.953467,19524.539354,35060.029931,35648.663121,-0.090000,0.978000,0.060000,192.000000,0.000000,0.000000,0.000000,0.000000,0.000000,0.000000,0.000000,0.000000,0.000000,1647855165.009761,0.000000
73.000000,23804.294920,9985.485373,17822.878697,18666.478236,-9308.965124,19522.393587,35052.028007,35645.019787,-0.090000,0.978000,0.060000,192.000000,0.000000,0.000000,0.000000,0.000000,0.000000,0.000000,0.000000,0.000000,0.000000,1647855165.009765,0.000000
74.000000,23792.247330,9976.991710,17814.496793,18653.827149,-9320.565679,19513.810517,35044.271951,35636.146144,-0.090000,0.978000,0.060000,192.000000,0.000000,0.000000,0.000000,0.000000,0.000000,0.000000,0.000000,0.000000,0.000000,1647855165.017772,0.000000
75.000000,23790.280377,9977.349338,17811.658122,18653.268356,-9322.756150,19512.916447,35042.707329,35632.726328,-0.090000,0.978000,0.060000,192.000000,0.000000,0.000000,0.000000,0.000000,0.000000,0.000000,0.000000,0.000000,0.000000,1647855165.017777,0.000000
76.000000,23794.169580,9980.299768,17814.608552,18660.599728,-9318.978705,19519.756081,35048.407024,35638.828354,-0.090000,0.978000,0.060000,192.000000,0.000000,0.000000,0.000000,0.000000,0.000000,0.000000,0.000000,0.000000,0.000000,1647855165.025752,0.000000
77.000000,23788.983976,9972.633120,17809.847630,18657.135207,-9324.410179,19516.671540,35045.009559,35637.151973,-0.090000,0.980000,0.064000,192.000000,253.000000,48.000000,30.000000,160.000000,2.000000,0.000000,0.000000,0.000000,0.000000,1647855165.025756,0.000000
78.000000,23801.232731,9984.904228,17819.235363,18665.584167,-9315.067150,19527.780357,35056.207783,35645.645636,-0.090000,0.980000,0.064000,192.000000,0.000000,0.000000,0.000000,0.000000,0.000000,0.000000,0.000000,0.000000,0.000000,1647855165.032352,0.000000
79.000000,23805.233694,9988.614617,17823.683360,18666.321774,-9310.797967,19531.803671,35061.795719,35649.132508,-0.090000,0.980000,0.064000,192.000000,0.000000,0.000000,0.000000,0.000000,0.000000,0.000000,0.000000,0.000000,0.000000,1647855165.032356,0.000000
80.000000,23794.974243,9978.958664,17817.111947,18658.297498,-9318.598726,19524.941686,35055.917210,35645.109194,-0.090000,0.980000,0.064000,192.000000,0.000000,0.000000,0.000000,0.000000,0.000000,0.000000,0.000000,0.000000,0.000000,1647855165.039423,0.000000
81.000000,23785.787676,9968.632158,17808.819450,18648.015696,-9328.142921,19516.224505,35049.882239,35637.263732,-0.090000,0.980000,0.064000,192.000000,0.000000,0.000000,0.000000,0.000000,0.000000,0.000000,0.000000,0.000000,0.000000,1647855165.047426,0.000000
82.000000,23779.551539,9963.692422,17800.459898,18643.008905,-9335.675458,19507.663787,35042.684977,35627.428964,-0.090000,0.980000,0.064000,192.000000,0.000000,0.000000,0.000000,0.000000,0.000000,0.000000,0.000000,0.000000,0.000000,1647855165.047430,0.000000
83.000000,23782.881949,9967.894550,17804.125584,18647.009867,-9328.411141,19512.447061,35046.440070,35627.898351,-0.090000,0.980000,0.064000,192.000000,0.000000,0.000000,0.000000,0.000000,0.000000,0.000000,0.000000,0.000000,0.000000,1647855165.055793,0.000000
84.000000,23787.866388,9972.454306,17811.747529,18654.810626,-9319.403388,19518.750253,35052.363283,35633.776859,-0.090000,0.980000,0.064000,192.000000,0.000000,0.000000,0.000000,0.000000,0.000000,0.000000,0.000000,0.000000,0.000000,1647855165.055810,0.000000
85.000000,23786.368821,9970.576760,17810.942866,18652.597803,-9320.789197,19517.856183,35053.547925,35639.208333,-0.090000,0.980000,0.064000,192.000000,0.000000,0.000000,0.000000,0.000000,0.000000,0.000000,0.000000,0.000000,0.000000,1647855165.062410,0.000000
86.000000,23794.236635,9979.740975,17817.089595,18660.599728,-9315.290667,19526.349846,35065.282591,35650.227743,-0.090000,0.980000,0.064000,192.000000,0.000000,0.000000,0.000000,0.000000,0.000000,0.000000,0.000000,0.000000,0.000000,1647855165.062428,0.000000
87.000000,23790.816819,9973.326024,17810.138203,18657.604594,-9321.347990,19520.806613,35059.359379,35644.013958,-0.092000,0.972000,0.058000,192.000000,253.000000,32.000000,30.000000,96.000000,1.000000,208.000000,0.000000,0.000000,0.000000,1647855165.070355,0.000000
88.000000,23801.389194,9982.691405,17814.206220,18660.264452,-9315.938868,19527.646247,35064.120300,35650.697130,-0.092000,0.972000,0.058000,192.000000,0.000000,0.000000,0.000000,0.000000,0.000000,0.000000,0.000000,0.000000,0.000000,1647855165.070372,0.000000
89.000000,23809.592284,9989.665149,17817.067244,18662.499626,-9312.116720,19530.015532,35065.215536,35655.480403,-0.092000,0.972000,0.058000,192.000000,0.000000,0.000000,0.000000,0.000000,0.000000,0.000000,0.000000,0.000000,0.000000,1647855165.078070,0.000000
90.000000,23810.329891,9993.040263,17823.281029,18665.897091,-9307.355798,19533.435349,35068.657704,35657.603819,-0.092000,0.972000,0.058000,192.000000,0.000000,0.000000,0.000000,0.000000,0.000000,0.000000,0.000000,0.000000,0.000000,1647855165.078078,0.000000
91.000000,23798.975205,9982.199667,17819.660046,18658.923347,-9313.100196,19526.126328,35061.169870,35653.468746,-0.092000,0.972000,0.058000,192.000000,0.000000,0.000000,0.000000,0.000000,0.000000,0.000000,0.000000,0.000000,0.000000,1647855165.085097,0.000000
92.000000,23796.292996,9982.646702,17819.101252,18658.789236,-9314.597763,19521.879497,35057.213611,35646.986740,-0.092000,0.972000,0.058000,192.000000,0.000000,0.000000,0.000000,0.000000,0.000000,0.000000,0.000000,0.000000,0.000000,1647855165.085102,0.000000
93.000000,23791.442667,9977.729318,17816.866078,18656.017620,-9315.245964,19518.079700,35053.302056,35641.264694,-0.092000,0.972000,0.058000,192.000000,0.000000,0.000000,0.000000,0.000000,0.000000,0.000000,0.000000,0.000000,0.000000,1647855165.092644,0.000000
94.000000,23784.625385,9968.721565,17809.288837,18648.529786,-9321.571508,19507.708491,35045.322483,35631.742851,-0.092000,0.972000,0.058000,192.000000,0.000000,0.000000,0.000000,0.000000,0.000000,0.000000,0.000000,0.000000,0.000000,1647855165.092652,0.000000
95.000000,23780.244443,9966.396983,17800.437546,18646.138149,-9328.522900,19498.678386,35036.046509,35622.310415,-0.092000,0.972000,0.058000,192.000000,0.000000,0.000000,0.000000,0.000000,0.000000,0.000000,0.000000,0.000000,0.000000,1647855165.099996,0.000000
96.000000,23795.913016,9981.305597,17813.356854,18664.846559,-9312.764920,19515.486898,35051.513916,35638.135450,-0.092000,0.972000,0.058000,192.000000,0.000000,0.000000,0.000000,0.000000,0.000000,0.000000,0.000000,0.000000,0.000000,1647855165.100006,0.000000
97.000000,23800.785697,9986.401795,17819.660046,18669.719239,-9308.652199,19519.331398,35053.480870,35646.204429,-0.092000,0.972000,0.058000,192.000000,0.000000,0.000000,0.000000,0.000000,0.000000,0.000000,0.000000,0.000000,0.000000,1647855165.107922,0.000000
98.000000,23799.422240,9988.525210,17819.995322,18665.897091,-9308.987476,19517.498555,35049.234039,35643.745738,-0.098000,0.976000,0.064000,192.000000,252.000000,240.000000,30.000000,128.000000,2.000000,0.000000,0.000000,0.000000,0.000000,1647855165.115188,0.000000
99.000000,23790.973281,9979.808030,17814.206220,18658.453960,-9315.715351,19508.624912,35040.114527,35635.497944,-0.098000,0.976000,0.064000,192.000000,0.000000,0.000000,0.000000,0.000000,0.000000,0.000000,0.000000,0.000000,0.000000,1647855165.115205,0.000000
100.000000,23801.724470,9982.333777,17819.235363,18663.348992,-9309.032179,19514.369311,35045.590704,35643.745738,-0.098000,0.976000,0.064000,192.000000,0.000000,0.000000,0.000000,0.000000,0.000000,0.000000,0.000000,0.000000,0.000000,1647855165.122520,0.000000
101.000000,23794.080173,9977.550504,17813.736834,18659.303327,-9315.715351,19508.960189,35041.701501,35641.018825,-0.098000,0.976000,0.064000,192.000000,0.000000,0.000000,0.000000,0.000000,0.000000,0.000000,0.000000,0.000000,0.000000,1647855165.122536,0.000000
102.000000,23792.090868,9978.913960,17813.870944,18661.225577,-9316.877641,19510.278941,35039.175753,35639.767127,-0.098000,0.976000,0.064000,192.000000,0.000000,0.000000,0.000000,0.000000,0.000000,0.000000,0.000000,0.000000,0.000000,1647855165.130669,0.000000
103.000000,23801.836229,9988.793431,17822.878697,18670.300385,-9306.886412,19519.532564,35045.389538,35646.807927,-0.098000,0.976000,0.064000,192.000000,0.000000,0.000000,0.000000,0.000000,0.000000,0.000000,0.000000,0.000000,0.000000,1647855165.130686,0.000000
104.000000,23794.616615,9981.707928,17811.278142,18658.833940,-9317.324676,19509.966017,35032.403175,35633.218066,-0.098000,0.976000,0.064000,192.000000,0.000000,0.000000,0.000000,0.000000,0.000000,0.000000,0.000000,0.000000,0.000000,1647855165.137603,0.000000
105.000000,23804.473734,9991.028606,17816.866078,18663.907786,-9311.826147,19516.000988,35039.823954,35635.967330,-0.098000,0.976000,0.064000,192.000000,0.000000,0.000000,0.000000,0.000000,0.000000,0.000000,0.000000,0.000000,0.000000,1647855165.137619,0.000000
106.000000,23815.135517,10003.702045,17826.209107,18671.149751,-9304.941810,19521.767738,35045.881277,35642.672854,-0.098000,0.976000,0.064000,192.000000,0.000000,0.000000,0.000000,0.000000,0.000000,0.000000,0.000000,0.000000,0.000000,1647855165.145258,0.000000
107.000000,23809.771098,10000.215173,17816.150822,18665.248891,-9312.496699,19507.999063,35035.264198,35634.402708,-0.098000,0.976000,0.064000,192.000000,0.000000,0.000000,0.000000,0.000000,0.000000,0.000000,0.000000,0.000000,0.000000,1647855165.145275,0.000000
108.000000,23801.858580,9991.967379,17810.048796,18659.504492,-9319.112816,19502.254665,35029.944483,35630.602912,-0.092000,0.980000,0.062000,192.000000,253.000000,32.000000,30.000000,160.000000,1.000000,240.000000,0.000000,0.000000,0.000000,1647855165.153304,0.000000
109.000000,23795.778906,9984.770117,17807.724215,18655.570585,-9322.867909,19500.175953,35029.028062,35630.066470,-0.092000,0.980000,0.062000,192.000000,0.000000,0.000000,0.000000,0.000000,0.000000,0.000000,0.000000,0.000000,0.000000,1647855165.153320,0.000000
110.000000,23792.001461,9976.052937,17797.934150,18649.759132,-9331.272165,19492.196380,35023.685995,35619.136467,-0.092000,0.980000,0.062000,192.000000,0.000000,0.000000,0.000000,0.000000,0.000000,0.000000,0.000000,0.000000,0.000000,1647855165.161300,0.000000
111.000000,23791.219150,9976.321158,17796.995377,18648.999172,-9331.160406,19494.476258,35029.743317,35619.874074,-0.092000,0.980000,0.062000,192.000000,0.000000,0.000000,0.000000,0.000000,0.000000,0.000000,0.000000,0.000000,0.000000,1647855165.161316,0.000000
112.000000,23786.793505,9978.533981,17796.637749,18648.641544,-9330.981592,19493.537485,35030.838553,35619.874074,-0.092000,0.980000,0.062000,192.000000,0.000000,0.000000,0.000000,0.000000,0.000000,0.000000,0.000000,0.000000,0.000000,1647855165.167463,0.000000
113.000000,23788.156961,9981.372652,17797.084784,18648.038047,-9330.042819,19497.516095,35032.939617,35621.282234,-0.092000,0.980000,0.062000,192.000000,0.000000,0.000000,0.000000,0.000000,0.000000,0.000000,0.000000,0.000000,0.000000,1647855165.174945,0.000000
114.000000,23791.107391,9981.350300,17795.743679,18644.908803,-9332.881490,19498.745441,35031.732623,35622.221008,-0.092000,0.980000,0.062000,192.000000,0.000000,0.000000,0.000000,0.000000,0.000000,0.000000,0.000000,0.000000,0.000000,1647855165.174962,0.000000
115.000000,23791.487371,9983.987806,17793.217932,18643.768864,-9335.854272,19496.152639,35029.005710,35622.511580,-0.092000,0.980000,0.062000,192.000000,0.000000,0.000000,0.000000,0.000000,0.000000,0.000000,0.000000,0.000000,0.000000,1647855165.182972,0.000000
116.000000,23790.682708,9986.088870,17795.318996,18647.300440,-9331.562737,19497.873723,35030.995015,35625.059679,-0.092000,0.980000,0.062000,192.000000,0.000000,0.000000,0.000000,0.000000,0.000000,0.000000,0.000000,0.000000,0.000000,1647855165.182988,0.000000
117.000000,23790.101563,9982.758460,17799.208200,18650.832015,-9327.852348,19498.432517,35032.045547,35627.786592,-0.092000,0.980000,0.062000,192.000000,0.000000,0.000000,0.000000,0.000000,0.000000,0.000000,0.000000,0.000000,0.000000,1647855165.191003,0.000000
118.000000,23793.499028,9987.273513,17801.443374,18654.587108,-9323.717275,19502.478183,35032.917265,35633.016900,-0.090000,0.980000,0.058000,192.000000,253.000000,48.000000,30.000000,160.000000,1.000000,208.000000,0.000000,0.000000,0.000000,1647855165.191019,0.000000
119.000000,23792.023813,9985.015987,17800.705767,18654.654164,-9324.879566,19505.383909,35031.531457,35635.006205,-0.090000,0.980000,0.058000,192.000000,0.000000,0.000000,0.000000,0.000000,0.000000,0.000000,0.000000,0.000000,0.000000,1647855165.197509,0.000000
120.000000,23798.751688,9991.542696,17807.880677,18658.096332,-9318.151691,19517.632665,35046.440070,35647.992569,-0.090000,0.980000,0.058000,192.000000,0.000000,0.000000,0.000000,0.000000,0.000000,0.000000,0.000000,0.000000,0.000000,1647855165.197525,0.000000
121.000000,23791.755592,9983.250199,17802.873886,18651.323754,-9325.125435,19514.391662,35043.556695,35642.851668,-0.090000,0.980000,0.058000,192.000000,0.000000,0.000000,0.000000,0.000000,0.000000,0.000000,0.000000,0.000000,0.000000,1647855165.205432,0.000000
122.000000,23793.342566,9989.888667,17809.601761,18657.738704,-9320.163348,19517.386796,35045.456594,35640.661197,-0.090000,0.980000,0.058000,192.000000,0.000000,0.000000,0.000000,0.000000,0.000000,0.000000,0.000000,0.000000,0.000000,1647855165.205449,0.000000
123.000000,23787.754630,9982.825516,17803.477383,18649.580318,-9325.617173,19509.027244,35035.934751,35632.480458,-0.090000,0.980000,0.058000,192.000000,0.000000,0.000000,0.000000,0.000000,0.000000,0.000000,0.000000,0.000000,0.000000,1647855165.213576,0.000000
124.000000,23789.945101,9984.568952,17803.678549,18649.848539,-9324.946621,19510.457755,35035.666530,35629.999415,-0.090000,0.980000,0.058000,192.000000,0.000000,0.000000,0.000000,0.000000,0.000000,0.000000,0.000000,0.000000,0.000000,1647855165.213593,0.000000
125.000000,23791.442667,9984.636007,17802.851534,18653.156597,-9324.410179,19507.350863,35032.425527,35624.791458,-0.090000,0.980000,0.058000,192.000000,0.000000,0.000000,0.000000,0.000000,0.000000,0.000000,0.000000,0.000000,0.000000,1647855165.220651,0.000000
126.000000,23787.240539,9978.109298,17797.889447,18645.959335,-9329.752246,19503.551066,35028.402213,35620.186999,-0.090000,0.980000,0.058000,192.000000,0.000000,0.000000,0.000000,0.000000,0.000000,0.000000,0.000000,0.000000,0.000000,1647855165.220668,0.000000
127.000000,23797.857618,9992.883801,17810.495831,18655.727047,-9318.799891,19516.716244,35041.545038,35632.502810,-0.090000,0.980000,0.058000,192.000000,0.000000,0.000000,0.000000,0.000000,0.000000,0.000000,0.000000,0.000000,0.000000,1647855165.227205,0.000000
128.000000,23800.472772,9998.494088,17815.592029,18658.632774,-9314.910688,19520.225468,35043.042605,35636.168496,-0.092000,0.974000,0.064000,192.000000,253.000000,32.000000,30.000000,112.000000,2.000000,0.000000,0.000000,0.000000,0.000000,1647855165.235235,0.000000
129.000000,23801.009214,9997.443556,17817.626037,18658.789236,-9313.033141,19522.103014,35043.981379,35637.844877,-0.092000,0.974000,0.064000,192.000000,0.000000,0.000000,0.000000,0.000000,0.000000,0.000000,0.000000,0.000000,0.000000,1647855165.235253,0.000000
130.000000,23801.568008,9991.833269,17816.486098,18659.973879,-9313.793101,19523.421767,35039.801602,35637.196676,-0.092000,0.974000,0.064000,192.000000,0.000000,0.000000,0.000000,0.000000,0.000000,0.000000,0.000000,0.000000,0.000000,1647855165.243205,0.000000
131.000000,23800.048089,9988.279341,17815.413215,18660.756190,-9312.384941,19521.700683,35032.850210,35633.620397,-0.092000,0.974000,0.064000,192.000000,0.000000,0.000000,0.000000,0.000000,0.000000,0.000000,0.000000,0.000000,0.000000,1647855165.243221,0.000000
132.000000,23805.412508,9997.667074,17818.944790,18668.221673,-9304.338313,19524.002913,35033.252541,35635.699110,-0.092000,0.974000,0.064000,192.000000,0.000000,0.000000,0.000000,0.000000,0.000000,0.000000,0.000000,0.000000,0.000000,1647855165.250351,0.000000
133.000000,23811.760403,10007.077158,17824.890354,18676.603577,-9296.358740,19531.222526,35041.187410,35643.745738,-0.092000,0.974000,0.064000,192.000000,0.000000,0.000000,0.000000,0.000000,0.000000,0.000000,0.000000,0.000000,0.000000,1647855165.250367,0.000000
134.000000,23805.300749,10000.326932,17820.688226,18671.529731,-9302.617228,19530.015532,35040.539210,35645.243304,-0.092000,0.974000,0.064000,192.000000,0.000000,0.000000,0.000000,0.000000,0.000000,0.000000,0.000000,0.000000,0.000000,1647855165.257766,0.000000
135.000000,23803.870237,10001.466870,17815.592029,18668.646356,-9307.735778,19531.758968,35043.243771,35643.633979,-0.092000,0.974000,0.064000,192.000000,0.000000,0.000000,0.000000,0.000000,0.000000,0.000000,0.000000,0.000000,0.000000,1647855165.257783,0.000000
136.000000,23810.821630,10007.926525,17823.012808,18673.206112,-9301.007903,19541.057294,35053.257353,35651.322979,-0.092000,0.974000,0.064000,192.000000,0.000000,0.000000,0.000000,0.000000,0.000000,0.000000,0.000000,0.000000,0.000000,1647855165.265863,0.000000
137.000000,23799.154019,9998.963475,17818.050720,18663.617213,-9306.886412,19535.938744,35047.714120,35643.566924,-0.092000,0.974000,0.064000,192.000000,0.000000,0.000000,0.000000,0.000000,0.000000,0.000000,0.000000,0.000000,0.000000,1647855165.265880,0.000000
138.000000,23804.317272,10001.578629,17825.404444,18668.132266,-9302.147842,19543.091302,35052.318579,35647.657293,-0.086000,0.974000,0.060000,192.000000,253.000000,80.000000,30.000000,112.000000,1.000000,224.000000,0.000000,0.000000,0.000000,1647855165.273881,0.000000
139.000000,23805.792487,10002.338589,17833.182851,18667.975803,-9299.979722,19548.455721,35056.654818,35656.083900,-0.086000,0.974000,0.060000,192.000000,0.000000,0.000000,0.000000,0.000000,0.000000,0.000000,0.000000,0.000000,0.000000,1647855165.273898,0.000000
140.000000,23801.791525,9994.269609,17826.276162,18661.963184,-9306.394673,19541.727846,35050.865716,35650.339502,-0.086000,0.974000,0.060000,192.000000,0.000000,0.000000,0.000000,0.000000,0.000000,0.000000,0.000000,0.000000,0.000000,1647855165.280421,0.000000
141.000000,23802.193857,9994.940161,17823.951581,18666.634699,-9306.282914,19540.274982,35048.518783,35644.639807,-0.086000,0.974000,0.060000,192.000000,0.000000,0.000000,0.000000,0.000000,0.000000,0.000000,0.000000,0.000000,0.000000,1647855165.280438,0.000000
142.000000,23803.110278,9997.197687,17827.393750,18674.815437,-9302.147842,19542.308991,35050.977475,35645.958560,-0.086000,0.974000,0.060000,192.000000,0.000000,0.000000,0.000000,0.000000,0.000000,0.000000,0.000000,0.000000,0.000000,1647855165.287458,0.000000
143.000000,23805.434859,9999.030530,17829.785386,18675.798914,-9300.873792,19544.499462,35053.257353,35651.412386,-0.086000,0.974000,0.060000,192.000000,0.000000,0.000000,0.000000,0.000000,0.000000,0.000000,0.000000,0.000000,0.000000,1647855165.295468,0.000000
144.000000,23811.179258,10007.121862,17836.647372,18682.437382,-9292.156612,19551.830834,35058.889992,35659.816642,-0.086000,0.974000,0.060000,192.000000,0.000000,0.000000,0.000000,0.000000,0.000000,0.000000,0.000000,0.000000,0.000000,1647855165.295485,0.000000
145.000000,23814.911999,10010.809900,17838.815491,18687.175952,-9287.194525,19556.971736,35061.594553,35665.873965,-0.086000,0.974000,0.060000,192.000000,0.000000,0.000000,0.000000,0.000000,0.000000,0.000000,0.000000,0.000000,0.000000,1647855165.303543,0.000000
146.000000,23811.581589,10008.530022,17831.864099,18684.203170,-9294.168269,19549.863881,35055.090196,35660.151918,-0.086000,0.974000,0.060000,192.000000,0.000000,0.000000,0.000000,0.000000,0.000000,0.000000,0.000000,0.000000,0.000000,1647855165.303559,0.000000
147.000000,23811.291016,10011.368693,17825.024465,18678.145847,-9300.963199,19541.213756,35047.580009,35653.848726,-0.086000,0.974000,0.060000,192.000000,0.000000,0.000000,0.000000,0.000000,0.000000,0.000000,0.000000,0.000000,0.000000,1647855165.310186,0.000000
148.000000,23809.480525,10005.289019,17818.207183,18672.312042,-9306.417025,19536.341075,35046.529477,35650.004226,-0.084000,0.978000,0.058000,192.000000,253.000000,96.000000,30.000000,144.000000,1.000000,208.000000,0.000000,0.000000,0.000000,1647855165.310203,0.000000
149.000000,23795.197760,9987.787603,17815.592029,18663.147827,-9310.529746,19539.202099,35051.536268,35651.010054,-0.084000,0.978000,0.058000,192.000000,0.000000,0.000000,0.000000,0.000000,0.000000,0.000000,0.000000,0.000000,0.000000,1647855165.318207,0.000000
150.000000,23792.381441,9986.513553,17819.347122,18662.678440,-9310.775615,19544.052427,35059.225268,35650.563020,-0.084000,0.978000,0.058000,192.000000,0.000000,0.000000,0.000000,0.000000,0.000000,0.000000,0.000000,0.000000,0.000000,1647855165.318224,0.000000
151.000000,23795.913016,9990.134536,17818.073072,18659.437437,-9313.927211,19541.549032,35057.057149,35646.249133,-0.084000,0.978000,0.058000,192.000000,0.000000,0.000000,0.000000,0.000000,0.000000,0.000000,0.000000,0.000000,0.000000,1647855165.326076,0.000000
152.000000,23802.216208,9993.599056,17822.409311,18666.098257,-9309.322752,19549.595660,35064.455576,35650.697130,-0.084000,0.978000,0.058000,192.000000,0.000000,0.000000,0.000000,0.000000,0.000000,0.000000,0.000000,0.000000,0.000000,1647855165.326093,0.000000
153.000000,23797.008252,9989.754556,17820.889392,18664.198359,-9311.133243,19548.790997,35062.622733,35650.853592,-0.084000,0.978000,0.058000,192.000000,0.000000,0.000000,0.000000,0.000000,0.000000,0.000000,0.000000,0.000000,0.000000,1647855165.332478,0.000000
154.000000,23791.442667,9985.820649,17814.072110,18655.592937,-9316.296496,19542.018419,35054.754919,35643.723386,-0.084000,0.978000,0.058000,192.000000,0.000000,0.000000,0.000000,0.000000,0.000000,0.000000,0.000000,0.000000,0.000000,1647855165.332490,0.000000
155.000000,23797.656452,9993.107318,17820.285895,18661.873777,-9308.942772,19551.830834,35063.963838,35652.641732,-0.084000,0.978000,0.058000,192.000000,0.000000,0.000000,0.000000,0.000000,0.000000,0.000000,0.000000,0.000000,0.000000,1647855165.340601,0.000000
156.000000,23797.097659,9989.732205,17815.681436,18659.079809,-9311.915554,19543.225413,35054.218478,35645.980912,-0.084000,0.978000,0.058000,192.000000,0.000000,0.000000,0.000000,0.000000,0.000000,0.000000,0.000000,0.000000,0.000000,1647855165.340611,0.000000
157.000000,23807.334758,9995.834231,17819.458880,18666.589995,-9305.858231,19542.308991,35051.759786,35643.857496,-0.084000,0.978000,0.058000,192.000000,0.000000,0.000000,0.000000,0.000000,0.000000,0.000000,0.000000,0.000000,0.000000,1647855165.347816,0.000000
158.000000,23809.525229,9999.365807,17826.276162,18674.323699,-9298.035121,19547.002858,35053.078539,35648.305493,-0.086000,0.976000,0.058000,192.000000,253.000000,80.000000,30.000000,128.000000,1.000000,208.000000,0.000000,0.000000,0.000000,1647855165.347832,0.000000
159.000000,23812.050976,10000.684559,17829.092482,18676.782391,-9296.671664,19547.919279,35053.637332,35651.859421,-0.086000,0.976000,0.058000,192.000000,0.000000,0.000000,0.000000,0.000000,0.000000,0.000000,0.000000,0.000000,0.000000,1647855165.355920,0.000000
160.000000,23808.117069,9998.494088,17821.179965,18671.105048,-9303.779519,19537.793939,35044.294303,35645.645636,-0.086000,0.976000,0.058000,192.000000,0.000000,0.000000,0.000000,0.000000,0.000000,0.000000,0.000000,0.000000,0.000000,1647855165.362389,0.000000
161.000000,23799.265778,9996.437728,17817.447223,18667.439362,-9306.417025,19533.323590,35036.158268,35641.085880,-0.086000,0.976000,0.058000,192.000000,0.000000,0.000000,0.000000,0.000000,0.000000,0.000000,0.000000,0.000000,0.000000,1647855165.362405,0.000000
162.000000,23792.828476,9992.079138,17814.854421,18665.964146,-9312.116720,19530.015532,35027.664605,35634.737985,-0.086000,0.976000,0.058000,192.000000,0.000000,0.000000,0.000000,0.000000,0.000000,0.000000,0.000000,0.000000,0.000000,1647855165.370407,0.000000
163.000000,23802.551484,10004.819632,17825.247982,18679.665766,-9302.170193,19545.728808,35041.388576,35647.187906,-0.086000,0.976000,0.058000,192.000000,0.000000,0.000000,0.000000,0.000000,0.000000,0.000000,0.000000,0.000000,0.000000,1647855165.370423,0.000000
164.000000,23806.932426,10004.797280,17827.661971,18682.124458,-9296.828127,19553.820140,35050.128108,35654.899258,-0.086000,0.976000,0.058000,192.000000,0.000000,0.000000,0.000000,0.000000,0.000000,0.000000,0.000000,0.000000,0.000000,1647855165.378092,0.000000
165.000000,23805.881894,10000.930429,17824.935058,18676.760039,-9300.158536,19553.551919,35051.670379,35654.742796,-0.086000,0.976000,0.058000,192.000000,0.000000,0.000000,0.000000,0.000000,0.000000,0.000000,0.000000,0.000000,0.000000,1647855165.378100,0.000000
166.000000,23805.524266,10001.310408,17826.432625,18676.380059,-9298.571563,19555.250651,35057.839460,35655.860383,-0.086000,0.976000,0.058000,192.000000,0.000000,0.000000,0.000000,0.000000,0.000000,0.000000,0.000000,0.000000,0.000000,1647855165.385605,0.000000
167.000000,23801.880932,9998.292923,17822.386959,18668.668707,-9302.885449,19551.473206,35058.621771,35652.395863,-0.086000,0.976000,0.058000,192.000000,0.000000,0.000000,0.000000,0.000000,0.000000,0.000000,0.000000,0.000000,0.000000,1647855165.385622,0.000000
168.000000,23799.377537,9993.822574,17815.659084,18657.984574,-9310.775615,19546.242898,35057.392425,35646.204429,-0.086000,0.978000,0.060000,192.000000,253.000000,80.000000,30.000000,144.000000,1.000000,224.000000,0.000000,0.000000,0.000000,1647855165.392795,0.000000
169.000000,23795.868313,9990.067481,17815.279104,18657.336373,-9307.825185,19549.394494,35060.476966,35646.383243,-0.086000,0.978000,0.060000,192.000000,0.000000,0.000000,0.000000,0.000000,0.000000,0.000000,0.000000,0.000000,0.000000,1647855165.392807,0.000000
170.000000,23795.465981,9987.966417,17816.351988,18657.448132,-9305.634714,19553.395456,35064.165004,35650.652427,-0.086000,0.978000,0.060000,192.000000,0.000000,0.000000,0.000000,0.000000,0.000000,0.000000,0.000000,0.000000,0.000000,1647855165.400933,0.000000
171.000000,23798.841095,9992.012083,17818.229534,18659.482140,-9304.628885,19553.060180,35064.209707,35651.322979,-0.086000,0.978000,0.060000,192.000000,0.000000,0.000000,0.000000,0.000000,0.000000,0.000000,0.000000,0.000000,0.000000,1647855165.400942,0.000000
172.000000,23799.154019,9992.660283,17817.201354,18662.298460,-9305.835880,19547.092265,35059.627600,35650.831241,-0.086000,0.978000,0.060000,192.000000,0.000000,0.000000,0.000000,0.000000,0.000000,0.000000,0.000000,0.000000,0.000000,1647855165.408826,0.000000
173.000000,23792.582606,9986.312388,17811.456956,18658.409257,-9310.932077,19537.548070,35049.569315,35643.566924,-0.086000,0.978000,0.060000,192.000000,0.000000,0.000000,0.000000,0.000000,0.000000,0.000000,0.000000,0.000000,0.000000,1647855165.408842,0.000000
174.000000,23792.493199,9987.720548,17812.239267,18659.482140,-9310.216821,19537.592773,35047.065919,35641.689377,-0.086000,0.978000,0.060000,192.000000,0.000000,0.000000,0.000000,0.000000,0.000000,0.000000,0.000000,0.000000,0.000000,1647855165.414974,0.000000
175.000000,23795.465981,9989.486335,17813.736834,18660.823245,-9308.853365,19536.117558,35043.355530,35641.219990,-0.086000,0.978000,0.060000,192.000000,0.000000,0.000000,0.000000,0.000000,0.000000,0.000000,0.000000,0.000000,0.000000,1647855165.422615,0.000000
176.000000,23797.522342,9990.380405,17816.776671,18662.723143,-9307.087577,19532.653038,35039.443974,35639.521258,-0.086000,0.978000,0.060000,192.000000,0.000000,0.000000,0.000000,0.000000,0.000000,0.000000,0.000000,0.000000,0.000000,1647855165.422631,0.000000
177.000000,23808.027662,9999.701083,17824.040988,18672.848484,-9300.694978,19538.419788,35046.149498,35647.009092,-0.086000,0.978000,0.060000,192.000000,0.000000,0.000000,0.000000,0.000000,0.000000,0.000000,0.000000,0.000000,0.000000,1647855165.430490,0.000000
178.000000,23804.361976,9995.275437,17818.497755,18667.305251,-9306.528784,19531.133119,35038.885181,35641.152935,-0.086000,0.978000,0.060000,192.000000,253.000000,80.000000,30.000000,144.000000,1.000000,224.000000,0.000000,0.000000,0.000000,1647855165.430505,0.000000
179.000000,23795.108354,9985.843001,17810.764052,18658.856292,-9313.256659,19525.321665,35033.654873,35633.642749,-0.086000,0.978000,0.060000,192.000000,0.000000,0.000000,0.000000,0.000000,0.000000,0.000000,0.000000,0.000000,0.000000,1647855165.438644,0.000000
180.000000,23797.254121,9985.843001,17814.250924,18660.398562,-9311.759092,19529.859070,35040.114527,35637.084918,-0.086000,0.978000,0.060000,192.000000,0.000000,0.000000,0.000000,0.000000,0.000000,0.000000,0.000000,0.000000,0.000000,1647855165.438661,0.000000
181.000000,23790.190970,9976.209399,17807.925380,18649.066228,-9319.135167,19523.421767,35032.984320,35631.228761,-0.086000,0.978000,0.060000,192.000000,0.000000,0.000000,0.000000,0.000000,0.000000,0.000000,0.000000,0.000000,0.000000,1647855165.445176,0.000000
182.000000,23797.477638,9987.407623,17815.793194,18657.761056,-9309.702731,19533.837680,35043.914323,35638.314264,-0.086000,0.978000,0.060000,192.000000,0.000000,0.000000,0.000000,0.000000,0.000000,0.000000,0.000000,0.000000,0.000000,1647855165.445193,0.000000
183.000000,23799.869275,9991.721510,17813.200392,18658.275146,-9307.802833,19539.827948,35051.357454,35645.511525,-0.086000,0.978000,0.060000,192.000000,0.000000,0.000000,0.000000,0.000000,0.000000,0.000000,0.000000,0.000000,0.000000,1647855165.453357,0.000000
184.000000,23793.074345,9990.603923,17812.731005,18656.196434,-9308.987476,19542.778378,35055.157251,35645.064490,-0.086000,0.978000,0.060000,192.000000,0.000000,0.000000,0.000000,0.000000,0.000000,0.000000,0.000000,0.000000,0.000000,1647855165.453373,0.000000
185.000000,23789.252196,9986.111222,17814.765014,18655.861158,-9311.312057,19541.303163,35052.922076,35642.851668,-0.086000,0.978000,0.060000,192.000000,0.000000,0.000000,0.000000,0.000000,0.000000,0.000000,0.000000,0.000000,0.000000,1647855165.461080,0.000000
186.000000,23792.828476,9988.972245,17820.129433,18662.164350,-9305.053568,19545.080608,35054.978437,35647.500831,-0.086000,0.978000,0.060000,192.000000,0.000000,0.000000,0.000000,0.000000,0.000000,0.000000,0.000000,0.000000,0.000000,1647855165.461096,0.000000
187.000000,23799.936330,9995.811879,17828.399578,18669.920405,-9296.783423,19549.729770,35060.678132,35653.133470,-0.086000,0.978000,0.060000,192.000000,0.000000,0.000000,0.000000,0.000000,0.000000,0.000000,0.000000,0.000000,0.000000,1647855165.468468,0.000000
188.000000,23800.226903,9992.079138,17823.884526,18665.740629,-9301.834917,19540.923183,35051.625675,35646.070319,-0.086000,0.982000,0.058000,192.000000,253.000000,80.000000,30.000000,176.000000,1.000000,208.000000,0.000000,0.000000,0.000000,1647855165.468484,0.000000
189.000000,23794.415449,9984.457193,17814.474441,18656.107027,-9311.535574,19527.825061,35035.308902,35633.218066,-0.086000,0.982000,0.058000,192.000000,0.000000,0.000000,0.000000,0.000000,0.000000,0.000000,0.000000,0.000000,0.000000,1647855165.474898,0.000000
190.000000,23792.850827,9985.887705,17813.021578,18652.776617,-9312.541403,19520.918372,35025.831762,35624.634996,-0.086000,0.982000,0.058000,192.000000,0.000000,0.000000,0.000000,0.000000,0.000000,0.000000,0.000000,0.000000,0.000000,1647855165.482946,0.000000
191.000000,23787.419353,9985.887705,17813.200392,18654.430646,-9309.188641,19517.655017,35021.137896,35621.863380,-0.086000,0.982000,0.058000,192.000000,0.000000,0.000000,0.000000,0.000000,0.000000,0.000000,0.000000,0.000000,0.000000,1647855165.482962,0.000000
192.000000,23791.934406,9994.984865,17821.336427,18667.551120,-9298.795080,19526.998046,35030.637387,35628.814772,-0.086000,0.982000,0.058000,192.000000,0.000000,0.000000,0.000000,0.000000,0.000000,0.000000,0.000000,0.000000,0.000000,1647855165.491056,0.000000
193.000000,23803.512609,10003.970266,17832.177023,18679.174027,-9288.557981,19535.022323,35037.767594,35637.733118,-0.086000,0.982000,0.058000,192.000000,0.000000,0.000000,0.000000,0.000000,0.000000,0.000000,0.000000,0.000000,0.000000,1647855165.491073,0.000000
194.000000,23802.976168,10000.572801,17824.599782,18672.289690,-9296.291685,19527.333322,35029.139820,35634.715633,-0.086000,0.982000,0.058000,192.000000,0.000000,0.000000,0.000000,0.000000,0.000000,0.000000,0.000000,0.000000,0.000000,1647855165.497594,0.000000
195.000000,23793.856656,9991.945027,17816.955485,18661.784370,-9305.590010,19523.824099,35028.044585,35633.553342,-0.086000,0.982000,0.058000,192.000000,0.000000,0.000000,0.000000,0.000000,0.000000,0.000000,0.000000,0.000000,0.000000,1647855165.497612,0.000000
196.000000,23789.788638,9988.815783,17814.697959,18657.135207,-9308.920420,19523.622933,35026.882294,35632.055775,-0.086000,0.982000,0.058000,192.000000,0.000000,0.000000,0.000000,0.000000,0.000000,0.000000,0.000000,0.000000,0.000000,1647855165.505381,0.000000
197.000000,23801.947987,9997.689426,17824.018636,18666.232367,-9299.711502,19531.982485,35032.827858,35639.588313,-0.086000,0.982000,0.058000,192.000000,0.000000,0.000000,0.000000,0.000000,0.000000,0.000000,0.000000,0.000000,0.000000,1647855165.505397,0.000000
198.000000,23800.070441,9996.415376,17821.068206,18665.561815,-9301.499641,19530.149642,35032.760803,35640.996473,-0.082000,0.984000,0.054000,192.000000,253.000000,112.000000,30.000000,192.000000,1.000000,176.000000,0.000000,0.000000,0.000000,1647855165.513600,0.000000
199.000000,23799.489295,10000.930429,17818.587162,18664.176007,-9304.785348,19532.541279,35036.560599,35645.891505,-0.082000,0.984000,0.054000,192.000000,0.000000,0.000000,0.000000,0.000000,0.000000,0.000000,0.000000,0.000000,0.000000,1647855165.513618,0.000000
200.000000,23795.868313,9997.734129,17810.495831,18658.073981,-9313.211955,19527.735654,35036.158268,35643.745738,-0.082000,0.984000,0.054000,192.000000,0.000000,0.000000,0.000000,0.000000,0.000000,0.000000,0.000000,0.000000,0.000000,1647855165.520689,0.000000
201.000000,23803.736127,9998.449385,17810.607590,18657.090504,-9314.329542,19526.260439,35035.465364,35641.063528,-0.082000,0.984000,0.054000,192.000000,0.000000,0.000000,0.000000,0.000000,0.000000,0.000000,0.000000,0.000000,0.000000,1647855165.520701,0.000000
202.000000,23790.503894,9981.976149,17806.561924,18648.529786,-9317.458787,19523.108843,35032.738451,35635.028557,-0.082000,0.984000,0.054000,192.000000,0.000000,0.000000,0.000000,0.000000,0.000000,0.000000,0.000000,0.000000,0.000000,1647855165.528238,0.000000
203.000000,23788.671051,9983.808992,17813.513316,18654.542405,-9310.015656,19531.468395,35040.628617,35643.633979,-0.082000,0.984000,0.054000,192.000000,0.000000,0.000000,0.000000,0.000000,0.000000,0.000000,0.000000,0.000000,0.000000,1647855165.528255,0.000000
204.000000,23788.089906,9985.328911,17810.339369,18650.273222,-9313.457824,19525.098148,35034.057204,35635.855572,-0.082000,0.984000,0.054000,192.000000,0.000000,0.000000,0.000000,0.000000,0.000000,0.000000,0.000000,0.000000,0.000000,1647855165.535239,0.000000
205.000000,23782.278452,9975.047109,17802.359796,18641.868966,-9320.252755,19518.951418,35026.994053,35625.730231,-0.082000,0.984000,0.054000,192.000000,0.000000,0.000000,0.000000,0.000000,0.000000,0.000000,0.000000,0.000000,0.000000,1647855165.543261,0.000000
206.000000,23783.887778,9973.370728,17799.901104,18637.823300,-9324.365476,19515.397491,35021.897855,35619.359984,-0.082000,0.984000,0.054000,192.000000,0.000000,0.000000,0.000000,0.000000,0.000000,0.000000,0.000000,0.000000,0.000000,1647855165.543278,0.000000
207.000000,23789.654528,9980.992673,17801.801002,18645.087617,-9319.805720,19517.543258,35022.344890,35621.282234,-0.082000,0.984000,0.054000,192.000000,0.000000,0.000000,0.000000,0.000000,0.000000,0.000000,0.000000,0.000000,0.000000,1647855165.550352,0.000000
208.000000,23780.311499,9975.896475,17799.141145,18644.729989,-9320.968011,19513.966979,35014.901759,35617.929473,-0.082000,0.984000,0.054000,192.000000,0.000000,0.000000,0.000000,0.000000,0.000000,0.000000,0.000000,0.000000,0.000000,1647855165.550371,0.000000
209.000000,23786.748801,9983.294902,17807.500697,18652.329582,-9311.870851,19522.080662,35020.288529,35624.724403,-0.084000,0.984000,0.058000,192.000000,253.000000,96.000000,30.000000,192.000000,1.000000,208.000000,0.000000,0.000000,0.000000,1647855165.557868,0.000000
210.000000,23791.263853,9987.228809,17810.853459,18655.570585,-9310.730912,19525.947514,35026.882294,35632.055775,-0.084000,0.984000,0.058000,192.000000,0.000000,0.000000,0.000000,0.000000,0.000000,0.000000,0.000000,0.000000,0.000000,1647855165.557884,0.000000
211.000000,23790.369784,9986.334739,17808.886505,18654.877681,-9311.110891,19521.857145,35022.926035,35629.462973,-0.084000,0.984000,0.058000,192.000000,0.000000,0.000000,0.000000,0.000000,0.000000,0.000000,0.000000,0.000000,0.000000,1647855165.565836,0.000000
212.000000,23795.197760,9989.084004,17810.562886,18653.581280,-9310.283877,19518.750253,35019.729736,35626.959577,-0.084000,0.984000,0.058000,192.000000,0.000000,0.000000,0.000000,0.000000,0.000000,0.000000,0.000000,0.000000,0.000000,1647855165.565852,0.000000
213.000000,23778.880987,9971.582588,17799.901104,18641.712504,-9322.443226,19504.534543,35007.503332,35617.080106,-0.084000,0.984000,0.058000,192.000000,0.000000,0.000000,0.000000,0.000000,0.000000,0.000000,0.000000,0.000000,0.000000,1647855165.573868,0.000000
214.000000,23781.026755,9972.074327,17799.208200,18642.450111,-9322.219708,19508.490802,35014.410021,35622.355118,-0.084000,0.984000,0.058000,192.000000,0.000000,0.000000,0.000000,0.000000,0.000000,0.000000,0.000000,0.000000,0.000000,1647855165.573886,0.000000
215.000000,23786.659394,9980.053899,17802.248037,18643.947678,-9318.129339,19511.798860,35015.773477,35626.758412,-0.084000,0.984000,0.058000,192.000000,0.000000,0.000000,0.000000,0.000000,0.000000,0.000000,0.000000,0.000000,0.000000,1647855165.580486,0.000000
216.000000,23795.063650,9989.016949,17812.708654,18654.140074,-9306.975819,19523.578229,35025.138858,35635.319130,-0.084000,0.984000,0.058000,192.000000,0.000000,0.000000,0.000000,0.000000,0.000000,0.000000,0.000000,0.000000,0.000000,1647855165.580503,0.000000
217.000000,23802.707947,9995.901286,17823.638657,18665.584167,-9297.565734,19532.273058,35033.878390,35641.063528,-0.084000,0.984000,0.058000,192.000000,0.000000,0.000000,0.000000,0.000000,0.000000,0.000000,0.000000,0.000000,0.000000,1647855165.588475,0.000000
218.000000,23795.220112,9989.061652,17812.954523,18656.799931,-9309.412159,19517.900886,35020.221474,35626.557246,-0.084000,0.984000,0.058000,192.000000,0.000000,0.000000,0.000000,0.000000,0.000000,0.000000,0.000000,0.000000,0.000000,1647855165.588492,0.000000
219.000000,23789.095734,9986.781774,17811.903991,18650.742608,-9313.502528,19514.481069,35017.271044,35619.985833,-0.084000,0.974000,0.064000,192.000000,253.000000,96.000000,30.000000,112.000000,2.000000,0.000000,0.000000,0.000000,0.000000,1647855165.595434,0.000000
220.000000,23790.593301,9990.022777,17818.341293,18654.296536,-9304.897106,19519.666674,35023.194256,35622.824505,-0.084000,0.974000,0.064000,192.000000,0.000000,0.000000,0.000000,0.000000,0.000000,0.000000,0.000000,0.000000,0.000000,1647855165.595450,0.000000
221.000000,23796.382403,9990.000426,17820.911744,18656.799931,-9300.940848,19518.683197,35022.724870,35620.365813,-0.084000,0.974000,0.064000,192.000000,0.000000,0.000000,0.000000,0.000000,0.000000,0.000000,0.000000,0.000000,0.000000,1647855165.603626,0.000000
222.000000,23805.926598,9997.622370,17828.511337,18662.745495,-9294.905877,19525.276962,35030.279759,35627.719537,-0.084000,0.974000,0.064000,192.000000,0.000000,0.000000,0.000000,0.000000,0.000000,0.000000,0.000000,0.000000,0.000000,1647855165.610083,0.000000
223.000000,23798.505819,9988.525210,17822.074034,18655.928213,-9302.639580,19516.291561,35021.629634,35618.532970,-0.084000,0.974000,0.064000,192.000000,0.000000,0.000000,0.000000,0.000000,0.000000,0.000000,0.000000,0.000000,0.000000,1647855165.610099,0.000000
224.000000,23787.419353,9980.366824,17815.569677,18652.441341,-9309.032179,19511.038901,35015.996994,35609.927548,-0.084000,0.974000,0.064000,192.000000,0.000000,0.000000,0.000000,0.000000,0.000000,0.000000,0.000000,0.000000,0.000000,1647855165.618189,0.000000
225.000000,23785.966490,9981.864391,17813.200392,18652.240175,-9309.859194,19512.178840,35014.879407,35613.302662,-0.084000,0.974000,0.064000,192.000000,0.000000,0.000000,0.000000,0.000000,0.000000,0.000000,0.000000,0.000000,0.000000,1647855165.618207,0.000000
226.000000,23800.316310,9998.739958,17822.118738,18662.253757,-9300.136185,19525.992218,35026.032928,35625.663176,-0.084000,0.974000,0.064000,192.000000,0.000000,0.000000,0.000000,0.000000,0.000000,0.000000,0.000000,0.000000,0.000000,1647855165.626203,0.000000
227.000000,23803.423202,9995.767176,17816.709616,18661.560853,-9303.980685,19526.349846,35028.402213,35626.959577,-0.084000,0.974000,0.064000,192.000000,0.000000,0.000000,0.000000,0.000000,0.000000,0.000000,0.000000,0.000000,0.000000,1647855165.626219,0.000000
228.000000,23798.997557,9989.955722,17807.523049,18655.525882,-9310.775615,19525.008741,35026.278797,35627.808944,-0.084000,0.974000,0.064000,192.000000,0.000000,0.000000,0.000000,0.000000,0.000000,0.000000,0.000000,0.000000,0.000000,1647855165.633328,0.000000
229.000000,23784.670089,9980.567989,17799.007034,18647.926289,-9319.090464,19518.750253,35022.747221,35625.909045,-0.092000,0.976000,0.058000,192.000000,253.000000,32.000000,30.000000,128.000000,1.000000,208.000000,0.000000,0.000000,0.000000,1647855165.633344,0.000000
230.000000,23789.185141,9986.960588,17805.354930,18652.195472,-9313.904859,19524.494651,35031.263236,35634.916798,-0.092000,0.976000,0.058000,192.000000,0.000000,0.000000,0.000000,0.000000,0.000000,0.000000,0.000000,0.000000,0.000000,1647855165.640768,0.000000
231.000000,23798.639929,9992.369710,17810.562886,18654.900033,-9309.345103,19526.729825,35035.264198,35641.018825,-0.092000,0.976000,0.058000,192.000000,0.000000,0.000000,0.000000,0.000000,0.000000,0.000000,0.000000,0.000000,0.000000,1647855165.640784,0.000000
232.000000,23782.323156,9980.925617,17806.271351,18647.456902,-9314.553060,19520.426633,35029.720966,35633.799211,-0.092000,0.976000,0.058000,192.000000,0.000000,0.000000,0.000000,0.000000,0.000000,0.000000,0.000000,0.000000,0.000000,1647855165.648778,0.000000
233.000000,23781.183217,9984.971283,17809.557058,18650.161463,-9311.870851,19523.175898,35031.062070,35630.781726,-0.092000,0.976000,0.058000,192.000000,0.000000,0.000000,0.000000,0.000000,0.000000,0.000000,0.000000,0.000000,0.000000,1647855165.648794,0.000000
234.000000,23796.091830,9993.666112,17819.995322,18659.817417,-9301.030254,19533.994142,35039.958065,35636.861400,-0.092000,0.976000,0.058000,192.000000,0.000000,0.000000,0.000000,0.000000,0.000000,0.000000,0.000000,0.000000,0.000000,1647855165.655927,0.000000
235.000000,23792.716717,9985.865353,17815.457918,18655.637640,-9306.618191,19526.238087,35035.040681,35630.021766,-0.092000,0.976000,0.058000,192.000000,0.000000,0.000000,0.000000,0.000000,0.000000,0.000000,0.000000,0.000000,0.000000,1647855165.655944,0.000000
236.000000,23790.906226,9985.485373,17811.836936,18653.938908,-9307.199336,19521.298351,35030.235056,35623.718574,-0.092000,0.976000,0.058000,192.000000,0.000000,0.000000,0.000000,0.000000,0.000000,0.000000,0.000000,0.000000,0.000000,1647855165.662452,0.000000
237.000000,23794.974243,9990.201591,17814.385034,18656.934042,-9303.220725,19523.600581,35031.620864,35624.590293,-0.092000,0.976000,0.058000,192.000000,0.000000,0.000000,0.000000,0.000000,0.000000,0.000000,0.000000,0.000000,0.000000,1647855165.670316,0.000000
238.000000,23795.130705,9992.995559,17819.615343,18657.336373,-9299.845612,19530.194346,35036.650006,35628.345386,-0.092000,0.976000,0.058000,192.000000,0.000000,0.000000,0.000000,0.000000,0.000000,0.000000,0.000000,0.000000,0.000000,1647855165.670327,0.000000
239.000000,23796.851790,9991.363882,17821.224668,18658.096332,-9298.459804,19533.502404,35042.260294,35633.419232,-0.088000,0.974000,0.054000,192.000000,253.000000,64.000000,30.000000,112.000000,1.000000,176.000000,0.000000,0.000000,0.000000,1647855165.678304,0.000000
240.000000,23800.003386,9992.637931,17818.453052,18655.615289,-9299.912667,19530.484918,35041.992073,35635.207371,-0.088000,0.974000,0.054000,192.000000,0.000000,0.000000,0.000000,0.000000,0.000000,0.000000,0.000000,0.000000,0.000000,1647855165.678315,0.000000
241.000000,23791.956758,9988.078176,17811.412252,18646.942812,-9309.635676,19523.332360,35034.772460,35632.212237,-0.088000,0.974000,0.054000,192.000000,0.000000,0.000000,0.000000,0.000000,0.000000,0.000000,0.000000,0.000000,0.000000,1647855165.685717,0.000000
242.000000,23792.627310,9990.872144,17813.468613,18652.396637,-9309.389807,19527.847413,35037.275855,35639.275389,-0.088000,0.974000,0.054000,192.000000,0.000000,0.000000,0.000000,0.000000,0.000000,0.000000,0.000000,0.000000,0.000000,1647855165.685733,0.000000
243.000000,23789.632176,9986.804126,17809.065319,18651.480216,-9314.776577,19520.583096,35031.531457,35639.275389,-0.088000,0.974000,0.054000,192.000000,0.000000,0.000000,0.000000,0.000000,0.000000,0.000000,0.000000,0.000000,0.000000,1647855165.693573,0.000000
244.000000,23790.883874,9990.313350,17809.400595,18653.514225,-9313.591935,19519.621971,35026.390556,35637.576656,-0.088000,0.974000,0.054000,192.000000,0.000000,0.000000,0.000000,0.000000,0.000000,0.000000,0.000000,0.000000,0.000000,1647855165.693589,0.000000
245.000000,23789.431010,9985.597132,17805.131412,18649.736780,-9317.481138,19514.972808,35019.550922,35635.944979,-0.088000,0.974000,0.054000,192.000000,0.000000,0.000000,0.000000,0.000000,0.000000,0.000000,0.000000,0.000000,0.000000,1647855165.701057,0.000000
246.000000,23774.790618,9969.235655,17795.877790,18637.532727,-9328.545252,19500.131249,35004.821122,35623.673871,-0.088000,0.974000,0.054000,192.000000,0.000000,0.000000,0.000000,0.000000,0.000000,0.000000,0.000000,0.000000,0.000000,1647855165.701074,0.000000
247.000000,23781.920824,9973.504838,17800.459898,18643.344181,-9321.169176,19500.600636,35002.116561,35618.935301,-0.088000,0.974000,0.054000,192.000000,0.000000,0.000000,0.000000,0.000000,0.000000,0.000000,0.000000,0.000000,0.000000,1647855165.709114,0.000000
248.000000,23796.248292,9986.245333,17810.182906,18651.927251,-9311.110891,19507.686139,35008.017422,35620.701089,-0.088000,0.974000,0.054000,192.000000,0.000000,0.000000,0.000000,0.000000,0.000000,0.000000,0.000000,0.000000,0.000000,1647855165.709131,0.000000
249.000000,23797.209417,9987.541734,17810.741700,18651.703733,-9311.356760,19510.256590,35013.560654,35622.243359,-0.088000,0.974000,0.056000,192.000000,253.000000,64.000000,30.000000,112.000000,1.000000,192.000000,0.000000,0.000000,0.000000,1647855165.715660,0.000000
250.000000,23794.683670,9987.228809,17807.925380,18646.719294,-9313.234307,19507.462622,35011.325480,35618.041231,-0.088000,0.974000,0.056000,192.000000,0.000000,0.000000,0.000000,0.000000,0.000000,0.000000,0.000000,0.000000,0.000000,1647855165.715676,0.000000
251.000000,23794.840133,9987.049995,17812.462784,18650.273222,-9310.239173,19512.625875,35017.606320,35623.316243,-0.088000,0.974000,0.056000,192.000000,0.000000,0.000000,0.000000,0.000000,0.000000,0.000000,0.000000,0.000000,0.000000,1647855165.722592,0.000000
252.000000,23790.995633,9985.664187,17810.898162,18652.150768,-9311.446167,19514.436366,35022.546056,35626.691357,-0.088000,0.974000,0.056000,192.000000,0.000000,0.000000,0.000000,0.000000,0.000000,0.000000,0.000000,0.000000,0.000000,1647855165.730683,0.000000
253.000000,23793.297862,9991.118013,17812.820412,18651.994306,-9309.412159,19516.895058,35029.251579,35633.620397,-0.088000,0.974000,0.056000,192.000000,0.000000,0.000000,0.000000,0.000000,0.000000,0.000000,0.000000,0.000000,0.000000,1647855165.730699,0.000000
254.000000,23789.453362,9985.530077,17805.176116,18643.500643,-9315.692999,19512.424709,35025.898817,35633.508639,-0.088000,0.974000,0.056000,192.000000,0.000000,0.000000,0.000000,0.000000,0.000000,0.000000,0.000000,0.000000,0.000000,1647855165.738645,0.000000
255.000000,23791.174446,9983.831344,17802.896238,18643.500643,-9316.899993,19513.475241,35026.591721,35637.800173,-0.088000,0.974000,0.056000,192.000000,0.000000,0.000000,0.000000,0.000000,0.000000,0.000000,0.000000,0.000000,0.000000,1647855165.738662,0.000000
0.000000,23787.866388,9982.534943,17803.142107,18642.159539,-9318.174042,19512.156488,35022.858980,35634.849743,-0.088000,0.974000,0.056000,192.000000,0.000000,0.000000,0.000000,0.000000,0.000000,0.000000,0.000000,0.000000,0.000000,1647855165.745419,0.000000
1.000000,23791.107391,9988.368748,17811.121680,18652.195472,-9307.959295,19520.471337,35028.603378,35640.840011,-0.088000,0.974000,0.056000,192.000000,0.000000,0.000000,0.000000,0.000000,0.000000,0.000000,0.000000,0.000000,0.000000,1647855165.745436,0.000000
2.000000,23785.027717,9977.885780,17799.789345,18642.830091,-9319.336333,19505.898000,35013.135971,35624.724403,-0.088000,0.974000,0.056000,192.000000,0.000000,0.000000,0.000000,0.000000,0.000000,0.000000,0.000000,0.000000,0.000000,1647855165.753358,0.000000
3.000000,23796.404755,9990.849792,17811.725177,18653.424818,-9307.735778,19517.140927,35022.300186,35632.435755,-0.084000,0.974000,0.062000,192.000000,253.000000,96.000000,30.000000,112.000000,1.000000,240.000000,0.000000,0.000000,0.000000,1647855165.753374,0.000000
4.000000,23792.224978,9992.682635,17816.173174,18654.408294,-9304.137147,19518.884363,35021.964910,35634.134487,-0.084000,0.974000,0.062000,192.000000,0.000000,0.000000,0.000000,0.000000,0.000000,0.000000,0.000000,0.000000,0.000000,1647855165.761394,0.000000
5.000000,23797.209417,10000.326932,17822.632828,18658.945699,-9297.364568,19520.314875,35021.897855,35635.676758,-0.084000,0.974000,0.062000,192.000000,0.000000,0.000000,0.000000,0.000000,0.000000,0.000000,0.000000,0.000000,0.000000,1647855165.761410,0.000000
6.000000,23793.879008,9994.113147,17819.056549,18656.241138,-9298.616266,19516.917410,35021.763745,35632.703976,-0.084000,0.974000,0.062000,192.000000,0.000000,0.000000,0.000000,0.000000,0.000000,0.000000,0.000000,0.000000,0.000000,1647855165.768561,0.000000
7.000000,23797.567045,9994.716644,17820.889392,18658.655126,-9297.297513,19521.320703,35028.156343,35636.704938,-0.084000,0.974000,0.062000,192.000000,0.000000,0.000000,0.000000,0.000000,0.000000,0.000000,0.000000,0.000000,0.000000,1647855165.768577,0.000000
8.000000,23789.609824,9982.847867,17811.903991,18646.696943,-9306.595839,19515.799822,35022.322538,35630.871133,-0.084000,0.974000,0.062000,192.000000,0.000000,0.000000,0.000000,0.000000,0.000000,0.000000,0.000000,0.000000,0.000000,1647855165.775940,0.000000
9.000000,23782.725487,9977.103469,17808.551229,18637.912707,-9311.043836,19513.251723,35020.847323,35629.239455,-0.084000,0.974000,0.062000,192.000000,0.000000,0.000000,0.000000,0.000000,0.000000,0.000000,0.000000,0.000000,0.000000,1647855165.775957,0.000000
10.000000,23793.722545,9985.820649,17820.241191,18646.674591,-9302.214897,19521.588924,35029.296282,35634.626226,-0.084000,0.974000,0.062000,192.000000,0.000000,0.000000,0.000000,0.000000,0.000000,0.000000,0.000000,0.000000,0.000000,1647855165.783024,0.000000
11.000000,23793.901359,9984.121917,17820.174136,18646.115797,-9303.176022,19523.086491,35029.832724,35634.022729,-0.084000,0.974000,0.062000,192.000000,0.000000,0.000000,0.000000,0.000000,0.000000,0.000000,0.000000,0.000000,0.000000,1647855165.791031,0.000000
12.000000,23786.502932,9979.673920,17809.959389,18639.387922,-9311.379112,19519.689026,35027.172867,35629.105345,-0.084000,0.974000,0.062000,192.000000,0.000000,0.000000,0.000000,0.000000,0.000000,0.000000,0.000000,0.000000,0.000000,1647855165.791048,0.000000
13.000000,23776.198778,9972.700175,17801.912761,18631.207184,-9320.968011,19515.196325,35022.031965,35626.110211,-0.086000,0.980000,0.060000,192.000000,253.000000,80.000000,30.000000,160.000000,1.000000,224.000000,0.000000,0.000000,0.000000,1647855165.798093,0.000000
14.000000,23780.557368,9978.332815,17808.707691,18633.978800,-9318.174042,19522.192421,35026.815239,35632.435755,-0.086000,0.980000,0.060000,192.000000,0.000000,0.000000,0.000000,0.000000,0.000000,0.000000,0.000000,0.000000,0.000000,1647855165.798109,0.000000
15.000000,23783.172522,9983.272550,17808.595933,18636.929230,-9317.235269,19522.147718,35028.469268,35635.319130,-0.086000,0.980000,0.060000,192.000000,0.000000,0.000000,0.000000,0.000000,0.000000,0.000000,0.000000,0.000000,0.000000,1647855165.805435,0.000000
16.000000,23791.844999,9992.012083,17813.692130,18642.986553,-9309.926249,19525.791052,35032.380823,35639.677720,-0.086000,0.980000,0.060000,192.000000,0.000000,0.000000,0.000000,0.000000,0.000000,0.000000,0.000000,0.000000,0.000000,1647855165.805453,0.000000
17.000000,23793.186103,9991.833269,17815.301456,18647.702771,-9304.494775,19524.204078,35029.452745,35641.041176,-0.086000,0.980000,0.060000,192.000000,0.000000,0.000000,0.000000,0.000000,0.000000,0.000000,0.000000,0.000000,0.000000,1647855165.813628,0.000000
18.000000,23798.014080,9995.029568,17816.083767,18655.794103,-9300.069129,19522.818270,35026.636425,35645.086842,-0.086000,0.980000,0.060000,192.000000,0.000000,0.000000,0.000000,0.000000,0.000000,0.000000,0.000000,0.000000,0.000000,1647855165.813644,0.000000
19.000000,23796.605920,9993.755519,17816.933133,18656.732876,-9299.264467,19519.510212,35022.568407,35643.253999,-0.086000,0.980000,0.060000,192.000000,0.000000,0.000000,0.000000,0.000000,0.000000,0.000000,0.000000,0.000000,0.000000,1647855165.820749,0.000000
20.000000,23788.916920,9984.099565,17809.691168,18651.591975,-9305.925287,19508.446098,35012.577178,35634.760336,-0.086000,0.980000,0.060000,192.000000,0.000000,0.000000,0.000000,0.000000,0.000000,0.000000,0.000000,0.000000,0.000000,1647855165.820766,0.000000
21.000000,23789.766287,9986.491202,17807.724215,18651.949603,-9307.579316,19505.875648,35007.995070,35631.407575,-0.086000,0.980000,0.060000,192.000000,0.000000,0.000000,0.000000,0.000000,0.000000,0.000000,0.000000,0.000000,0.000000,1647855165.828234,0.000000
22.000000,23796.807086,10000.796318,17819.034197,18662.991364,-9296.246981,19516.693892,35017.248692,35640.325921,-0.086000,0.980000,0.060000,192.000000,0.000000,0.000000,0.000000,0.000000,0.000000,0.000000,0.000000,0.000000,0.000000,1647855165.828253,0.000000
23.000000,23791.420316,9997.085929,17814.295627,18658.521015,-9301.052606,19514.056386,35012.755992,35635.743813,-0.090000,0.980000,0.060000,192.000000,253.000000,48.000000,30.000000,160.000000,1.000000,224.000000,0.000000,0.000000,0.000000,1647855165.836247,0.000000
24.000000,23792.068516,10001.198650,17815.189697,18657.448132,-9302.036083,19518.862011,35017.941596,35635.028557,-0.090000,0.980000,0.060000,192.000000,0.000000,0.000000,0.000000,0.000000,0.000000,0.000000,0.000000,0.000000,0.000000,1647855165.836264,0.000000
25.000000,23803.400851,10006.943048,17826.142052,18664.488931,-9292.871868,19533.100073,35033.386652,35644.751566,-0.090000,0.980000,0.060000,192.000000,0.000000,0.000000,0.000000,0.000000,0.000000,0.000000,0.000000,0.000000,0.000000,1647855165.843390,0.000000
26.000000,23801.098621,10001.019836,17822.096386,18656.665821,-9299.711502,19531.289581,35030.391518,35640.169458,-0.090000,0.980000,0.060000,192.000000,0.000000,0.000000,0.000000,0.000000,0.000000,0.000000,0.000000,0.000000,0.000000,1647855165.843407,0.000000
27.000000,23793.454324,9995.700120,17817.894258,18651.882547,-9303.958333,19528.607372,35027.552846,35635.319130,-0.090000,0.980000,0.060000,192.000000,0.000000,0.000000,0.000000,0.000000,0.000000,0.000000,0.000000,0.000000,0.000000,1647855165.850419,0.000000
28.000000,23788.134609,9985.217152,17810.652293,18643.768864,-9310.373284,19522.974732,35023.931864,35628.859476,-0.090000,0.980000,0.060000,192.000000,0.000000,0.000000,0.000000,0.000000,0.000000,0.000000,0.000000,0.000000,0.000000,1647855165.857875,0.000000
29.000000,23786.100600,9985.172449,17814.407386,18648.686248,-9307.288743,19525.411072,35025.407079,35633.240418,-0.090000,0.980000,0.060000,192.000000,0.000000,0.000000,0.000000,0.000000,0.000000,0.000000,0.000000,0.000000,0.000000,1647855165.857891,0.000000
30.000000,23789.095734,9991.699158,17818.855383,18651.837844,-9302.103138,19529.367331,35026.301149,35637.375490,-0.090000,0.980000,0.060000,192.000000,0.000000,0.000000,0.000000,0.000000,0.000000,0.000000,0.000000,0.000000,0.000000,1647855165.865910,0.000000
31.000000,23793.856656,10000.058711,17819.391825,18654.676515,-9299.555039,19536.877517,35033.051376,35646.763223,-0.090000,0.980000,0.060000,192.000000,0.000000,0.000000,0.000000,0.000000,0.000000,0.000000,0.000000,0.000000,0.000000,1647855165.865926,0.000000
32.000000,23785.474752,9990.849792,17812.865116,18653.603632,-9303.600705,19535.826985,35034.325425,35650.317150,-0.090000,0.980000,0.060000,192.000000,0.000000,0.000000,0.000000,0.000000,0.000000,0.000000,0.000000,0.000000,0.000000,1647855165.873860,0.000000
33.000000,23781.272624,9987.117051,17811.121680,18652.217824,-9305.321789,19532.138948,35033.297245,35649.288970,-0.094000,0.982000,0.054000,192.000000,253.000000,16.000000,30.000000,176.000000,1.000000,176.000000,0.000000,0.000000,0.000000,1647855165.873877,0.000000
34.000000,23776.645813,9983.607827,17809.512354,18649.423855,-9310.373284,19529.367331,35031.799678,35650.719482,-0.094000,0.982000,0.054000,192.000000,0.000000,0.000000,0.000000,0.000000,0.000000,0.000000,0.000000,0.000000,0.000000,1647855165.880491,0.000000
35.000000,23780.065629,9987.675844,17813.133337,18652.374286,-9308.629848,19529.590849,35036.426489,35656.307418,-0.094000,0.982000,0.054000,192.000000,0.000000,0.000000,0.000000,0.000000,0.000000,0.000000,0.000000,0.000000,0.000000,1647855165.880508,0.000000
36.000000,23788.805162,9996.482431,17820.263543,18659.325678,-9301.477289,19532.988314,35041.969722,35659.391959,-0.094000,0.982000,0.054000,192.000000,0.000000,0.000000,0.000000,0.000000,0.000000,0.000000,0.000000,0.000000,0.000000,1647855165.888635,0.000000
37.000000,23786.122952,9994.940161,17819.727101,18658.141036,-9301.700807,19530.462567,35039.153402,35651.322979,-0.094000,0.982000,0.054000,192.000000,0.000000,0.000000,0.000000,0.000000,0.000000,0.000000,0.000000,0.000000,0.000000,1647855165.888651,0.000000
38.000000,23788.313423,9994.671940,17822.990456,18658.453960,-9299.331522,19530.350808,35040.226285,35649.557191,-0.094000,0.982000,0.054000,192.000000,0.000000,0.000000,0.000000,0.000000,0.000000,0.000000,0.000000,0.000000,0.000000,1647855165.896420,0.000000
39.000000,23787.240539,9988.033472,17817.335465,18652.418989,-9304.315961,19522.572401,35031.754974,35641.219990,-0.094000,0.982000,0.054000,192.000000,0.000000,0.000000,0.000000,0.000000,0.000000,0.000000,0.000000,0.000000,0.000000,1647855165.896436,0.000000
40.000000,23785.072420,9989.396928,17816.575505,18656.285841,-9303.153670,19522.147718,35028.625730,35640.705900,-0.094000,0.982000,0.054000,192.000000,0.000000,0.000000,0.000000,0.000000,0.000000,0.000000,0.000000,0.000000,0.000000,1647855165.903696,0.000000
41.000000,23783.619557,9989.195763,17819.727101,18658.632774,-9301.320827,19524.494651,35029.296282,35644.282179,-0.094000,0.982000,0.054000,192.000000,0.000000,0.000000,0.000000,0.000000,0.000000,0.000000,0.000000,0.000000,0.000000,1647855165.903712,0.000000
42.000000,23793.320214,9999.812841,17828.511337,18665.964146,-9292.357778,19531.133119,35036.448841,35647.769052,-0.094000,0.982000,0.054000,192.000000,0.000000,0.000000,0.000000,0.000000,0.000000,0.000000,0.000000,0.000000,0.000000,1647855165.910238,0.000000
43.000000,23792.135571,10000.952780,17823.929229,18666.098257,-9295.419967,19524.651113,35029.788021,35641.488211,-0.084000,0.980000,0.054000,192.000000,253.000000,96.000000,30.000000,160.000000,1.000000,176.000000,0.000000,0.000000,0.000000,1647855165.918261,0.000000
44.000000,23792.113220,10003.165603,17824.040988,18669.696888,-9292.670702,19524.628761,35026.278797,35640.504735,-0.084000,0.980000,0.054000,192.000000,0.000000,0.000000,0.000000,0.000000,0.000000,0.000000,0.000000,0.000000,0.000000,1647855165.918277,0.000000
45.000000,23780.557368,9988.949894,17812.194563,18655.794103,-9305.031217,19510.949494,35012.465419,35629.373566,-0.084000,0.980000,0.054000,192.000000,0.000000,0.000000,0.000000,0.000000,0.000000,0.000000,0.000000,0.000000,0.000000,1647855165.926218,0.000000
46.000000,23776.131722,9982.557295,17806.003130,18646.026390,-9311.021484,19504.534543,35006.721021,35622.958615,-0.084000,0.980000,0.054000,192.000000,0.000000,0.000000,0.000000,0.000000,0.000000,0.000000,0.000000,0.000000,0.000000,1647855165.926234,0.000000
47.000000,23778.009269,9986.692367,17810.428776,18649.289745,-9307.311095,19510.748328,35012.308957,35628.524200,-0.084000,0.980000,0.054000,192.000000,0.000000,0.000000,0.000000,0.000000,0.000000,0.000000,0.000000,0.000000,0.000000,1647855165.933276,0.000000
48.000000,23779.886816,9990.313350,17811.903991,18650.049704,-9307.400502,19514.324607,35014.186503,35631.496982,-0.084000,0.980000,0.054000,192.000000,0.000000,0.000000,0.000000,0.000000,0.000000,0.000000,0.000000,0.000000,0.000000,1647855165.933292,0.000000
49.000000,23784.245406,9990.447460,17815.793194,18654.408294,-9306.081749,19516.962113,35015.952291,35637.576656,-0.084000,0.980000,0.054000,192.000000,0.000000,0.000000,0.000000,0.000000,0.000000,0.000000,0.000000,0.000000,0.000000,1647855165.940792,0.000000
50.000000,23795.220112,10000.952780,17824.800947,18663.170178,-9295.084690,19526.126328,35025.094154,35645.086842,-0.084000,0.980000,0.054000,192.000000,0.000000,0.000000,0.000000,0.000000,0.000000,0.000000,0.000000,0.000000,0.000000,1647855165.940809,0.000000
51.000000,23807.826496,10009.357036,17834.076921,18671.105048,-9284.132336,19536.408131,35035.443012,35652.060586,-0.084000,0.980000,0.054000,192.000000,0.000000,0.000000,0.000000,0.000000,0.000000,0.000000,0.000000,0.000000,0.000000,1647855165.948754,0.000000
52.000000,23792.113220,9997.734129,17822.118738,18661.270280,-9296.716368,19520.516040,35023.529532,35639.923589,-0.084000,0.980000,0.054000,192.000000,0.000000,0.000000,0.000000,0.000000,0.000000,0.000000,0.000000,0.000000,0.000000,1647855165.948771,0.000000
53.000000,23784.312461,9996.616542,17816.463747,18660.867949,-9301.052606,19513.922276,35020.735564,35639.588313,-0.084000,0.988000,0.056000,192.000000,253.000000,96.000000,30.000000,224.000000,1.000000,192.000000,0.000000,0.000000,0.000000,1647855165.956810,0.000000
54.000000,23789.274548,10001.466870,17816.106119,18666.858216,-9297.521031,19515.375139,35022.456649,35644.729214,-0.084000,0.988000,0.056000,192.000000,0.000000,0.000000,0.000000,0.000000,0.000000,0.000000,0.000000,0.000000,0.000000,1647855165.956827,0.000000
55.000000,23781.429086,9991.766213,17810.384072,18655.883510,-9305.187679,19512.894096,35020.959082,35642.829316,-0.084000,0.988000,0.056000,192.000000,0.000000,0.000000,0.000000,0.000000,0.000000,0.000000,0.000000,0.000000,0.000000,1647855165.963438,0.000000
56.000000,23778.433952,9986.759423,17812.619247,18648.976821,-9306.126452,19517.453851,35029.072765,35645.712691,-0.084000,0.988000,0.056000,192.000000,0.000000,0.000000,0.000000,0.000000,0.000000,0.000000,0.000000,0.000000,0.000000,1647855165.963454,0.000000
57.000000,23782.993708,9989.665149,17819.011845,18649.222690,-9304.137147,19523.175898,35037.342910,35652.149993,-0.084000,0.988000,0.056000,192.000000,0.000000,0.000000,0.000000,0.000000,0.000000,0.000000,0.000000,0.000000,0.000000,1647855165.970450,0.000000
58.000000,23784.088943,9986.804126,17815.837898,18645.557004,-9308.316923,19519.465508,35034.615998,35648.797232,-0.084000,0.988000,0.056000,192.000000,0.000000,0.000000,0.000000,0.000000,0.000000,0.000000,0.000000,0.000000,0.000000,1647855165.978462,0.000000
59.000000,23778.948042,9981.752632,17814.854421,18642.763036,-9311.982609,19516.582133,35029.788021,35644.930380,-0.084000,0.988000,0.056000,192.000000,0.000000,0.000000,0.000000,0.000000,0.000000,0.000000,0.000000,0.000000,0.000000,1647855165.978478,0.000000
60.000000,23778.992746,9984.546600,17818.274238,18645.266431,-9309.143938,19517.945590,35026.390556,35642.225819,-0.084000,0.988000,0.056000,192.000000,0.000000,0.000000,0.000000,0.000000,0.000000,0.000000,0.000000,0.000000,0.000000,1647855165.986365,0.000000
61.000000,23780.825589,9986.357091,17818.497755,18646.741646,-9307.624019,19522.080662,35025.876466,35641.622322,-0.084000,0.988000,0.056000,192.000000,0.000000,0.000000,0.000000,0.000000,0.000000,0.000000,0.000000,0.000000,0.000000,1647855165.986381,0.000000
62.000000,23778.970394,9983.965455,17815.301456,18643.232422,-9312.139071,19522.706511,35025.831762,35642.449336,-0.084000,0.988000,0.056000,192.000000,0.000000,0.000000,0.000000,0.000000,0.000000,0.000000,0.000000,0.000000,0.000000,1647855165.992877,0.000000
63.000000,23781.138513,9988.256990,17815.524973,18643.835919,-9311.423816,19527.176860,35026.323500,35645.645636,-0.084000,0.988000,0.056000,192.000000,0.000000,0.000000,0.000000,0.000000,0.000000,0.000000,0.000000,0.000000,0.000000,1647855165.992893,0.000000
64.000000,23798.483467,10005.579591,17829.852442,18662.611385,-9292.335426,19542.867785,35037.924056,35658.386130,-0.084000,0.984000,0.056000,192.000000,253.000000,96.000000,30.000000,192.000000,1.000000,192.000000,0.000000,0.000000,0.000000,1647855166.001084,0.000000
65.000000,23808.631159,10015.436711,17836.222689,18674.502513,-9284.936998,19545.214718,35039.108698,35662.029464,-0.084000,0.984000,0.056000,192.000000,0.000000,0.000000,0.000000,0.000000,0.000000,0.000000,0.000000,0.000000,0.000000,1647855166.001102,0.000000
66.000000,23797.634101,10008.172394,17826.946715,18667.417010,-9292.156612,19531.490747,35029.184524,35652.261752,-0.084000,0.984000,0.056000,192.000000,0.000000,0.000000,0.000000,0.000000,0.000000,0.000000,0.000000,0.000000,0.000000,1647855166.008978,0.000000
67.000000,23782.569025,9994.560181,17814.250924,18653.625983,-9304.830051,19514.436366,35017.382803,35639.297740,-0.084000,0.984000,0.056000,192.000000,0.000000,0.000000,0.000000,0.000000,0.000000,0.000000,0.000000,0.000000,0.000000,1647855166.008989,0.000000
68.000000,23778.478656,9992.190897,17811.389901,18648.283917,-9307.959295,19511.687101,35016.376974,35637.129621,-0.084000,0.984000,0.056000,192.000000,0.000000,0.000000,0.000000,0.000000,0.000000,0.000000,0.000000,0.000000,0.000000,1647855166.015692,0.000000
69.000000,23780.646775,9993.979036,17813.736834,18645.199376,-9304.830051,19516.783299,35024.378899,35643.209296,-0.084000,0.984000,0.056000,192.000000,0.000000,0.000000,0.000000,0.000000,0.000000,0.000000,0.000000,0.000000,0.000000,1647855166.015709,0.000000
70.000000,23794.393098,10006.920696,17826.834956,18654.631812,-9290.882563,19531.557802,35039.958065,35656.016845,-0.084000,0.984000,0.056000,192.000000,0.000000,0.000000,0.000000,0.000000,0.000000,0.000000,0.000000,0.000000,0.000000,1647855166.023431,0.000000
71.000000,23789.542769,9998.114109,17820.554116,18647.479254,-9299.599743,19528.786186,35037.789945,35651.121813,-0.084000,0.984000,0.056000,192.000000,0.000000,0.000000,0.000000,0.000000,0.000000,0.000000,0.000000,0.000000,0.000000,1647855166.023443,0.000000
72.000000,23784.960662,9988.234638,17813.915648,18640.460806,-9306.998170,19529.121462,35036.202971,35646.092671,-0.084000,0.984000,0.056000,192.000000,0.000000,0.000000,0.000000,0.000000,0.000000,0.000000,0.000000,0.000000,0.000000,1647855166.030723,0.000000
73.000000,23790.705060,9996.840059,17822.409311,18649.647373,-9299.018597,19542.040770,35047.222381,35654.541630,-0.084000,0.984000,0.056000,192.000000,0.000000,0.000000,0.000000,0.000000,0.000000,0.000000,0.000000,0.000000,0.000000,1647855166.038671,0.000000
74.000000,23790.861522,9999.410510,17822.945752,18652.709562,-9299.555039,19537.101035,35042.014425,35650.987703,-0.094000,0.978000,0.060000,192.000000,253.000000,16.000000,30.000000,144.000000,1.000000,224.000000,0.000000,0.000000,0.000000,1647855166.038688,0.000000
75.000000,23791.599130,9996.169507,17820.487061,18655.168254,-9302.483118,19532.094244,35035.197143,35645.422118,-0.094000,0.978000,0.060000,192.000000,0.000000,0.000000,0.000000,0.000000,0.000000,0.000000,0.000000,0.000000,0.000000,1647855166.045383,0.000000
76.000000,23794.191932,9997.756481,17819.816508,18657.604594,-9301.611400,19532.720093,35031.866733,35645.645636,-0.094000,0.978000,0.060000,192.000000,0.000000,0.000000,0.000000,0.000000,0.000000,0.000000,0.000000,0.000000,0.000000,1647855166.045399,0.000000
77.000000,23797.589397,10000.908077,17822.074034,18657.962222,-9298.415100,19538.620953,35038.549905,35652.060586,-0.094000,0.978000,0.060000,192.000000,0.000000,0.000000,0.000000,0.000000,0.000000,0.000000,0.000000,0.000000,0.000000,1647855166.053368,0.000000
78.000000,23794.571912,9998.896420,17821.247020,18657.358725,-9300.247943,19540.520852,35038.348739,35653.938133,-0.094000,0.978000,0.060000,192.000000,0.000000,0.000000,0.000000,0.000000,0.000000,0.000000,0.000000,0.000000,0.000000,1647855166.053384,0.000000
79.000000,23782.569025,9992.213248,17814.161517,18652.843672,-9308.428682,19534.172956,35028.446916,35647.925514,-0.094000,0.978000,0.060000,192.000000,0.000000,0.000000,0.000000,0.000000,0.000000,0.000000,0.000000,0.000000,0.000000,1647855166.061359,0.000000
80.000000,23785.362993,9991.632103,17816.799023,18652.486044,-9307.869888,19534.262363,35026.189390,35647.657293,-0.094000,0.978000,0.060000,192.000000,0.000000,0.000000,0.000000,0.000000,0.000000,0.000000,0.000000,0.000000,0.000000,1647855166.061375,0.000000
81.000000,23786.167656,9987.161754,17817.044892,18650.720257,-9309.032179,19532.004837,35019.662681,35643.566924,-0.094000,0.978000,0.060000,192.000000,0.000000,0.000000,0.000000,0.000000,0.000000,0.000000,0.000000,0.000000,0.000000,1647855166.068576,0.000000
82.000000,23782.211397,9984.323082,17813.021578,18649.490911,-9311.647333,19524.025264,35009.582044,35635.520296,-0.094000,0.978000,0.060000,192.000000,0.000000,0.000000,0.000000,0.000000,0.000000,0.000000,0.000000,0.000000,0.000000,1647855166.068592,0.000000
83.000000,23782.099638,9987.251161,17811.524011,18650.876719,-9311.714388,19521.499517,35008.777381,35633.732156,-0.094000,0.978000,0.060000,192.000000,0.000000,0.000000,0.000000,0.000000,0.000000,0.000000,0.000000,0.000000,0.000000,1647855166.076002,0.000000
84.000000,23786.033545,9991.185068,17815.659084,18653.000135,-9306.305266,19523.421767,35011.370183,35635.922627,-0.088000,0.978000,0.056000,192.000000,253.000000,64.000000,30.000000,144.000000,1.000000,192.000000,0.000000,0.000000,0.000000,1647855166.076020,0.000000
85.000000,23796.963548,9999.678731,17828.377226,18661.002059,-9294.391786,19536.318724,35023.976567,35643.365758,-0.088000,0.978000,0.056000,192.000000,0.000000,0.000000,0.000000,0.000000,0.000000,0.000000,0.000000,0.000000,0.000000,1647855166.083903,0.000000
86.000000,23789.721583,9996.348321,17826.365569,18658.722181,-9296.179926,19537.011628,35022.411945,35642.583447,-0.088000,0.978000,0.056000,192.000000,0.000000,0.000000,0.000000,0.000000,0.000000,0.000000,0.000000,0.000000,0.000000,1647855166.083914,0.000000
87.000000,23791.397964,10005.154908,17831.126491,18664.980670,-9289.295589,19548.098093,35030.123297,35648.551363,-0.088000,0.978000,0.056000,192.000000,0.000000,0.000000,0.000000,0.000000,0.000000,0.000000,0.000000,0.000000,0.000000,1647855166.090964,0.000000
88.000000,23795.622444,10008.172394,17834.099273,18668.981632,-9285.831068,19555.004782,35033.856038,35646.874982,-0.088000,0.978000,0.056000,192.000000,0.000000,0.000000,0.000000,0.000000,0.000000,0.000000,0.000000,0.000000,0.000000,1647855166.090982,0.000000
89.000000,23799.086964,10011.413397,17833.763997,18670.479199,-9287.462746,19555.116541,35032.760803,35644.349235,-0.088000,0.978000,0.056000,192.000000,0.000000,0.000000,0.000000,0.000000,0.000000,0.000000,0.000000,0.000000,0.000000,1647855166.097901,0.000000
90.000000,23809.301711,10020.510557,17839.866023,18674.323699,-9281.271312,19563.341983,35040.427451,35650.563020,-0.088000,0.978000,0.056000,192.000000,0.000000,0.000000,0.000000,0.000000,0.000000,0.000000,0.000000,0.000000,0.000000,1647855166.105340,0.000000
91.000000,23813.414432,10019.527080,17841.743570,18671.932062,-9278.700862,19563.900776,35042.237942,35651.993531,-0.088000,0.978000,0.056000,192.000000,0.000000,0.000000,0.000000,0.000000,0.000000,0.000000,0.000000,0.000000,0.000000,1647855166.105353,0.000000
92.000000,23801.210380,10007.390083,17833.071093,18662.477274,-9289.049719,19553.127236,35033.118431,35645.086842,-0.088000,0.978000,0.056000,192.000000,0.000000,0.000000,0.000000,0.000000,0.000000,0.000000,0.000000,0.000000,0.000000,1647855166.113701,0.000000
93.000000,23791.621481,10000.014007,17826.298514,18657.604594,-9297.386920,19549.707419,35032.358471,35645.377415,-0.088000,0.978000,0.056000,192.000000,0.000000,0.000000,0.000000,0.000000,0.000000,0.000000,0.000000,0.000000,0.000000,1647855166.113718,0.000000
94.000000,23782.412563,9990.022777,17814.742662,18650.496739,-9307.847537,19540.833776,35026.368204,35641.175287,-0.090000,0.982000,0.054000,192.000000,253.000000,48.000000,30.000000,176.000000,1.000000,176.000000,0.000000,0.000000,0.000000,1647855166.121712,0.000000
95.000000,23785.295938,9995.096623,17818.117776,18652.709562,-9302.885449,19549.752122,35037.789945,35651.725310,-0.090000,0.982000,0.054000,192.000000,0.000000,0.000000,0.000000,0.000000,0.000000,0.000000,0.000000,0.000000,0.000000,1647855166.121728,0.000000
96.000000,23783.731316,9992.347359,17818.363645,18651.614326,-9303.667760,19550.087398,35042.416756,35654.362816,-0.090000,0.982000,0.054000,192.000000,0.000000,0.000000,0.000000,0.000000,0.000000,0.000000,0.000000,0.000000,0.000000,1647855166.128255,0.000000
97.000000,23772.063705,9980.188010,17810.182906,18637.711541,-9315.000095,19535.625820,35032.291416,35645.288008,-0.090000,0.982000,0.054000,192.000000,0.000000,0.000000,0.000000,0.000000,0.000000,0.000000,0.000000,0.000000,0.000000,1647855166.128272,0.000000
98.000000,23782.010231,9990.939199,17821.179965,18644.729989,-9305.031217,19545.080608,35041.455631,35655.011017,-0.090000,0.982000,0.054000,192.000000,0.000000,0.000000,0.000000,0.000000,0.000000,0.000000,0.000000,0.000000,0.000000,1647855166.136315,0.000000
99.000000,23789.498066,9993.867277,17825.382093,18652.798969,-9297.521031,19553.306050,35046.618884,35662.387092,-0.090000,0.982000,0.054000,192.000000,0.000000,0.000000,0.000000,0.000000,0.000000,0.000000,0.000000,0.000000,0.000000,1647855166.136333,0.000000
100.000000,23781.786714,9979.919789,17816.553154,18645.400541,-9306.104100,19542.666619,35033.811335,35650.674778,-0.090000,0.982000,0.054000,192.000000,0.000000,0.000000,0.000000,0.000000,0.000000,0.000000,0.000000,0.000000,0.000000,1647855166.144334,0.000000
101.000000,23773.561272,9973.638949,17812.775709,18640.773730,-9313.189603,19537.413959,35022.836628,35641.801136,-0.090000,0.982000,0.054000,192.000000,0.000000,0.000000,0.000000,0.000000,0.000000,0.000000,0.000000,0.000000,0.000000,1647855166.144350,0.000000
102.000000,23778.858635,9981.707928,17821.515241,18650.317925,-9303.600705,19549.752122,35030.436221,35650.250095,-0.090000,0.982000,0.054000,192.000000,0.000000,0.000000,0.000000,0.000000,0.000000,0.000000,0.000000,0.000000,0.000000,1647855166.151531,0.000000
103.000000,23790.503894,9989.911019,17827.460805,18656.710524,-9295.665836,19559.475131,35037.544076,35658.609648,-0.090000,0.982000,0.054000,192.000000,0.000000,0.000000,0.000000,0.000000,0.000000,0.000000,0.000000,0.000000,0.000000,1647855166.151548,0.000000
104.000000,23794.951891,10000.773966,17833.808700,18666.321774,-9287.686263,19565.443047,35039.220457,35662.252982,-0.090000,0.986000,0.060000,192.000000,253.000000,48.000000,30.000000,208.000000,1.000000,224.000000,0.000000,0.000000,0.000000,1647855166.157970,0.000000
105.000000,23785.720621,9995.074272,17830.679456,18665.025373,-9292.380129,19554.736561,35025.541189,35651.524145,-0.090000,0.986000,0.060000,192.000000,0.000000,0.000000,0.000000,0.000000,0.000000,0.000000,0.000000,0.000000,0.000000,1647855166.165905,0.000000
106.000000,23790.347432,9996.504783,17835.283915,18666.522940,-9289.317940,19553.976602,35025.317672,35651.635903,-0.090000,0.986000,0.060000,192.000000,0.000000,0.000000,0.000000,0.000000,0.000000,0.000000,0.000000,0.000000,0.000000,1647855166.165922,0.000000
107.000000,23789.788638,9997.979998,17829.606572,18658.096332,-9296.112871,19542.823081,35016.600492,35641.264694,-0.090000,0.986000,0.060000,192.000000,0.000000,0.000000,0.000000,0.000000,0.000000,0.000000,0.000000,0.000000,0.000000,1647855166.173911,0.000000
108.000000,23794.884836,10005.668998,17832.579354,18660.957356,-9292.760109,19544.097131,35019.662681,35643.656331,-0.090000,0.986000,0.060000,192.000000,0.000000,0.000000,0.000000,0.000000,0.000000,0.000000,0.000000,0.000000,0.000000,1647855166.173927,0.000000
109.000000,23785.452400,9996.281266,17825.695017,18653.804797,-9299.912667,19537.525718,35013.851227,35639.431851,-0.090000,0.986000,0.060000,192.000000,0.000000,0.000000,0.000000,0.000000,0.000000,0.000000,0.000000,0.000000,0.000000,1647855166.180464,0.000000
110.000000,23788.045202,10000.036359,17829.628924,18657.537539,-9297.208106,19543.068951,35018.567445,35643.790441,-0.090000,0.986000,0.060000,192.000000,0.000000,0.000000,0.000000,0.000000,0.000000,0.000000,0.000000,0.000000,0.000000,1647855166.180481,0.000000
111.000000,23793.342566,10003.545583,17836.200337,18665.204187,-9291.530763,19552.993125,35031.687919,35656.150956,-0.090000,0.986000,0.060000,192.000000,0.000000,0.000000,0.000000,0.000000,0.000000,0.000000,0.000000,0.000000,0.000000,1647855166.188611,0.000000
112.000000,23787.732278,9995.409548,17828.757206,18660.555024,-9298.728025,19549.193329,35031.531457,35654.519278,-0.090000,0.986000,0.060000,192.000000,0.000000,0.000000,0.000000,0.000000,0.000000,0.000000,0.000000,0.000000,0.000000,1647855166.188628,0.000000
113.000000,23776.534054,9982.065556,17814.765014,18642.114835,-9314.441301,19533.614163,35018.455686,35640.415328,-0.090000,0.986000,0.060000,192.000000,0.000000,0.000000,0.000000,0.000000,0.000000,0.000000,0.000000,0.000000,0.000000,1647855166.195964,0.000000
114.000000,23769.493254,9974.823591,17811.233438,18635.789291,-9317.615249,19529.099110,35013.806524,35633.575694,-0.086000,0.984000,0.058000,192.000000,253.000000,80.000000,30.000000,192.000000,1.000000,208.000000,0.000000,0.000000,0.000000,1647855166.195981,0.000000
115.000000,23768.308612,9970.643815,17808.931209,18633.732931,-9319.693961,19524.718168,35010.274948,35631.385223,-0.086000,0.984000,0.058000,192.000000,0.000000,0.000000,0.000000,0.000000,0.000000,0.000000,0.000000,0.000000,0.000000,1647855166.203940,0.000000
116.000000,23769.984993,9973.951873,17810.451127,18632.503585,-9320.431569,19522.125366,35009.358526,35630.669967,-0.086000,0.984000,0.058000,192.000000,0.000000,0.000000,0.000000,0.000000,0.000000,0.000000,0.000000,0.000000,0.000000,1647855166.203957,0.000000
117.000000,23771.773132,9976.388213,17812.172212,18635.096387,-9318.710484,19525.947514,35015.482904,35632.279293,-0.086000,0.984000,0.058000,192.000000,0.000000,0.000000,0.000000,0.000000,0.000000,0.000000,0.000000,0.000000,0.000000,1647855166.211871,0.000000
118.000000,23764.799388,9970.129725,17809.624113,18631.184832,-9320.431569,19524.047616,35015.639367,35624.634996,-0.086000,0.984000,0.058000,192.000000,0.000000,0.000000,0.000000,0.000000,0.000000,0.000000,0.000000,0.000000,0.000000,1647855166.211888,0.000000
119.000000,23759.814949,9965.257044,17806.606627,18626.870945,-9321.504452,19519.979599,35011.794867,35618.488266,-0.086000,0.984000,0.058000,192.000000,0.000000,0.000000,0.000000,0.000000,0.000000,0.000000,0.000000,0.000000,0.000000,1647855166.218842,0.000000
120.000000,23769.381496,9973.527190,17811.591066,18633.732931,-9314.888336,19524.338189,35013.627710,35620.902255,-0.086000,0.984000,0.058000,192.000000,0.000000,0.000000,0.000000,0.000000,0.000000,0.000000,0.000000,0.000000,0.000000,1647855166.225525,0.000000
121.000000,23782.837246,9987.564085,17821.694055,18646.853405,-9303.623057,19530.753139,35016.332271,35624.143258,-0.086000,0.984000,0.058000,192.000000,0.000000,0.000000,0.000000,0.000000,0.000000,0.000000,0.000000,0.000000,0.000000,1647855166.225542,0.000000
122.000000,23776.466999,9983.518420,17819.391825,18643.500643,-9305.366493,19526.528660,35011.213721,35623.450354,-0.086000,0.984000,0.058000,192.000000,0.000000,0.000000,0.000000,0.000000,0.000000,0.000000,0.000000,0.000000,0.000000,1647855166.233568,0.000000
123.000000,23769.761475,9977.371690,17816.039063,18638.806777,-9308.898069,19520.314875,35004.687012,35617.907121,-0.086000,0.984000,0.058000,192.000000,0.000000,0.000000,0.000000,0.000000,0.000000,0.000000,0.000000,0.000000,0.000000,1647855166.233584,0.000000
124.000000,23778.903339,9985.820649,17822.811642,18647.814530,-9300.829089,19525.254610,35008.665622,35621.595159,-0.086000,0.976000,0.056000,192.000000,253.000000,80.000000,30.000000,128.000000,1.000000,192.000000,0.000000,0.000000,0.000000,1647855166.241571,0.000000
125.000000,23783.150170,9992.481469,17829.003075,18655.056495,-9294.436490,19533.502404,35017.002823,35634.246246,-0.086000,0.976000,0.056000,192.000000,0.000000,0.000000,0.000000,0.000000,0.000000,0.000000,0.000000,0.000000,0.000000,1647855166.241588,0.000000
126.000000,23777.472827,9984.233676,17821.224668,18647.054571,-9303.868926,19527.467433,35010.677279,35634.514467,-0.086000,0.976000,0.056000,192.000000,0.000000,0.000000,0.000000,0.000000,0.000000,0.000000,0.000000,0.000000,0.000000,1647855166.248384,0.000000
127.000000,23781.384382,9988.815783,17823.437491,18649.580318,-9301.544345,19529.300276,35012.197198,35637.397842,-0.086000,0.976000,0.056000,192.000000,0.000000,0.000000,0.000000,0.000000,0.000000,0.000000,0.000000,0.000000,0.000000,1647855166.248400,0.000000
128.000000,23774.365935,9983.943103,17817.447223,18646.808701,-9304.383016,19523.466471,35004.865826,35633.240418,-0.086000,0.976000,0.056000,192.000000,0.000000,0.000000,0.000000,0.000000,0.000000,0.000000,0.000000,0.000000,0.000000,1647855166.256153,0.000000
129.000000,23775.215301,9986.357091,17817.380168,18645.244079,-9304.003036,19525.433424,35005.715192,35636.816697,-0.086000,0.976000,0.056000,192.000000,0.000000,0.000000,0.000000,0.000000,0.000000,0.000000,0.000000,0.000000,0.000000,1647855166.256171,0.000000
130.000000,23769.269737,9980.925617,17813.043930,18638.784425,-9309.747435,19520.985427,35005.156398,35635.632054,-0.086000,0.976000,0.056000,192.000000,0.000000,0.000000,0.000000,0.000000,0.000000,0.000000,0.000000,0.000000,0.000000,1647855166.264235,0.000000
131.000000,23779.842112,9989.195763,17822.968104,18646.808701,-9300.247943,19529.836718,35013.851227,35642.874019,-0.086000,0.976000,0.056000,192.000000,0.000000,0.000000,0.000000,0.000000,0.000000,0.000000,0.000000,0.000000,0.000000,1647855166.264251,0.000000
132.000000,23792.470848,9995.655417,17832.244078,18654.296536,-9294.078862,19535.335247,35020.243826,35647.076147,-0.086000,0.976000,0.056000,192.000000,0.000000,0.000000,0.000000,0.000000,0.000000,0.000000,0.000000,0.000000,0.000000,1647855166.272022,0.000000
133.000000,23779.439781,9983.607827,17823.079863,18646.629887,-9304.338313,19527.109805,35013.203026,35636.995511,-0.086000,0.976000,0.056000,192.000000,0.000000,0.000000,0.000000,0.000000,0.000000,0.000000,0.000000,0.000000,0.000000,1647855166.272038,0.000000
134.000000,23772.667202,9980.344472,17817.603686,18644.037085,-9307.467557,19528.562668,35016.488733,35633.776859,-0.086000,0.972000,0.052000,192.000000,253.000000,80.000000,30.000000,96.000000,1.000000,160.000000,0.000000,0.000000,0.000000,1647855166.278292,0.000000
135.000000,23767.146321,9974.264797,17808.908857,18639.007943,-9314.910688,19520.516040,35008.307994,35620.119944,-0.086000,0.972000,0.052000,192.000000,0.000000,0.000000,0.000000,0.000000,0.000000,0.000000,0.000000,0.000000,0.000000,1647855166.285822,0.000000
136.000000,23781.876121,9989.642798,17823.526898,18652.217824,-9299.353874,19532.809500,35019.394460,35628.703014,-0.086000,0.972000,0.052000,192.000000,0.000000,0.000000,0.000000,0.000000,0.000000,0.000000,0.000000,0.000000,0.000000,1647855166.285838,0.000000
137.000000,23785.184179,9992.392062,17828.444282,18656.643469,-9293.475365,19534.061198,35020.623806,35631.765202,-0.086000,0.972000,0.052000,192.000000,0.000000,0.000000,0.000000,0.000000,0.000000,0.000000,0.000000,0.000000,0.000000,1647855166.293876,0.000000
138.000000,23783.172522,9988.458155,17828.265468,18653.625983,-9294.235324,19530.529622,35014.477076,35630.602912,-0.086000,0.972000,0.052000,192.000000,0.000000,0.000000,0.000000,0.000000,0.000000,0.000000,0.000000,0.000000,0.000000,1647855166.293893,0.000000
139.000000,23779.819760,9982.043205,17822.677532,18648.395675,-9301.700807,19519.711378,35002.787114,35621.684566,-0.086000,0.972000,0.052000,192.000000,0.000000,0.000000,0.000000,0.000000,0.000000,0.000000,0.000000,0.000000,0.000000,1647855166.300866,0.000000
140.000000,23784.401868,9989.463984,17826.365569,18649.960297,-9300.046778,19521.030131,35005.335212,35625.171438,-0.086000,0.972000,0.052000,192.000000,0.000000,0.000000,0.000000,0.000000,0.000000,0.000000,0.000000,0.000000,0.000000,1647855166.300882,0.000000
141.000000,23785.854731,9990.514516,17827.505508,18650.049704,-9300.247943,19522.661808,35004.687012,35627.071336,-0.086000,0.972000,0.052000,192.000000,0.000000,0.000000,0.000000,0.000000,0.000000,0.000000,0.000000,0.000000,0.000000,1647855166.308425,0.000000
142.000000,23787.486409,9987.742899,17825.560907,18653.849501,-9301.589048,19525.165203,35003.301204,35628.457144,-0.086000,0.972000,0.052000,192.000000,0.000000,0.000000,0.000000,0.000000,0.000000,0.000000,0.000000,0.000000,0.000000,1647855166.308443,0.000000
143.000000,23784.848903,9985.217152,17823.415139,18657.090504,-9303.645409,19524.584058,35000.954270,35629.060641,-0.086000,0.972000,0.052000,192.000000,0.000000,0.000000,0.000000,0.000000,0.000000,0.000000,0.000000,0.000000,0.000000,1647855166.316453,0.000000
144.000000,23783.977185,9989.240466,17824.197450,18659.504492,-9301.477289,19524.517003,35002.228320,35631.049947,-0.082000,0.978000,0.056000,192.000000,253.000000,112.000000,30.000000,144.000000,1.000000,192.000000,0.000000,0.000000,0.000000,1647855166.316471,0.000000
145.000000,23789.363955,9996.482431,17829.852442,18665.070077,-9295.598781,19531.580154,35009.380878,35640.437679,-0.082000,0.978000,0.056000,192.000000,0.000000,0.000000,0.000000,0.000000,0.000000,0.000000,0.000000,0.000000,0.000000,1647855166.324468,0.000000
146.000000,23784.223054,9988.704024,17822.789290,18658.923347,-9301.879621,19526.059273,35002.340079,35635.028557,-0.082000,0.978000,0.056000,192.000000,0.000000,0.000000,0.000000,0.000000,0.000000,0.000000,0.000000,0.000000,0.000000,1647855166.324484,0.000000
147.000000,23783.843074,9988.949894,17819.838860,18656.107027,-9305.344141,19521.007779,34998.070895,35632.279293,-0.082000,0.978000,0.056000,192.000000,0.000000,0.000000,0.000000,0.000000,0.000000,0.000000,0.000000,0.000000,0.000000,1647855166.330867,0.000000
148.000000,23787.039374,9994.470774,17827.013770,18658.677478,-9299.420929,19527.355674,35007.950366,35639.320092,-0.082000,0.978000,0.056000,192.000000,0.000000,0.000000,0.000000,0.000000,0.000000,0.000000,0.000000,0.000000,0.000000,1647855166.330884,0.000000
149.000000,23783.731316,9990.738033,17826.946715,18654.184777,-9299.532688,19527.333322,35008.129180,35637.017862,-0.082000,0.978000,0.056000,192.000000,0.000000,0.000000,0.000000,0.000000,0.000000,0.000000,0.000000,0.000000,0.000000,1647855166.337902,0.000000
150.000000,23785.564159,9990.536867,17827.818433,18654.832978,-9296.649313,19533.435349,35012.979509,35638.560133,-0.082000,0.978000,0.056000,192.000000,0.000000,0.000000,0.000000,0.000000,0.000000,0.000000,0.000000,0.000000,0.000000,1647855166.337919,0.000000
151.000000,23786.212359,9987.161754,17825.940886,18652.396637,-9298.370397,19534.329418,35015.259387,35635.386185,-0.082000,0.978000,0.056000,192.000000,0.000000,0.000000,0.000000,0.000000,0.000000,0.000000,0.000000,0.000000,0.000000,1647855166.346118,0.000000
152.000000,23784.401868,9984.613655,17824.398616,18650.206167,-9299.823260,19533.949439,35017.136933,35634.223894,-0.082000,0.978000,0.056000,192.000000,0.000000,0.000000,0.000000,0.000000,0.000000,0.000000,0.000000,0.000000,0.000000,1647855166.354058,0.000000
153.000000,23776.914034,9977.058766,17816.933133,18642.159539,-9307.065225,19528.003875,35011.928977,35627.875999,-0.082000,0.978000,0.056000,192.000000,0.000000,0.000000,0.000000,0.000000,0.000000,0.000000,0.000000,0.000000,0.000000,1647855166.354074,0.000000
154.000000,23782.233749,9983.943103,17821.671703,18649.155635,-9303.824223,19531.133119,35015.147628,35635.341482,-0.084000,0.986000,0.052000,192.000000,253.000000,96.000000,30.000000,208.000000,1.000000,160.000000,0.000000,0.000000,0.000000,1647855166.360711,0.000000
155.000000,23777.919862,9981.305597,17819.391825,18649.915594,-9306.797005,19524.137023,35006.698669,35630.647615,-0.084000,0.986000,0.052000,192.000000,0.000000,0.000000,0.000000,0.000000,0.000000,0.000000,0.000000,0.000000,0.000000,1647855166.360728,0.000000
156.000000,23786.234711,9991.050958,17828.667799,18658.655126,-9295.732891,19535.558764,35017.718079,35643.253999,-0.084000,0.986000,0.052000,192.000000,0.000000,0.000000,0.000000,0.000000,0.000000,0.000000,0.000000,0.000000,0.000000,1647855166.368725,0.000000
157.000000,23775.282356,9979.249236,17818.453052,18641.801911,-9306.975819,19523.712340,35005.715192,35636.079089,-0.084000,0.986000,0.052000,192.000000,0.000000,0.000000,0.000000,0.000000,0.000000,0.000000,0.000000,0.000000,0.000000,1647855166.368742,0.000000
158.000000,23777.249310,9984.010158,17819.056549,18641.466634,-9306.282914,19525.008741,35007.056297,35637.777822,-0.084000,0.986000,0.052000,192.000000,0.000000,0.000000,0.000000,0.000000,0.000000,0.000000,0.000000,0.000000,0.000000,1647855166.376743,0.000000
159.000000,23772.823664,9981.640873,17814.832069,18642.539518,-9309.143938,19521.968904,35003.815294,35635.989682,-0.084000,0.986000,0.052000,192.000000,0.000000,0.000000,0.000000,0.000000,0.000000,0.000000,0.000000,0.000000,0.000000,1647855166.376760,0.000000
160.000000,23772.175464,9976.321158,17809.601761,18638.359742,-9313.770749,19516.246857,35000.060201,35633.240418,-0.084000,0.986000,0.052000,192.000000,0.000000,0.000000,0.000000,0.000000,0.000000,0.000000,0.000000,0.000000,0.000000,1647855166.383839,0.000000
161.000000,23776.690516,9978.399870,17810.227610,18640.259640,-9314.486005,19513.207020,34999.657869,35635.229723,-0.084000,0.986000,0.052000,192.000000,0.000000,0.000000,0.000000,0.000000,0.000000,0.000000,0.000000,0.000000,0.000000,1647855166.383855,0.000000
