%OpenBCI Raw EEG Data
%Number of channels = 8
%Sample Rate = 256 Hz
%Board = OpenBCI_GUI$BoardCytonSerial
%Channels = Fp1, Fp2, F3, F4, Fz, Pz, O1, O2
%Data recorded at AIMS Lab (http://aimsl.uiu.ac.bd) by Rana Depto (mail@ranadepto.com)
%Brainwaves were obtained via the Ultracortex Mark IV Headset using the OpenBCI Cyton Board
%Recording Application = ConcentrateToday (https://concentrate.today)
%Data type = RAW data with noise
%Day No = 4
%Subject ID = 5
%Session ID = 7
%Record starting timestamp (UTC+6) = 2022-03-15T14:56:23.020617
%Record ending timestamp (UTC+6)   = 2022-03-15T14:56:38.849319
%Recorded durations = ~15 seconds
Sample Index, EXG Channel 0, EXG Channel 1, EXG Channel 2, EXG Channel 3, EXG Channel 4, EXG Channel 5, EXG Channel 6, EXG Channel 7, Accel Channel 0, Accel Channel 1, Accel Channel 2, Other, Other, Other, Other, Other, Other, Other, Analog Channel 0, Analog Channel 1, Analog Channel 2, Timestamp, Timestamp (Formatted)
219.000000,16687.924169,22377.203092,3215.924289,21416.726281,-18107.237590,-23801.903284,-1840.487342,-5360.216541,-0.044000,0.964000,0.196000,192.000000,0.000000,0.000000,0.000000,0.000000,0.000000,0.000000,0.000000,0.000000,0.000000,1647334583.026223,0.000000
220.000000,16687.767707,22380.019412,3209.285821,21423.722377,-18107.796384,-23801.009214,-1828.216234,-5358.316643,-0.044000,0.964000,0.196000,192.000000,0.000000,0.000000,0.000000,0.000000,0.000000,0.000000,0.000000,0.000000,0.000000,1647334583.026230,0.000000
221.000000,16687.007748,22374.878511,3202.490890,21416.793336,-18118.793442,-23806.686557,-1830.093781,-5357.981367,-0.044000,0.964000,0.196000,192.000000,0.000000,0.000000,0.000000,0.000000,0.000000,0.000000,0.000000,0.000000,0.000000,1647334583.034330,0.000000
222.000000,16693.355643,22378.052459,3209.889318,21420.660188,-18115.239515,-23824.880877,-1844.376545,-5362.272902,-0.042000,0.960000,0.198000,192.000000,254.000000,176.000000,30.000000,0.000000,6.000000,48.000000,0.000000,0.000000,0.000000,1647334583.034335,0.000000
223.000000,16682.984434,22369.000002,3200.345123,21414.602866,-18115.418329,-23818.242409,-1862.168534,-5377.405033,-0.042000,0.960000,0.198000,192.000000,0.000000,0.000000,0.000000,0.000000,0.000000,0.000000,0.000000,0.000000,0.000000,1647334583.042266,0.000000
224.000000,16684.683166,22373.045668,3203.250850,21421.218982,-18112.244381,-23792.716717,-1861.788554,-5370.923027,-0.042000,0.960000,0.198000,192.000000,0.000000,0.000000,0.000000,0.000000,0.000000,0.000000,0.000000,0.000000,0.000000,1647334583.042270,0.000000
225.000000,16687.499486,22375.012621,3206.201280,21425.130537,-18111.551477,-23801.299787,-1861.945017,-5366.653844,-0.042000,0.960000,0.198000,192.000000,0.000000,0.000000,0.000000,0.000000,0.000000,0.000000,0.000000,0.000000,0.000000,1647334583.049349,0.000000
226.000000,16683.632634,22368.530615,3204.748417,21420.257857,-18114.971294,-23790.280377,-1863.017900,-5359.166009,-0.042000,0.960000,0.198000,192.000000,0.000000,0.000000,0.000000,0.000000,0.000000,0.000000,0.000000,0.000000,0.000000,1647334583.049354,0.000000
227.000000,16676.815352,22361.087484,3191.672646,21414.982845,-18127.018884,-23786.435877,-1853.965444,-5364.910408,-0.042000,0.960000,0.198000,192.000000,0.000000,0.000000,0.000000,0.000000,0.000000,0.000000,0.000000,0.000000,0.000000,1647334583.055902,0.000000
228.000000,16674.311957,22364.104970,3188.141070,21416.167488,-18125.096634,-23789.252196,-1849.293929,-5365.603312,-0.042000,0.960000,0.198000,192.000000,0.000000,0.000000,0.000000,0.000000,0.000000,0.000000,0.000000,0.000000,0.000000,1647334583.055906,0.000000
229.000000,16675.720117,22366.407200,3192.522012,21412.300636,-18124.493137,-23786.346470,-1851.372641,-5364.239855,-0.042000,0.960000,0.198000,192.000000,0.000000,0.000000,0.000000,0.000000,0.000000,0.000000,0.000000,0.000000,0.000000,1647334583.063924,0.000000
230.000000,16674.580178,22362.897976,3193.371379,21410.870124,-18124.582544,-23776.757571,-1850.702089,-5364.508076,-0.042000,0.960000,0.198000,192.000000,0.000000,0.000000,0.000000,0.000000,0.000000,0.000000,0.000000,0.000000,0.000000,1647334583.071937,0.000000
231.000000,16680.928073,22364.373191,3205.977762,21417.307427,-18120.380416,-23780.400906,-1848.802191,-5358.920140,-0.042000,0.960000,0.198000,192.000000,0.000000,0.000000,0.000000,0.000000,0.000000,0.000000,0.000000,0.000000,0.000000,1647334583.071942,0.000000
232.000000,16686.627768,22368.329450,3209.911669,21422.269514,-18114.233686,-23789.878045,-1845.650595,-5356.908483,-0.038000,0.958000,0.202000,192.000000,254.000000,208.000000,29.000000,240.000000,6.000000,80.000000,0.000000,0.000000,0.000000,1647334583.078967,0.000000
233.000000,16683.073841,22362.428589,3204.636658,21414.915790,-18116.021826,-23793.722545,-1846.455258,-5351.767582,-0.038000,0.958000,0.202000,192.000000,0.000000,0.000000,0.000000,0.000000,0.000000,0.000000,0.000000,0.000000,0.000000,1647334583.078972,0.000000
234.000000,16681.240997,22361.154540,3203.876698,21410.266627,-18113.317265,-23794.035470,-1837.335746,-5346.649032,-0.038000,0.958000,0.202000,192.000000,0.000000,0.000000,0.000000,0.000000,0.000000,0.000000,0.000000,0.000000,0.000000,1647334583.086479,0.000000
235.000000,16678.894064,22359.612269,3200.032198,21403.002310,-18117.854669,-23786.815856,-1833.848874,-5349.979442,-0.038000,0.958000,0.202000,192.000000,0.000000,0.000000,0.000000,0.000000,0.000000,0.000000,0.000000,0.000000,0.000000,1647334583.086484,0.000000
236.000000,16680.861018,22361.221595,3198.355818,21408.992578,-18122.056797,-23792.090868,-1839.392106,-5355.612082,-0.038000,0.958000,0.202000,192.000000,0.000000,0.000000,0.000000,0.000000,0.000000,0.000000,0.000000,0.000000,0.000000,1647334583.094528,0.000000
237.000000,16681.240997,22360.573394,3198.445225,21406.600941,-18124.604896,-23803.132630,-1848.064583,-5355.746192,-0.038000,0.958000,0.202000,192.000000,0.000000,0.000000,0.000000,0.000000,0.000000,0.000000,0.000000,0.000000,0.000000,1647334583.094532,0.000000
238.000000,16685.554884,22365.133150,3202.490890,21420.414319,-18118.346407,-23795.220112,-1857.407612,-5362.831695,-0.038000,0.958000,0.202000,192.000000,0.000000,0.000000,0.000000,0.000000,0.000000,0.000000,0.000000,0.000000,0.000000,1647334583.102541,0.000000
239.000000,16677.910588,22350.671572,3194.421911,21418.760290,-18115.597143,-23770.543786,-1867.398842,-5371.280655,-0.038000,0.958000,0.202000,192.000000,0.000000,0.000000,0.000000,0.000000,0.000000,0.000000,0.000000,0.000000,0.000000,1647334583.102545,0.000000
240.000000,16682.358585,22353.689057,3190.398597,21408.746708,-18126.549497,-23784.178350,-1859.642787,-5363.546951,-0.038000,0.958000,0.202000,192.000000,0.000000,0.000000,0.000000,0.000000,0.000000,0.000000,0.000000,0.000000,0.000000,1647334583.109238,0.000000
241.000000,16690.964006,22364.082618,3194.220745,21412.881781,-18122.548535,-23791.979109,-1844.533008,-5354.360384,-0.038000,0.958000,0.202000,192.000000,0.000000,0.000000,0.000000,0.000000,0.000000,0.000000,0.000000,0.000000,0.000000,1647334583.109241,0.000000
242.000000,16693.310939,22357.734723,3206.581260,21410.266627,-18115.843012,-23799.623406,-1839.012127,-5360.752983,-0.036000,0.962000,0.200000,192.000000,254.000000,224.000000,30.000000,16.000000,6.000000,64.000000,0.000000,0.000000,0.000000,1647334583.117165,0.000000
243.000000,16684.526704,22350.313944,3197.037065,21403.628159,-18118.257000,-23790.950929,-1847.081107,-5356.260283,-0.036000,0.962000,0.200000,192.000000,0.000000,0.000000,0.000000,0.000000,0.000000,0.000000,0.000000,0.000000,0.000000,1647334583.117169,0.000000
244.000000,16685.241960,22350.604516,3192.097329,21400.588322,-18120.358064,-23776.936385,-1843.638938,-5362.451716,-0.036000,0.962000,0.200000,192.000000,0.000000,0.000000,0.000000,0.000000,0.000000,0.000000,0.000000,0.000000,0.000000,1647334583.124189,0.000000
245.000000,16677.016518,22342.915516,3189.906858,21403.494049,-18125.186041,-23766.989859,-1858.994586,-5379.103765,-0.036000,0.962000,0.200000,192.000000,0.000000,0.000000,0.000000,0.000000,0.000000,0.000000,0.000000,0.000000,0.000000,1647334583.132148,0.000000
246.000000,16685.823105,22348.749322,3198.512280,21401.728261,-18126.974181,-23775.908205,-1862.190886,-5379.595504,-0.036000,0.962000,0.200000,192.000000,0.000000,0.000000,0.000000,0.000000,0.000000,0.000000,0.000000,0.000000,0.000000,1647334583.132152,0.000000
247.000000,16681.956253,22341.619115,3190.689169,21395.000386,-18132.495061,-23800.092793,-1871.936246,-5379.595504,-0.036000,0.962000,0.200000,192.000000,0.000000,0.000000,0.000000,0.000000,0.000000,0.000000,0.000000,0.000000,0.000000,1647334583.138816,0.000000
248.000000,16680.525742,22338.422816,3189.638637,21391.826438,-18130.885736,-23803.847886,-1865.878924,-5373.158201,-0.036000,0.962000,0.200000,192.000000,0.000000,0.000000,0.000000,0.000000,0.000000,0.000000,0.000000,0.000000,0.000000,1647334583.138820,0.000000
249.000000,16688.929998,22347.005885,3197.014713,21401.214171,-18122.436776,-23798.952854,-1858.011110,-5361.803515,-0.036000,0.962000,0.200000,192.000000,0.000000,0.000000,0.000000,0.000000,0.000000,0.000000,0.000000,0.000000,0.000000,1647334583.146822,0.000000
250.000000,16691.366338,22348.168176,3193.751358,21413.150002,-18119.396939,-23792.448496,-1847.930473,-5353.354556,-0.036000,0.962000,0.200000,192.000000,0.000000,0.000000,0.000000,0.000000,0.000000,0.000000,0.000000,0.000000,0.000000,1647334583.146827,0.000000
251.000000,16691.947483,22341.954391,3188.856326,21400.297749,-18127.354160,-23806.261874,-1850.031537,-5362.518771,-0.036000,0.962000,0.200000,192.000000,0.000000,0.000000,0.000000,0.000000,0.000000,0.000000,0.000000,0.000000,0.000000,1647334583.154818,0.000000
252.000000,16692.550980,22346.335333,3193.371379,21399.671900,-18127.488271,-23808.765269,-1855.395955,-5365.804477,-0.038000,0.962000,0.198000,192.000000,254.000000,208.000000,30.000000,16.000000,6.000000,48.000000,0.000000,0.000000,0.000000,1647334583.154821,0.000000
253.000000,16689.555846,22345.240098,3192.387902,21394.128668,-18130.304590,-23805.859543,-1852.333767,-5364.262207,-0.038000,0.962000,0.198000,192.000000,0.000000,0.000000,0.000000,0.000000,0.000000,0.000000,0.000000,0.000000,0.000000,1647334583.161992,0.000000
254.000000,16684.951387,22337.282877,3183.447204,21389.658319,-18132.137434,-23821.237543,-1856.580598,-5364.284559,-0.038000,0.962000,0.198000,192.000000,0.000000,0.000000,0.000000,0.000000,0.000000,0.000000,0.000000,0.000000,0.000000,1647334583.161995,0.000000
255.000000,16680.235169,22328.118661,3189.616286,21388.361918,-18128.270582,-23799.422240,-1855.574769,-5370.610102,-0.038000,0.962000,0.198000,192.000000,0.000000,0.000000,0.000000,0.000000,0.000000,0.000000,0.000000,0.000000,0.000000,1647334583.169510,0.000000
0.000000,16687.119506,22337.081711,3195.964181,21393.458115,-18127.778843,-23802.752650,-1844.711822,-5360.149486,-0.038000,0.962000,0.198000,192.000000,0.000000,0.000000,0.000000,0.000000,0.000000,0.000000,0.000000,0.000000,0.000000,1647334583.169515,0.000000
1.000000,16678.312919,22330.934981,3184.430681,21386.462019,-18133.120910,-23797.030604,-1850.545627,-5371.660634,-0.038000,0.962000,0.198000,192.000000,0.000000,0.000000,0.000000,0.000000,0.000000,0.000000,0.000000,0.000000,0.000000,1647334583.177491,0.000000
2.000000,16667.315861,22319.803812,3173.746547,21377.208397,-18139.781730,-23779.328022,-1864.783688,-5373.113498,-0.038000,0.962000,0.198000,192.000000,0.000000,0.000000,0.000000,0.000000,0.000000,0.000000,0.000000,0.000000,0.000000,1647334583.177495,0.000000
3.000000,16671.406230,22326.464632,3176.562867,21385.076211,-18139.737027,-23787.575816,-1863.017900,-5367.592617,-0.038000,0.962000,0.198000,192.000000,0.000000,0.000000,0.000000,0.000000,0.000000,0.000000,0.000000,0.000000,0.000000,1647334583.184614,0.000000
4.000000,16684.191428,22334.600667,3186.442338,21388.205455,-18130.349294,-23796.628272,-1843.437772,-5357.132001,-0.038000,0.962000,0.198000,192.000000,0.000000,0.000000,0.000000,0.000000,0.000000,0.000000,0.000000,0.000000,0.000000,1647334583.191689,0.000000
5.000000,16683.789096,22332.365493,3183.536611,21379.130647,-18135.847823,-23813.414432,-1846.946996,-5363.077565,-0.038000,0.962000,0.198000,192.000000,0.000000,0.000000,0.000000,0.000000,0.000000,0.000000,0.000000,0.000000,0.000000,1647334583.191693,0.000000
6.000000,16682.000957,22325.816432,3176.093480,21358.120007,-18142.732160,-23822.310427,-1858.391089,-5365.737422,-0.036000,0.964000,0.186000,192.000000,254.000000,224.000000,30.000000,32.000000,5.000000,208.000000,0.000000,0.000000,0.000000,1647334583.199154,0.000000
7.000000,16674.222550,22317.747452,3175.378224,21388.697194,-18131.422178,-23797.097659,-1859.843953,-5370.610102,-0.036000,0.964000,0.186000,192.000000,0.000000,0.000000,0.000000,0.000000,0.000000,0.000000,0.000000,0.000000,0.000000,1647334583.199183,0.000000
8.000000,16673.596701,22320.541420,3173.321864,21383.533941,-18135.221974,-23795.935368,-1860.626264,-5371.280655,-0.036000,0.964000,0.186000,192.000000,0.000000,0.000000,0.000000,0.000000,0.000000,0.000000,0.000000,0.000000,0.000000,1647334583.207090,0.000000
9.000000,16684.884332,22335.494737,3186.665855,21384.986804,-18131.332771,-23813.146211,-1843.549531,-5366.251512,-0.036000,0.964000,0.186000,192.000000,0.000000,0.000000,0.000000,0.000000,0.000000,0.000000,0.000000,0.000000,0.000000,1647334583.207094,0.000000
10.000000,16691.947483,22332.946638,3200.367475,21388.808952,-18120.603933,-23817.728319,-1851.909083,-5368.687852,-0.036000,0.964000,0.186000,192.000000,0.000000,0.000000,0.000000,0.000000,0.000000,0.000000,0.000000,0.000000,0.000000,1647334583.214224,0.000000
11.000000,16684.258483,22330.018560,3186.487041,21386.327909,-18129.924611,-23810.821630,-1867.354139,-5378.857896,-0.036000,0.964000,0.186000,192.000000,0.000000,0.000000,0.000000,0.000000,0.000000,0.000000,0.000000,0.000000,0.000000,1647334583.214228,0.000000
12.000000,16680.726907,22323.067167,3186.487041,21385.679708,-18123.442605,-23801.724470,-1854.837162,-5366.385623,-0.036000,0.964000,0.186000,192.000000,0.000000,0.000000,0.000000,0.000000,0.000000,0.000000,0.000000,0.000000,0.000000,1647334583.221706,0.000000
13.000000,16672.233244,22319.289722,3173.232457,21386.886702,-18131.042198,-23785.519455,-1854.635996,-5377.405033,-0.036000,0.964000,0.186000,192.000000,0.000000,0.000000,0.000000,0.000000,0.000000,0.000000,0.000000,0.000000,0.000000,1647334583.221736,0.000000
14.000000,16680.905721,22325.727025,3185.861192,21381.075249,-18134.573774,-23793.275510,-1844.667118,-5367.972597,-0.036000,0.964000,0.186000,192.000000,0.000000,0.000000,0.000000,0.000000,0.000000,0.000000,0.000000,0.000000,0.000000,1647334583.229744,0.000000
15.000000,16683.453820,22325.928190,3189.012788,21393.033432,-18129.879907,-23807.200647,-1852.981967,-5372.219428,-0.036000,0.964000,0.186000,192.000000,0.000000,0.000000,0.000000,0.000000,0.000000,0.000000,0.000000,0.000000,0.000000,1647334583.229747,0.000000
16.000000,16684.861980,22329.191545,3185.391806,21393.771040,-18127.734140,-23798.058784,-1856.468839,-5364.955111,-0.038000,0.966000,0.182000,192.000000,254.000000,208.000000,30.000000,48.000000,5.000000,176.000000,0.000000,0.000000,0.000000,1647334583.237739,0.000000
17.000000,16692.238056,22332.566659,3195.427739,21395.000386,-18122.839108,-23816.320159,-1848.913950,-5354.673309,-0.038000,0.966000,0.182000,192.000000,0.000000,0.000000,0.000000,0.000000,0.000000,0.000000,0.000000,0.000000,0.000000,1647334583.237743,0.000000
18.000000,16689.935826,22326.464632,3191.538536,21388.518380,-18122.928515,-23815.090813,-1856.960578,-5367.167934,-0.038000,0.966000,0.182000,192.000000,0.000000,0.000000,0.000000,0.000000,0.000000,0.000000,0.000000,0.000000,0.000000,1647334583.243916,0.000000
19.000000,16688.237093,22325.816432,3191.337370,21398.397851,-18121.207431,-23809.279359,-1856.915874,-5372.062966,-0.038000,0.966000,0.182000,192.000000,0.000000,0.000000,0.000000,0.000000,0.000000,0.000000,0.000000,0.000000,0.000000,1647334583.251342,0.000000
20.000000,16691.545152,22329.236249,3193.639600,21392.474639,-18123.822585,-23819.158831,-1842.610758,-5362.854047,-0.038000,0.966000,0.182000,192.000000,0.000000,0.000000,0.000000,0.000000,0.000000,0.000000,0.000000,0.000000,0.000000,1647334583.251346,0.000000
21.000000,16684.929035,22327.313999,3185.950599,21407.137383,-18122.839108,-23812.766232,-1857.362909,-5366.966768,-0.038000,0.966000,0.182000,192.000000,0.000000,0.000000,0.000000,0.000000,0.000000,0.000000,0.000000,0.000000,0.000000,1647334583.259356,0.000000
22.000000,16689.332329,22326.285818,3200.501585,21412.948836,-18114.568962,-23800.048089,-1854.881865,-5367.123230,-0.038000,0.966000,0.182000,192.000000,0.000000,0.000000,0.000000,0.000000,0.000000,0.000000,0.000000,0.000000,0.000000,1647334583.259372,0.000000
23.000000,16687.477134,22322.776594,3193.863117,21404.365767,-18115.150108,-23794.460153,-1853.831333,-5362.563474,-0.038000,0.966000,0.182000,192.000000,0.000000,0.000000,0.000000,0.000000,0.000000,0.000000,0.000000,0.000000,0.000000,1647334583.267374,0.000000
24.000000,16692.349814,22327.448109,3189.146899,21402.376461,-18121.833279,-23810.173429,-1850.791496,-5360.194190,-0.038000,0.966000,0.182000,192.000000,0.000000,0.000000,0.000000,0.000000,0.000000,0.000000,0.000000,0.000000,0.000000,1647334583.267378,0.000000
25.000000,16691.299282,22320.809641,3191.896163,21401.929426,-18117.564096,-23809.234656,-1854.613644,-5361.915274,-0.038000,0.966000,0.182000,192.000000,0.000000,0.000000,0.000000,0.000000,0.000000,0.000000,0.000000,0.000000,0.000000,1647334583.273967,0.000000
26.000000,16693.310939,22324.318865,3195.852422,21405.103374,-18111.998512,-23785.072420,-1861.676796,-5370.028957,-0.046000,0.970000,0.182000,192.000000,254.000000,144.000000,30.000000,80.000000,5.000000,176.000000,0.000000,0.000000,0.000000,1647334583.273972,0.000000
27.000000,16700.955236,22334.444205,3204.301382,21404.969264,-18112.445547,-23787.978147,-1852.646691,-5369.134887,-0.046000,0.970000,0.182000,192.000000,0.000000,0.000000,0.000000,0.000000,0.000000,0.000000,0.000000,0.000000,0.000000,1647334583.282023,0.000000
28.000000,16697.736585,22330.644409,3198.355818,21406.980921,-18113.317265,-23797.052955,-1848.757487,-5365.469201,-0.046000,0.970000,0.182000,192.000000,0.000000,0.000000,0.000000,0.000000,0.000000,0.000000,0.000000,0.000000,0.000000,1647334583.282057,0.000000
29.000000,16696.283721,22324.900010,3201.440358,21416.614523,-18110.724462,-23794.996595,-1842.901330,-5367.547913,-0.046000,0.970000,0.182000,192.000000,0.000000,0.000000,0.000000,0.000000,0.000000,0.000000,0.000000,0.000000,0.000000,1647334583.290097,0.000000
30.000000,16685.890160,22312.539496,3185.660027,21401.370633,-18123.666122,-23776.377592,-1848.735136,-5369.134887,-0.046000,0.970000,0.182000,192.000000,0.000000,0.000000,0.000000,0.000000,0.000000,0.000000,0.000000,0.000000,0.000000,1647334583.290102,0.000000
31.000000,16684.280835,22313.500621,3178.999207,21393.793391,-18131.735102,-23780.758534,-1850.009185,-5367.033823,-0.046000,0.970000,0.182000,192.000000,0.000000,0.000000,0.000000,0.000000,0.000000,0.000000,0.000000,0.000000,0.000000,1647334583.297217,0.000000
32.000000,16699.502373,22326.688150,3195.248925,21408.858467,-18122.950867,-23803.177333,-1842.096668,-5360.931797,-0.046000,0.970000,0.182000,192.000000,0.000000,0.000000,0.000000,0.000000,0.000000,0.000000,0.000000,0.000000,0.000000,1647334583.297220,0.000000
33.000000,16705.537344,22334.958295,3204.793120,21421.598962,-18113.540782,-23812.140383,-1840.085011,-5356.394393,-0.046000,0.970000,0.182000,192.000000,0.000000,0.000000,0.000000,0.000000,0.000000,0.000000,0.000000,0.000000,0.000000,1647334583.303619,0.000000
34.000000,16696.484887,22323.111871,3198.422873,21416.949799,-18110.746814,-23802.529133,-1844.890636,-5356.997890,-0.046000,0.970000,0.182000,192.000000,0.000000,0.000000,0.000000,0.000000,0.000000,0.000000,0.000000,0.000000,0.000000,1647334583.303623,0.000000
35.000000,16687.946521,22316.808679,3185.995303,21406.109203,-18125.409558,-23800.539827,-1853.943092,-5362.943454,-0.046000,0.970000,0.182000,192.000000,0.000000,0.000000,0.000000,0.000000,0.000000,0.000000,0.000000,0.000000,0.000000,1647334583.311762,0.000000
36.000000,16687.320672,22318.887391,3184.743605,21404.142249,-18134.104387,-23821.438708,-1852.669043,-5362.786992,-0.048000,0.970000,0.188000,192.000000,254.000000,128.000000,30.000000,80.000000,5.000000,224.000000,0.000000,0.000000,0.000000,1647334583.319720,0.000000
37.000000,16694.741451,22319.826164,3193.572544,21405.125726,-18121.833279,-23817.840078,-1847.818714,-5361.289425,-0.048000,0.970000,0.188000,192.000000,0.000000,0.000000,0.000000,0.000000,0.000000,0.000000,0.000000,0.000000,0.000000,1647334583.319723,0.000000
38.000000,16691.075765,22319.759109,3181.614361,21403.695214,-18121.833279,-23793.096697,-1854.501886,-5362.027033,-0.048000,0.970000,0.188000,192.000000,0.000000,0.000000,0.000000,0.000000,0.000000,0.000000,0.000000,0.000000,0.000000,1647334583.326918,0.000000
39.000000,16694.696748,22324.832955,3195.807719,21415.385177,-18118.636980,-23781.630252,-1845.024746,-5360.820038,-0.048000,0.970000,0.188000,192.000000,0.000000,0.000000,0.000000,0.000000,0.000000,0.000000,0.000000,0.000000,0.000000,1647334583.326922,0.000000
40.000000,16693.936788,22326.732853,3199.741626,21416.189839,-18116.558268,-23798.706984,-1834.430019,-5354.293329,-0.048000,0.970000,0.188000,192.000000,0.000000,0.000000,0.000000,0.000000,0.000000,0.000000,0.000000,0.000000,0.000000,1647334583.334294,0.000000
41.000000,16684.325538,22319.915571,3187.939905,21408.098508,-18125.007227,-23802.864409,-1851.193828,-5368.084355,-0.048000,0.970000,0.188000,192.000000,0.000000,0.000000,0.000000,0.000000,0.000000,0.000000,0.000000,0.000000,0.000000,1647334583.334298,0.000000
42.000000,16684.973739,22317.658045,3191.449129,21412.211229,-18115.999474,-23802.842057,-1853.294892,-5366.072698,-0.048000,0.970000,0.188000,192.000000,0.000000,0.000000,0.000000,0.000000,0.000000,0.000000,0.000000,0.000000,0.000000,1647334583.342362,0.000000
43.000000,16681.755088,22312.695958,3188.275181,21410.959531,-18117.854669,-23798.215246,-1855.842990,-5362.608178,-0.048000,0.970000,0.188000,192.000000,0.000000,0.000000,0.000000,0.000000,0.000000,0.000000,0.000000,0.000000,0.000000,1647334583.342388,0.000000
44.000000,16682.827971,22316.138126,3185.458861,21405.706871,-18124.426082,-23808.005310,-1854.546589,-5363.435193,-0.048000,0.970000,0.188000,192.000000,0.000000,0.000000,0.000000,0.000000,0.000000,0.000000,0.000000,0.000000,0.000000,1647334583.350322,0.000000
45.000000,16680.302224,22313.791193,3183.715425,21396.006214,-18130.371646,-23815.604903,-1857.072336,-5365.469201,-0.048000,0.970000,0.188000,192.000000,0.000000,0.000000,0.000000,0.000000,0.000000,0.000000,0.000000,0.000000,0.000000,1647334583.350326,0.000000
46.000000,16684.973739,22316.138126,3191.806756,21413.619389,-18122.257962,-23812.654473,-1850.344461,-5359.993024,-0.048000,0.970000,0.188000,192.000000,0.000000,0.000000,0.000000,0.000000,0.000000,0.000000,0.000000,0.000000,0.000000,1647334583.356895,0.000000
47.000000,16680.503390,22318.015673,3182.195506,21409.819592,-18124.895468,-23805.703080,-1854.881865,-5362.563474,-0.046000,0.964000,0.182000,192.000000,254.000000,144.000000,30.000000,32.000000,5.000000,176.000000,0.000000,0.000000,0.000000,1647334583.356899,0.000000
48.000000,16671.182712,22310.125507,3169.119736,21402.711737,-18130.036370,-23788.380478,-1862.593217,-5378.567324,-0.046000,0.964000,0.182000,192.000000,0.000000,0.000000,0.000000,0.000000,0.000000,0.000000,0.000000,0.000000,0.000000,1647334583.364895,0.000000
49.000000,16683.297358,22318.865039,3191.896163,21410.356034,-18121.498003,-23798.774040,-1844.577711,-5364.664538,-0.046000,0.964000,0.182000,192.000000,0.000000,0.000000,0.000000,0.000000,0.000000,0.000000,0.000000,0.000000,0.000000,1647334583.364898,0.000000
50.000000,16681.576274,22320.317903,3194.801890,21413.440575,-18114.881887,-23799.578702,-1845.225912,-5356.148524,-0.046000,0.964000,0.182000,192.000000,0.000000,0.000000,0.000000,0.000000,0.000000,0.000000,0.000000,0.000000,0.000000,1647334583.371945,0.000000
51.000000,16673.909625,22307.778574,3185.704730,21402.935255,-18121.922686,-23782.457266,-1854.010147,-5364.150448,-0.046000,0.964000,0.182000,192.000000,0.000000,0.000000,0.000000,0.000000,0.000000,0.000000,0.000000,0.000000,0.000000,1647334583.379924,0.000000
52.000000,16676.278910,22310.684301,3188.118719,21413.150002,-18122.570887,-23775.282356,-1858.391089,-5365.558608,-0.046000,0.964000,0.182000,192.000000,0.000000,0.000000,0.000000,0.000000,0.000000,0.000000,0.000000,0.000000,0.000000,1647334583.379928,0.000000
53.000000,16685.711346,22318.820336,3199.428701,21415.876915,-18115.775957,-23789.922749,-1845.740002,-5364.172800,-0.046000,0.964000,0.182000,192.000000,0.000000,0.000000,0.000000,0.000000,0.000000,0.000000,0.000000,0.000000,0.000000,1647334583.386624,0.000000
54.000000,16681.285701,22311.086632,3193.326675,21413.284113,-18118.324055,-23790.123914,-1851.551455,-5374.141678,-0.046000,0.964000,0.182000,192.000000,0.000000,0.000000,0.000000,0.000000,0.000000,0.000000,0.000000,0.000000,0.000000,1647334583.386628,0.000000
55.000000,16678.514085,22308.493830,3188.833974,21409.059633,-18124.359026,-23794.013118,-1855.507714,-5379.930780,-0.046000,0.964000,0.182000,192.000000,0.000000,0.000000,0.000000,0.000000,0.000000,0.000000,0.000000,0.000000,0.000000,1647334583.394495,0.000000
56.000000,16676.949463,22306.281007,3186.822317,21408.433784,-18122.056797,-23794.124877,-1848.913950,-5366.899713,-0.046000,0.964000,0.182000,192.000000,0.000000,0.000000,0.000000,0.000000,0.000000,0.000000,0.000000,0.000000,0.000000,1647334583.394498,0.000000
57.000000,16676.591835,22310.237266,3181.457899,21410.087813,-18120.559230,-23787.106429,-1843.303662,-5357.780201,-0.048000,0.968000,0.188000,192.000000,254.000000,128.000000,30.000000,64.000000,5.000000,224.000000,0.000000,0.000000,0.000000,1647334583.402524,0.000000
58.000000,16684.593759,22316.160478,3195.584201,21410.825421,-18112.892582,-23797.410583,-1836.285214,-5350.940567,-0.048000,0.968000,0.188000,192.000000,0.000000,0.000000,0.000000,0.000000,0.000000,0.000000,0.000000,0.000000,0.000000,1647334583.402527,0.000000
59.000000,16675.965986,22305.096365,3185.592972,21410.467793,-18119.240477,-23802.305615,-1852.333767,-5365.916236,-0.048000,0.968000,0.188000,192.000000,0.000000,0.000000,0.000000,0.000000,0.000000,0.000000,0.000000,0.000000,0.000000,1647334583.409203,0.000000
60.000000,16672.926149,22299.575484,3177.613399,21404.119897,-18131.377474,-23829.105357,-1857.228799,-5375.393376,-0.048000,0.968000,0.188000,192.000000,0.000000,0.000000,0.000000,0.000000,0.000000,0.000000,0.000000,0.000000,0.000000,1647334583.409206,0.000000
61.000000,16673.820218,22297.407365,3182.240210,21403.538752,-18130.818681,-23842.762273,-1846.902293,-5360.216541,-0.048000,0.968000,0.188000,192.000000,0.000000,0.000000,0.000000,0.000000,0.000000,0.000000,0.000000,0.000000,0.000000,1647334583.417174,0.000000
62.000000,16667.673489,22293.674623,3170.617303,21397.503781,-18135.803120,-23834.693293,-1852.512580,-5365.603312,-0.048000,0.968000,0.188000,192.000000,0.000000,0.000000,0.000000,0.000000,0.000000,0.000000,0.000000,0.000000,0.000000,1647334583.417177,0.000000
63.000000,16664.521893,22286.678527,3176.875791,21395.380365,-18128.248230,-23820.790508,-1851.082069,-5371.079489,-0.048000,0.968000,0.188000,192.000000,0.000000,0.000000,0.000000,0.000000,0.000000,0.000000,0.000000,0.000000,0.000000,1647334583.425261,0.000000
64.000000,16665.639480,22282.789324,3172.763070,21396.185028,-18131.153957,-23826.713720,-1851.663214,-5375.840411,-0.048000,0.968000,0.188000,192.000000,0.000000,0.000000,0.000000,0.000000,0.000000,0.000000,0.000000,0.000000,0.000000,1647334583.425288,0.000000
65.000000,16671.227416,22293.719327,3175.087652,21389.255987,-18135.803120,-23836.883764,-1842.767220,-5367.614969,-0.048000,0.968000,0.188000,192.000000,0.000000,0.000000,0.000000,0.000000,0.000000,0.000000,0.000000,0.000000,0.000000,1647334583.432222,0.000000
66.000000,16663.694878,22284.286891,3171.779593,21396.475601,-18131.869213,-23841.912906,-1833.625356,-5360.261245,-0.048000,0.968000,0.188000,192.000000,0.000000,0.000000,0.000000,0.000000,0.000000,0.000000,0.000000,0.000000,0.000000,1647334583.439397,0.000000
67.000000,16663.381954,22285.896216,3176.629922,21401.057708,-18125.655428,-23824.970284,-1838.855665,-5370.431289,-0.054000,0.968000,0.190000,192.000000,254.000000,80.000000,30.000000,64.000000,5.000000,240.000000,0.000000,0.000000,0.000000,1647334583.439400,0.000000
68.000000,16662.018497,22286.052678,3172.852477,21402.197647,-18123.621419,-23802.350319,-1862.369700,-5379.014358,-0.054000,0.968000,0.190000,192.000000,0.000000,0.000000,0.000000,0.000000,0.000000,0.000000,0.000000,0.000000,0.000000,1647334583.446847,0.000000
69.000000,16666.712364,22290.411269,3175.937018,21401.169467,-18127.510622,-23814.911999,-1859.911008,-5365.402146,-0.054000,0.968000,0.190000,192.000000,0.000000,0.000000,0.000000,0.000000,0.000000,0.000000,0.000000,0.000000,0.000000,1647334583.446850,0.000000
70.000000,16665.952404,22288.578425,3175.646445,21397.816705,-18128.829375,-23822.891572,-1852.154953,-5363.546951,-0.054000,0.968000,0.190000,192.000000,0.000000,0.000000,0.000000,0.000000,0.000000,0.000000,0.000000,0.000000,0.000000,1647334583.454841,0.000000
71.000000,16662.152608,22285.538588,3173.724195,21391.267644,-18130.371646,-23813.369729,-1855.060679,-5369.090184,-0.054000,0.968000,0.190000,192.000000,0.000000,0.000000,0.000000,0.000000,0.000000,0.000000,0.000000,0.000000,0.000000,1647334583.454844,0.000000
72.000000,16664.387782,22290.701841,3177.211067,21404.209304,-18127.130643,-23811.268665,-1858.189924,-5376.466260,-0.054000,0.968000,0.190000,192.000000,0.000000,0.000000,0.000000,0.000000,0.000000,0.000000,0.000000,0.000000,0.000000,1647334583.462017,0.000000
73.000000,16667.897006,22294.412231,3176.831088,21416.256895,-18120.358064,-23810.218133,-1845.941168,-5370.833620,-0.054000,0.968000,0.190000,192.000000,0.000000,0.000000,0.000000,0.000000,0.000000,0.000000,0.000000,0.000000,0.000000,1647334583.462022,0.000000
74.000000,16667.047640,22290.791248,3183.402501,21406.846810,-18124.806061,-23806.418336,-1844.220083,-5374.231085,-0.054000,0.968000,0.190000,192.000000,0.000000,0.000000,0.000000,0.000000,0.000000,0.000000,0.000000,0.000000,0.000000,1647334583.469543,0.000000
75.000000,16672.814390,22294.725155,3185.861192,21402.063537,-18124.359026,-23832.949857,-1850.545627,-5374.678120,-0.054000,0.968000,0.190000,192.000000,0.000000,0.000000,0.000000,0.000000,0.000000,0.000000,0.000000,0.000000,0.000000,1647334583.469547,0.000000
76.000000,16667.092343,22293.249940,3177.546344,21396.006214,-18130.908088,-23840.817671,-1860.089822,-5382.791803,-0.054000,0.968000,0.190000,192.000000,0.000000,0.000000,0.000000,0.000000,0.000000,0.000000,0.000000,0.000000,0.000000,1647334583.477600,0.000000
77.000000,16660.319765,22282.878731,3173.970064,21389.032470,-18127.801195,-23829.239467,-1864.783688,-5386.949228,-0.050000,0.966000,0.190000,192.000000,254.000000,112.000000,30.000000,48.000000,5.000000,240.000000,0.000000,0.000000,0.000000,1647334583.477605,0.000000
78.000000,16657.056410,22273.915681,3166.795154,21402.778793,-18123.375550,-23806.731261,-1874.327883,-5386.144565,-0.050000,0.966000,0.190000,192.000000,0.000000,0.000000,0.000000,0.000000,0.000000,0.000000,0.000000,0.000000,0.000000,1647334583.485497,0.000000
79.000000,16659.068067,22271.702858,3169.343253,21395.201551,-18129.142300,-23804.719604,-1855.977101,-5376.533315,-0.050000,0.966000,0.190000,192.000000,0.000000,0.000000,0.000000,0.000000,0.000000,0.000000,0.000000,0.000000,0.000000,1647334583.485501,0.000000
80.000000,16659.939785,22277.044925,3171.377262,21389.255987,-18130.215184,-23813.190915,-1847.349327,-5371.347710,-0.050000,0.966000,0.190000,192.000000,0.000000,0.000000,0.000000,0.000000,0.000000,0.000000,0.000000,0.000000,0.000000,1647334583.491678,0.000000
81.000000,16660.632689,22282.856379,3173.768899,21401.437688,-18124.247268,-23817.750671,-1847.908121,-5373.046443,-0.050000,0.966000,0.190000,192.000000,0.000000,0.000000,0.000000,0.000000,0.000000,0.000000,0.000000,0.000000,0.000000,1647334583.499094,0.000000
82.000000,16656.475265,22276.240263,3166.593989,21398.397851,-18126.504794,-23812.073328,-1862.257941,-5378.477917,-0.050000,0.966000,0.190000,192.000000,0.000000,0.000000,0.000000,0.000000,0.000000,0.000000,0.000000,0.000000,0.000000,1647334583.499098,0.000000
83.000000,16661.169131,22280.487094,3174.864134,21398.934293,-18122.257962,-23810.843982,-1856.714708,-5369.760736,-0.050000,0.966000,0.190000,192.000000,0.000000,0.000000,0.000000,0.000000,0.000000,0.000000,0.000000,0.000000,0.000000,1647334583.507558,0.000000
84.000000,16664.298375,22283.459876,3179.781518,21387.669013,-18124.582544,-23812.363900,-1859.866304,-5371.727690,-0.050000,0.966000,0.190000,192.000000,0.000000,0.000000,0.000000,0.000000,0.000000,0.000000,0.000000,0.000000,0.000000,1647334583.507575,0.000000
85.000000,16666.242977,22283.482228,3184.698902,21395.760345,-18118.972256,-23819.874086,-1855.775935,-5366.184457,-0.050000,0.966000,0.190000,192.000000,0.000000,0.000000,0.000000,0.000000,0.000000,0.000000,0.000000,0.000000,0.000000,1647334583.515552,0.000000
86.000000,16671.495637,22287.729059,3191.024445,21405.326892,-18110.657407,-23804.652548,-1850.769144,-5363.099916,-0.050000,0.966000,0.190000,192.000000,0.000000,0.000000,0.000000,0.000000,0.000000,0.000000,0.000000,0.000000,0.000000,1647334583.515569,0.000000
87.000000,16666.690012,22281.962309,3178.663931,21397.459078,-18122.839108,-23807.982958,-1855.328900,-5381.674216,-0.048000,0.966000,0.186000,192.000000,254.000000,128.000000,30.000000,48.000000,5.000000,208.000000,0.000000,0.000000,0.000000,1647334583.522085,0.000000
88.000000,16664.454837,22280.509446,3170.349082,21405.058671,-18128.650561,-23809.882857,-1858.525200,-5386.368082,-0.048000,0.966000,0.186000,192.000000,0.000000,0.000000,0.000000,0.000000,0.000000,0.000000,0.000000,0.000000,0.000000,1647334583.522102,0.000000
89.000000,16680.436335,22290.075992,3196.657085,21402.219999,-18115.060701,-23815.359034,-1861.363871,-5375.818059,-0.048000,0.966000,0.186000,192.000000,0.000000,0.000000,0.000000,0.000000,0.000000,0.000000,0.000000,0.000000,0.000000,1647334583.530168,0.000000
90.000000,16674.490771,22282.632861,3190.555059,21399.671900,-18108.712805,-23809.592284,-1869.365796,-5379.193172,-0.048000,0.966000,0.186000,192.000000,0.000000,0.000000,0.000000,0.000000,0.000000,0.000000,0.000000,0.000000,0.000000,1647334583.530184,0.000000
91.000000,16675.675413,22289.159571,3193.706655,21424.929371,-18102.700186,-23795.622444,-1864.828392,-5374.745175,-0.048000,0.966000,0.186000,192.000000,0.000000,0.000000,0.000000,0.000000,0.000000,0.000000,0.000000,0.000000,0.000000,1647334583.538178,0.000000
92.000000,16677.709422,22292.154705,3200.054550,21423.342398,-18099.593294,-23801.478601,-1852.154953,-5363.926931,-0.048000,0.966000,0.186000,192.000000,0.000000,0.000000,0.000000,0.000000,0.000000,0.000000,0.000000,0.000000,0.000000,1647334583.538194,0.000000
93.000000,16675.496599,22290.567731,3193.483137,21416.927447,-18101.493192,-23790.772115,-1856.737060,-5373.694643,-0.048000,0.966000,0.186000,192.000000,0.000000,0.000000,0.000000,0.000000,0.000000,0.000000,0.000000,0.000000,0.000000,1647334583.545183,0.000000
94.000000,16674.535474,22296.557998,3191.337370,21415.161659,-18107.908143,-23797.097659,-1851.104421,-5366.564437,-0.048000,0.966000,0.186000,192.000000,0.000000,0.000000,0.000000,0.000000,0.000000,0.000000,0.000000,0.000000,0.000000,1647334583.545199,0.000000
95.000000,16664.030154,22284.152780,3186.844669,21409.573723,-18113.294913,-23805.032528,-1854.747755,-5374.007568,-0.048000,0.966000,0.186000,192.000000,0.000000,0.000000,0.000000,0.000000,0.000000,0.000000,0.000000,0.000000,0.000000,1647334583.551620,0.000000
96.000000,16659.045715,22277.402553,3178.686282,21403.717566,-18118.458166,-23796.695327,-1855.060679,-5371.347710,-0.048000,0.966000,0.186000,192.000000,0.000000,0.000000,0.000000,0.000000,0.000000,0.000000,0.000000,0.000000,0.000000,1647334583.551635,0.000000
97.000000,16666.511198,22286.633824,3190.510355,21415.519287,-18105.181230,-23787.531112,-1851.551455,-5370.766565,-0.052000,0.966000,0.188000,192.000000,254.000000,96.000000,30.000000,48.000000,5.000000,224.000000,0.000000,0.000000,0.000000,1647334583.559782,0.000000
98.000000,16664.656003,22280.464742,3179.781518,21404.343415,-18120.939210,-23794.996595,-1846.946996,-5366.519733,-0.052000,0.966000,0.188000,192.000000,0.000000,0.000000,0.000000,0.000000,0.000000,0.000000,0.000000,0.000000,0.000000,1647334583.567702,0.000000
99.000000,16667.114695,22284.800981,3183.491908,21404.477525,-18121.609762,-23803.087926,-1852.512580,-5368.821963,-0.052000,0.966000,0.188000,192.000000,0.000000,0.000000,0.000000,0.000000,0.000000,0.000000,0.000000,0.000000,0.000000,1647334583.567718,0.000000
100.000000,16662.242015,22280.621204,3184.453033,21416.301598,-18117.429986,-23792.403792,-1833.513598,-5363.614006,-0.052000,0.966000,0.188000,192.000000,0.000000,0.000000,0.000000,0.000000,0.000000,0.000000,0.000000,0.000000,0.000000,1647334583.574945,0.000000
101.000000,16661.616166,22281.135295,3176.361701,21405.840982,-18121.833279,-23789.252196,-1839.503865,-5368.754908,-0.052000,0.966000,0.188000,192.000000,0.000000,0.000000,0.000000,0.000000,0.000000,0.000000,0.000000,0.000000,0.000000,1647334583.574962,0.000000
102.000000,16657.212872,22269.355925,3169.812640,21407.651473,-18121.140375,-23785.094772,-1863.174363,-5366.005643,-0.052000,0.966000,0.188000,192.000000,0.000000,0.000000,0.000000,0.000000,0.000000,0.000000,0.000000,0.000000,0.000000,1647334583.582432,0.000000
103.000000,16666.086515,22275.882635,3183.134280,21411.071290,-18114.904239,-23781.429086,-1862.682624,-5369.134887,-0.052000,0.966000,0.188000,192.000000,0.000000,0.000000,0.000000,0.000000,0.000000,0.000000,0.000000,0.000000,0.000000,1647334583.582449,0.000000
104.000000,16660.923262,22275.368545,3182.463727,21407.897342,-18115.910067,-23781.116161,-1859.307511,-5371.638283,-0.052000,0.966000,0.188000,192.000000,0.000000,0.000000,0.000000,0.000000,0.000000,0.000000,0.000000,0.000000,0.000000,1647334583.590498,0.000000
105.000000,16651.960212,22266.226681,3173.098346,21387.154923,-18128.829375,-23794.683670,-1860.134525,-5373.337015,-0.052000,0.966000,0.188000,192.000000,0.000000,0.000000,0.000000,0.000000,0.000000,0.000000,0.000000,0.000000,0.000000,1647334583.590514,0.000000
106.000000,16659.649212,22275.301489,3179.736814,21390.485333,-18124.448433,-23791.509723,-1848.131639,-5367.302044,-0.052000,0.966000,0.188000,192.000000,0.000000,0.000000,0.000000,0.000000,0.000000,0.000000,0.000000,0.000000,0.000000,1647334583.598401,0.000000
107.000000,16663.404305,22280.196521,3187.604629,21415.675749,-18112.870230,-23800.629234,-1845.449429,-5368.911370,-0.052000,0.964000,0.194000,192.000000,254.000000,96.000000,30.000000,32.000000,6.000000,16.000000,0.000000,0.000000,0.000000,1647334583.598417,0.000000
108.000000,16657.145817,22271.345231,3186.330579,21412.032415,-18112.378491,-23787.732278,-1844.577711,-5371.660634,-0.052000,0.964000,0.194000,192.000000,0.000000,0.000000,0.000000,0.000000,0.000000,0.000000,0.000000,0.000000,0.000000,1647334583.605085,0.000000
109.000000,16648.495692,22264.505597,3165.789326,21396.207380,-18131.355122,-23800.651586,-1852.490229,-5379.416690,-0.052000,0.964000,0.194000,192.000000,0.000000,0.000000,0.000000,0.000000,0.000000,0.000000,0.000000,0.000000,0.000000,1647334583.605101,0.000000
110.000000,16656.207044,22271.144065,3179.155669,21407.047976,-18121.028617,-23812.006272,-1840.532045,-5370.364233,-0.052000,0.964000,0.194000,192.000000,0.000000,0.000000,0.000000,0.000000,0.000000,0.000000,0.000000,0.000000,0.000000,1647334583.612994,0.000000
111.000000,16654.284794,22264.639707,3175.489983,21401.661205,-18120.425119,-23799.556351,-1844.309490,-5374.767527,-0.052000,0.964000,0.194000,192.000000,0.000000,0.000000,0.000000,0.000000,0.000000,0.000000,0.000000,0.000000,0.000000,1647334583.613010,0.000000
112.000000,16657.704611,22268.305393,3176.339349,21404.902208,-18122.436776,-23796.538865,-1849.673909,-5369.626626,-0.052000,0.964000,0.194000,192.000000,0.000000,0.000000,0.000000,0.000000,0.000000,0.000000,0.000000,0.000000,0.000000,1647334583.619877,0.000000
113.000000,16651.691991,22262.695105,3172.025463,21407.897342,-18116.446509,-23800.830400,-1840.934377,-5362.898751,-0.052000,0.964000,0.194000,192.000000,0.000000,0.000000,0.000000,0.000000,0.000000,0.000000,0.000000,0.000000,0.000000,1647334583.626960,0.000000
114.000000,16643.801825,22257.889480,3162.436564,21403.091717,-18124.828413,-23786.055897,-1849.517447,-5370.923027,-0.052000,0.964000,0.194000,192.000000,0.000000,0.000000,0.000000,0.000000,0.000000,0.000000,0.000000,0.000000,0.000000,1647334583.626975,0.000000
115.000000,16649.009782,22258.492977,3173.679492,21390.306519,-18134.707884,-23783.753667,-1851.931435,-5368.374928,-0.052000,0.964000,0.194000,192.000000,0.000000,0.000000,0.000000,0.000000,0.000000,0.000000,0.000000,0.000000,0.000000,1647334583.634637,0.000000
116.000000,16652.228433,22259.923489,3175.758204,21392.496990,-18126.236573,-23791.576778,-1843.482476,-5356.863780,-0.052000,0.964000,0.194000,192.000000,0.000000,0.000000,0.000000,0.000000,0.000000,0.000000,0.000000,0.000000,0.000000,1647334583.634653,0.000000
117.000000,16652.742523,22265.019687,3180.943809,21410.132517,-18111.864401,-23782.166693,-1845.494133,-5358.204884,-0.054000,0.960000,0.186000,192.000000,254.000000,80.000000,30.000000,0.000000,5.000000,208.000000,0.000000,0.000000,0.000000,1647334583.642800,0.000000
118.000000,16654.709477,22268.327745,3189.728044,21420.548430,-18107.036425,-23776.779923,-1845.695298,-5364.105745,-0.054000,0.960000,0.186000,192.000000,0.000000,0.000000,0.000000,0.000000,0.000000,0.000000,0.000000,0.000000,0.000000,1647334583.642816,0.000000
119.000000,16653.323669,22264.326783,3184.095405,21416.994502,-18110.724462,-23766.431065,-1851.596159,-5368.017300,-0.054000,0.960000,0.186000,192.000000,0.000000,0.000000,0.000000,0.000000,0.000000,0.000000,0.000000,0.000000,0.000000,1647334583.650645,0.000000
120.000000,16650.015610,22262.963326,3181.770823,21411.697139,-18116.290047,-23771.773132,-1854.725403,-5363.122268,-0.054000,0.960000,0.186000,192.000000,0.000000,0.000000,0.000000,0.000000,0.000000,0.000000,0.000000,0.000000,0.000000,1647334583.650662,0.000000
121.000000,16650.127369,22265.444370,3180.496774,21408.523191,-18116.468861,-23782.747839,-1851.484400,-5363.166972,-0.054000,0.960000,0.186000,192.000000,0.000000,0.000000,0.000000,0.000000,0.000000,0.000000,0.000000,0.000000,0.000000,1647334583.657367,0.000000
122.000000,16649.076837,22259.543509,3178.641579,21400.543618,-18116.692378,-23787.441705,-1861.274464,-5372.510001,-0.054000,0.960000,0.186000,192.000000,0.000000,0.000000,0.000000,0.000000,0.000000,0.000000,0.000000,0.000000,0.000000,1647334583.657383,0.000000
123.000000,16652.451951,22260.974021,3183.089576,21397.615540,-18109.584523,-23777.741048,-1854.904217,-5371.928855,-0.054000,0.960000,0.186000,192.000000,0.000000,0.000000,0.000000,0.000000,0.000000,0.000000,0.000000,0.000000,0.000000,1647334583.665386,0.000000
124.000000,16653.167206,22259.096475,3186.308227,21394.329833,-18113.339616,-23783.194874,-1845.337670,-5361.043556,-0.054000,0.960000,0.186000,192.000000,0.000000,0.000000,0.000000,0.000000,0.000000,0.000000,0.000000,0.000000,0.000000,1647334583.665403,0.000000
125.000000,16652.697820,22265.444370,3184.408329,21393.547522,-18120.425119,-23794.393098,-1844.823580,-5357.891960,-0.054000,0.960000,0.186000,192.000000,0.000000,0.000000,0.000000,0.000000,0.000000,0.000000,0.000000,0.000000,0.000000,1647334583.673379,0.000000
126.000000,16656.832893,22270.920547,3189.951562,21409.081985,-18111.439718,-23809.122897,-1839.257996,-5353.823942,-0.054000,0.960000,0.186000,192.000000,0.000000,0.000000,0.000000,0.000000,0.000000,0.000000,0.000000,0.000000,0.000000,1647334583.673395,0.000000
127.000000,16647.579270,22264.080914,3181.904934,21402.667034,-18108.399881,-23780.087981,-1844.041269,-5366.273864,-0.050000,0.964000,0.192000,192.000000,254.000000,112.000000,30.000000,32.000000,6.000000,0.000000,0.000000,0.000000,0.000000,1647334583.680461,0.000000
128.000000,16647.132235,22263.142140,3171.779593,21396.185028,-18120.335712,-23769.247385,-1853.384298,-5373.672291,-0.050000,0.964000,0.192000,192.000000,0.000000,0.000000,0.000000,0.000000,0.000000,0.000000,0.000000,0.000000,0.000000,1647334583.686975,0.000000
129.000000,16652.407247,22258.694143,3176.048777,21397.526133,-18117.720558,-23771.706077,-1856.066508,-5378.902600,-0.050000,0.964000,0.192000,192.000000,0.000000,0.000000,0.000000,0.000000,0.000000,0.000000,0.000000,0.000000,0.000000,1647334583.686993,0.000000
130.000000,16653.189558,22259.945841,3180.519126,21397.570836,-18115.686550,-23783.820723,-1853.563112,-5377.583847,-0.050000,0.964000,0.192000,192.000000,0.000000,0.000000,0.000000,0.000000,0.000000,0.000000,0.000000,0.000000,0.000000,1647334583.695010,0.000000
131.000000,16658.151645,22268.215986,3184.654198,21401.482392,-18113.786651,-23787.709926,-1846.567016,-5368.441983,-0.050000,0.964000,0.192000,192.000000,0.000000,0.000000,0.000000,0.000000,0.000000,0.000000,0.000000,0.000000,0.000000,1647334583.695026,0.000000
132.000000,16655.782361,22267.903062,3180.720291,21397.235560,-18111.417366,-23775.975260,-1849.606854,-5377.829716,-0.050000,0.964000,0.192000,192.000000,0.000000,0.000000,0.000000,0.000000,0.000000,0.000000,0.000000,0.000000,0.000000,1647334583.702861,0.000000
133.000000,16649.233299,22256.973059,3175.489983,21399.403679,-18116.021826,-23773.225996,-1865.230723,-5379.081414,-0.050000,0.964000,0.192000,192.000000,0.000000,0.000000,0.000000,0.000000,0.000000,0.000000,0.000000,0.000000,0.000000,1647334583.702877,0.000000
134.000000,16643.533605,22249.395817,3167.443355,21384.852694,-18129.388169,-23794.571912,-1876.205430,-5386.345731,-0.050000,0.964000,0.192000,192.000000,0.000000,0.000000,0.000000,0.000000,0.000000,0.000000,0.000000,0.000000,0.000000,1647334583.709861,0.000000
135.000000,16658.218701,22257.509501,3184.989474,21397.302615,-18114.054872,-23803.244388,-1864.113136,-5372.465297,-0.050000,0.964000,0.192000,192.000000,0.000000,0.000000,0.000000,0.000000,0.000000,0.000000,0.000000,0.000000,0.000000,1647334583.709878,0.000000
136.000000,16660.386820,22259.923489,3187.247001,21409.864296,-18103.683663,-23796.047127,-1859.083993,-5371.191248,-0.050000,0.964000,0.192000,192.000000,0.000000,0.000000,0.000000,0.000000,0.000000,0.000000,0.000000,0.000000,0.000000,1647334583.717670,0.000000
137.000000,16647.959250,22251.698047,3175.042948,21397.749650,-18113.339616,-23776.198778,-1864.068432,-5371.638283,-0.052000,0.968000,0.192000,192.000000,254.000000,96.000000,30.000000,64.000000,6.000000,0.000000,0.000000,0.000000,0.000000,1647334583.717687,0.000000
138.000000,16652.720172,22255.274326,3177.926323,21385.031508,-18121.185079,-23783.910130,-1855.842990,-5367.145582,-0.052000,0.968000,0.192000,192.000000,0.000000,0.000000,0.000000,0.000000,0.000000,0.000000,0.000000,0.000000,0.000000,1647334583.725527,0.000000
139.000000,16655.491788,22255.676658,3180.630884,21397.615540,-18118.055835,-23795.801258,-1854.054851,-5365.536256,-0.052000,0.968000,0.192000,192.000000,0.000000,0.000000,0.000000,0.000000,0.000000,0.000000,0.000000,0.000000,0.000000,1647334583.725544,0.000000
140.000000,16652.764875,22256.078989,3179.178021,21401.974130,-18115.060701,-23799.981034,-1849.718612,-5369.045480,-0.052000,0.968000,0.192000,192.000000,0.000000,0.000000,0.000000,0.000000,0.000000,0.000000,0.000000,0.000000,0.000000,1647334583.733666,0.000000
141.000000,16644.405323,22250.021666,3174.305341,21383.757458,-18123.107329,-23806.440688,-1853.719575,-5373.068794,-0.052000,0.968000,0.192000,192.000000,0.000000,0.000000,0.000000,0.000000,0.000000,0.000000,0.000000,0.000000,0.000000,1647334583.733683,0.000000
142.000000,16644.092398,22252.748579,3176.696977,21394.218075,-18118.078186,-23806.328929,-1849.226874,-5371.101841,-0.052000,0.968000,0.192000,192.000000,0.000000,0.000000,0.000000,0.000000,0.000000,0.000000,0.000000,0.000000,0.000000,1647334583.739802,0.000000
143.000000,16650.172073,22247.853547,3186.732910,21398.710775,-18108.981026,-23782.591377,-1848.802191,-5372.979387,-0.052000,0.968000,0.192000,192.000000,0.000000,0.000000,0.000000,0.000000,0.000000,0.000000,0.000000,0.000000,0.000000,1647334583.747302,0.000000
144.000000,16646.260517,22243.740826,3177.971027,21388.876008,-18121.319189,-23782.166693,-1851.864380,-5368.576094,-0.052000,0.968000,0.192000,192.000000,0.000000,0.000000,0.000000,0.000000,0.000000,0.000000,0.000000,0.000000,0.000000,1647334583.747317,0.000000
145.000000,16644.919413,22246.646553,3175.020596,21384.539769,-18126.124814,-23783.485446,-1851.707918,-5372.554704,-0.052000,0.968000,0.192000,192.000000,0.000000,0.000000,0.000000,0.000000,0.000000,0.000000,0.000000,0.000000,0.000000,1647334583.755085,0.000000
146.000000,16641.387837,22240.745692,3170.751413,21372.045144,-18130.438701,-23783.284281,-1853.227836,-5375.907466,-0.052000,0.968000,0.192000,192.000000,0.000000,0.000000,0.000000,0.000000,0.000000,0.000000,0.000000,0.000000,0.000000,1647334583.755100,0.000000
147.000000,16646.126407,22246.557146,3177.702806,21389.703022,-18123.397901,-23786.704098,-1850.076240,-5370.699509,-0.052000,0.966000,0.188000,192.000000,254.000000,96.000000,30.000000,48.000000,5.000000,224.000000,0.000000,0.000000,0.000000,1647334583.763334,0.000000
148.000000,16648.406285,22248.993486,3180.250905,21392.720508,-18118.636980,-23781.071458,-1860.648615,-5377.852068,-0.052000,0.966000,0.188000,192.000000,0.000000,0.000000,0.000000,0.000000,0.000000,0.000000,0.000000,0.000000,0.000000,1647334583.763351,0.000000
149.000000,16647.668677,22247.607678,3177.523992,21382.483409,-18126.415387,-23792.090868,-1854.859514,-5372.733518,-0.052000,0.966000,0.188000,192.000000,0.000000,0.000000,0.000000,0.000000,0.000000,0.000000,0.000000,0.000000,0.000000,1647334583.769874,0.000000
150.000000,16651.513177,22253.530890,3184.408329,21388.227807,-18119.978085,-23803.646720,-1842.454295,-5358.584864,-0.052000,0.966000,0.188000,192.000000,0.000000,0.000000,0.000000,0.000000,0.000000,0.000000,0.000000,0.000000,0.000000,1647334583.769891,0.000000
151.000000,16647.378105,22252.815634,3178.082785,21389.010118,-18119.598105,-23799.042261,-1856.938226,-5372.062966,-0.052000,0.966000,0.188000,192.000000,0.000000,0.000000,0.000000,0.000000,0.000000,0.000000,0.000000,0.000000,0.000000,1647334583.777933,0.000000
152.000000,16647.087532,22255.095512,3176.920495,21382.103429,-18120.402768,-23800.785697,-1849.249226,-5365.268036,-0.052000,0.966000,0.188000,192.000000,0.000000,0.000000,0.000000,0.000000,0.000000,0.000000,0.000000,0.000000,0.000000,1647334583.777948,0.000000
153.000000,16632.670657,22241.125672,3166.951617,21380.315290,-18120.693340,-23780.736182,-1858.636958,-5370.408937,-0.052000,0.966000,0.188000,192.000000,0.000000,0.000000,0.000000,0.000000,0.000000,0.000000,0.000000,0.000000,0.000000,1647334583.785915,0.000000
154.000000,16641.946631,22248.792320,3175.042948,21382.081077,-18122.883811,-23773.896548,-1856.133563,-5365.245684,-0.052000,0.966000,0.188000,192.000000,0.000000,0.000000,0.000000,0.000000,0.000000,0.000000,0.000000,0.000000,0.000000,1647334583.785931,0.000000
155.000000,16649.613279,22254.648477,3185.503565,21400.096583,-18117.117061,-23781.719659,-1852.646691,-5367.458507,-0.052000,0.966000,0.188000,192.000000,0.000000,0.000000,0.000000,0.000000,0.000000,0.000000,0.000000,0.000000,0.000000,1647334583.793087,0.000000
156.000000,16644.919413,22252.480358,3175.981721,21393.033432,-18124.783710,-23795.667147,-1858.256979,-5376.019225,-0.052000,0.966000,0.188000,192.000000,0.000000,0.000000,0.000000,0.000000,0.000000,0.000000,0.000000,0.000000,0.000000,1647334583.793104,0.000000
157.000000,16649.993259,22253.799111,3186.956428,21396.430897,-18112.534954,-23789.386307,-1855.418307,-5369.984254,-0.052000,0.966000,0.188000,192.000000,0.000000,0.000000,0.000000,0.000000,0.000000,0.000000,0.000000,0.000000,0.000000,1647334583.799551,0.000000
158.000000,16652.519006,22254.044980,3183.849535,21391.737031,-18112.445547,-23788.648699,-1852.512580,-5364.955111,-0.054000,0.966000,0.186000,192.000000,254.000000,80.000000,30.000000,48.000000,5.000000,208.000000,0.000000,0.000000,0.000000,1647334583.799568,0.000000
159.000000,16658.397515,22255.788416,3189.795099,21385.903226,-18113.026692,-23783.686612,-1849.405688,-5367.793783,-0.054000,0.966000,0.186000,192.000000,0.000000,0.000000,0.000000,0.000000,0.000000,0.000000,0.000000,0.000000,0.000000,1647334583.807649,0.000000
160.000000,16654.865939,22251.519233,3185.972951,21374.727353,-18119.218125,-23790.280377,-1851.216179,-5373.024091,-0.054000,0.966000,0.186000,192.000000,0.000000,0.000000,0.000000,0.000000,0.000000,0.000000,0.000000,0.000000,0.000000,1647334583.814948,0.000000
161.000000,16655.469436,22251.541585,3186.911724,21387.087868,-18115.708901,-23791.241502,-1850.635034,-5369.045480,-0.054000,0.966000,0.186000,192.000000,0.000000,0.000000,0.000000,0.000000,0.000000,0.000000,0.000000,0.000000,0.000000,1647334583.814965,0.000000
162.000000,16650.552052,22247.115940,3182.083748,21397.056746,-18109.137489,-23760.373743,-1851.506752,-5378.299103,-0.054000,0.966000,0.186000,192.000000,0.000000,0.000000,0.000000,0.000000,0.000000,0.000000,0.000000,0.000000,0.000000,1647334583.822948,0.000000
163.000000,16649.345058,22244.076102,3177.054605,21388.294862,-18115.239515,-23741.732388,-1856.625301,-5380.333111,-0.054000,0.966000,0.186000,192.000000,0.000000,0.000000,0.000000,0.000000,0.000000,0.000000,0.000000,0.000000,0.000000,1647334583.822965,0.000000
164.000000,16663.873692,22254.313201,3191.292666,21389.233636,-18111.685587,-23761.066647,-1842.208426,-5363.435193,-0.054000,0.966000,0.186000,192.000000,0.000000,0.000000,0.000000,0.000000,0.000000,0.000000,0.000000,0.000000,0.000000,1647334583.830824,0.000000
165.000000,16655.581195,22242.533832,3183.961294,21387.780772,-18114.501907,-23776.355240,-1837.268691,-5371.660634,-0.054000,0.966000,0.186000,192.000000,0.000000,0.000000,0.000000,0.000000,0.000000,0.000000,0.000000,0.000000,0.000000,1647334583.830841,0.000000
166.000000,16656.430561,22245.238393,3177.747509,21385.724412,-18118.189945,-23770.230862,-1834.206502,-5373.694643,-0.054000,0.966000,0.186000,192.000000,0.000000,0.000000,0.000000,0.000000,0.000000,0.000000,0.000000,0.000000,0.000000,1647334583.837500,0.000000
167.000000,16660.073895,22249.842852,3191.359722,21383.265720,-18105.963541,-23766.811045,-1848.019880,-5370.945379,-0.054000,0.966000,0.186000,192.000000,0.000000,0.000000,0.000000,0.000000,0.000000,0.000000,0.000000,0.000000,0.000000,1647334583.837516,0.000000
168.000000,16655.089456,22248.166472,3191.337370,21393.234598,-18104.443622,-23772.734257,-1851.082069,-5360.082431,-0.054000,0.964000,0.182000,192.000000,254.000000,80.000000,30.000000,32.000000,5.000000,176.000000,0.000000,0.000000,0.000000,1647334583.845467,0.000000
169.000000,16644.874709,22240.879803,3179.960332,21393.279301,-18110.389186,-23756.641001,-1861.565037,-5371.615931,-0.054000,0.964000,0.182000,192.000000,0.000000,0.000000,0.000000,0.000000,0.000000,0.000000,0.000000,0.000000,0.000000,1647334583.845484,0.000000
170.000000,16642.237203,22236.096529,3171.287855,21385.255025,-18121.386244,-23763.100655,-1863.599046,-5379.886076,-0.054000,0.964000,0.182000,192.000000,0.000000,0.000000,0.000000,0.000000,0.000000,0.000000,0.000000,0.000000,0.000000,1647334583.853451,0.000000
171.000000,16652.630765,22242.913812,3181.770823,21385.635005,-18111.417366,-23770.230862,-1854.568941,-5371.392414,-0.054000,0.964000,0.182000,192.000000,0.000000,0.000000,0.000000,0.000000,0.000000,0.000000,0.000000,0.000000,0.000000,1647334583.853469,0.000000
172.000000,16660.699744,22242.757349,3192.611419,21386.529074,-18099.258017,-23764.173539,-1848.377508,-5366.340919,-0.054000,0.964000,0.182000,192.000000,0.000000,0.000000,0.000000,0.000000,0.000000,0.000000,0.000000,0.000000,0.000000,1647334583.860405,0.000000
173.000000,16663.538416,22243.919640,3193.684303,21385.903226,-18101.493192,-23775.863502,-1838.453333,-5369.313701,-0.054000,0.964000,0.182000,192.000000,0.000000,0.000000,0.000000,0.000000,0.000000,0.000000,0.000000,0.000000,0.000000,1647334583.860421,0.000000
174.000000,16667.785247,22249.239355,3200.121605,21391.759383,-18098.833334,-23792.157923,-1831.278423,-5354.650957,-0.054000,0.964000,0.182000,192.000000,0.000000,0.000000,0.000000,0.000000,0.000000,0.000000,0.000000,0.000000,0.000000,1647334583.867054,0.000000
175.000000,16659.537454,22242.846756,3191.404425,21394.039261,-18100.934398,-23782.792542,-1839.749734,-5352.661652,-0.054000,0.964000,0.182000,192.000000,0.000000,0.000000,0.000000,0.000000,0.000000,0.000000,0.000000,0.000000,0.000000,1647334583.874859,0.000000
176.000000,16652.250785,22234.531907,3179.759166,21385.098563,-18107.975198,-23763.838263,-1842.074316,-5358.562512,-0.054000,0.964000,0.182000,192.000000,0.000000,0.000000,0.000000,0.000000,0.000000,0.000000,0.000000,0.000000,0.000000,1647334583.874871,0.000000
177.000000,16649.769741,22232.319085,3167.957445,21369.921728,-18116.290047,-23756.819815,-1851.931435,-5371.928855,-0.054000,0.964000,0.182000,192.000000,0.000000,0.000000,0.000000,0.000000,0.000000,0.000000,0.000000,0.000000,0.000000,1647334583.882945,0.000000
178.000000,16653.122503,22239.426939,3179.043910,21386.394964,-18108.802212,-23752.237708,-1850.925607,-5378.433213,-0.056000,0.964000,0.188000,192.000000,254.000000,64.000000,30.000000,32.000000,5.000000,224.000000,0.000000,0.000000,0.000000,1647334583.882961,0.000000
179.000000,16649.345058,22238.063483,3182.016692,21388.317214,-18109.405709,-23759.546728,-1846.857589,-5375.460431,-0.056000,0.964000,0.188000,192.000000,0.000000,0.000000,0.000000,0.000000,0.000000,0.000000,0.000000,0.000000,0.000000,1647334583.890249,0.000000
180.000000,16650.306183,22242.198556,3179.379187,21382.975147,-18109.182192,-23761.960716,-1849.942130,-5367.480858,-0.056000,0.964000,0.188000,192.000000,0.000000,0.000000,0.000000,0.000000,0.000000,0.000000,0.000000,0.000000,0.000000,1647334583.890265,0.000000
181.000000,16653.971869,22248.702913,3185.123585,21379.845903,-18104.711843,-23756.104559,-1848.511618,-5365.513905,-0.056000,0.964000,0.188000,192.000000,0.000000,0.000000,0.000000,0.000000,0.000000,0.000000,0.000000,0.000000,0.000000,1647334583.897739,0.000000
182.000000,16656.072933,22248.010009,3186.263524,21396.967339,-18103.661311,-23770.119103,-1847.170514,-5369.224294,-0.056000,0.964000,0.188000,192.000000,0.000000,0.000000,0.000000,0.000000,0.000000,0.000000,0.000000,0.000000,0.000000,1647334583.897755,0.000000
183.000000,16659.313936,22247.182995,3186.241172,21397.615540,-18103.549552,-23787.039374,-1848.578673,-5367.994948,-0.056000,0.964000,0.188000,192.000000,0.000000,0.000000,0.000000,0.000000,0.000000,0.000000,0.000000,0.000000,0.000000,1647334583.905733,0.000000
184.000000,16648.763913,22239.449291,3178.462765,21388.473676,-18104.533029,-23761.491330,-1852.333767,-5370.475992,-0.056000,0.964000,0.188000,192.000000,0.000000,0.000000,0.000000,0.000000,0.000000,0.000000,0.000000,0.000000,0.000000,1647334583.905749,0.000000
185.000000,16641.834872,22235.358922,3168.672701,21385.456191,-18117.072358,-23744.347542,-1852.333767,-5363.368137,-0.056000,0.964000,0.188000,192.000000,0.000000,0.000000,0.000000,0.000000,0.000000,0.000000,0.000000,0.000000,0.000000,1647334583.913718,0.000000
186.000000,16653.681297,22240.119843,3176.808736,21388.808952,-18107.349349,-23756.752760,-1850.344461,-5356.841428,-0.056000,0.964000,0.188000,192.000000,0.000000,0.000000,0.000000,0.000000,0.000000,0.000000,0.000000,0.000000,0.000000,1647334583.913734,0.000000
187.000000,16656.944651,22242.556184,3175.802907,21390.731202,-18098.587465,-23760.217280,-1850.143296,-5364.686890,-0.056000,0.964000,0.188000,192.000000,0.000000,0.000000,0.000000,0.000000,0.000000,0.000000,0.000000,0.000000,0.000000,1647334583.920313,0.000000
188.000000,16657.391686,22239.493995,3179.915628,21388.786601,-18102.029634,-23758.183272,-1845.605891,-5360.931797,-0.054000,0.960000,0.192000,192.000000,254.000000,80.000000,30.000000,0.000000,6.000000,0.000000,0.000000,0.000000,0.000000,1647334583.920329,0.000000
189.000000,16656.095285,22239.829271,3178.552172,21385.679708,-18105.695320,-23755.992801,-1839.369755,-5354.494495,-0.054000,0.960000,0.192000,192.000000,0.000000,0.000000,0.000000,0.000000,0.000000,0.000000,0.000000,0.000000,0.000000,1647334583.927307,0.000000
190.000000,16654.709477,22243.874937,3172.517201,21384.271548,-18108.936323,-23750.449568,-1843.661290,-5357.489628,-0.054000,0.960000,0.192000,192.000000,0.000000,0.000000,0.000000,0.000000,0.000000,0.000000,0.000000,0.000000,0.000000,1647334583.935461,0.000000
191.000000,16649.970907,22236.789434,3167.197486,21379.644737,-18114.188983,-23749.086112,-1846.701127,-5360.194190,-0.054000,0.960000,0.192000,192.000000,0.000000,0.000000,0.000000,0.000000,0.000000,0.000000,0.000000,0.000000,0.000000,1647334583.935478,0.000000
192.000000,16649.322706,22234.151928,3174.730024,21375.889644,-18111.842050,-23738.267867,-1845.896464,-5368.978425,-0.054000,0.960000,0.192000,192.000000,0.000000,0.000000,0.000000,0.000000,0.000000,0.000000,0.000000,0.000000,0.000000,1647334583.942527,0.000000
193.000000,16654.195387,22242.958515,3180.474422,21372.648641,-18112.177326,-23741.285353,-1832.664231,-5351.566416,-0.054000,0.960000,0.192000,192.000000,0.000000,0.000000,0.000000,0.000000,0.000000,0.000000,0.000000,0.000000,0.000000,1647334583.942545,0.000000
194.000000,16655.290622,22245.350152,3177.278123,21384.807990,-18111.193849,-23748.236745,-1830.965499,-5348.794800,-0.054000,0.960000,0.192000,192.000000,0.000000,0.000000,0.000000,0.000000,0.000000,0.000000,0.000000,0.000000,0.000000,1647334583.949973,0.000000
195.000000,16651.915509,22242.645591,3173.254809,21384.584473,-18113.563134,-23760.731371,-1849.293929,-5355.723841,-0.054000,0.960000,0.192000,192.000000,0.000000,0.000000,0.000000,0.000000,0.000000,0.000000,0.000000,0.000000,0.000000,1647334583.949989,0.000000
196.000000,16650.082666,22246.154815,3174.953541,21390.485333,-18102.946055,-23764.799388,-1849.785668,-5358.093126,-0.054000,0.960000,0.192000,192.000000,0.000000,0.000000,0.000000,0.000000,0.000000,0.000000,0.000000,0.000000,0.000000,1647334583.958026,0.000000
197.000000,16644.874709,22239.628105,3164.805849,21386.394964,-18109.003378,-23751.388341,-1859.061642,-5367.972597,-0.054000,0.960000,0.192000,192.000000,0.000000,0.000000,0.000000,0.000000,0.000000,0.000000,0.000000,0.000000,0.000000,1647334583.958042,0.000000
198.000000,16645.366448,22239.158718,3165.141125,21374.392077,-18121.185079,-23757.646830,-1867.488249,-5371.437117,-0.054000,0.960000,0.198000,192.000000,254.000000,80.000000,30.000000,0.000000,6.000000,48.000000,0.000000,0.000000,0.000000,1647334583.966036,0.000000
199.000000,16648.450988,22237.661152,3172.852477,21381.946967,-18110.545648,-23767.548653,-1855.619473,-5362.518771,-0.054000,0.960000,0.198000,192.000000,0.000000,0.000000,0.000000,0.000000,0.000000,0.000000,0.000000,0.000000,0.000000,1647334583.966053,0.000000
200.000000,16647.959250,22241.393893,3170.818468,21383.891569,-18110.165669,-23765.961679,-1849.651557,-5356.573207,-0.054000,0.960000,0.198000,192.000000,0.000000,0.000000,0.000000,0.000000,0.000000,0.000000,0.000000,0.000000,0.000000,1647334583.972606,0.000000
201.000000,16650.552052,22240.969210,3171.354910,21387.736069,-18105.874134,-23762.184234,-1849.629205,-5358.406050,-0.054000,0.960000,0.198000,192.000000,0.000000,0.000000,0.000000,0.000000,0.000000,0.000000,0.000000,0.000000,0.000000,1647334583.972622,0.000000
202.000000,16657.235224,22245.283096,3174.864134,21382.438705,-18105.002416,-23775.707039,-1831.703106,-5354.852123,-0.054000,0.960000,0.198000,192.000000,0.000000,0.000000,0.000000,0.000000,0.000000,0.000000,0.000000,0.000000,0.000000,1647334583.980608,0.000000
203.000000,16647.869843,22235.560088,3168.784460,21377.834246,-18107.863439,-23771.013173,-1839.973252,-5362.339957,-0.054000,0.960000,0.198000,192.000000,0.000000,0.000000,0.000000,0.000000,0.000000,0.000000,0.000000,0.000000,0.000000,1647334583.980624,0.000000
204.000000,16645.142930,22229.323951,3163.040061,21374.749705,-18116.111233,-23764.218243,-1852.579636,-5360.887094,-0.054000,0.960000,0.198000,192.000000,0.000000,0.000000,0.000000,0.000000,0.000000,0.000000,0.000000,0.000000,0.000000,1647334583.987666,0.000000
205.000000,16654.240090,22231.134442,3173.143050,21379.912958,-18104.868305,-23763.368876,-1850.836200,-5356.014413,-0.054000,0.960000,0.198000,192.000000,0.000000,0.000000,0.000000,0.000000,0.000000,0.000000,0.000000,0.000000,0.000000,1647334583.995787,0.000000
206.000000,16647.266346,22227.558163,3165.632864,21376.515493,-18103.504849,-23749.622554,-1858.368738,-5373.538181,-0.054000,0.960000,0.198000,192.000000,0.000000,0.000000,0.000000,0.000000,0.000000,0.000000,0.000000,0.000000,0.000000,1647334583.995804,0.000000
207.000000,16651.982564,22233.481375,3165.766974,21377.588377,-18106.835259,-23750.717789,-1852.087897,-5373.739347,-0.054000,0.960000,0.198000,192.000000,0.000000,0.000000,0.000000,0.000000,0.000000,0.000000,0.000000,0.000000,0.000000,1647334584.002050,0.000000
208.000000,16658.576329,22236.923544,3170.684358,21373.408600,-18109.092785,-23757.110388,-1849.740964,-5362.697585,-0.056000,0.958000,0.198000,192.000000,254.000000,64.000000,29.000000,240.000000,6.000000,48.000000,0.000000,0.000000,0.000000,1647334584.002067,0.000000
209.000000,16654.575366,22225.412396,3167.979797,21367.552443,-18111.752643,-23768.845054,-1852.579636,-5360.887094,-0.056000,0.958000,0.198000,192.000000,0.000000,0.000000,0.000000,0.000000,0.000000,0.000000,0.000000,0.000000,0.000000,1647334584.009970,0.000000
210.000000,16653.703648,22223.266628,3166.638692,21372.380420,-18109.964503,-23770.901414,-1851.216179,-5360.909445,-0.056000,0.958000,0.198000,192.000000,0.000000,0.000000,0.000000,0.000000,0.000000,0.000000,0.000000,0.000000,0.000000,1647334584.009985,0.000000
211.000000,16655.178863,22223.087814,3175.780556,21386.998461,-18103.884829,-23771.147283,-1847.349327,-5361.825867,-0.056000,0.958000,0.198000,192.000000,0.000000,0.000000,0.000000,0.000000,0.000000,0.000000,0.000000,0.000000,0.000000,1647334584.018392,0.000000
212.000000,16650.932032,22214.147116,3174.037120,21376.470789,-18105.650616,-23765.961679,-1851.506752,-5365.335091,-0.056000,0.958000,0.198000,192.000000,0.000000,0.000000,0.000000,0.000000,0.000000,0.000000,0.000000,0.000000,0.000000,1647334584.018409,0.000000
213.000000,16655.648250,22220.942047,3173.210105,21371.352240,-18107.595218,-23760.172577,-1851.082069,-5363.502248,-0.056000,0.958000,0.198000,192.000000,0.000000,0.000000,0.000000,0.000000,0.000000,0.000000,0.000000,0.000000,0.000000,1647334584.025356,0.000000
214.000000,16657.771666,22221.456137,3173.768899,21371.352240,-18104.175401,-23761.401923,-1847.192865,-5367.369100,-0.056000,0.958000,0.198000,192.000000,0.000000,0.000000,0.000000,0.000000,0.000000,0.000000,0.000000,0.000000,0.000000,1647334584.025368,0.000000
215.000000,16662.174959,22224.920657,3178.932152,21373.386249,-18099.883866,-23770.454379,-1841.537874,-5366.296216,-0.056000,0.958000,0.198000,192.000000,0.000000,0.000000,0.000000,0.000000,0.000000,0.000000,0.000000,0.000000,0.000000,1647334584.033009,0.000000
216.000000,16656.028230,22220.383253,3174.752375,21372.201606,-18099.928570,-23755.501062,-1848.153990,-5360.931797,-0.056000,0.958000,0.198000,192.000000,0.000000,0.000000,0.000000,0.000000,0.000000,0.000000,0.000000,0.000000,0.000000,1647334584.033025,0.000000
217.000000,16660.342116,22225.591210,3176.674625,21369.206473,-18100.465012,-23751.120120,-1845.047098,-5361.200018,-0.056000,0.958000,0.198000,192.000000,0.000000,0.000000,0.000000,0.000000,0.000000,0.000000,0.000000,0.000000,0.000000,1647334584.040895,0.000000
218.000000,16662.174959,22225.993541,3179.781518,21375.174388,-18097.603988,-23750.203699,-1851.819676,-5361.110611,-0.052000,0.968000,0.194000,192.000000,254.000000,96.000000,30.000000,64.000000,6.000000,16.000000,0.000000,0.000000,0.000000,1647334584.040906,0.000000
219.000000,16657.168169,22219.444480,3175.422928,21366.680725,-18104.845954,-23763.033600,-1843.191903,-5364.731594,-0.052000,0.968000,0.194000,192.000000,0.000000,0.000000,0.000000,0.000000,0.000000,0.000000,0.000000,0.000000,0.000000,1647334584.048088,0.000000
220.000000,16654.150683,22219.019797,3172.114870,21367.016002,-18108.846916,-23775.304708,-1844.823580,-5365.849181,-0.052000,0.968000,0.194000,192.000000,0.000000,0.000000,0.000000,0.000000,0.000000,0.000000,0.000000,0.000000,0.000000,1647334584.048105,0.000000
221.000000,16647.646326,22211.487259,3159.530837,21367.954775,-18112.378491,-23758.540900,-1860.514505,-5369.090184,-0.052000,0.968000,0.194000,192.000000,0.000000,0.000000,0.000000,0.000000,0.000000,0.000000,0.000000,0.000000,0.000000,1647334584.055124,0.000000
222.000000,16651.960212,22214.370634,3165.096422,21370.502874,-18109.271599,-23739.296048,-1850.120944,-5359.367175,-0.052000,0.968000,0.194000,192.000000,0.000000,0.000000,0.000000,0.000000,0.000000,0.000000,0.000000,0.000000,0.000000,1647334584.062640,0.000000
223.000000,16651.535529,22213.677730,3174.417099,21350.028676,-18113.473727,-23760.709019,-1853.205485,-5367.793783,-0.052000,0.968000,0.194000,192.000000,0.000000,0.000000,0.000000,0.000000,0.000000,0.000000,0.000000,0.000000,0.000000,1647334584.062657,0.000000
224.000000,16647.646326,22207.754518,3168.180963,21361.606879,-18110.210372,-23755.121083,-1865.990682,-5382.009492,-0.052000,0.968000,0.194000,192.000000,0.000000,0.000000,0.000000,0.000000,0.000000,0.000000,0.000000,0.000000,0.000000,1647334584.070652,0.000000
225.000000,16652.988392,22211.800183,3173.612436,21374.995574,-18105.516506,-23751.969487,-1857.787592,-5377.382681,-0.052000,0.968000,0.194000,192.000000,0.000000,0.000000,0.000000,0.000000,0.000000,0.000000,0.000000,0.000000,0.000000,1647334584.070668,0.000000
226.000000,16653.524834,22209.632064,3170.773765,21378.191874,-18107.751680,-23758.093865,-1852.780801,-5377.963826,-0.052000,0.968000,0.194000,192.000000,0.000000,0.000000,0.000000,0.000000,0.000000,0.000000,0.000000,0.000000,0.000000,1647334584.078672,0.000000
227.000000,16656.765837,22210.548486,3175.378224,21382.438705,-18102.074337,-23766.095789,-1849.025708,-5370.967730,-0.052000,0.968000,0.194000,192.000000,0.000000,0.000000,0.000000,0.000000,0.000000,0.000000,0.000000,0.000000,0.000000,1647334584.078688,0.000000
228.000000,16656.944651,22215.331759,3170.237323,21380.114124,-18106.544686,-23769.537958,-1842.655461,-5363.681062,-0.054000,0.964000,0.196000,192.000000,254.000000,80.000000,30.000000,32.000000,6.000000,32.000000,0.000000,0.000000,0.000000,1647334584.085191,0.000000
229.000000,16659.738619,22218.572762,3176.786384,21385.433839,-18104.287160,-23766.967507,-1839.459162,-5364.441021,-0.054000,0.964000,0.196000,192.000000,0.000000,0.000000,0.000000,0.000000,0.000000,0.000000,0.000000,0.000000,0.000000,1647334584.085207,0.000000
230.000000,16663.337250,22218.528058,3175.646445,21388.920711,-18105.404747,-23777.294013,-1836.039345,-5363.010509,-0.054000,0.964000,0.196000,192.000000,0.000000,0.000000,0.000000,0.000000,0.000000,0.000000,0.000000,0.000000,0.000000,1647334584.093101,0.000000
231.000000,16661.191483,22212.470736,3170.326730,21387.221979,-18106.544686,-23779.573891,-1841.359060,-5374.499306,-0.054000,0.964000,0.196000,192.000000,0.000000,0.000000,0.000000,0.000000,0.000000,0.000000,0.000000,0.000000,0.000000,1647334584.093118,0.000000
232.000000,16663.404305,22213.007177,3185.637675,21395.313310,-18094.094764,-23759.658487,-1838.207464,-5366.251512,-0.054000,0.964000,0.196000,192.000000,0.000000,0.000000,0.000000,0.000000,0.000000,0.000000,0.000000,0.000000,0.000000,1647334584.101087,0.000000
233.000000,16670.780381,22221.724358,3186.196469,21395.581531,-18097.492230,-23776.489350,-1828.529159,-5345.665556,-0.054000,0.964000,0.196000,192.000000,0.000000,0.000000,0.000000,0.000000,0.000000,0.000000,0.000000,0.000000,0.000000,1647334584.101104,0.000000
234.000000,16663.381954,22213.498916,3173.903009,21392.228769,-18099.816811,-23771.773132,-1839.190941,-5367.346748,-0.054000,0.964000,0.196000,192.000000,0.000000,0.000000,0.000000,0.000000,0.000000,0.000000,0.000000,0.000000,0.000000,1647334584.107991,0.000000
235.000000,16662.934919,22210.347320,3176.875791,21384.495066,-18106.298817,-23766.386362,-1851.640862,-5367.190286,-0.054000,0.964000,0.196000,192.000000,0.000000,0.000000,0.000000,0.000000,0.000000,0.000000,0.000000,0.000000,0.000000,1647334584.108007,0.000000
236.000000,16662.197311,22215.287055,3176.540515,21393.145191,-18102.543724,-23761.647792,-1853.540761,-5370.386585,-0.054000,0.964000,0.196000,192.000000,0.000000,0.000000,0.000000,0.000000,0.000000,0.000000,0.000000,0.000000,0.000000,1647334584.114771,0.000000
237.000000,16656.363506,22206.458116,3169.455012,21373.699173,-18107.103480,-23760.038466,-1857.117040,-5383.238838,-0.054000,0.964000,0.196000,192.000000,0.000000,0.000000,0.000000,0.000000,0.000000,0.000000,0.000000,0.000000,0.000000,1647334584.122919,0.000000
238.000000,16660.185654,22209.587361,3174.372396,21381.298766,-18108.779861,-23772.734257,-1846.365851,-5368.240818,-0.054000,0.956000,0.192000,192.000000,254.000000,80.000000,29.000000,224.000000,6.000000,0.000000,0.000000,0.000000,0.000000,1647334584.122930,0.000000
239.000000,16665.415962,22212.470736,3174.953541,21385.120915,-18115.127756,-23800.405717,-1840.062659,-5367.816134,-0.054000,0.956000,0.192000,192.000000,0.000000,0.000000,0.000000,0.000000,0.000000,0.000000,0.000000,0.000000,0.000000,1647334584.130889,0.000000
240.000000,16668.321689,22213.185991,3175.802907,21391.312348,-18109.070433,-23804.406679,-1825.601080,-5356.617910,-0.054000,0.956000,0.192000,192.000000,0.000000,0.000000,0.000000,0.000000,0.000000,0.000000,0.000000,0.000000,0.000000,1647334584.130906,0.000000
241.000000,16664.968927,22209.095622,3178.216896,21388.563083,-18101.515544,-23794.527208,-1827.702144,-5360.752983,-0.054000,0.956000,0.192000,192.000000,0.000000,0.000000,0.000000,0.000000,0.000000,0.000000,0.000000,0.000000,0.000000,1647334584.137942,0.000000
242.000000,16657.056410,22205.161715,3178.216896,21390.530037,-18100.934398,-23778.456304,-1850.903255,-5379.528449,-0.054000,0.956000,0.192000,192.000000,0.000000,0.000000,0.000000,0.000000,0.000000,0.000000,0.000000,0.000000,0.000000,1647334584.137958,0.000000
243.000000,16656.296451,22207.106317,3185.302399,21389.188932,-18101.135564,-23777.450475,-1852.333767,-5378.857896,-0.054000,0.956000,0.192000,192.000000,0.000000,0.000000,0.000000,0.000000,0.000000,0.000000,0.000000,0.000000,0.000000,1647334584.145452,0.000000
244.000000,16657.704611,22217.656340,3177.702806,21391.938197,-18105.941189,-23783.507798,-1849.964482,-5374.633416,-0.054000,0.956000,0.192000,192.000000,0.000000,0.000000,0.000000,0.000000,0.000000,0.000000,0.000000,0.000000,0.000000,1647334584.145468,0.000000
245.000000,16657.324631,22212.068404,3181.055567,21390.261816,-18103.102517,-23793.051993,-1848.444563,-5372.666463,-0.054000,0.956000,0.192000,192.000000,0.000000,0.000000,0.000000,0.000000,0.000000,0.000000,0.000000,0.000000,0.000000,1647334584.153531,0.000000
246.000000,16654.821236,22209.497954,3179.513297,21390.418278,-18097.939265,-23780.244443,-1846.544665,-5374.700472,-0.054000,0.956000,0.192000,192.000000,0.000000,0.000000,0.000000,0.000000,0.000000,0.000000,0.000000,0.000000,0.000000,1647334584.153547,0.000000
247.000000,16659.805675,22216.024663,3182.240210,21390.083002,-18097.089898,-23790.123914,-1844.801229,-5371.884152,-0.054000,0.956000,0.192000,192.000000,0.000000,0.000000,0.000000,0.000000,0.000000,0.000000,0.000000,0.000000,0.000000,1647334584.160410,0.000000
248.000000,16657.637555,22212.180163,3178.149841,21382.103429,-18100.129735,-23794.415449,-1851.864380,-5378.723786,-0.050000,0.958000,0.192000,192.000000,254.000000,112.000000,29.000000,240.000000,6.000000,0.000000,0.000000,0.000000,0.000000,1647334584.160426,0.000000
249.000000,16656.139988,22208.782698,3176.294646,21374.839112,-18104.845954,-23799.399888,-1839.213293,-5368.509039,-0.050000,0.958000,0.192000,192.000000,0.000000,0.000000,0.000000,0.000000,0.000000,0.000000,0.000000,0.000000,0.000000,1647334584.168183,0.000000
250.000000,16638.884442,22197.115087,3156.535704,21382.975147,-18114.390148,-23792.023813,-1847.729307,-5381.584809,-0.050000,0.958000,0.192000,192.000000,0.000000,0.000000,0.000000,0.000000,0.000000,0.000000,0.000000,0.000000,0.000000,1647334584.168199,0.000000
251.000000,16638.325648,22193.136477,3160.000224,21379.756496,-18112.043215,-23771.996650,-1842.096668,-5370.990082,-0.050000,0.958000,0.192000,192.000000,0.000000,0.000000,0.000000,0.000000,0.000000,0.000000,0.000000,0.000000,0.000000,1647334584.175110,0.000000
252.000000,16641.521948,22193.114125,3167.510410,21366.747781,-18116.938247,-23782.725487,-1845.292967,-5366.251512,-0.050000,0.958000,0.192000,192.000000,0.000000,0.000000,0.000000,0.000000,0.000000,0.000000,0.000000,0.000000,0.000000,1647334584.182991,0.000000
253.000000,16641.164320,22198.165619,3171.779593,21385.411487,-18110.635055,-23790.213321,-1848.310452,-5372.375890,-0.050000,0.958000,0.192000,192.000000,0.000000,0.000000,0.000000,0.000000,0.000000,0.000000,0.000000,0.000000,0.000000,1647334584.183008,0.000000
254.000000,16638.437407,22199.842000,3161.564846,21378.437743,-18118.145242,-23808.765269,-1851.394993,-5375.415728,-0.050000,0.958000,0.192000,192.000000,0.000000,0.000000,0.000000,0.000000,0.000000,0.000000,0.000000,0.000000,0.000000,1647334584.190153,0.000000
255.000000,16635.464625,22197.472715,3160.447259,21378.638909,-18118.122890,-23815.314330,-1849.584502,-5370.788916,-0.050000,0.958000,0.192000,192.000000,0.000000,0.000000,0.000000,0.000000,0.000000,0.000000,0.000000,0.000000,0.000000,1647334584.190170,0.000000
0.000000,16635.911660,22194.544637,3165.632864,21381.432877,-18106.678797,-23799.154019,-1844.622415,-5377.203867,-0.050000,0.958000,0.192000,192.000000,0.000000,0.000000,0.000000,0.000000,0.000000,0.000000,0.000000,0.000000,0.000000,1647334584.197779,0.000000
1.000000,16634.235279,22191.683613,3159.150858,21373.587414,-18113.384320,-23798.706984,-1842.208426,-5379.684911,-0.050000,0.958000,0.192000,192.000000,0.000000,0.000000,0.000000,0.000000,0.000000,0.000000,0.000000,0.000000,0.000000,1647334584.197796,0.000000
2.000000,16642.483073,22200.669015,3168.471535,21380.203531,-18107.572866,-23806.708909,-1842.990737,-5368.643149,-0.054000,0.964000,0.186000,192.000000,254.000000,80.000000,30.000000,32.000000,5.000000,208.000000,0.000000,0.000000,0.000000,1647334584.205843,0.000000
3.000000,16646.707552,22202.054823,3172.696015,21384.539769,-18102.767241,-23814.979054,-1836.911063,-5363.837524,-0.054000,0.964000,0.186000,192.000000,0.000000,0.000000,0.000000,0.000000,0.000000,0.000000,0.000000,0.000000,0.000000,1647334584.205859,0.000000
4.000000,16639.420884,22193.516456,3165.409346,21383.802162,-18104.264808,-23804.965473,-1847.595197,-5373.180553,-0.054000,0.964000,0.186000,192.000000,0.000000,0.000000,0.000000,0.000000,0.000000,0.000000,0.000000,0.000000,0.000000,1647334584.213756,0.000000
5.000000,16632.804767,22186.967395,3155.261654,21378.124819,-18109.785689,-23778.612766,-1842.297833,-5379.707262,-0.054000,0.964000,0.186000,192.000000,0.000000,0.000000,0.000000,0.000000,0.000000,0.000000,0.000000,0.000000,0.000000,1647334584.213771,0.000000
6.000000,16634.078817,22186.095677,3159.776707,21375.956699,-18113.518430,-23776.288185,-1841.940205,-5383.842335,-0.054000,0.964000,0.186000,192.000000,0.000000,0.000000,0.000000,0.000000,0.000000,0.000000,0.000000,0.000000,0.000000,1647334584.220355,0.000000
7.000000,16630.793110,22184.531055,3158.435602,21367.217167,-18121.699169,-23791.174446,-1866.460069,-5386.815117,-0.054000,0.964000,0.186000,192.000000,0.000000,0.000000,0.000000,0.000000,0.000000,0.000000,0.000000,0.000000,0.000000,1647334584.220371,0.000000
8.000000,16635.486977,22191.325985,3162.168343,21371.173426,-18121.185079,-23797.052955,-1866.728290,-5386.591600,-0.054000,0.964000,0.186000,192.000000,0.000000,0.000000,0.000000,0.000000,0.000000,0.000000,0.000000,0.000000,0.000000,1647334584.228466,0.000000
9.000000,16640.560823,22193.114125,3163.934131,21377.633080,-18113.652541,-23807.602979,-1856.066508,-5376.689777,-0.054000,0.964000,0.186000,192.000000,0.000000,0.000000,0.000000,0.000000,0.000000,0.000000,0.000000,0.000000,0.000000,1647334584.228483,0.000000
10.000000,16640.270250,22196.735108,3170.907875,21389.188932,-18101.604951,-23800.226903,-1846.723479,-5364.463373,-0.054000,0.964000,0.186000,192.000000,0.000000,0.000000,0.000000,0.000000,0.000000,0.000000,0.000000,0.000000,0.000000,1647334584.235534,0.000000
11.000000,16634.414093,22193.449401,3163.129468,21376.470789,-18108.399881,-23802.082098,-1856.066508,-5368.039652,-0.054000,0.964000,0.186000,192.000000,0.000000,0.000000,0.000000,0.000000,0.000000,0.000000,0.000000,0.000000,0.000000,1647334584.243256,0.000000
12.000000,16631.217793,22195.125782,3152.802962,21371.262833,-18115.619494,-23805.770136,-1859.911008,-5375.192210,-0.056000,0.964000,0.186000,192.000000,254.000000,64.000000,30.000000,32.000000,5.000000,208.000000,0.000000,0.000000,0.000000,1647334584.243273,0.000000
13.000000,16627.552107,22196.109259,3152.467686,21376.828417,-18122.347369,-23810.888685,-1857.988758,-5375.236914,-0.056000,0.964000,0.186000,192.000000,0.000000,0.000000,0.000000,0.000000,0.000000,0.000000,0.000000,0.000000,0.000000,1647334584.250050,0.000000
14.000000,16629.720226,22191.080116,3163.017710,21375.487313,-18110.031558,-23811.067499,-1854.434830,-5376.555667,-0.056000,0.964000,0.186000,192.000000,0.000000,0.000000,0.000000,0.000000,0.000000,0.000000,0.000000,0.000000,0.000000,1647334584.250067,0.000000
15.000000,16634.302334,22203.239465,3164.180000,21387.110220,-18105.382395,-23804.965473,-1852.199656,-5374.365196,-0.056000,0.964000,0.186000,192.000000,0.000000,0.000000,0.000000,0.000000,0.000000,0.000000,0.000000,0.000000,0.000000,1647334584.258065,0.000000
16.000000,16635.755197,22198.947930,3172.204277,21391.021775,-18100.532067,-23800.942159,-1846.343499,-5365.402146,-0.056000,0.964000,0.186000,192.000000,0.000000,0.000000,0.000000,0.000000,0.000000,0.000000,0.000000,0.000000,0.000000,1647334584.258081,0.000000
17.000000,16633.497671,22196.578645,3166.370471,21383.980976,-18107.796384,-23805.412508,-1841.649633,-5364.843352,-0.056000,0.964000,0.186000,192.000000,0.000000,0.000000,0.000000,0.000000,0.000000,0.000000,0.000000,0.000000,0.000000,1647334584.266033,0.000000
18.000000,16629.004971,22192.175352,3158.256788,21381.924615,-18111.774994,-23804.071403,-1847.729307,-5373.180553,-0.056000,0.964000,0.186000,192.000000,0.000000,0.000000,0.000000,0.000000,0.000000,0.000000,0.000000,0.000000,0.000000,1647334584.266050,0.000000
19.000000,16631.776587,22192.309462,3161.900122,21385.679708,-18107.371701,-23794.035470,-1849.405688,-5377.919123,-0.056000,0.964000,0.186000,192.000000,0.000000,0.000000,0.000000,0.000000,0.000000,0.000000,0.000000,0.000000,0.000000,1647334584.273192,0.000000
20.000000,16632.111863,22191.460096,3165.431698,21386.953758,-18104.756547,-23789.565121,-1848.735136,-5375.080451,-0.056000,0.964000,0.186000,192.000000,0.000000,0.000000,0.000000,0.000000,0.000000,0.000000,0.000000,0.000000,0.000000,1647334584.273208,0.000000
21.000000,16631.664828,22190.454267,3162.816544,21381.321118,-18108.310474,-23799.623406,-1843.884807,-5374.722823,-0.056000,0.964000,0.186000,192.000000,0.000000,0.000000,0.000000,0.000000,0.000000,0.000000,0.000000,0.000000,0.000000,1647334584.280680,0.000000
22.000000,16631.553070,22195.237541,3159.821410,21383.578644,-18109.137489,-23801.344490,-1848.623377,-5373.359367,-0.056000,0.964000,0.186000,192.000000,0.000000,0.000000,0.000000,0.000000,0.000000,0.000000,0.000000,0.000000,0.000000,1647334584.280697,0.000000
23.000000,16621.293619,22183.793447,3148.332614,21378.549502,-18117.988779,-23803.624368,-1865.029557,-5384.691701,-0.054000,0.960000,0.192000,192.000000,254.000000,80.000000,30.000000,0.000000,6.000000,0.000000,0.000000,0.000000,0.000000,1647334584.288711,0.000000
24.000000,16629.429654,22194.432878,3152.020651,21397.749650,-18106.947018,-23793.879008,-1858.189924,-5382.791803,-0.054000,0.960000,0.192000,192.000000,0.000000,0.000000,0.000000,0.000000,0.000000,0.000000,0.000000,0.000000,0.000000,1647334584.288727,0.000000
25.000000,16633.989410,22194.857561,3163.241227,21392.876970,-18096.665215,-23774.745914,-1855.708880,-5382.389472,-0.054000,0.960000,0.192000,192.000000,0.000000,0.000000,0.000000,0.000000,0.000000,0.000000,0.000000,0.000000,0.000000,1647334584.295693,0.000000
26.000000,16632.961229,22193.739974,3165.141125,21379.801199,-18104.153049,-23783.530150,-1853.764278,-5383.127079,-0.054000,0.960000,0.192000,192.000000,0.000000,0.000000,0.000000,0.000000,0.000000,0.000000,0.000000,0.000000,0.000000,1647334584.295710,0.000000
27.000000,16633.877651,22194.589340,3154.680509,21388.697194,-18110.009207,-23798.036432,-1859.709842,-5388.267981,-0.054000,0.960000,0.192000,192.000000,0.000000,0.000000,0.000000,0.000000,0.000000,0.000000,0.000000,0.000000,0.000000,1647334584.302913,0.000000
28.000000,16630.591945,22185.916863,3152.847666,21377.633080,-18113.809003,-23804.160810,-1868.203505,-5388.469146,-0.054000,0.960000,0.192000,192.000000,0.000000,0.000000,0.000000,0.000000,0.000000,0.000000,0.000000,0.000000,0.000000,1647334584.310179,0.000000
29.000000,16626.121596,22183.614634,3160.380204,21384.606824,-18102.946055,-23791.532074,-1871.913895,-5389.854954,-0.054000,0.960000,0.192000,192.000000,0.000000,0.000000,0.000000,0.000000,0.000000,0.000000,0.000000,0.000000,0.000000,1647334584.310195,0.000000
30.000000,16622.075930,22182.497046,3155.105192,21381.969319,-18104.711843,-23774.075362,-1862.034424,-5382.411824,-0.054000,0.960000,0.192000,192.000000,0.000000,0.000000,0.000000,0.000000,0.000000,0.000000,0.000000,0.000000,0.000000,1647334584.318374,0.000000
31.000000,16627.105072,22187.995575,3155.507523,21382.505760,-18109.204544,-23775.729391,-1858.592255,-5382.054196,-0.054000,0.960000,0.192000,192.000000,0.000000,0.000000,0.000000,0.000000,0.000000,0.000000,0.000000,0.000000,0.000000,1647334584.318391,0.000000
32.000000,16629.675523,22187.906168,3157.563884,21380.292938,-18109.249247,-23785.966490,-1859.486325,-5381.003664,-0.054000,0.960000,0.192000,192.000000,0.000000,0.000000,0.000000,0.000000,0.000000,0.000000,0.000000,0.000000,0.000000,1647334584.326338,0.000000
33.000000,16635.039942,22193.203532,3162.861247,21385.143266,-18106.321169,-23802.618540,-1857.251150,-5377.114460,-0.052000,0.964000,0.182000,192.000000,254.000000,96.000000,30.000000,32.000000,5.000000,176.000000,0.000000,0.000000,0.000000,1647334584.326355,0.000000
34.000000,16633.028285,22192.622387,3162.190695,21389.770077,-18103.616608,-23808.698214,-1864.157839,-5377.583847,-0.052000,0.964000,0.182000,192.000000,0.000000,0.000000,0.000000,0.000000,0.000000,0.000000,0.000000,0.000000,0.000000,1647334584.332764,0.000000
35.000000,16632.111863,22188.308500,3160.380204,21384.673880,-18103.147221,-23799.243426,-1861.922665,-5382.568286,-0.052000,0.964000,0.182000,192.000000,0.000000,0.000000,0.000000,0.000000,0.000000,0.000000,0.000000,0.000000,0.000000,1647334584.332779,0.000000
36.000000,16622.858241,22182.407639,3147.706765,21368.290051,-18113.272561,-23790.906226,-1871.735081,-5398.527431,-0.052000,0.964000,0.182000,192.000000,0.000000,0.000000,0.000000,0.000000,0.000000,0.000000,0.000000,0.000000,0.000000,1647334584.340992,0.000000
37.000000,16618.320837,22178.943119,3144.130486,21381.634042,-18112.154974,-23783.328984,-1872.316226,-5398.438024,-0.052000,0.964000,0.182000,192.000000,0.000000,0.000000,0.000000,0.000000,0.000000,0.000000,0.000000,0.000000,0.000000,1647334584.341009,0.000000
38.000000,16624.288753,22184.933386,3151.730079,21387.020813,-18107.684625,-23784.223054,-1856.178267,-5368.710204,-0.052000,0.964000,0.182000,192.000000,0.000000,0.000000,0.000000,0.000000,0.000000,0.000000,0.000000,0.000000,0.000000,1647334584.348815,0.000000
39.000000,16633.408264,22184.329889,3163.196524,21385.009156,-18099.079203,-23790.526246,-1852.490229,-5366.676195,-0.052000,0.964000,0.182000,192.000000,0.000000,0.000000,0.000000,0.000000,0.000000,0.000000,0.000000,0.000000,0.000000,1647334584.348831,0.000000
40.000000,16631.441311,22180.843017,3160.268445,21381.432877,-18098.073375,-23784.759496,-1859.843953,-5376.466260,-0.052000,0.964000,0.182000,192.000000,0.000000,0.000000,0.000000,0.000000,0.000000,0.000000,0.000000,0.000000,0.000000,1647334584.355991,0.000000
41.000000,16633.184747,22188.688480,3163.800021,21388.607787,-18094.832372,-23768.777999,-1868.605836,-5385.518716,-0.052000,0.964000,0.182000,192.000000,0.000000,0.000000,0.000000,0.000000,0.000000,0.000000,0.000000,0.000000,0.000000,1647334584.356007,0.000000
42.000000,16632.156567,22187.749706,3164.962311,21393.949854,-18095.055889,-23774.656507,-1863.219066,-5387.686835,-0.052000,0.964000,0.182000,192.000000,0.000000,0.000000,0.000000,0.000000,0.000000,0.000000,0.000000,0.000000,0.000000,1647334584.362537,0.000000
43.000000,16623.573497,22178.116104,3159.016747,21383.332775,-18103.706015,-23774.567100,-1869.544610,-5384.021149,-0.058000,0.964000,0.186000,192.000000,254.000000,48.000000,30.000000,32.000000,5.000000,208.000000,0.000000,0.000000,0.000000,1647334584.370650,0.000000
44.000000,16630.614296,22181.155942,3161.117811,21383.556292,-18103.773070,-23776.578757,-1861.095650,-5369.760736,-0.058000,0.964000,0.186000,192.000000,0.000000,0.000000,0.000000,0.000000,0.000000,0.000000,0.000000,0.000000,0.000000,1647334584.370667,0.000000
45.000000,16626.322761,22178.093753,3155.172247,21389.524208,-18098.967445,-23762.519510,-1863.733156,-5378.142640,-0.058000,0.964000,0.186000,192.000000,0.000000,0.000000,0.000000,0.000000,0.000000,0.000000,0.000000,0.000000,0.000000,1647334584.378442,0.000000
46.000000,16619.147851,22170.315346,3148.332614,21379.018888,-18109.919800,-23757.602126,-1874.707863,-5395.688760,-0.058000,0.964000,0.186000,192.000000,0.000000,0.000000,0.000000,0.000000,0.000000,0.000000,0.000000,0.000000,0.000000,1647334584.378453,0.000000
47.000000,16630.055503,22174.562177,3154.859323,21377.722487,-18110.322131,-23764.285298,-1859.799249,-5384.848164,-0.058000,0.964000,0.186000,192.000000,0.000000,0.000000,0.000000,0.000000,0.000000,0.000000,0.000000,0.000000,0.000000,1647334584.385333,0.000000
48.000000,16634.704666,22180.887721,3161.766012,21386.014984,-18101.716709,-23780.467961,-1854.367775,-5378.656730,-0.058000,0.964000,0.186000,192.000000,0.000000,0.000000,0.000000,0.000000,0.000000,0.000000,0.000000,0.000000,0.000000,1647334584.385350,0.000000
49.000000,16634.078817,22184.665166,3162.727137,21388.652490,-18100.688529,-23783.954833,-1861.185057,-5376.086280,-0.058000,0.964000,0.186000,192.000000,0.000000,0.000000,0.000000,0.000000,0.000000,0.000000,0.000000,0.000000,0.000000,1647334584.393099,0.000000
50.000000,16639.890270,22187.637948,3165.342291,21389.457153,-18098.743927,-23790.213321,-1868.158802,-5381.964789,-0.058000,0.964000,0.186000,192.000000,0.000000,0.000000,0.000000,0.000000,0.000000,0.000000,0.000000,0.000000,0.000000,1647334584.393115,0.000000
51.000000,16634.212927,22178.317270,3165.096422,21396.185028,-18089.356195,-23788.156961,-1853.987796,-5382.233010,-0.058000,0.964000,0.186000,192.000000,0.000000,0.000000,0.000000,0.000000,0.000000,0.000000,0.000000,0.000000,0.000000,1647334584.401251,0.000000
52.000000,16630.770758,22173.779866,3166.102250,21399.247217,-18090.384375,-23782.121990,-1857.251150,-5385.406957,-0.058000,0.964000,0.186000,192.000000,0.000000,0.000000,0.000000,0.000000,0.000000,0.000000,0.000000,0.000000,0.000000,1647334584.401267,0.000000
53.000000,16629.340247,22168.929537,3159.955521,21385.120915,-18102.543724,-23795.175409,-1867.108270,-5394.951152,-0.058000,0.960000,0.190000,192.000000,254.000000,48.000000,30.000000,0.000000,5.000000,240.000000,0.000000,0.000000,0.000000,1647334584.408294,0.000000
54.000000,16625.652209,22167.901357,3153.808791,21379.622385,-18106.723500,-23798.394060,-1868.650540,-5386.010454,-0.058000,0.960000,0.190000,192.000000,0.000000,0.000000,0.000000,0.000000,0.000000,0.000000,0.000000,0.000000,0.000000,1647334584.408310,0.000000
55.000000,16630.122558,22176.082096,3156.803925,21390.708851,-18101.649654,-23781.652603,-1862.548514,-5375.013396,-0.058000,0.960000,0.190000,192.000000,0.000000,0.000000,0.000000,0.000000,0.000000,0.000000,0.000000,0.000000,0.000000,1647334584.415814,0.000000
56.000000,16630.524889,22170.784732,3164.403518,21380.069420,-18097.805154,-23784.491275,-1854.613644,-5370.811268,-0.058000,0.960000,0.190000,192.000000,0.000000,0.000000,0.000000,0.000000,0.000000,0.000000,0.000000,0.000000,0.000000,1647334584.415831,0.000000
57.000000,16629.563764,22168.035468,3163.911779,21387.512551,-18093.044232,-23779.551539,-1855.172438,-5379.729614,-0.058000,0.960000,0.190000,192.000000,0.000000,0.000000,0.000000,0.000000,0.000000,0.000000,0.000000,0.000000,0.000000,1647334584.422836,0.000000
58.000000,16633.140043,22169.309517,3168.002149,21390.977072,-18093.446564,-23784.066592,-1854.479534,-5379.036710,-0.058000,0.960000,0.190000,192.000000,0.000000,0.000000,0.000000,0.000000,0.000000,0.000000,0.000000,0.000000,0.000000,1647334584.430974,0.000000
59.000000,16626.993314,22163.721581,3161.475439,21385.567949,-18093.603026,-23782.434914,-1861.721499,-5382.612989,-0.058000,0.960000,0.190000,192.000000,0.000000,0.000000,0.000000,0.000000,0.000000,0.000000,0.000000,0.000000,0.000000,1647334584.430991,0.000000
60.000000,16635.911660,22177.199683,3169.566771,21386.059688,-18088.551532,-23778.322193,-1858.949883,-5381.495402,-0.058000,0.960000,0.190000,192.000000,0.000000,0.000000,0.000000,0.000000,0.000000,0.000000,0.000000,0.000000,0.000000,1647334584.438067,0.000000
61.000000,16636.984543,22177.177331,3171.891352,21393.771040,-18082.740078,-23772.957775,-1853.361947,-5377.628550,-0.058000,0.960000,0.190000,192.000000,0.000000,0.000000,0.000000,0.000000,0.000000,0.000000,0.000000,0.000000,0.000000,1647334584.438083,0.000000
62.000000,16643.846529,22177.400849,3172.830125,21394.374537,-18086.808096,-23774.365935,-1858.905179,-5385.809289,-0.058000,0.960000,0.190000,192.000000,0.000000,0.000000,0.000000,0.000000,0.000000,0.000000,0.000000,0.000000,0.000000,1647334584.445404,0.000000
63.000000,16647.311049,22184.151075,3172.338387,21395.693290,-18085.377584,-23776.869330,-1853.898389,-5379.103765,-0.058000,0.964000,0.188000,192.000000,254.000000,48.000000,30.000000,32.000000,5.000000,224.000000,0.000000,0.000000,0.000000,1647334584.445421,0.000000
64.000000,16643.131273,22178.540788,3175.333521,21389.546560,-18086.294006,-23778.769228,-1837.648670,-5372.711166,-0.058000,0.964000,0.188000,192.000000,0.000000,0.000000,0.000000,0.000000,0.000000,0.000000,0.000000,0.000000,0.000000,1647334584.453274,0.000000
65.000000,16643.086570,22178.831360,3178.149841,21391.647624,-18083.991776,-23786.413525,-1847.371679,-5374.320492,-0.058000,0.964000,0.188000,192.000000,0.000000,0.000000,0.000000,0.000000,0.000000,0.000000,0.000000,0.000000,0.000000,1647334584.453286,0.000000
66.000000,16643.354791,22176.395020,3177.345178,21399.403679,-18081.913064,-23784.670089,-1863.152011,-5383.708225,-0.058000,0.964000,0.188000,192.000000,0.000000,0.000000,0.000000,0.000000,0.000000,0.000000,0.000000,0.000000,0.000000,1647334584.461538,0.000000
67.000000,16633.676485,22167.476674,3162.280102,21386.707888,-18094.653558,-23797.768211,-1870.393976,-5386.502193,-0.058000,0.964000,0.188000,192.000000,0.000000,0.000000,0.000000,0.000000,0.000000,0.000000,0.000000,0.000000,0.000000,1647334584.461554,0.000000
68.000000,16627.440349,22160.838206,3153.160590,21377.856598,-18104.197753,-23792.470848,-1875.445470,-5390.726672,-0.058000,0.964000,0.188000,192.000000,0.000000,0.000000,0.000000,0.000000,0.000000,0.000000,0.000000,0.000000,0.000000,1647334584.468211,0.000000
69.000000,16642.863052,22180.418334,3171.846649,21390.328871,-18091.591369,-23784.155999,-1865.163668,-5379.439042,-0.058000,0.964000,0.188000,192.000000,0.000000,0.000000,0.000000,0.000000,0.000000,0.000000,0.000000,0.000000,0.000000,1647334584.468228,0.000000
70.000000,16645.724076,22176.238558,3171.801945,21390.038298,-18087.970387,-23773.717734,-1858.882828,-5377.762661,-0.058000,0.964000,0.188000,192.000000,0.000000,0.000000,0.000000,0.000000,0.000000,0.000000,0.000000,0.000000,0.000000,1647334584.476102,0.000000
71.000000,16639.800863,22161.844034,3166.839858,21380.315290,-18089.825581,-23772.555443,-1859.307511,-5383.864687,-0.058000,0.964000,0.188000,192.000000,0.000000,0.000000,0.000000,0.000000,0.000000,0.000000,0.000000,0.000000,0.000000,1647334584.476119,0.000000
72.000000,16632.670657,22163.386305,3161.296625,21375.777885,-18096.955788,-23781.630252,-1861.743851,-5384.132908,-0.058000,0.964000,0.188000,192.000000,0.000000,0.000000,0.000000,0.000000,0.000000,0.000000,0.000000,0.000000,0.000000,1647334584.483268,0.000000
73.000000,16634.414093,22166.202625,3161.408384,21369.787618,-18100.129735,-23783.843074,-1861.430926,-5383.127079,-0.058000,0.964000,0.190000,192.000000,254.000000,48.000000,30.000000,32.000000,5.000000,240.000000,0.000000,0.000000,0.000000,1647334584.491303,0.000000
74.000000,16634.190575,22167.588433,3163.017710,21388.048993,-18093.312453,-23774.812970,-1857.072336,-5376.153335,-0.058000,0.964000,0.190000,192.000000,0.000000,0.000000,0.000000,0.000000,0.000000,0.000000,0.000000,0.000000,0.000000,1647334584.491319,0.000000
75.000000,16626.278058,22159.541805,3153.786439,21372.626289,-18101.739061,-23767.660411,-1864.493115,-5385.898696,-0.058000,0.964000,0.190000,192.000000,0.000000,0.000000,0.000000,0.000000,0.000000,0.000000,0.000000,0.000000,0.000000,1647334584.497776,0.000000
76.000000,16629.429654,22163.900395,3155.596930,21360.064609,-18105.382395,-23784.647737,-1859.441621,-5393.163013,-0.058000,0.964000,0.190000,192.000000,0.000000,0.000000,0.000000,0.000000,0.000000,0.000000,0.000000,0.000000,0.000000,1647334584.497792,0.000000
77.000000,16632.693009,22170.784732,3160.044928,21383.668051,-18094.407689,-23777.741048,-1863.531990,-5386.636303,-0.058000,0.964000,0.190000,192.000000,0.000000,0.000000,0.000000,0.000000,0.000000,0.000000,0.000000,0.000000,0.000000,1647334584.505785,0.000000
78.000000,16627.440349,22161.598165,3147.438544,21377.521321,-18100.643826,-23757.579775,-1870.304569,-5382.322417,-0.058000,0.964000,0.190000,192.000000,0.000000,0.000000,0.000000,0.000000,0.000000,0.000000,0.000000,0.000000,0.000000,1647334584.505801,0.000000
79.000000,16629.675523,22161.039372,3149.070221,21363.953813,-18108.154012,-23756.149263,-1871.243342,-5380.243704,-0.058000,0.964000,0.190000,192.000000,0.000000,0.000000,0.000000,0.000000,0.000000,0.000000,0.000000,0.000000,0.000000,1647334584.513838,0.000000
80.000000,16641.119616,22174.584529,3160.089631,21385.545598,-18099.347424,-23762.564214,-1861.185057,-5376.645073,-0.058000,0.964000,0.190000,192.000000,0.000000,0.000000,0.000000,0.000000,0.000000,0.000000,0.000000,0.000000,0.000000,1647334584.513855,0.000000
81.000000,16639.085607,22170.047125,3154.524047,21378.951833,-18099.995625,-23770.119103,-1858.078165,-5374.611065,-0.058000,0.964000,0.190000,192.000000,0.000000,0.000000,0.000000,0.000000,0.000000,0.000000,0.000000,0.000000,0.000000,1647334584.520977,0.000000
82.000000,16624.199346,22158.178348,3147.438544,21364.602013,-18107.751680,-23779.149208,-1867.063566,-5380.646036,-0.058000,0.964000,0.190000,192.000000,0.000000,0.000000,0.000000,0.000000,0.000000,0.000000,0.000000,0.000000,0.000000,1647334584.520993,0.000000
83.000000,16620.846584,22158.290107,3149.137276,21362.322135,-18107.014073,-23767.101618,-1870.751604,-5386.926876,-0.056000,0.960000,0.186000,192.000000,254.000000,64.000000,30.000000,0.000000,5.000000,208.000000,0.000000,0.000000,0.000000,1647334584.528384,0.000000
84.000000,16621.628895,22155.406732,3149.606663,21362.724467,-18109.472765,-23761.513682,-1867.488249,-5380.757794,-0.056000,0.960000,0.186000,192.000000,0.000000,0.000000,0.000000,0.000000,0.000000,0.000000,0.000000,0.000000,0.000000,1647334584.528400,0.000000
85.000000,16631.016628,22160.279412,3157.072146,21365.093752,-18106.388224,-23766.900452,-1855.015976,-5373.448774,-0.056000,0.960000,0.186000,192.000000,0.000000,0.000000,0.000000,0.000000,0.000000,0.000000,0.000000,0.000000,0.000000,1647334584.536426,0.000000
86.000000,16640.426712,22165.062686,3170.036157,21372.425124,-18091.546666,-23773.181292,-1841.671984,-5363.792820,-0.056000,0.960000,0.186000,192.000000,0.000000,0.000000,0.000000,0.000000,0.000000,0.000000,0.000000,0.000000,0.000000,1647334584.536443,0.000000
87.000000,16637.610392,22161.151130,3162.727137,21367.328926,-18101.649654,-23783.083115,-1852.870208,-5364.463373,-0.056000,0.960000,0.186000,192.000000,0.000000,0.000000,0.000000,0.000000,0.000000,0.000000,0.000000,0.000000,0.000000,1647334584.543308,0.000000
88.000000,16637.342171,22164.347430,3157.429774,21369.608804,-18101.783765,-23787.866388,-1857.474668,-5372.889980,-0.056000,0.960000,0.186000,192.000000,0.000000,0.000000,0.000000,0.000000,0.000000,0.000000,0.000000,0.000000,0.000000,1647334584.543325,0.000000
89.000000,16624.065235,22153.350372,3140.598910,21360.936327,-18108.690454,-23776.869330,-1869.544610,-5387.932704,-0.056000,0.960000,0.186000,192.000000,0.000000,0.000000,0.000000,0.000000,0.000000,0.000000,0.000000,0.000000,0.000000,1647334584.550150,0.000000
90.000000,16630.077854,22154.266793,3153.853494,21357.270641,-18104.242456,-23772.957775,-1864.895447,-5382.992969,-0.056000,0.960000,0.186000,192.000000,0.000000,0.000000,0.000000,0.000000,0.000000,0.000000,0.000000,0.000000,0.000000,1647334584.558074,0.000000
91.000000,16632.089511,22154.087979,3154.546398,21346.497100,-18104.711843,-23765.246423,-1857.295854,-5376.399204,-0.056000,0.960000,0.186000,192.000000,0.000000,0.000000,0.000000,0.000000,0.000000,0.000000,0.000000,0.000000,0.000000,1647334584.558090,0.000000
92.000000,16632.536546,22156.166691,3156.915683,21361.785693,-18104.957712,-23766.408714,-1849.316281,-5374.946341,-0.056000,0.960000,0.186000,192.000000,0.000000,0.000000,0.000000,0.000000,0.000000,0.000000,0.000000,0.000000,0.000000,1647334584.566190,0.000000
93.000000,16633.050636,22156.703133,3163.040061,21361.584528,-18102.051986,-23774.522397,-1855.217142,-5370.475992,-0.056000,0.962000,0.192000,192.000000,254.000000,64.000000,30.000000,16.000000,6.000000,0.000000,0.000000,0.000000,0.000000,1647334584.566206,0.000000
94.000000,16635.464625,22160.435875,3158.055622,21374.235615,-18101.023805,-23782.569025,-1862.615569,-5374.633416,-0.056000,0.962000,0.192000,192.000000,0.000000,0.000000,0.000000,0.000000,0.000000,0.000000,0.000000,0.000000,0.000000,1647334584.573220,0.000000
95.000000,16629.653171,22148.544746,3157.005090,21364.356144,-18101.627302,-23780.959699,-1866.415366,-5382.724748,-0.056000,0.962000,0.192000,192.000000,0.000000,0.000000,0.000000,0.000000,0.000000,0.000000,0.000000,0.000000,0.000000,1647334584.573237,0.000000
96.000000,16628.982619,22148.522395,3152.378279,21358.790560,-18105.337692,-23770.007344,-1865.811868,-5388.133870,-0.056000,0.962000,0.192000,192.000000,0.000000,0.000000,0.000000,0.000000,0.000000,0.000000,0.000000,0.000000,0.000000,1647334584.580668,0.000000
97.000000,16640.158491,22162.738104,3165.834029,21366.703077,-18102.789593,-23778.657470,-1854.457182,-5381.070719,-0.056000,0.962000,0.192000,192.000000,0.000000,0.000000,0.000000,0.000000,0.000000,0.000000,0.000000,0.000000,0.000000,1647334584.580685,0.000000
98.000000,16637.319820,22163.363953,3161.117811,21368.446513,-18105.516506,-23795.086002,-1858.212275,-5381.942437,-0.056000,0.962000,0.192000,192.000000,0.000000,0.000000,0.000000,0.000000,0.000000,0.000000,0.000000,0.000000,0.000000,1647334584.588776,0.000000
99.000000,16637.588041,22161.486407,3155.194599,21361.808045,-18103.840125,-23808.541752,-1860.559208,-5381.204829,-0.056000,0.962000,0.192000,192.000000,0.000000,0.000000,0.000000,0.000000,0.000000,0.000000,0.000000,0.000000,0.000000,1647334584.588792,0.000000
100.000000,16635.062293,22159.430046,3162.503619,21367.865368,-18091.077279,-23778.009269,-1860.156877,-5376.980350,-0.056000,0.962000,0.192000,192.000000,0.000000,0.000000,0.000000,0.000000,0.000000,0.000000,0.000000,0.000000,0.000000,1647334584.596803,0.000000
101.000000,16628.289715,22148.410636,3154.859323,21363.082095,-18096.218180,-23751.723618,-1871.578618,-5387.195097,-0.056000,0.962000,0.192000,192.000000,0.000000,0.000000,0.000000,0.000000,0.000000,0.000000,0.000000,0.000000,0.000000,1647334584.596819,0.000000
102.000000,16630.100206,22150.310534,3147.974986,21352.934403,-18107.125831,-23759.613783,-1862.950845,-5387.463318,-0.056000,0.962000,0.192000,192.000000,0.000000,0.000000,0.000000,0.000000,0.000000,0.000000,0.000000,0.000000,0.000000,1647334584.603289,0.000000
103.000000,16635.934011,22156.256098,3158.122678,21360.623403,-18101.426137,-23777.986917,-1857.005281,-5373.739347,-0.058000,0.962000,0.192000,192.000000,254.000000,48.000000,30.000000,16.000000,6.000000,0.000000,0.000000,0.000000,0.000000,1647334584.603305,0.000000
104.000000,16635.866956,22155.473787,3156.602759,21356.287164,-18099.816811,-23793.342566,-1862.637921,-5377.896771,-0.058000,0.962000,0.192000,192.000000,0.000000,0.000000,0.000000,0.000000,0.000000,0.000000,0.000000,0.000000,0.000000,1647334584.610188,0.000000
105.000000,16633.900003,22155.563194,3159.597893,21354.275507,-18093.714785,-23779.372725,-1867.041214,-5385.317550,-0.058000,0.962000,0.192000,192.000000,0.000000,0.000000,0.000000,0.000000,0.000000,0.000000,0.000000,0.000000,0.000000,1647334584.618495,0.000000
106.000000,16640.918450,22159.318287,3162.391861,21362.925632,-18093.692433,-23787.106429,-1858.592255,-5376.175687,-0.058000,0.962000,0.192000,192.000000,0.000000,0.000000,0.000000,0.000000,0.000000,0.000000,0.000000,0.000000,0.000000,1647334584.618512,0.000000
107.000000,16636.895136,22156.256098,3158.167381,21367.552443,-18094.206523,-23774.388286,-1857.586426,-5371.168896,-0.058000,0.962000,0.192000,192.000000,0.000000,0.000000,0.000000,0.000000,0.000000,0.000000,0.000000,0.000000,0.000000,1647334584.626416,0.000000
108.000000,16637.968020,22157.887776,3163.263579,21363.350315,-18095.905256,-23774.477693,-1854.881865,-5378.634379,-0.058000,0.962000,0.192000,192.000000,0.000000,0.000000,0.000000,0.000000,0.000000,0.000000,0.000000,0.000000,0.000000,1647334584.626433,0.000000
109.000000,16635.531680,22158.357162,3159.329672,21377.275452,-18091.926645,-23766.743990,-1863.889618,-5383.015321,-0.058000,0.962000,0.192000,192.000000,0.000000,0.000000,0.000000,0.000000,0.000000,0.000000,0.000000,0.000000,0.000000,1647334584.632811,0.000000
110.000000,16640.963154,22164.079209,3162.056585,21378.527150,-18085.332881,-23756.685705,-1857.139392,-5374.342844,-0.058000,0.962000,0.192000,192.000000,0.000000,0.000000,0.000000,0.000000,0.000000,0.000000,0.000000,0.000000,0.000000,1647334584.632828,0.000000
111.000000,16643.041866,22159.810026,3160.894294,21371.084019,-18090.630244,-23743.408769,-1860.000415,-5373.448774,-0.058000,0.962000,0.192000,192.000000,0.000000,0.000000,0.000000,0.000000,0.000000,0.000000,0.000000,0.000000,0.000000,1647334584.640962,0.000000
112.000000,16639.778511,22150.712866,3160.961349,21363.193853,-18093.200695,-23760.485501,-1860.648615,-5377.919123,-0.058000,0.962000,0.192000,192.000000,0.000000,0.000000,0.000000,0.000000,0.000000,0.000000,0.000000,0.000000,0.000000,1647334584.640978,0.000000
113.000000,16638.616221,22155.071456,3159.016747,21361.964507,-18095.011186,-23766.721638,-1861.095650,-5380.489574,-0.062000,0.964000,0.194000,192.000000,254.000000,16.000000,30.000000,32.000000,6.000000,16.000000,0.000000,0.000000,0.000000,1647334584.648803,0.000000
114.000000,16637.051599,22153.663296,3160.290797,21360.869272,-18097.067546,-23778.992746,-1857.519371,-5381.651864,-0.062000,0.964000,0.194000,192.000000,0.000000,0.000000,0.000000,0.000000,0.000000,0.000000,0.000000,0.000000,0.000000,1647334584.648820,0.000000
115.000000,16625.696912,22144.834357,3152.847666,21354.767246,-18096.307587,-23776.355240,-1864.873095,-5383.216486,-0.062000,0.964000,0.194000,192.000000,0.000000,0.000000,0.000000,0.000000,0.000000,0.000000,0.000000,0.000000,0.000000,1647334584.656060,0.000000
116.000000,16622.545317,22148.969430,3140.710669,21353.604955,-18103.169573,-23763.167711,-1869.902238,-5390.614914,-0.062000,0.964000,0.194000,192.000000,0.000000,0.000000,0.000000,0.000000,0.000000,0.000000,0.000000,0.000000,0.000000,1647334584.656077,0.000000
117.000000,16628.110901,22148.500043,3155.373413,21355.258984,-18100.688529,-23765.179368,-1852.669043,-5380.869553,-0.062000,0.964000,0.194000,192.000000,0.000000,0.000000,0.000000,0.000000,0.000000,0.000000,0.000000,0.000000,0.000000,1647334584.663548,0.000000
118.000000,16630.793110,22147.293049,3158.435602,21356.577737,-18099.861515,-23772.622499,-1859.665139,-5374.476954,-0.062000,0.964000,0.194000,192.000000,0.000000,0.000000,0.000000,0.000000,0.000000,0.000000,0.000000,0.000000,0.000000,1647334584.663564,0.000000
119.000000,16632.402436,22152.769226,3156.714518,21360.399885,-18097.469878,-23776.332888,-1874.529049,-5386.144565,-0.062000,0.964000,0.194000,192.000000,0.000000,0.000000,0.000000,0.000000,0.000000,0.000000,0.000000,0.000000,0.000000,1647334584.670559,0.000000
120.000000,16636.045770,22154.736180,3161.497791,21361.740990,-18092.328977,-23766.587528,-1867.532953,-5383.574114,-0.062000,0.964000,0.194000,192.000000,0.000000,0.000000,0.000000,0.000000,0.000000,0.000000,0.000000,0.000000,0.000000,1647334584.678653,0.000000
121.000000,16636.090474,22155.071456,3166.526933,21365.160807,-18091.166686,-23773.225996,-1858.122868,-5382.009492,-0.062000,0.964000,0.194000,192.000000,0.000000,0.000000,0.000000,0.000000,0.000000,0.000000,0.000000,0.000000,0.000000,1647334584.678670,0.000000
122.000000,16635.621087,22153.328020,3166.526933,21357.561214,-18091.881942,-23773.293051,-1856.312377,-5380.266056,-0.062000,0.964000,0.194000,192.000000,0.000000,0.000000,0.000000,0.000000,0.000000,0.000000,0.000000,0.000000,0.000000,1647334584.685592,0.000000
123.000000,16635.464625,22151.852805,3163.509448,21362.992688,-18091.636073,-23770.499083,-1866.035386,-5383.283542,-0.064000,0.960000,0.186000,192.000000,254.000000,0.000000,30.000000,0.000000,5.000000,208.000000,0.000000,0.000000,0.000000,1647334584.685608,0.000000
124.000000,16635.062293,22146.533089,3163.755317,21375.353202,-18085.176418,-23765.358182,-1865.431889,-5379.886076,-0.064000,0.960000,0.186000,192.000000,0.000000,0.000000,0.000000,0.000000,0.000000,0.000000,0.000000,0.000000,0.000000,1647334584.693265,0.000000
125.000000,16639.152663,22150.310534,3167.085727,21375.263795,-18085.891674,-23767.191025,-1861.945017,-5381.987140,-0.064000,0.960000,0.186000,192.000000,0.000000,0.000000,0.000000,0.000000,0.000000,0.000000,0.000000,0.000000,0.000000,1647334584.693281,0.000000
126.000000,16644.919413,22155.987877,3175.177059,21376.649603,-18077.219197,-23762.206586,-1860.894485,-5385.004626,-0.064000,0.960000,0.186000,192.000000,0.000000,0.000000,0.000000,0.000000,0.000000,0.000000,0.000000,0.000000,0.000000,1647334584.701258,0.000000
127.000000,16643.757122,22150.824624,3171.489021,21372.603938,-18080.437849,-23774.120065,-1862.816735,-5380.444870,-0.064000,0.960000,0.186000,192.000000,0.000000,0.000000,0.000000,0.000000,0.000000,0.000000,0.000000,0.000000,0.000000,1647334584.701274,0.000000
128.000000,16642.863052,22153.953869,3169.164439,21372.358069,-18086.070488,-23774.231824,-1869.544610,-5390.480803,-0.064000,0.960000,0.186000,192.000000,0.000000,0.000000,0.000000,0.000000,0.000000,0.000000,0.000000,0.000000,0.000000,1647334584.709273,0.000000
129.000000,16639.577346,22155.406732,3170.080861,21367.552443,-18081.823657,-23768.196853,-1868.315264,-5390.927838,-0.064000,0.960000,0.186000,192.000000,0.000000,0.000000,0.000000,0.000000,0.000000,0.000000,0.000000,0.000000,0.000000,1647334584.709290,0.000000
130.000000,16630.301372,22145.393150,3162.101288,21368.379458,-18084.550570,-23746.873289,-1875.289008,-5386.077510,-0.064000,0.960000,0.186000,192.000000,0.000000,0.000000,0.000000,0.000000,0.000000,0.000000,0.000000,0.000000,0.000000,1647334584.715974,0.000000
131.000000,16638.437407,22152.724523,3168.560942,21369.251176,-18083.276520,-23750.717789,-1862.548514,-5373.918161,-0.064000,0.960000,0.186000,192.000000,0.000000,0.000000,0.000000,0.000000,0.000000,0.000000,0.000000,0.000000,0.000000,1647334584.715991,0.000000
132.000000,16632.178918,22143.962639,3159.106154,21360.265775,-18090.317320,-23755.702228,-1860.380395,-5383.730576,-0.064000,0.960000,0.186000,192.000000,0.000000,0.000000,0.000000,0.000000,0.000000,0.000000,0.000000,0.000000,0.000000,1647334584.723834,0.000000
133.000000,16627.485052,22137.301819,3152.534741,21362.903281,-18095.659387,-23746.672123,-1874.909028,-5391.508984,-0.064000,0.958000,0.188000,192.000000,254.000000,0.000000,29.000000,240.000000,5.000000,224.000000,0.000000,0.000000,0.000000,1647334584.723850,0.000000
134.000000,16643.801825,22155.809063,3168.806811,21376.560196,-18080.929587,-23754.562289,-1865.968331,-5380.646036,-0.064000,0.958000,0.188000,192.000000,0.000000,0.000000,0.000000,0.000000,0.000000,0.000000,0.000000,0.000000,0.000000,1647334584.730833,0.000000
135.000000,16644.315916,22157.016058,3169.656178,21371.866330,-18078.493247,-23754.249365,-1861.922665,-5383.730576,-0.064000,0.958000,0.188000,192.000000,0.000000,0.000000,0.000000,0.000000,0.000000,0.000000,0.000000,0.000000,0.000000,1647334584.738093,0.000000
136.000000,16648.830968,22155.585546,3173.858306,21375.800237,-18076.973328,-23765.604051,-1861.028595,-5381.204829,-0.064000,0.958000,0.188000,192.000000,0.000000,0.000000,0.000000,0.000000,0.000000,0.000000,0.000000,0.000000,0.000000,1647334584.738110,0.000000
137.000000,16645.098227,22149.662334,3167.242189,21368.871196,-18080.169628,-23755.255193,-1864.090784,-5381.763623,-0.064000,0.958000,0.188000,192.000000,0.000000,0.000000,0.000000,0.000000,0.000000,0.000000,0.000000,0.000000,0.000000,1647334584.745572,0.000000
138.000000,16645.075875,22151.159901,3165.297588,21356.957717,-18089.982044,-23761.737199,-1858.480496,-5378.410861,-0.064000,0.958000,0.188000,192.000000,0.000000,0.000000,0.000000,0.000000,0.000000,0.000000,0.000000,0.000000,0.000000,1647334584.745588,0.000000
139.000000,16649.568576,22160.815854,3174.417099,21381.432877,-18080.236683,-23771.773132,-1841.694336,-5363.323434,-0.064000,0.958000,0.188000,192.000000,0.000000,0.000000,0.000000,0.000000,0.000000,0.000000,0.000000,0.000000,0.000000,1647334584.753237,0.000000
140.000000,16638.392703,22139.984028,3168.091556,21375.286147,-18073.665270,-23755.545766,-1850.567979,-5370.252475,-0.064000,0.958000,0.188000,192.000000,0.000000,0.000000,0.000000,0.000000,0.000000,0.000000,0.000000,0.000000,0.000000,1647334584.753248,0.000000
141.000000,16631.307200,22137.681799,3158.100326,21365.719600,-18085.064660,-23727.159050,-1885.213183,-5393.498289,-0.064000,0.958000,0.188000,192.000000,0.000000,0.000000,0.000000,0.000000,0.000000,0.000000,0.000000,0.000000,0.000000,1647334584.761518,0.000000
142.000000,16641.119616,22141.146319,3163.420041,21365.518435,-18091.256093,-23734.557478,-1881.055758,-5387.686835,-0.064000,0.958000,0.188000,192.000000,0.000000,0.000000,0.000000,0.000000,0.000000,0.000000,0.000000,0.000000,0.000000,1647334584.761534,0.000000
143.000000,16643.198328,22138.754682,3167.398652,21363.350315,-18087.590407,-23737.932591,-1871.444508,-5383.060024,-0.064000,0.958000,0.188000,192.000000,0.000000,0.000000,0.000000,0.000000,0.000000,0.000000,0.000000,0.000000,0.000000,1647334584.768172,0.000000
144.000000,16643.108921,22140.051084,3168.337425,21363.327964,-18082.740078,-23737.239687,-1868.583485,-5387.373911,-0.066000,0.964000,0.194000,192.000000,253.000000,240.000000,30.000000,32.000000,6.000000,16.000000,0.000000,0.000000,0.000000,1647334584.768189,0.000000
145.000000,16643.399494,22140.408711,3168.046852,21366.278394,-18081.801305,-23735.496251,-1863.867267,-5383.104728,-0.066000,0.964000,0.194000,192.000000,0.000000,0.000000,0.000000,0.000000,0.000000,0.000000,0.000000,0.000000,0.000000,1647334584.776246,0.000000
146.000000,16642.103093,22136.564211,3162.101288,21364.043220,-18085.779916,-23740.547745,-1867.465897,-5391.598391,-0.066000,0.964000,0.194000,192.000000,0.000000,0.000000,0.000000,0.000000,0.000000,0.000000,0.000000,0.000000,0.000000,1647334584.776263,0.000000
147.000000,16637.342171,22133.434967,3161.184867,21356.868310,-18089.289139,-23739.385455,-1873.903200,-5399.868536,-0.066000,0.964000,0.194000,192.000000,0.000000,0.000000,0.000000,0.000000,0.000000,0.000000,0.000000,0.000000,0.000000,1647334584.784113,0.000000
148.000000,16640.739637,22134.284334,3166.951617,21360.355182,-18086.182247,-23736.367969,-1865.118964,-5394.034731,-0.066000,0.964000,0.194000,192.000000,0.000000,0.000000,0.000000,0.000000,0.000000,0.000000,0.000000,0.000000,0.000000,1647334584.784129,0.000000
149.000000,16644.427674,22144.789653,3166.884561,21371.911034,-18082.762430,-23756.126911,-1865.655406,-5378.924951,-0.066000,0.964000,0.194000,192.000000,0.000000,0.000000,0.000000,0.000000,0.000000,0.000000,0.000000,0.000000,0.000000,1647334584.791191,0.000000
150.000000,16634.034113,22134.574906,3159.955521,21364.154978,-18087.121020,-23743.453472,-1868.181153,-5381.718919,-0.066000,0.964000,0.194000,192.000000,0.000000,0.000000,0.000000,0.000000,0.000000,0.000000,0.000000,0.000000,0.000000,1647334584.791208,0.000000
151.000000,16639.823215,22132.272677,3165.096422,21360.466940,-18086.338709,-23740.413635,-1862.369700,-5382.925914,-0.066000,0.964000,0.194000,192.000000,0.000000,0.000000,0.000000,0.000000,0.000000,0.000000,0.000000,0.000000,0.000000,1647334584.797775,0.000000
152.000000,16642.818349,22135.357217,3162.078936,21369.005307,-18084.863494,-23744.034617,-1869.254037,-5384.714053,-0.066000,0.964000,0.194000,192.000000,0.000000,0.000000,0.000000,0.000000,0.000000,0.000000,0.000000,0.000000,0.000000,1647334584.805798,0.000000
153.000000,16650.350887,22142.152148,3167.197486,21366.144284,-18084.796439,-23757.803292,-1858.011110,-5366.519733,-0.066000,0.964000,0.194000,192.000000,0.000000,0.000000,0.000000,0.000000,0.000000,0.000000,0.000000,0.000000,0.000000,1647334584.805815,0.000000
154.000000,16649.635631,22147.538918,3168.136259,21375.375554,-18082.985947,-23762.072475,-1863.308473,-5368.687852,-0.062000,0.958000,0.192000,192.000000,254.000000,16.000000,29.000000,240.000000,6.000000,0.000000,0.000000,0.000000,0.000000,1647334584.813391,0.000000
155.000000,16643.064218,22135.893659,3171.109041,21374.146208,-18072.994718,-23735.518603,-1862.302645,-5380.087242,-0.062000,0.958000,0.192000,192.000000,0.000000,0.000000,0.000000,0.000000,0.000000,0.000000,0.000000,0.000000,0.000000,1647334584.813401,0.000000
156.000000,16637.588041,22131.803290,3154.658157,21356.600089,-18088.305663,-23721.727576,-1878.507659,-5391.374873,-0.062000,0.958000,0.192000,192.000000,0.000000,0.000000,0.000000,0.000000,0.000000,0.000000,0.000000,0.000000,0.000000,1647334584.820954,0.000000
157.000000,16639.622049,22139.514642,3158.703823,21358.723504,-18089.803230,-23729.215411,-1876.160726,-5382.545934,-0.062000,0.958000,0.192000,192.000000,0.000000,0.000000,0.000000,0.000000,0.000000,0.000000,0.000000,0.000000,0.000000,1647334584.820971,0.000000
158.000000,16637.476282,22139.045255,3160.491962,21366.300746,-18084.528218,-23727.248457,-1868.404671,-5377.874419,-0.062000,0.958000,0.192000,192.000000,0.000000,0.000000,0.000000,0.000000,0.000000,0.000000,0.000000,0.000000,0.000000,1647334584.828466,0.000000
