%OpenBCI Raw EEG Data
%Number of channels = 8
%Sample Rate = 256 Hz
%Board = OpenBCI_GUI$BoardCytonSerial
%Channels = Fp1, Fp2, F3, F4, Fz, Pz, O1, O2
%Data recorded at AIMS Lab (http://aimsl.uiu.ac.bd) by Rana Depto (mail@ranadepto.com)
%Brainwaves were obtained via the Ultracortex Mark IV Headset using the OpenBCI Cyton Board
%Recording Application = ConcentrateToday (https://concentrate.today)
%Data type = RAW data with noise
%Day No = 4
%Subject ID = 1
%Session ID = 7
%Record starting timestamp (UTC+6) = 2022-03-10T12:45:58.787705
%Record ending timestamp (UTC+6)   = 2022-03-10T12:46:29.648394
%Recorded durations = ~30 seconds
Sample Index, EXG Channel 0, EXG Channel 1, EXG Channel 2, EXG Channel 3, EXG Channel 4, EXG Channel 5, EXG Channel 6, EXG Channel 7, Accel Channel 0, Accel Channel 1, Accel Channel 2, Other, Other, Other, Other, Other, Other, Other, Analog Channel 0, Analog Channel 1, Analog Channel 2, Timestamp, Timestamp (Formatted)
219.000000,55663.711508,47235.002784,36947.433585,39828.886369,7303.164280,35911.452581,42358.567400,43154.043633,0.020000,0.964000,0.186000,192.000000,0.000000,0.000000,0.000000,0.000000,0.000000,0.000000,0.000000,0.000000,0.000000,1646894758.792676,0.000000
220.000000,55679.916522,47248.883217,36919.650366,39830.808619,7297.196364,35905.864645,42350.297254,43133.524732,0.020000,0.964000,0.186000,192.000000,0.000000,0.000000,0.000000,0.000000,0.000000,0.000000,0.000000,0.000000,0.000000,1646894758.792683,0.000000
221.000000,55689.438366,47262.741299,36987.219690,39849.271160,7324.599603,35921.801439,42367.753967,43140.051441,0.020000,0.964000,0.186000,192.000000,0.000000,0.000000,0.000000,0.000000,0.000000,0.000000,0.000000,0.000000,0.000000,1646894758.800192,0.000000
222.000000,55684.722148,47269.916209,36970.835861,39843.035024,7321.045675,35927.925817,42381.746159,43164.928933,0.020000,0.964000,0.186000,192.000000,0.000000,0.000000,0.000000,0.000000,0.000000,0.000000,0.000000,0.000000,0.000000,1646894758.800198,0.000000
223.000000,55648.914653,47257.041604,36920.231512,39837.380032,7298.425710,35915.766468,42375.420615,43175.076625,0.016000,0.968000,0.184000,192.000000,0.000000,128.000000,30.000000,64.000000,5.000000,192.000000,0.000000,0.000000,0.000000,1646894758.808130,0.000000
224.000000,55674.105069,47258.025081,36949.512297,39842.722099,7312.060274,35916.302909,42368.558630,43153.708357,0.016000,0.968000,0.184000,192.000000,0.000000,0.000000,0.000000,0.000000,0.000000,0.000000,0.000000,0.000000,0.000000,1646894758.808134,0.000000
225.000000,55695.316874,47269.804450,36966.566678,39853.562695,7324.398437,35930.160991,42381.321476,43179.926953,0.016000,0.968000,0.184000,192.000000,0.000000,0.000000,0.000000,0.000000,0.000000,0.000000,0.000000,0.000000,0.000000,1646894758.816143,0.000000
226.000000,55709.823157,47286.881183,36985.632716,39870.594724,7342.257481,35952.155108,42386.238859,43211.375858,0.016000,0.968000,0.184000,192.000000,0.000000,0.000000,0.000000,0.000000,0.000000,0.000000,0.000000,0.000000,0.000000,1646894758.816148,0.000000
227.000000,55708.817328,47289.719855,37003.469408,39879.446015,7350.572330,35949.405843,42390.262173,43195.327305,0.016000,0.968000,0.184000,192.000000,0.000000,0.000000,0.000000,0.000000,0.000000,0.000000,0.000000,0.000000,0.000000,1646894758.822766,0.000000
228.000000,55694.892191,47283.729587,36967.147823,39867.979570,7329.360524,35946.589523,42383.780168,43194.388532,0.016000,0.968000,0.184000,192.000000,0.000000,0.000000,0.000000,0.000000,0.000000,0.000000,0.000000,0.000000,0.000000,1646894758.822771,0.000000
229.000000,55696.993255,47288.088177,36955.569620,39859.776480,7318.341114,35935.771279,42362.791880,43173.064968,0.016000,0.968000,0.184000,192.000000,0.000000,0.000000,0.000000,0.000000,0.000000,0.000000,0.000000,0.000000,0.000000,1646894758.832175,0.000000
230.000000,55710.449005,47309.322334,36991.555928,39871.108815,7342.056315,35948.489421,42367.485746,43171.925029,0.016000,0.968000,0.184000,192.000000,0.000000,0.000000,0.000000,0.000000,0.000000,0.000000,0.000000,0.000000,0.000000,1646894758.832179,0.000000
231.000000,55709.756101,47298.884070,36978.591916,39866.638466,7338.904719,35948.221200,42372.984275,43168.259343,0.016000,0.968000,0.184000,192.000000,0.000000,0.000000,0.000000,0.000000,0.000000,0.000000,0.000000,0.000000,0.000000,1646894758.838278,0.000000
232.000000,55726.899889,47296.648895,36993.321716,39870.326504,7340.335231,35936.128907,42363.618894,43161.643226,0.016000,0.968000,0.184000,192.000000,0.000000,0.000000,0.000000,0.000000,0.000000,0.000000,0.000000,0.000000,0.000000,1646894758.838282,0.000000
233.000000,55723.435369,47304.293192,37010.800780,39886.375056,7356.719060,35956.558401,42376.672313,43181.111596,0.026000,0.966000,0.170000,192.000000,0.000000,208.000000,30.000000,48.000000,5.000000,80.000000,0.000000,0.000000,0.000000,1646894758.845920,0.000000
234.000000,55713.757064,47299.062884,37017.103972,39879.110739,7353.120429,35944.421404,42356.175763,43169.354578,0.026000,0.966000,0.170000,192.000000,0.000000,0.000000,0.000000,0.000000,0.000000,0.000000,0.000000,0.000000,0.000000,1646894758.852424,0.000000
235.000000,55709.867860,47296.537137,36968.690094,39879.937754,7338.971774,35941.292160,42367.038711,43166.225334,0.026000,0.966000,0.170000,192.000000,0.000000,0.000000,0.000000,0.000000,0.000000,0.000000,0.000000,0.000000,0.000000,1646894758.852430,0.000000
236.000000,55701.754177,47279.885087,36992.047667,39864.425643,7329.382876,35924.014261,42363.618894,43148.835677,0.026000,0.966000,0.170000,192.000000,0.000000,0.000000,0.000000,0.000000,0.000000,0.000000,0.000000,0.000000,0.000000,1646894758.860503,0.000000
237.000000,55715.992238,47301.678038,37003.536463,39878.909573,7348.158341,35950.590485,42393.167900,43174.227258,0.026000,0.966000,0.170000,192.000000,0.000000,0.000000,0.000000,0.000000,0.000000,0.000000,0.000000,0.000000,0.000000,1646894758.860507,0.000000
238.000000,55726.721075,47310.551680,36991.332411,39882.619963,7347.376030,35948.198849,42387.155281,43166.895886,0.026000,0.966000,0.170000,192.000000,0.000000,0.000000,0.000000,0.000000,0.000000,0.000000,0.000000,0.000000,0.000000,1646894758.868490,0.000000
239.000000,55718.093302,47314.977326,37019.450905,39894.041704,7362.418754,35960.849936,42389.815139,43195.640230,0.026000,0.966000,0.170000,192.000000,0.000000,0.000000,0.000000,0.000000,0.000000,0.000000,0.000000,0.000000,0.000000,1646894758.868511,0.000000
240.000000,55694.758081,47281.315599,36943.320864,39862.972780,7321.291545,35921.466162,42359.439118,43164.481898,0.026000,0.966000,0.170000,192.000000,0.000000,0.000000,0.000000,0.000000,0.000000,0.000000,0.000000,0.000000,0.000000,1646894758.875487,0.000000
241.000000,55718.339171,47299.129939,37031.096164,39886.352704,7355.802638,35949.070567,42390.172766,43161.620875,0.026000,0.966000,0.170000,192.000000,0.000000,0.000000,0.000000,0.000000,0.000000,0.000000,0.000000,0.000000,0.000000,1646894758.875490,0.000000
242.000000,55703.095281,47291.798567,37006.062210,39879.401312,7353.321594,35942.454450,42381.880269,43139.269130,0.026000,0.966000,0.170000,192.000000,0.000000,0.000000,0.000000,0.000000,0.000000,0.000000,0.000000,0.000000,0.000000,1646894758.883031,0.000000
243.000000,55690.377139,47285.584782,36955.569620,39869.611248,7334.814350,35932.776145,42372.470185,43149.103898,0.030000,0.962000,0.166000,192.000000,0.000000,240.000000,30.000000,16.000000,5.000000,48.000000,0.000000,0.000000,0.000000,1646894758.883035,0.000000
244.000000,55681.570552,47283.640180,36922.019651,39858.591838,7316.307106,35923.030784,42360.042615,43170.069834,0.030000,0.962000,0.166000,192.000000,0.000000,0.000000,0.000000,0.000000,0.000000,0.000000,0.000000,0.000000,0.000000,1646894758.891138,0.000000
245.000000,55726.005820,47298.437035,36998.753190,39879.244850,7347.711307,35938.677006,42369.944438,43177.311799,0.030000,0.962000,0.166000,192.000000,0.000000,0.000000,0.000000,0.000000,0.000000,0.000000,0.000000,0.000000,0.000000,1646894758.891142,0.000000
246.000000,55728.173939,47298.951125,37009.146751,39889.012562,7359.311862,35949.159974,42388.362275,43190.499328,0.030000,0.962000,0.166000,192.000000,0.000000,0.000000,0.000000,0.000000,0.000000,0.000000,0.000000,0.000000,0.000000,1646894758.898343,0.000000
247.000000,55681.369386,47278.499279,36935.229532,39866.817280,7327.550033,35942.543857,42398.711133,43199.350619,0.030000,0.962000,0.166000,192.000000,0.000000,0.000000,0.000000,0.000000,0.000000,0.000000,0.000000,0.000000,0.000000,1646894758.898376,0.000000
248.000000,55688.030206,47278.879258,36968.399521,39856.468422,7321.492710,35913.240720,42358.142717,43154.088337,0.030000,0.962000,0.166000,192.000000,0.000000,0.000000,0.000000,0.000000,0.000000,0.000000,0.000000,0.000000,0.000000,1646894758.904629,0.000000
249.000000,55729.582099,47299.442863,37039.053385,39878.104911,7354.528589,35925.467125,42360.556705,43156.077642,0.030000,0.962000,0.166000,192.000000,0.000000,0.000000,0.000000,0.000000,0.000000,0.000000,0.000000,0.000000,0.000000,1646894758.912651,0.000000
250.000000,55730.029134,47310.775198,37009.973766,39892.298268,7359.960062,35948.109442,42372.447833,43199.171805,0.030000,0.962000,0.166000,192.000000,0.000000,0.000000,0.000000,0.000000,0.000000,0.000000,0.000000,0.000000,0.000000,1646894758.912655,0.000000
251.000000,55716.551032,47305.231965,36992.494701,39877.747283,7347.197216,35939.705186,42376.761720,43192.041599,0.030000,0.962000,0.166000,192.000000,0.000000,0.000000,0.000000,0.000000,0.000000,0.000000,0.000000,0.000000,0.000000,1646894758.920742,0.000000
252.000000,55686.711453,47288.646971,36950.249904,39859.105928,7316.105940,35915.341784,42364.691778,43173.020264,0.030000,0.962000,0.166000,192.000000,0.000000,0.000000,0.000000,0.000000,0.000000,0.000000,0.000000,0.000000,0.000000,1646894758.920746,0.000000
253.000000,55713.801767,47314.686753,37030.000929,39892.342972,7352.896911,35949.830526,42390.351580,43202.993954,0.036000,0.968000,0.162000,192.000000,1.000000,32.000000,30.000000,64.000000,5.000000,16.000000,0.000000,0.000000,0.000000,1646894758.927991,0.000000
254.000000,55723.882404,47314.440884,37033.800725,39902.825940,7368.029042,35966.482576,42400.342810,43207.151378,0.036000,0.968000,0.162000,192.000000,0.000000,0.000000,0.000000,0.000000,0.000000,0.000000,0.000000,0.000000,0.000000,1646894758.927997,0.000000
255.000000,55714.695837,47290.680980,36926.400593,39875.467405,7325.717190,35944.488459,42377.745197,43180.530450,0.036000,0.968000,0.162000,192.000000,0.000000,0.000000,0.000000,0.000000,0.000000,0.000000,0.000000,0.000000,0.000000,1646894758.935311,0.000000
0.000000,55704.726959,47280.622695,36926.288834,39873.858079,7323.079684,35932.463221,42364.155336,43165.331264,0.036000,0.968000,0.162000,192.000000,0.000000,0.000000,0.000000,0.000000,0.000000,0.000000,0.000000,0.000000,0.000000,1646894758.935315,0.000000
1.000000,55716.573383,47289.205764,37016.500475,39886.151539,7355.690879,35955.150241,42386.037694,43187.727712,0.036000,0.968000,0.162000,192.000000,0.000000,0.000000,0.000000,0.000000,0.000000,0.000000,0.000000,0.000000,0.000000,1646894758.943425,0.000000
2.000000,55730.230299,47314.038553,37060.801632,39905.552853,7374.533400,35963.912125,42391.424464,43185.559593,0.036000,0.968000,0.162000,192.000000,0.000000,0.000000,0.000000,0.000000,0.000000,0.000000,0.000000,0.000000,0.000000,1646894758.943431,0.000000
3.000000,55696.434462,47280.108604,36984.269259,39867.443129,7328.712324,35927.992872,42357.673330,43161.464412,0.036000,0.968000,0.162000,192.000000,0.000000,0.000000,0.000000,0.000000,0.000000,0.000000,0.000000,0.000000,0.000000,1646894758.951378,0.000000
4.000000,55714.874651,47281.337950,37008.878530,39865.856155,7332.579176,35926.070622,42364.669426,43173.221430,0.036000,0.968000,0.162000,192.000000,0.000000,0.000000,0.000000,0.000000,0.000000,0.000000,0.000000,0.000000,0.000000,1646894758.951382,0.000000
5.000000,55720.641401,47298.995829,37016.187551,39886.576222,7352.494580,35946.455413,42380.337999,43183.547936,0.036000,0.968000,0.162000,192.000000,0.000000,0.000000,0.000000,0.000000,0.000000,0.000000,0.000000,0.000000,0.000000,1646894758.958454,0.000000
6.000000,55720.574346,47297.587669,37011.985423,39889.772521,7352.919263,35946.678930,42379.980371,43165.823003,0.036000,0.968000,0.162000,192.000000,0.000000,0.000000,0.000000,0.000000,0.000000,0.000000,0.000000,0.000000,0.000000,1646894758.958458,0.000000
7.000000,55695.987427,47286.188279,36963.504489,39878.507242,7327.639440,35940.442793,42377.029941,43175.031921,0.032000,0.974000,0.162000,192.000000,1.000000,0.000000,30.000000,112.000000,5.000000,16.000000,0.000000,0.000000,0.000000,1646894758.965057,0.000000
8.000000,55702.983523,47295.419549,36984.649239,39891.046571,7341.139894,35934.251360,42375.331208,43173.512003,0.032000,0.974000,0.162000,192.000000,0.000000,0.000000,0.000000,0.000000,0.000000,0.000000,0.000000,0.000000,0.000000,1646894758.973058,0.000000
9.000000,55708.794976,47305.187262,36971.662876,39889.236079,7340.446990,35929.959825,42360.444946,43163.140793,0.032000,0.974000,0.162000,192.000000,0.000000,0.000000,0.000000,0.000000,0.000000,0.000000,0.000000,0.000000,0.000000,1646894758.973062,0.000000
10.000000,55732.934860,47328.410724,37048.329359,39901.842463,7367.202028,35951.573962,42385.858880,43207.017268,0.032000,0.974000,0.162000,192.000000,0.000000,0.000000,0.000000,0.000000,0.000000,0.000000,0.000000,0.000000,0.000000,1646894758.982534,0.000000
11.000000,55695.898020,47286.232982,36963.035102,39864.984437,7321.895042,35922.024956,42367.686912,43180.776320,0.032000,0.974000,0.162000,192.000000,0.000000,0.000000,0.000000,0.000000,0.000000,0.000000,0.000000,0.000000,0.000000,1646894758.982537,0.000000
12.000000,55701.843584,47271.123203,36963.392730,39874.126300,7322.945574,35916.928758,42361.651941,43147.203999,0.032000,0.974000,0.162000,192.000000,0.000000,0.000000,0.000000,0.000000,0.000000,0.000000,0.000000,0.000000,0.000000,1646894758.989030,0.000000
13.000000,55701.284790,47264.060052,37028.011623,39877.255544,7342.928033,35925.064793,42375.890002,43144.342976,0.032000,0.974000,0.162000,192.000000,0.000000,0.000000,0.000000,0.000000,0.000000,0.000000,0.000000,0.000000,0.000000,1646894758.989035,0.000000
14.000000,55711.901869,47272.129032,36994.931042,39881.882355,7343.531530,35949.517602,42395.626592,43210.437084,0.032000,0.974000,0.162000,192.000000,0.000000,0.000000,0.000000,0.000000,0.000000,0.000000,0.000000,0.000000,0.000000,1646894758.995611,0.000000
15.000000,55710.717226,47281.405006,36954.541439,39877.032027,7326.186577,35931.278578,42372.291371,43204.111541,0.032000,0.974000,0.162000,192.000000,0.000000,0.000000,0.000000,0.000000,0.000000,0.000000,0.000000,0.000000,0.000000,1646894758.995615,0.000000
16.000000,55714.226450,47295.598363,37037.041728,39887.380885,7347.107809,35933.647863,42365.228220,43183.547936,0.032000,0.974000,0.162000,192.000000,0.000000,0.000000,0.000000,0.000000,0.000000,0.000000,0.000000,0.000000,0.000000,1646894759.003657,0.000000
17.000000,55724.172977,47305.701352,37036.639397,39899.383771,7355.892045,35940.599256,42375.018284,43172.707340,0.042000,0.966000,0.162000,192.000000,1.000000,80.000000,30.000000,48.000000,5.000000,16.000000,0.000000,0.000000,0.000000,1646894759.003662,0.000000
18.000000,55734.320668,47305.209613,37035.342996,39898.623812,7356.674356,35950.054044,42397.638249,43180.508099,0.042000,0.966000,0.162000,192.000000,0.000000,0.000000,0.000000,0.000000,0.000000,0.000000,0.000000,0.000000,0.000000,1646894759.010739,0.000000
19.000000,55703.877593,47284.511898,37004.028202,39878.909573,7336.200158,35946.298950,42393.413769,43199.596488,0.042000,0.966000,0.162000,192.000000,0.000000,0.000000,0.000000,0.000000,0.000000,0.000000,0.000000,0.000000,0.000000,1646894759.010742,0.000000
20.000000,55690.779470,47271.838459,36967.304285,39868.851288,7315.234222,35930.272750,42368.469223,43176.730654,0.042000,0.966000,0.162000,192.000000,0.000000,0.000000,0.000000,0.000000,0.000000,0.000000,0.000000,0.000000,0.000000,1646894759.018367,0.000000
21.000000,55706.313933,47269.446822,36959.078843,39862.235172,7309.422768,35928.104630,42372.939571,43171.969732,0.042000,0.966000,0.162000,192.000000,0.000000,0.000000,0.000000,0.000000,0.000000,0.000000,0.000000,0.000000,0.000000,1646894759.018388,0.000000
22.000000,55708.102072,47289.429282,36949.489945,39880.273030,7322.744408,35945.986026,42381.746159,43189.247631,0.042000,0.966000,0.162000,192.000000,0.000000,0.000000,0.000000,0.000000,0.000000,0.000000,0.000000,0.000000,0.000000,1646894759.025322,0.000000
23.000000,55700.860107,47269.379767,36943.030291,39857.764823,7307.589925,35926.428250,42360.824926,43169.175764,0.042000,0.966000,0.162000,192.000000,0.000000,0.000000,0.000000,0.000000,0.000000,0.000000,0.000000,0.000000,0.000000,1646894759.033322,0.000000
24.000000,55730.476168,47274.274799,36978.077826,39868.001922,7315.569498,35930.004529,42365.697606,43163.543125,0.042000,0.966000,0.162000,192.000000,0.000000,0.000000,0.000000,0.000000,0.000000,0.000000,0.000000,0.000000,0.000000,1646894759.033326,0.000000
25.000000,55724.687067,47290.278648,37033.532504,39889.504300,7349.119466,35956.312532,42392.609107,43186.632477,0.042000,0.966000,0.162000,192.000000,0.000000,0.000000,0.000000,0.000000,0.000000,0.000000,0.000000,0.000000,0.000000,1646894759.041336,0.000000
26.000000,55718.875613,47291.083311,37043.054347,39892.700600,7347.040754,35944.264942,42367.128118,43170.159241,0.042000,0.966000,0.162000,192.000000,0.000000,0.000000,0.000000,0.000000,0.000000,0.000000,0.000000,0.000000,0.000000,1646894759.041340,0.000000
27.000000,55705.889250,47282.164965,37001.815379,39874.506280,7324.621955,35929.713956,42364.848240,43161.754985,0.050000,0.972000,0.154000,192.000000,1.000000,144.000000,30.000000,96.000000,4.000000,208.000000,0.000000,0.000000,0.000000,1646894759.049336,0.000000
28.000000,55715.031113,47290.010427,37015.740516,39879.088387,7336.066048,35944.175535,42383.824871,43171.925029,0.050000,0.972000,0.154000,192.000000,0.000000,0.000000,0.000000,0.000000,0.000000,0.000000,0.000000,0.000000,0.000000,1646894759.049341,0.000000
29.000000,55710.918392,47281.986151,37008.051516,39873.142823,7335.529606,35943.817907,42374.347731,43170.360407,0.050000,0.972000,0.154000,192.000000,0.000000,0.000000,0.000000,0.000000,0.000000,0.000000,0.000000,0.000000,0.000000,1646894759.057312,0.000000
30.000000,55733.448950,47300.493395,37017.975690,39888.699637,7341.788094,35944.711977,42371.620819,43181.759796,0.050000,0.972000,0.154000,192.000000,0.000000,0.000000,0.000000,0.000000,0.000000,0.000000,0.000000,0.000000,0.000000,1646894759.057316,0.000000
31.000000,55697.328531,47263.992997,36963.213916,39854.456765,7305.600620,35918.538084,42356.287522,43163.185497,0.050000,0.972000,0.154000,192.000000,0.000000,0.000000,0.000000,0.000000,0.000000,0.000000,0.000000,0.000000,0.000000,1646894759.064484,0.000000
32.000000,55670.238217,47237.930863,36932.524971,39832.909683,7279.873762,35884.563432,42318.580129,43093.850385,0.050000,0.972000,0.154000,192.000000,0.000000,0.000000,0.000000,0.000000,0.000000,0.000000,0.000000,0.000000,0.000000,1646894759.064488,0.000000
33.000000,55687.337302,47253.778249,36916.051735,39851.104003,7291.228448,35900.522578,42329.823056,43102.768731,0.050000,0.972000,0.154000,192.000000,0.000000,0.000000,0.000000,0.000000,0.000000,0.000000,0.000000,0.000000,0.000000,1646894759.070854,0.000000
34.000000,55711.633648,47284.623657,36978.748379,39882.172928,7323.482016,35944.421404,42383.981333,43195.260250,0.050000,0.972000,0.154000,192.000000,0.000000,0.000000,0.000000,0.000000,0.000000,0.000000,0.000000,0.000000,0.000000,1646894759.070858,0.000000
35.000000,55728.173939,47289.406930,37052.062100,39882.239983,7342.816275,35938.766413,42370.257362,43183.078549,0.050000,0.972000,0.154000,192.000000,0.000000,0.000000,0.000000,0.000000,0.000000,0.000000,0.000000,0.000000,0.000000,1646894759.078540,0.000000
36.000000,55721.781340,47298.034703,37015.226426,39879.669533,7335.037867,35932.217351,42362.590714,43159.743328,0.050000,0.972000,0.154000,192.000000,0.000000,0.000000,0.000000,0.000000,0.000000,0.000000,0.000000,0.000000,0.000000,1646894759.078544,0.000000
37.000000,55721.110788,47291.820919,37004.788161,39881.390617,7336.803655,35937.514715,42383.355484,43151.696700,0.042000,0.972000,0.156000,192.000000,1.000000,80.000000,30.000000,96.000000,4.000000,224.000000,0.000000,0.000000,0.000000,1646894759.085522,0.000000
38.000000,55710.225488,47272.643122,37019.495609,39876.495585,7339.619975,35943.817907,42380.069778,43171.030959,0.042000,0.972000,0.156000,192.000000,0.000000,0.000000,0.000000,0.000000,0.000000,0.000000,0.000000,0.000000,0.000000,1646894759.085544,0.000000
39.000000,55687.091432,47256.907494,36971.707579,39858.502431,7312.619068,35922.606101,42351.459545,43150.847334,0.042000,0.972000,0.156000,192.000000,0.000000,0.000000,0.000000,0.000000,0.000000,0.000000,0.000000,0.000000,0.000000,1646894759.092681,0.000000
40.000000,55685.929142,47263.009520,36958.520050,39860.625846,7306.762911,35918.135752,42343.457621,43145.102935,0.042000,0.972000,0.156000,192.000000,0.000000,0.000000,0.000000,0.000000,0.000000,0.000000,0.000000,0.000000,0.000000,1646894759.100250,0.000000
41.000000,55688.343130,47279.885087,37022.826019,39881.591783,7337.988298,35949.607009,42377.901659,43180.753968,0.042000,0.972000,0.156000,192.000000,0.000000,0.000000,0.000000,0.000000,0.000000,0.000000,0.000000,0.000000,0.000000,1646894759.100254,0.000000
42.000000,55698.557877,47281.159136,37005.972803,39875.087425,7329.204062,35940.375738,42369.698569,43155.742366,0.042000,0.972000,0.156000,192.000000,0.000000,0.000000,0.000000,0.000000,0.000000,0.000000,0.000000,0.000000,0.000000,1646894759.108175,0.000000
43.000000,55705.710436,47284.489546,36968.667742,39876.652047,7320.397475,35947.505945,42378.885136,43175.121328,0.042000,0.972000,0.156000,192.000000,0.000000,0.000000,0.000000,0.000000,0.000000,0.000000,0.000000,0.000000,0.000000,1646894759.108179,0.000000
44.000000,55710.247840,47286.881183,36981.140015,39875.959143,7319.883385,35946.924799,42387.781130,43183.592639,0.042000,0.972000,0.156000,192.000000,0.000000,0.000000,0.000000,0.000000,0.000000,0.000000,0.000000,0.000000,0.000000,1646894759.116253,0.000000
45.000000,55702.201212,47284.824823,37015.002908,39874.193355,7329.807559,35940.554552,42369.944438,43155.317683,0.042000,0.972000,0.156000,192.000000,0.000000,0.000000,0.000000,0.000000,0.000000,0.000000,0.000000,0.000000,0.000000,1646894759.116257,0.000000
46.000000,55671.668729,47251.520723,36946.472460,39838.855247,7292.100166,35915.542950,42346.810382,43141.727822,0.042000,0.972000,0.156000,192.000000,0.000000,0.000000,0.000000,0.000000,0.000000,0.000000,0.000000,0.000000,0.000000,1646894759.124129,0.000000
47.000000,55679.558895,47249.509066,36984.515129,39843.191486,7299.945629,35918.202808,42333.555798,43134.910540,0.040000,0.970000,0.158000,192.000000,1.000000,64.000000,30.000000,80.000000,4.000000,240.000000,0.000000,0.000000,0.000000,1646894759.124133,0.000000
48.000000,55716.372218,47285.718892,37004.184664,39874.685094,7328.309992,35952.535087,42360.556705,43170.807442,0.040000,0.970000,0.158000,192.000000,0.000000,0.000000,0.000000,0.000000,0.000000,0.000000,0.000000,0.000000,0.000000,1646894759.132260,0.000000
49.000000,55724.664715,47296.850061,37031.811420,39897.662687,7352.181655,35971.444663,42382.126138,43195.103788,0.040000,0.970000,0.158000,192.000000,0.000000,0.000000,0.000000,0.000000,0.000000,0.000000,0.000000,0.000000,0.000000,1646894759.132264,0.000000
50.000000,55693.707549,47286.143575,37012.186588,39882.754073,7339.374106,35966.259058,42396.811235,43185.626648,0.040000,0.970000,0.158000,192.000000,0.000000,0.000000,0.000000,0.000000,0.000000,0.000000,0.000000,0.000000,0.000000,1646894759.140181,0.000000
51.000000,55694.467508,47282.254372,37020.724955,39873.612210,7334.412019,35960.805233,42391.782092,43193.583869,0.040000,0.970000,0.158000,192.000000,0.000000,0.000000,0.000000,0.000000,0.000000,0.000000,0.000000,0.000000,0.000000,1646894759.140185,0.000000
52.000000,55706.269229,47275.370035,36999.289632,39866.057320,7325.873652,35948.109442,42375.018284,43172.997913,0.040000,0.970000,0.158000,192.000000,0.000000,0.000000,0.000000,0.000000,0.000000,0.000000,0.000000,0.000000,0.000000,1646894759.147350,0.000000
53.000000,55699.831927,47270.184430,37003.715277,39867.264315,7325.739542,35946.388357,42368.804499,43156.390566,0.040000,0.970000,0.158000,192.000000,0.000000,0.000000,0.000000,0.000000,0.000000,0.000000,0.000000,0.000000,0.000000,1646894759.147377,0.000000
54.000000,55697.909677,47273.000750,37002.955318,39873.142823,7326.700667,35946.142488,42362.858935,43149.461526,0.040000,0.970000,0.158000,192.000000,0.000000,0.000000,0.000000,0.000000,0.000000,0.000000,0.000000,0.000000,0.000000,1646894759.153540,0.000000
55.000000,55692.187630,47278.722796,37006.844521,39878.171966,7329.606394,35955.552573,42377.499327,43169.354578,0.040000,0.970000,0.158000,192.000000,0.000000,0.000000,0.000000,0.000000,0.000000,0.000000,0.000000,0.000000,0.000000,1646894759.160530,0.000000
56.000000,55699.273133,47286.031817,37009.437324,39871.108815,7326.745370,35949.964637,42368.491574,43148.858029,0.040000,0.970000,0.158000,192.000000,0.000000,0.000000,0.000000,0.000000,0.000000,0.000000,0.000000,0.000000,0.000000,1646894759.160534,0.000000
57.000000,55701.865936,47284.958933,37009.951414,39872.226402,7329.382876,35957.944209,42376.158223,43172.126194,0.036000,0.966000,0.160000,192.000000,1.000000,32.000000,30.000000,48.000000,5.000000,0.000000,0.000000,0.000000,0.000000,1646894759.168535,0.000000
58.000000,55701.195383,47273.693654,37010.063173,39872.226402,7333.383838,35971.019980,42397.012400,43230.017213,0.036000,0.966000,0.160000,192.000000,0.000000,0.000000,0.000000,0.000000,0.000000,0.000000,0.000000,0.000000,0.000000,1646894759.168561,0.000000
59.000000,55701.217735,47271.704349,37008.230330,39868.828937,7328.265289,35957.832451,42374.615952,43184.933744,0.036000,0.966000,0.160000,192.000000,0.000000,0.000000,0.000000,0.000000,0.000000,0.000000,0.000000,0.000000,0.000000,1646894759.175562,0.000000
60.000000,55703.944648,47276.085290,37013.371231,39877.143786,7332.713286,35956.647808,42372.626647,43168.885192,0.036000,0.966000,0.160000,192.000000,0.000000,0.000000,0.000000,0.000000,0.000000,0.000000,0.000000,0.000000,0.000000,1646894759.175565,0.000000
61.000000,55703.609372,47272.576067,37011.538388,39875.780329,7335.015516,35959.955866,42388.026999,43178.854070,0.036000,0.966000,0.160000,192.000000,0.000000,0.000000,0.000000,0.000000,0.000000,0.000000,0.000000,0.000000,0.000000,1646894759.183024,0.000000
62.000000,55702.312970,47281.293247,37012.454809,39874.930963,7333.294431,35958.190079,42375.912354,43169.756910,0.036000,0.966000,0.160000,192.000000,0.000000,0.000000,0.000000,0.000000,0.000000,0.000000,0.000000,0.000000,0.000000,1646894759.183029,0.000000
63.000000,55706.716264,47280.108604,37009.929062,39872.472271,7331.282774,35954.367930,42360.221429,43149.193305,0.036000,0.966000,0.160000,192.000000,0.000000,0.000000,0.000000,0.000000,0.000000,0.000000,0.000000,0.000000,0.000000,1646894759.191105,0.000000
64.000000,55713.980581,47290.680980,37019.763830,39878.551946,7339.888196,35962.883945,42366.546973,43160.704453,0.036000,0.966000,0.160000,192.000000,0.000000,0.000000,0.000000,0.000000,0.000000,0.000000,0.000000,0.000000,0.000000,1646894759.191109,0.000000
65.000000,55703.810537,47295.441901,37026.469353,39881.301210,7344.336193,35971.690532,42382.461415,43177.021227,0.036000,0.966000,0.160000,192.000000,0.000000,0.000000,0.000000,0.000000,0.000000,0.000000,0.000000,0.000000,0.000000,1646894759.199106,0.000000
66.000000,55693.998121,47289.652799,37024.614158,39878.484890,7339.552920,35963.018055,42376.202926,43159.028072,0.036000,0.966000,0.160000,192.000000,0.000000,0.000000,0.000000,0.000000,0.000000,0.000000,0.000000,0.000000,0.000000,1646894759.199110,0.000000
67.000000,55684.900962,47282.522593,37009.996117,39868.001922,7330.522815,35954.099709,42370.145603,43158.044595,0.018000,0.964000,0.162000,192.000000,0.000000,144.000000,30.000000,32.000000,5.000000,16.000000,0.000000,0.000000,0.000000,1646894759.207121,0.000000
68.000000,55681.838773,47276.644084,37004.408181,39863.285704,7324.107864,35948.578828,42356.578095,43149.930912,0.018000,0.964000,0.162000,192.000000,0.000000,0.000000,0.000000,0.000000,0.000000,0.000000,0.000000,0.000000,0.000000,1646894759.207125,0.000000
69.000000,55688.521944,47280.019197,37005.458713,39867.554887,7326.790074,35954.792613,42369.162127,43168.684026,0.018000,0.964000,0.162000,192.000000,0.000000,0.000000,0.000000,0.000000,0.000000,0.000000,0.000000,0.000000,0.000000,1646894759.214225,0.000000
70.000000,55686.979674,47280.622695,37001.077771,39864.313884,7327.550033,35956.781919,42378.728673,43189.001762,0.018000,0.964000,0.162000,192.000000,0.000000,0.000000,0.000000,0.000000,0.000000,0.000000,0.000000,0.000000,0.000000,1646894759.222136,0.000000
71.000000,55696.277999,47287.618791,37012.812437,39869.745358,7332.243899,35961.364026,42390.239822,43186.252497,0.018000,0.964000,0.162000,192.000000,0.000000,0.000000,0.000000,0.000000,0.000000,0.000000,0.000000,0.000000,0.000000,1646894759.222140,0.000000
72.000000,55686.890267,47281.226192,37004.721106,39865.699692,7325.024286,35950.702244,42375.666484,43169.175764,0.018000,0.964000,0.162000,192.000000,0.000000,0.000000,0.000000,0.000000,0.000000,0.000000,0.000000,0.000000,0.000000,1646894759.229186,0.000000
73.000000,55684.185706,47285.048340,37001.658917,39856.624884,7322.319725,35949.517602,42377.499327,43174.942514,0.018000,0.964000,0.162000,192.000000,0.000000,0.000000,0.000000,0.000000,0.000000,0.000000,0.000000,0.000000,0.000000,1646894759.229190,0.000000
74.000000,55683.246932,47287.037645,37003.849388,39866.482004,7326.231280,35953.876192,42379.488633,43195.595526,0.018000,0.964000,0.162000,192.000000,0.000000,0.000000,0.000000,0.000000,0.000000,0.000000,0.000000,0.000000,0.000000,1646894759.235536,0.000000
75.000000,55680.832944,47292.357360,37002.552986,39871.667608,7326.924184,35954.770262,42376.404092,43193.360352,0.018000,0.964000,0.162000,192.000000,0.000000,0.000000,0.000000,0.000000,0.000000,0.000000,0.000000,0.000000,0.000000,1646894759.235557,0.000000
76.000000,55687.896095,47303.197956,37004.721106,39871.533498,7330.388705,35947.863573,42370.056196,43166.560610,0.018000,0.964000,0.162000,192.000000,0.000000,0.000000,0.000000,0.000000,0.000000,0.000000,0.000000,0.000000,0.000000,1646894759.243312,0.000000
77.000000,55678.798935,47284.981285,37002.888263,39866.817280,7325.314859,35940.800421,42360.690816,43166.202982,0.018000,0.964000,0.162000,192.000000,0.000000,0.000000,0.000000,0.000000,0.000000,0.000000,0.000000,0.000000,0.000000,1646894759.243316,0.000000
78.000000,55681.794069,47281.159136,37003.491760,39868.694826,7327.930013,35947.394186,42370.235010,43194.254422,0.022000,0.962000,0.172000,192.000000,0.000000,176.000000,30.000000,16.000000,5.000000,96.000000,0.000000,0.000000,0.000000,1646894759.251351,0.000000
79.000000,55684.789203,47285.160099,37008.118571,39872.405216,7331.014553,35953.205640,42396.520662,43198.121273,0.022000,0.962000,0.172000,192.000000,0.000000,0.000000,0.000000,0.000000,0.000000,0.000000,0.000000,0.000000,0.000000,1646894759.251356,0.000000
80.000000,55669.411203,47277.828727,36998.082638,39863.129242,7323.303202,35940.286331,42376.582906,43181.133948,0.022000,0.962000,0.172000,192.000000,0.000000,0.000000,0.000000,0.000000,0.000000,0.000000,0.000000,0.000000,0.000000,1646894759.257935,0.000000
81.000000,55666.505476,47278.186354,36991.533576,39852.355701,7312.395550,35936.486535,42366.591676,43202.144587,0.022000,0.962000,0.172000,192.000000,0.000000,0.000000,0.000000,0.000000,0.000000,0.000000,0.000000,0.000000,0.000000,1646894759.257952,0.000000
82.000000,55678.620121,47284.869526,37004.832864,39855.484945,7321.246841,35943.974369,42378.773377,43204.849148,0.022000,0.962000,0.172000,192.000000,0.000000,0.000000,0.000000,0.000000,0.000000,0.000000,0.000000,0.000000,0.000000,1646894759.266001,0.000000
83.000000,55671.445211,47277.359340,37001.390696,39856.110794,7319.659867,35932.440869,42382.126138,43161.754985,0.022000,0.962000,0.172000,192.000000,0.000000,0.000000,0.000000,0.000000,0.000000,0.000000,0.000000,0.000000,0.000000,1646894759.266005,0.000000
84.000000,55677.837810,47283.148442,37004.117609,39865.543230,7326.745370,35935.994796,42391.290354,43163.878401,0.022000,0.962000,0.172000,192.000000,0.000000,0.000000,0.000000,0.000000,0.000000,0.000000,0.000000,0.000000,0.000000,1646894759.272935,0.000000
85.000000,55674.686214,47285.025988,36997.412085,39854.188544,7323.526719,35933.111421,42375.532374,43181.133948,0.022000,0.962000,0.172000,192.000000,0.000000,0.000000,0.000000,0.000000,0.000000,0.000000,0.000000,0.000000,0.000000,1646894759.281154,0.000000
86.000000,55684.766851,47284.109567,37000.250757,39861.139937,7329.718152,35943.862610,42379.712150,43214.616861,0.022000,0.962000,0.172000,192.000000,0.000000,0.000000,0.000000,0.000000,0.000000,0.000000,0.000000,0.000000,0.000000,1646894759.281158,0.000000
87.000000,55688.209020,47287.216459,37010.241987,39870.170041,7337.653022,35953.049177,42396.297144,43228.787867,0.022000,0.962000,0.172000,192.000000,0.000000,0.000000,0.000000,0.000000,0.000000,0.000000,0.000000,0.000000,0.000000,1646894759.289034,0.000000
88.000000,55674.596807,47282.790814,36998.194396,39862.324579,7328.198234,35941.850953,42387.714075,43205.676163,0.020000,0.966000,0.178000,192.000000,0.000000,160.000000,30.000000,48.000000,5.000000,144.000000,0.000000,0.000000,0.000000,1646894759.289038,0.000000
89.000000,55682.866953,47292.849099,37013.237120,39873.187527,7339.396458,35949.450546,42389.211641,43208.403076,0.020000,0.966000,0.178000,192.000000,0.000000,0.000000,0.000000,0.000000,0.000000,0.000000,0.000000,0.000000,0.000000,1646894759.297183,0.000000
90.000000,55679.268322,47287.283514,37015.673460,39870.550021,7344.023269,35951.953942,42380.136833,43198.702419,0.020000,0.966000,0.178000,192.000000,0.000000,0.000000,0.000000,0.000000,0.000000,0.000000,0.000000,0.000000,0.000000,1646894759.297192,0.000000
91.000000,55671.981653,47274.341854,37000.831902,39855.529649,7334.926109,35943.817907,42384.584830,43188.040637,0.020000,0.966000,0.178000,192.000000,0.000000,0.000000,0.000000,0.000000,0.000000,0.000000,0.000000,0.000000,0.000000,1646894759.305439,0.000000
92.000000,55667.757174,47270.117375,36997.680306,39845.314902,7327.862957,35936.486535,42378.214583,43172.595581,0.020000,0.966000,0.178000,192.000000,0.000000,0.000000,0.000000,0.000000,0.000000,0.000000,0.000000,0.000000,0.000000,1646894759.305457,0.000000
93.000000,55664.963205,47273.134860,37001.994193,39847.639483,7324.979582,35931.166819,42364.132984,43144.745308,0.020000,0.966000,0.178000,192.000000,0.000000,0.000000,0.000000,0.000000,0.000000,0.000000,0.000000,0.000000,0.000000,1646894759.311822,0.000000
94.000000,55668.763002,47276.152346,37002.217710,39847.371262,7324.197271,35934.139601,42359.886153,43163.945456,0.020000,0.966000,0.178000,192.000000,0.000000,0.000000,0.000000,0.000000,0.000000,0.000000,0.000000,0.000000,0.000000,1646894759.311833,0.000000
95.000000,55671.065232,47274.319503,36996.339201,39848.868829,7326.387742,35941.962712,42364.490612,43210.571195,0.020000,0.966000,0.178000,192.000000,0.000000,0.000000,0.000000,0.000000,0.000000,0.000000,0.000000,0.000000,0.000000,1646894759.318698,0.000000
96.000000,55667.421897,47265.915247,36994.752228,39847.438317,7327.080646,35945.494288,42385.702418,43216.405000,0.020000,0.966000,0.178000,192.000000,0.000000,0.000000,0.000000,0.000000,0.000000,0.000000,0.000000,0.000000,0.000000,1646894759.318715,0.000000
97.000000,55671.400508,47278.789852,37013.103010,39856.647236,7337.876539,35958.324189,42400.454569,43217.835512,0.020000,0.966000,0.178000,192.000000,0.000000,0.000000,0.000000,0.000000,0.000000,0.000000,0.000000,0.000000,0.000000,1646894759.326549,0.000000
98.000000,55668.092450,47281.919096,37014.980556,39861.810489,7341.698687,35961.475785,42392.787921,43210.682954,0.022000,0.970000,0.184000,192.000000,0.000000,176.000000,30.000000,80.000000,5.000000,192.000000,0.000000,0.000000,0.000000,1646894759.326562,0.000000
99.000000,55669.522961,47283.796642,37014.466466,39861.944599,7347.241920,35958.145375,42391.402112,43196.891927,0.022000,0.970000,0.184000,192.000000,0.000000,0.000000,0.000000,0.000000,0.000000,0.000000,0.000000,0.000000,0.000000,1646894759.333715,0.000000
100.000000,55667.824229,47282.544945,37008.655013,39853.741509,7339.463513,35946.880096,42383.020208,43169.801613,0.022000,0.970000,0.184000,192.000000,0.000000,0.000000,0.000000,0.000000,0.000000,0.000000,0.000000,0.000000,0.000000,1646894759.333727,0.000000
101.000000,55666.259607,47284.869526,37010.443152,39857.049567,7338.949423,35953.183288,42385.009513,43189.515852,0.022000,0.970000,0.184000,192.000000,0.000000,0.000000,0.000000,0.000000,0.000000,0.000000,0.000000,0.000000,0.000000,1646894759.340989,0.000000
102.000000,55664.024432,47274.140689,37006.978632,39856.781346,7335.775475,35953.138584,42377.454624,43205.765570,0.022000,0.970000,0.184000,192.000000,0.000000,0.000000,0.000000,0.000000,0.000000,0.000000,0.000000,0.000000,0.000000,1646894759.348304,0.000000
103.000000,55663.353880,47277.314636,37008.811475,39860.871716,7337.608318,35953.183288,42375.934705,43196.221375,0.022000,0.970000,0.184000,192.000000,0.000000,0.000000,0.000000,0.000000,0.000000,0.000000,0.000000,0.000000,0.000000,1646894759.348321,0.000000
104.000000,55667.824229,47277.381692,37007.962109,39857.854230,7339.865844,35948.779994,42365.205868,43179.748139,0.022000,0.970000,0.184000,192.000000,0.000000,0.000000,0.000000,0.000000,0.000000,0.000000,0.000000,0.000000,0.000000,1646894759.356360,0.000000
105.000000,55670.640549,47277.381692,37002.038896,39856.311960,7336.043696,35942.297988,42363.820060,43158.737500,0.022000,0.970000,0.184000,192.000000,0.000000,0.000000,0.000000,0.000000,0.000000,0.000000,0.000000,0.000000,0.000000,1646894759.356378,0.000000
106.000000,55659.464676,47271.145555,36997.546196,39848.041814,7328.667620,35945.404881,42384.830700,43191.415750,0.022000,0.970000,0.184000,192.000000,0.000000,0.000000,0.000000,0.000000,0.000000,0.000000,0.000000,0.000000,0.000000,1646894759.364280,0.000000
107.000000,55654.077906,47276.867601,36998.350858,39847.259503,7329.673449,35947.282427,42378.594563,43214.326288,0.022000,0.970000,0.184000,192.000000,0.000000,0.000000,0.000000,0.000000,0.000000,0.000000,0.000000,0.000000,0.000000,1646894759.364293,0.000000
108.000000,55650.412220,47280.622695,36998.864949,39846.678358,7326.633612,35944.935494,42375.912354,43201.630497,0.020000,0.978000,0.182000,192.000000,0.000000,160.000000,30.000000,144.000000,5.000000,176.000000,0.000000,0.000000,0.000000,1646894759.370946,0.000000
109.000000,55652.110952,47276.353511,36994.685172,39849.315864,7324.487844,35938.386433,42366.457566,43183.212660,0.020000,0.978000,0.182000,192.000000,0.000000,0.000000,0.000000,0.000000,0.000000,0.000000,0.000000,0.000000,0.000000,1646894759.370963,0.000000
110.000000,55657.251854,47271.503183,36998.932004,39855.864925,7332.132141,35949.271732,42374.750063,43191.594564,0.020000,0.978000,0.182000,192.000000,0.000000,0.000000,0.000000,0.000000,0.000000,0.000000,0.000000,0.000000,0.000000,1646894759.378965,0.000000
111.000000,55653.608519,47268.262180,36994.439303,39852.400405,7328.779379,35947.617703,42372.850165,43188.890003,0.020000,0.978000,0.182000,192.000000,0.000000,0.000000,0.000000,0.000000,0.000000,0.000000,0.000000,0.000000,0.000000,1646894759.378981,0.000000
112.000000,55658.861179,47271.637293,36993.567585,39852.020425,7326.208928,35943.147355,42373.096034,43185.425482,0.020000,0.978000,0.182000,192.000000,0.000000,0.000000,0.000000,0.000000,0.000000,0.000000,0.000000,0.000000,0.000000,1646894759.386888,0.000000
113.000000,55662.280996,47273.291322,36993.433475,39846.544247,7326.812425,35942.409747,42361.830754,43183.100901,0.020000,0.978000,0.182000,192.000000,0.000000,0.000000,0.000000,0.000000,0.000000,0.000000,0.000000,0.000000,0.000000,1646894759.386899,0.000000
114.000000,55663.890322,47279.929790,36997.792065,39855.641407,7333.249728,35947.483593,42377.432272,43185.313724,0.020000,0.978000,0.182000,192.000000,0.000000,0.000000,0.000000,0.000000,0.000000,0.000000,0.000000,0.000000,0.000000,1646894759.393433,0.000000
115.000000,55660.291691,47281.650875,37000.362515,39853.115660,7334.277908,35945.650750,42381.880269,43166.672369,0.020000,0.978000,0.182000,192.000000,0.000000,0.000000,0.000000,0.000000,0.000000,0.000000,0.000000,0.000000,0.000000,1646894759.393451,0.000000
116.000000,55659.285862,47277.694616,37002.597690,39851.573390,7334.099094,35943.482631,42372.023150,43148.858029,0.020000,0.978000,0.182000,192.000000,0.000000,0.000000,0.000000,0.000000,0.000000,0.000000,0.000000,0.000000,0.000000,1646894759.400573,0.000000
117.000000,55655.575473,47268.396290,36995.668649,39852.489811,7331.483940,35951.395148,42370.614990,43215.868558,0.020000,0.978000,0.182000,192.000000,0.000000,0.000000,0.000000,0.000000,0.000000,0.000000,0.000000,0.000000,0.000000,1646894759.408701,0.000000
118.000000,55662.504514,47280.600343,37000.496626,39859.284742,7334.546129,35953.764433,42368.603333,43213.700439,0.022000,0.966000,0.184000,192.000000,0.000000,176.000000,30.000000,48.000000,5.000000,192.000000,0.000000,0.000000,0.000000,1646894759.408717,0.000000
119.000000,55657.095391,47290.211593,36997.970879,39857.161326,7331.707458,35942.096823,42350.923103,43168.795785,0.022000,0.966000,0.184000,192.000000,0.000000,0.000000,0.000000,0.000000,0.000000,0.000000,0.000000,0.000000,0.000000,1646894759.416505,0.000000
120.000000,55648.087638,47274.878296,36985.431550,39843.079727,7323.124388,35937.447660,42364.132984,43162.783165,0.022000,0.966000,0.184000,192.000000,0.000000,0.000000,0.000000,0.000000,0.000000,0.000000,0.000000,0.000000,0.000000,1646894759.416521,0.000000
121.000000,55657.497723,47270.877334,36989.477216,39849.159402,7325.851300,35943.125003,42362.881286,43174.316665,0.022000,0.966000,0.184000,192.000000,0.000000,0.000000,0.000000,0.000000,0.000000,0.000000,0.000000,0.000000,0.000000,1646894759.423243,0.000000
122.000000,55667.600711,47282.008503,37000.049591,39857.653064,7336.580138,35956.491346,42373.297199,43196.333134,0.022000,0.966000,0.184000,192.000000,0.000000,0.000000,0.000000,0.000000,0.000000,0.000000,0.000000,0.000000,0.000000,1646894759.423261,0.000000
123.000000,55666.460772,47280.488584,36998.395562,39859.821184,7337.049524,35961.676951,42374.459490,43198.367142,0.022000,0.966000,0.184000,192.000000,0.000000,0.000000,0.000000,0.000000,0.000000,0.000000,0.000000,0.000000,0.000000,1646894759.431264,0.000000
124.000000,55662.370403,47279.125128,37000.407219,39860.067053,7338.055353,35959.352369,42364.132984,43181.625686,0.022000,0.966000,0.184000,192.000000,0.000000,0.000000,0.000000,0.000000,0.000000,0.000000,0.000000,0.000000,0.000000,1646894759.431280,0.000000
125.000000,55662.348051,47272.240790,36996.383905,39853.741509,7336.334269,35957.832451,42360.914333,43169.600447,0.022000,0.966000,0.184000,192.000000,0.000000,0.000000,0.000000,0.000000,0.000000,0.000000,0.000000,0.000000,0.000000,1646894759.439254,0.000000
126.000000,55648.244101,47261.735471,36967.818376,39831.993262,7311.412074,35932.686738,42337.757926,43148.500401,0.022000,0.966000,0.184000,192.000000,0.000000,0.000000,0.000000,0.000000,0.000000,0.000000,0.000000,0.000000,0.000000,1646894759.439271,0.000000
127.000000,55644.533711,47266.831668,36986.057399,39837.804715,7317.290582,35940.733366,42347.905618,43168.974599,0.022000,0.966000,0.184000,192.000000,0.000000,0.000000,0.000000,0.000000,0.000000,0.000000,0.000000,0.000000,0.000000,1646894759.446357,0.000000
128.000000,55653.787333,47264.730604,37000.898957,39847.550076,7329.874614,35953.652674,42360.042615,43183.145605,0.022000,0.970000,0.192000,192.000000,0.000000,176.000000,30.000000,80.000000,6.000000,0.000000,0.000000,0.000000,0.000000,1646894759.446373,0.000000
129.000000,55655.866045,47265.110584,36996.942699,39848.108870,7330.232242,35953.764433,42352.510077,43181.558631,0.022000,0.970000,0.192000,192.000000,0.000000,0.000000,0.000000,0.000000,0.000000,0.000000,0.000000,0.000000,0.000000,1646894759.454611,0.000000
130.000000,55648.981708,47260.729642,36981.341181,39835.480134,7324.621955,35940.062814,42334.561626,43155.630607,0.022000,0.970000,0.192000,192.000000,0.000000,0.000000,0.000000,0.000000,0.000000,0.000000,0.000000,0.000000,0.000000,1646894759.454629,0.000000
131.000000,55641.292708,47262.316616,36977.519033,39835.234265,7322.587946,35944.466107,42354.164106,43171.053311,0.022000,0.970000,0.192000,192.000000,0.000000,0.000000,0.000000,0.000000,0.000000,0.000000,0.000000,0.000000,0.000000,1646894759.461737,0.000000
132.000000,55637.358801,47262.987168,36978.860137,39839.481096,7321.492710,35945.159012,42354.521734,43166.158279,0.022000,0.970000,0.192000,192.000000,0.000000,0.000000,0.000000,0.000000,0.000000,0.000000,0.000000,0.000000,0.000000,1646894759.468298,0.000000
133.000000,55650.479275,47269.335064,36991.488873,39848.175925,7331.193367,35950.165802,42357.986254,43170.449814,0.022000,0.970000,0.192000,192.000000,0.000000,0.000000,0.000000,0.000000,0.000000,0.000000,0.000000,0.000000,0.000000,1646894759.468315,0.000000
134.000000,55647.998231,47262.674244,36979.597745,39846.074861,7328.019420,35948.847049,42366.614028,43164.616008,0.022000,0.970000,0.192000,192.000000,0.000000,0.000000,0.000000,0.000000,0.000000,0.000000,0.000000,0.000000,0.000000,1646894759.476189,0.000000
135.000000,55636.867063,47251.632482,36951.255733,39831.792096,7310.607411,35933.044366,42353.806478,43176.283619,0.022000,0.970000,0.192000,192.000000,0.000000,0.000000,0.000000,0.000000,0.000000,0.000000,0.000000,0.000000,0.000000,1646894759.476207,0.000000
136.000000,55639.392810,47251.096040,36944.058471,39824.371317,7301.174975,35918.649843,42333.935777,43157.396395,0.022000,0.970000,0.192000,192.000000,0.000000,0.000000,0.000000,0.000000,0.000000,0.000000,0.000000,0.000000,0.000000,1646894759.484041,0.000000
137.000000,55651.686269,47266.429337,36970.254716,39841.001015,7320.151606,35929.132811,42329.443077,43144.745308,0.022000,0.970000,0.192000,192.000000,0.000000,0.000000,0.000000,0.000000,0.000000,0.000000,0.000000,0.000000,0.000000,1646894759.484053,0.000000
138.000000,55648.869949,47275.973532,36998.082638,39850.165230,7336.088399,35939.727538,42337.132077,43152.814287,0.022000,0.966000,0.194000,192.000000,0.000000,176.000000,30.000000,48.000000,6.000000,16.000000,0.000000,0.000000,0.000000,1646894759.490704,0.000000
139.000000,55645.561891,47275.526497,36990.483044,39845.091384,7331.796864,35941.381567,42358.902676,43157.441098,0.022000,0.966000,0.194000,192.000000,0.000000,0.000000,0.000000,0.000000,0.000000,0.000000,0.000000,0.000000,0.000000,1646894759.490721,0.000000
140.000000,55652.222711,47277.694616,36991.958260,39847.863000,7333.070914,35943.862610,42360.780223,43177.267096,0.022000,0.966000,0.194000,192.000000,0.000000,0.000000,0.000000,0.000000,0.000000,0.000000,0.000000,0.000000,0.000000,1646894759.498837,0.000000
141.000000,55649.026412,47276.331160,36988.985478,39847.192448,7332.400362,35944.980198,42358.567400,43184.732578,0.022000,0.966000,0.194000,192.000000,0.000000,0.000000,0.000000,0.000000,0.000000,0.000000,0.000000,0.000000,0.000000,1646894759.498854,0.000000
142.000000,55652.222711,47284.243677,36993.634640,39850.276989,7336.267213,35950.143451,42355.080528,43176.976523,0.022000,0.966000,0.194000,192.000000,0.000000,0.000000,0.000000,0.000000,0.000000,0.000000,0.000000,0.000000,0.000000,1646894759.506855,0.000000
143.000000,55647.372383,47276.219401,36983.442245,39846.656006,7332.333306,35949.763471,42364.445909,43189.471148,0.022000,0.966000,0.194000,192.000000,0.000000,0.000000,0.000000,0.000000,0.000000,0.000000,0.000000,0.000000,0.000000,1646894759.506872,0.000000
144.000000,55649.965185,47281.181488,37001.502454,39856.311960,7344.738525,35957.608933,42369.720920,43188.465320,0.022000,0.966000,0.194000,192.000000,0.000000,0.000000,0.000000,0.000000,0.000000,0.000000,0.000000,0.000000,0.000000,1646894759.513885,0.000000
145.000000,55652.334470,47283.126090,36985.498605,39857.876582,7338.569443,35954.613799,42366.569324,43179.211697,0.022000,0.966000,0.194000,192.000000,0.000000,0.000000,0.000000,0.000000,0.000000,0.000000,0.000000,0.000000,0.000000,1646894759.513897,0.000000
146.000000,55648.601729,47269.759747,36970.321771,39845.583122,7318.385818,35928.730479,42337.690870,43157.754023,0.022000,0.966000,0.194000,192.000000,0.000000,0.000000,0.000000,0.000000,0.000000,0.000000,0.000000,0.000000,0.000000,1646894759.521965,0.000000
147.000000,55648.758191,47274.900648,36996.227443,39854.792041,7336.088399,35952.088052,42348.687929,43164.526601,0.022000,0.966000,0.194000,192.000000,0.000000,0.000000,0.000000,0.000000,0.000000,0.000000,0.000000,0.000000,0.000000,1646894759.530036,0.000000
148.000000,55652.289766,47278.901610,36981.832919,39853.853268,7330.433408,35957.050140,42355.125231,43162.984331,0.020000,0.968000,0.190000,192.000000,0.000000,160.000000,30.000000,64.000000,5.000000,240.000000,0.000000,0.000000,0.000000,1646894759.530054,0.000000
149.000000,55664.113839,47286.098872,37006.911577,39857.742471,7340.558748,35956.558401,42358.746214,43151.473183,0.020000,0.968000,0.190000,192.000000,0.000000,0.000000,0.000000,0.000000,0.000000,0.000000,0.000000,0.000000,0.000000,1646894759.536270,0.000000
150.000000,55647.394734,47279.013369,36999.356687,39852.959198,7336.736600,35950.188154,42349.246722,43144.164162,0.020000,0.968000,0.190000,192.000000,0.000000,0.000000,0.000000,0.000000,0.000000,0.000000,0.000000,0.000000,0.000000,1646894759.536286,0.000000
151.000000,55646.746534,47276.912305,36993.969917,39854.456765,7333.070914,35953.630323,42359.617932,43189.784073,0.020000,0.968000,0.190000,192.000000,0.000000,0.000000,0.000000,0.000000,0.000000,0.000000,0.000000,0.000000,0.000000,1646894759.544755,0.000000
152.000000,55649.786371,47272.844287,36980.089483,39849.919361,7326.678315,35944.644921,42350.878400,43193.606221,0.020000,0.968000,0.190000,192.000000,0.000000,0.000000,0.000000,0.000000,0.000000,0.000000,0.000000,0.000000,0.000000,1646894759.544767,0.000000
153.000000,55657.520075,47284.735416,36997.322678,39855.127317,7339.776437,35955.597276,42369.095071,43196.623706,0.020000,0.968000,0.190000,192.000000,0.000000,0.000000,0.000000,0.000000,0.000000,0.000000,0.000000,0.000000,0.000000,1646894759.551291,0.000000
154.000000,55647.819417,47283.863698,36990.147768,39849.539381,7340.156417,35963.688608,42366.614028,43191.907488,0.020000,0.968000,0.190000,192.000000,0.000000,0.000000,0.000000,0.000000,0.000000,0.000000,0.000000,0.000000,0.000000,1646894759.551307,0.000000
155.000000,55650.233406,47285.629485,36985.386847,39861.408158,7339.642327,35963.241573,42356.645150,43182.631514,0.020000,0.968000,0.190000,192.000000,0.000000,0.000000,0.000000,0.000000,0.000000,0.000000,0.000000,0.000000,0.000000,1646894759.559126,0.000000
156.000000,55633.044914,47280.488584,36965.069111,39851.506335,7321.403303,35945.226067,42343.569379,43164.392491,0.020000,0.968000,0.190000,192.000000,0.000000,0.000000,0.000000,0.000000,0.000000,0.000000,0.000000,0.000000,0.000000,1646894759.559142,0.000000
157.000000,55633.626060,47271.681997,36982.034085,39856.803698,7328.757027,35956.983084,42363.685949,43159.408052,0.020000,0.968000,0.190000,192.000000,0.000000,0.000000,0.000000,0.000000,0.000000,0.000000,0.000000,0.000000,0.000000,1646894759.567097,0.000000
158.000000,55632.396714,47267.032834,36981.989382,39863.911553,7335.976641,35967.331942,42363.797708,43172.506174,0.026000,0.964000,0.200000,192.000000,0.000000,208.000000,30.000000,32.000000,6.000000,64.000000,0.000000,0.000000,0.000000,1646894759.567108,0.000000
159.000000,55633.581356,47268.284532,36982.212899,39859.664721,7331.819216,35962.392206,42356.734557,43193.092131,0.026000,0.964000,0.200000,192.000000,0.000000,0.000000,0.000000,0.000000,0.000000,0.000000,0.000000,0.000000,0.000000,1646894759.573729,0.000000
160.000000,55640.622156,47285.383616,36997.702658,39870.102986,7345.789057,35977.747855,42368.826851,43207.754875,0.026000,0.964000,0.200000,192.000000,0.000000,0.000000,0.000000,0.000000,0.000000,0.000000,0.000000,0.000000,0.000000,1646894759.573745,0.000000
161.000000,55635.771827,47274.565372,36987.018524,39861.944599,7337.295394,35966.057893,42361.584885,43190.879308,0.026000,0.964000,0.200000,192.000000,0.000000,0.000000,0.000000,0.000000,0.000000,0.000000,0.000000,0.000000,0.000000,1646894759.580834,0.000000
162.000000,55630.362705,47263.501258,36975.529727,39855.328483,7327.035943,35961.654599,42372.269019,43191.706323,0.026000,0.964000,0.200000,192.000000,0.000000,0.000000,0.000000,0.000000,0.000000,0.000000,0.000000,0.000000,0.000000,1646894759.580851,0.000000
163.000000,55631.659106,47272.933694,36979.642448,39860.223515,7331.662754,35971.981105,42381.679104,43205.318535,0.026000,0.964000,0.200000,192.000000,0.000000,0.000000,0.000000,0.000000,0.000000,0.000000,0.000000,0.000000,0.000000,1646894759.588801,0.000000
164.000000,55622.383132,47265.781136,36969.517108,39854.143841,7325.024286,35965.432044,42372.447833,43187.884174,0.026000,0.964000,0.200000,192.000000,0.000000,0.000000,0.000000,0.000000,0.000000,0.000000,0.000000,0.000000,0.000000,1646894759.596745,0.000000
165.000000,55623.634830,47269.871505,36971.618172,39857.362492,7325.761893,35959.531183,42362.322493,43179.792843,0.026000,0.964000,0.200000,192.000000,0.000000,0.000000,0.000000,0.000000,0.000000,0.000000,0.000000,0.000000,0.000000,1646894759.596773,0.000000
166.000000,55633.961336,47284.176622,36982.637582,39863.844498,7333.964984,35971.824643,42365.138813,43192.041599,0.026000,0.964000,0.200000,192.000000,0.000000,0.000000,0.000000,0.000000,0.000000,0.000000,0.000000,0.000000,0.000000,1646894759.603196,0.000000
167.000000,55639.191644,47283.014331,36980.760036,39856.267256,7330.209891,35966.996666,42355.482859,43164.973636,0.026000,0.964000,0.200000,192.000000,0.000000,0.000000,0.000000,0.000000,0.000000,0.000000,0.000000,0.000000,0.000000,1646894759.603212,0.000000
168.000000,55622.226670,47267.636331,36967.483099,39852.623922,7317.134120,35950.344616,42347.637397,43143.918293,0.024000,0.960000,0.200000,192.000000,0.000000,192.000000,30.000000,0.000000,6.000000,64.000000,0.000000,0.000000,0.000000,1646894759.611851,0.000000
169.000000,55628.127531,47268.485697,36980.067132,39860.245867,7328.153530,35967.868384,42364.937647,43182.586811,0.024000,0.960000,0.200000,192.000000,0.000000,0.000000,0.000000,0.000000,0.000000,0.000000,0.000000,0.000000,0.000000,1646894759.611867,0.000000
170.000000,55633.961336,47268.038662,36977.250812,39862.078710,7329.651097,35974.260983,42370.369121,43211.129989,0.024000,0.960000,0.200000,192.000000,0.000000,0.000000,0.000000,0.000000,0.000000,0.000000,0.000000,0.000000,0.000000,1646894759.619243,0.000000
171.000000,55630.496816,47267.412814,36971.752283,39856.379015,7324.800768,35968.136605,42360.064967,43205.877329,0.024000,0.960000,0.200000,192.000000,0.000000,0.000000,0.000000,0.000000,0.000000,0.000000,0.000000,0.000000,0.000000,1646894759.619254,0.000000
172.000000,55626.540557,47266.697558,36974.345085,39855.663759,7326.164225,35966.706093,42366.099938,43190.566384,0.024000,0.960000,0.200000,192.000000,0.000000,0.000000,0.000000,0.000000,0.000000,0.000000,0.000000,0.000000,0.000000,1646894759.628001,0.000000
173.000000,55625.624135,47273.224267,36978.726027,39862.011655,7328.891138,35967.376645,42366.144641,43174.204907,0.024000,0.960000,0.200000,192.000000,0.000000,0.000000,0.000000,0.000000,0.000000,0.000000,0.000000,0.000000,0.000000,1646894759.628018,0.000000
174.000000,55626.406446,47269.715043,36978.189585,39861.274047,7329.271117,35969.567116,42366.971656,43191.907488,0.024000,0.960000,0.200000,192.000000,0.000000,0.000000,0.000000,0.000000,0.000000,0.000000,0.000000,0.000000,0.000000,1646894759.634237,0.000000
175.000000,55625.490025,47260.327311,36978.636620,39855.820221,7323.683181,35956.871326,42356.935722,43179.636381,0.024000,0.960000,0.200000,192.000000,0.000000,0.000000,0.000000,0.000000,0.000000,0.000000,0.000000,0.000000,0.000000,1646894759.634254,0.000000
176.000000,55618.873908,47263.188334,36974.054512,39853.674454,7323.772588,35960.738177,42357.293350,43168.058177,0.024000,0.960000,0.200000,192.000000,0.000000,0.000000,0.000000,0.000000,0.000000,0.000000,0.000000,0.000000,0.000000,1646894759.641923,0.000000
177.000000,55625.110045,47274.923000,36978.927193,39858.882410,7329.829911,35969.991800,42360.646112,43192.935669,0.024000,0.960000,0.200000,192.000000,0.000000,0.000000,0.000000,0.000000,0.000000,0.000000,0.000000,0.000000,0.000000,1646894759.641934,0.000000
178.000000,55615.655257,47252.168924,36962.811585,39838.967006,7313.535489,35944.354349,42334.248702,43149.617988,0.024000,0.964000,0.188000,192.000000,0.000000,192.000000,30.000000,32.000000,5.000000,224.000000,0.000000,0.000000,0.000000,1646894759.649126,0.000000
179.000000,55626.942888,47256.818087,36974.881527,39844.532590,7319.816329,35949.405843,42350.274903,43139.202075,0.024000,0.964000,0.188000,192.000000,0.000000,0.000000,0.000000,0.000000,0.000000,0.000000,0.000000,0.000000,0.000000,1646894759.655698,0.000000
180.000000,55612.615420,47247.072726,36966.343160,39846.253675,7314.630725,35953.742081,42355.326397,43190.029942,0.024000,0.964000,0.188000,192.000000,0.000000,0.000000,0.000000,0.000000,0.000000,0.000000,0.000000,0.000000,0.000000,1646894759.655714,0.000000
181.000000,55601.640713,47239.920168,36953.110928,39839.011710,7303.678370,35942.297988,42344.910484,43174.741349,0.024000,0.964000,0.188000,192.000000,0.000000,0.000000,0.000000,0.000000,0.000000,0.000000,0.000000,0.000000,0.000000,1646894759.663683,0.000000
182.000000,55601.081920,47241.373031,36951.367492,39836.821239,7298.358655,35938.431136,42343.189400,43169.555744,0.024000,0.964000,0.188000,192.000000,0.000000,0.000000,0.000000,0.000000,0.000000,0.000000,0.000000,0.000000,0.000000,1646894759.663699,0.000000
183.000000,55597.595048,47235.606281,36947.813564,39830.495695,7296.816384,35932.306758,42343.994062,43154.915351,0.024000,0.964000,0.188000,192.000000,0.000000,0.000000,0.000000,0.000000,0.000000,0.000000,0.000000,0.000000,0.000000,1646894759.671608,0.000000
184.000000,55596.902144,47233.169941,36942.516201,39830.875675,7297.956323,35932.016186,42342.004757,43150.243837,0.024000,0.964000,0.188000,192.000000,0.000000,0.000000,0.000000,0.000000,0.000000,0.000000,0.000000,0.000000,0.000000,1646894759.671626,0.000000
185.000000,55608.368588,47245.284587,36954.317922,39843.124431,7309.690989,35946.857744,42347.123307,43165.040691,0.024000,0.964000,0.188000,192.000000,0.000000,0.000000,0.000000,0.000000,0.000000,0.000000,0.000000,0.000000,0.000000,1646894759.679710,0.000000
186.000000,55614.940001,47254.225284,36954.541439,39843.169134,7307.992257,35948.712939,42340.373080,43175.925991,0.024000,0.964000,0.188000,192.000000,0.000000,0.000000,0.000000,0.000000,0.000000,0.000000,0.000000,0.000000,0.000000,1646894759.679726,0.000000
187.000000,55620.729103,47262.651892,36964.845594,39854.412062,7316.955306,35956.647808,42359.662635,43178.205869,0.024000,0.964000,0.188000,192.000000,0.000000,0.000000,0.000000,0.000000,0.000000,0.000000,0.000000,0.000000,0.000000,1646894759.687605,0.000000
188.000000,55625.646487,47270.452651,36977.295515,39857.764823,7327.706495,35967.510756,42370.838508,43170.807442,0.024000,0.964000,0.188000,192.000000,0.000000,0.000000,0.000000,0.000000,0.000000,0.000000,0.000000,0.000000,0.000000,1646894759.687617,0.000000
189.000000,55611.833109,47258.270950,36962.118681,39849.002939,7313.244917,35951.015169,42344.843429,43153.842468,0.030000,0.966000,0.178000,192.000000,0.000000,240.000000,30.000000,48.000000,5.000000,144.000000,0.000000,0.000000,0.000000,1646894759.694897,0.000000
190.000000,55614.738836,47259.947331,36959.145899,39855.417890,7311.590887,35956.491346,42358.098013,43187.928878,0.030000,0.966000,0.178000,192.000000,0.000000,0.000000,0.000000,0.000000,0.000000,0.000000,0.000000,0.000000,0.000000,1646894759.694913,0.000000
191.000000,55606.915725,47246.558636,36953.043872,39841.068070,7303.566611,35945.226067,42356.823964,43176.216564,0.030000,0.966000,0.178000,192.000000,0.000000,0.000000,0.000000,0.000000,0.000000,0.000000,0.000000,0.000000,0.000000,1646894759.702363,0.000000
192.000000,55587.872039,47231.761781,36942.247980,39823.276081,7284.053538,35920.460334,42322.871664,43139.179723,0.030000,0.966000,0.178000,192.000000,0.000000,0.000000,0.000000,0.000000,0.000000,0.000000,0.000000,0.000000,0.000000,1646894759.702380,0.000000
193.000000,55582.105289,47222.843435,36932.636730,39814.178921,7280.745480,35917.934587,42322.424629,43130.641357,0.030000,0.966000,0.178000,192.000000,0.000000,0.000000,0.000000,0.000000,0.000000,0.000000,0.000000,0.000000,0.000000,1646894759.708551,0.000000
194.000000,55587.916742,47217.233147,36925.841799,39818.090477,7282.734785,35921.488514,42325.956205,43143.314796,0.030000,0.966000,0.178000,192.000000,0.000000,0.000000,0.000000,0.000000,0.000000,0.000000,0.000000,0.000000,0.000000,1646894759.715742,0.000000
195.000000,55584.452222,47215.579118,36899.846721,39819.051602,7270.441326,35906.870473,42309.438265,43130.730764,0.030000,0.966000,0.178000,192.000000,0.000000,0.000000,0.000000,0.000000,0.000000,0.000000,0.000000,0.000000,0.000000,1646894759.715754,0.000000
196.000000,55603.786481,47238.713174,36942.337387,39844.599646,7298.202193,35939.369910,42355.527563,43159.519811,0.030000,0.966000,0.178000,192.000000,0.000000,0.000000,0.000000,0.000000,0.000000,0.000000,0.000000,0.000000,0.000000,1646894759.723982,0.000000
197.000000,55614.716484,47249.263197,36980.156539,39852.758032,7316.865899,35952.646846,42353.717071,43156.479973,0.030000,0.966000,0.178000,192.000000,0.000000,0.000000,0.000000,0.000000,0.000000,0.000000,0.000000,0.000000,0.000000,1646894759.723999,0.000000
198.000000,55621.310249,47252.168924,36964.756187,39845.717233,7306.919373,35936.151258,42330.225388,43109.586014,0.030000,0.966000,0.178000,192.000000,0.000000,0.000000,0.000000,0.000000,0.000000,0.000000,0.000000,0.000000,0.000000,1646894759.731979,0.000000
199.000000,55606.446338,47242.736488,36947.210067,39838.698785,7301.979637,35943.795555,42358.142717,43143.068927,0.038000,0.978000,0.176000,192.000000,1.000000,48.000000,30.000000,144.000000,5.000000,128.000000,0.000000,0.000000,0.000000,1646894759.731996,0.000000
200.000000,55590.129565,47230.063049,36913.905968,39824.661890,7282.310102,35939.146392,42370.592638,43204.782093,0.038000,0.978000,0.176000,192.000000,0.000000,0.000000,0.000000,0.000000,0.000000,0.000000,0.000000,0.000000,0.000000,1646894759.738610,0.000000
201.000000,55602.758301,47240.724831,36952.954466,39833.803753,7289.663826,35939.056985,42362.993045,43196.042561,0.038000,0.978000,0.176000,192.000000,0.000000,0.000000,0.000000,0.000000,0.000000,0.000000,0.000000,0.000000,0.000000,1646894759.738621,0.000000
202.000000,55605.641676,47235.650985,36953.379149,39839.816372,7301.510251,35947.751814,42359.148545,43175.322494,0.038000,0.978000,0.176000,192.000000,0.000000,0.000000,0.000000,0.000000,0.000000,0.000000,0.000000,0.000000,0.000000,1646894759.746445,0.000000
203.000000,55582.954655,47220.429447,36895.309317,39817.129352,7271.536561,35916.571130,42335.075716,43150.892037,0.038000,0.978000,0.176000,192.000000,0.000000,0.000000,0.000000,0.000000,0.000000,0.000000,0.000000,0.000000,0.000000,1646894759.746463,0.000000
204.000000,55605.082882,47250.000805,36961.135204,39842.073899,7305.131233,35943.482631,42355.482859,43154.490668,0.038000,0.978000,0.176000,192.000000,0.000000,0.000000,0.000000,0.000000,0.000000,0.000000,0.000000,0.000000,0.000000,1646894759.754676,0.000000
205.000000,55613.151862,47247.475058,36972.780463,39847.550076,7314.854242,35943.102651,42349.023205,43134.463505,0.038000,0.978000,0.176000,192.000000,0.000000,0.000000,0.000000,0.000000,0.000000,0.000000,0.000000,0.000000,0.000000,1646894759.754694,0.000000
206.000000,55590.554248,47223.581043,36929.440430,39821.867922,7283.964131,35916.817000,42322.938719,43149.573284,0.038000,0.978000,0.176000,192.000000,0.000000,0.000000,0.000000,0.000000,0.000000,0.000000,0.000000,0.000000,0.000000,1646894759.761819,0.000000
207.000000,55607.385112,47236.992089,36962.073977,39838.117640,7300.169146,35942.588561,42352.197153,43178.496442,0.038000,0.978000,0.176000,192.000000,0.000000,0.000000,0.000000,0.000000,0.000000,0.000000,0.000000,0.000000,0.000000,1646894759.761835,0.000000
208.000000,55616.012885,47249.889046,36990.483044,39856.982512,7323.504367,35962.481613,42377.834604,43176.104805,0.038000,0.978000,0.176000,192.000000,0.000000,0.000000,0.000000,0.000000,0.000000,0.000000,0.000000,0.000000,0.000000,1646894759.768181,0.000000
209.000000,55598.153841,47240.031927,36930.088631,39841.537457,7298.336303,35946.142488,42364.088281,43170.338055,0.040000,0.968000,0.174000,192.000000,1.000000,64.000000,30.000000,64.000000,5.000000,112.000000,0.000000,0.000000,0.000000,1646894759.776795,0.000000
210.000000,55612.056626,47244.748145,36950.741643,39840.956311,7298.537469,35935.368947,42349.202019,43169.578096,0.040000,0.968000,0.174000,192.000000,0.000000,0.000000,0.000000,0.000000,0.000000,0.000000,0.000000,0.000000,0.000000,1646894759.776813,0.000000
211.000000,55608.100368,47240.031927,36945.734852,39836.240093,7296.771681,35926.182380,42330.493609,43133.345918,0.040000,0.968000,0.174000,192.000000,0.000000,0.000000,0.000000,0.000000,0.000000,0.000000,0.000000,0.000000,0.000000,1646894759.785669,0.000000
212.000000,55611.140205,47253.510029,36961.112852,39847.706538,7306.070007,35940.979235,42350.051385,43147.561627,0.040000,0.968000,0.174000,192.000000,0.000000,0.000000,0.000000,0.000000,0.000000,0.000000,0.000000,0.000000,0.000000,1646894759.785686,0.000000
213.000000,55592.409443,47233.594624,36923.383108,39819.565692,7276.677463,35898.220348,42308.901824,43111.485912,0.040000,0.968000,0.174000,192.000000,0.000000,0.000000,0.000000,0.000000,0.000000,0.000000,0.000000,0.000000,0.000000,1646894759.792843,0.000000
214.000000,55594.957542,47231.113581,36915.090610,39827.455858,7277.616236,35908.546854,42318.781295,43109.384848,0.040000,0.968000,0.174000,192.000000,0.000000,0.000000,0.000000,0.000000,0.000000,0.000000,0.000000,0.000000,0.000000,1646894759.792861,0.000000
215.000000,55597.192716,47237.595586,36936.123602,39835.301320,7292.614256,35930.898599,42332.460562,43151.294369,0.040000,0.968000,0.174000,192.000000,0.000000,0.000000,0.000000,0.000000,0.000000,0.000000,0.000000,0.000000,0.000000,1646894759.799215,0.000000
216.000000,55612.391902,47248.145610,36961.872812,39848.600608,7309.378065,35952.758605,42364.803537,43192.488634,0.040000,0.968000,0.174000,192.000000,0.000000,0.000000,0.000000,0.000000,0.000000,0.000000,0.000000,0.000000,0.000000,1646894759.799231,0.000000
217.000000,55606.871022,47237.327366,36937.867038,39836.374204,7291.451966,35935.704224,42346.676272,43162.872572,0.040000,0.968000,0.174000,192.000000,0.000000,0.000000,0.000000,0.000000,0.000000,0.000000,0.000000,0.000000,0.000000,1646894759.806877,0.000000
218.000000,55598.466766,47240.367203,36922.801962,39834.295491,7283.718262,35930.831543,42333.108763,43141.079621,0.040000,0.968000,0.174000,192.000000,0.000000,0.000000,0.000000,0.000000,0.000000,0.000000,0.000000,0.000000,0.000000,1646894759.806893,0.000000
219.000000,55618.315115,47240.434258,36936.727099,39836.083631,7292.815422,35938.408785,42348.196190,43145.214694,0.042000,0.964000,0.174000,192.000000,1.000000,80.000000,30.000000,32.000000,5.000000,112.000000,0.000000,0.000000,0.000000,1646894759.813930,0.000000
220.000000,55627.054647,47253.577084,36963.660951,39845.203143,7310.987390,35939.951055,42341.736536,43136.542217,0.042000,0.964000,0.174000,192.000000,0.000000,0.000000,0.000000,0.000000,0.000000,0.000000,0.000000,0.000000,0.000000,1646894759.813942,0.000000
221.000000,55605.619324,47248.749107,36938.001148,39833.669643,7295.363521,35929.758660,42336.863856,43125.768676,0.042000,0.964000,0.174000,192.000000,0.000000,0.000000,0.000000,0.000000,0.000000,0.000000,0.000000,0.000000,0.000000,1646894759.821364,0.000000
222.000000,55601.081920,47232.499389,36982.682286,39832.239131,7300.660884,35941.046291,42349.090260,43135.692851,0.042000,0.964000,0.174000,192.000000,0.000000,0.000000,0.000000,0.000000,0.000000,0.000000,0.000000,0.000000,0.000000,1646894759.821381,0.000000
223.000000,55603.160632,47233.684031,36969.986495,39838.944654,7299.476242,35949.383491,42364.132984,43162.447889,0.042000,0.964000,0.174000,192.000000,0.000000,0.000000,0.000000,0.000000,0.000000,0.000000,0.000000,0.000000,0.000000,1646894759.828558,0.000000
224.000000,55589.615475,47227.157322,36917.973985,39808.814503,7268.563779,35924.818924,42344.061118,43171.455642,0.042000,0.964000,0.174000,192.000000,0.000000,0.000000,0.000000,0.000000,0.000000,0.000000,0.000000,0.000000,0.000000,1646894759.828575,0.000000
225.000000,55634.564833,47268.753918,36977.183756,39840.777497,7297.352826,35927.836410,42341.222446,43148.656863,0.042000,0.964000,0.174000,192.000000,0.000000,0.000000,0.000000,0.000000,0.000000,0.000000,0.000000,0.000000,0.000000,1646894759.836293,0.000000
226.000000,55640.912728,47281.002674,37025.687042,39903.876472,7348.024231,35986.487387,42373.118385,43202.032829,0.042000,0.964000,0.174000,192.000000,0.000000,0.000000,0.000000,0.000000,0.000000,0.000000,0.000000,0.000000,0.000000,1646894759.843411,0.000000
227.000000,55619.790330,47260.260255,36990.371286,39880.608306,7326.365391,35985.839186,42367.955132,43203.753913,0.042000,0.964000,0.174000,192.000000,0.000000,0.000000,0.000000,0.000000,0.000000,0.000000,0.000000,0.000000,0.000000,1646894759.843422,0.000000
228.000000,55597.080958,47233.684031,36951.255733,39826.807657,7288.345073,35946.701282,42342.608254,43172.595581,0.042000,0.964000,0.174000,192.000000,0.000000,0.000000,0.000000,0.000000,0.000000,0.000000,0.000000,0.000000,0.000000,1646894759.851173,0.000000
229.000000,55613.665952,47234.265177,36968.131300,39791.558956,7284.344111,35932.507924,42347.570342,43169.622799,0.028000,0.964000,0.170000,192.000000,0.000000,224.000000,30.000000,32.000000,5.000000,80.000000,0.000000,0.000000,0.000000,1646894759.851190,0.000000
230.000000,55625.266507,47260.997863,36991.198300,39833.960215,7304.415978,35937.291197,42345.737498,43175.546011,0.028000,0.964000,0.170000,192.000000,0.000000,0.000000,0.000000,0.000000,0.000000,0.000000,0.000000,0.000000,0.000000,1646894759.859171,0.000000
231.000000,55603.562963,47251.431316,36969.226535,39869.298323,7307.411111,35930.608026,42342.094164,43162.403186,0.028000,0.964000,0.170000,192.000000,0.000000,0.000000,0.000000,0.000000,0.000000,0.000000,0.000000,0.000000,0.000000,1646894759.859188,0.000000
232.000000,55591.560077,47230.711249,36946.181887,39811.764933,7278.666768,35916.414668,42331.298272,43120.381906,0.028000,0.964000,0.170000,192.000000,0.000000,0.000000,0.000000,0.000000,0.000000,0.000000,0.000000,0.000000,0.000000,1646894759.867103,0.000000
233.000000,55592.275332,47232.432334,36929.418079,39790.553128,7263.936968,35913.844218,42344.441097,43144.879418,0.028000,0.964000,0.170000,192.000000,0.000000,0.000000,0.000000,0.000000,0.000000,0.000000,0.000000,0.000000,0.000000,1646894759.867121,0.000000
234.000000,55598.936152,47233.125238,36936.458878,39811.541416,7273.257646,35898.533273,42319.809475,43164.861878,0.028000,0.964000,0.170000,192.000000,0.000000,0.000000,0.000000,0.000000,0.000000,0.000000,0.000000,0.000000,0.000000,1646894759.873742,0.000000
235.000000,55607.362760,47248.883217,36929.909817,39807.272232,7278.756175,35895.515787,42332.304100,43148.433345,0.028000,0.964000,0.170000,192.000000,0.000000,0.000000,0.000000,0.000000,0.000000,0.000000,0.000000,0.000000,0.000000,1646894759.873759,0.000000
236.000000,55594.778728,47240.702479,36925.260654,39779.086683,7266.418012,35902.690697,42347.682100,43174.607238,0.028000,0.964000,0.170000,192.000000,0.000000,0.000000,0.000000,0.000000,0.000000,0.000000,0.000000,0.000000,0.000000,1646894759.881581,0.000000
237.000000,55606.669856,47259.589703,36960.241134,39827.321747,7285.059367,35911.296119,42361.361368,43178.988180,0.028000,0.964000,0.170000,192.000000,0.000000,0.000000,0.000000,0.000000,0.000000,0.000000,0.000000,0.000000,0.000000,1646894759.881592,0.000000
238.000000,55625.758246,47261.109622,37002.798856,39849.204105,7315.591850,35940.800421,42387.110577,43207.330192,0.028000,0.964000,0.170000,192.000000,0.000000,0.000000,0.000000,0.000000,0.000000,0.000000,0.000000,0.000000,0.000000,1646894759.889607,0.000000
239.000000,55606.289876,47245.396345,36971.417006,39846.343082,7303.633666,35919.633319,42360.377891,43161.375005,0.032000,0.972000,0.176000,192.000000,1.000000,0.000000,30.000000,96.000000,5.000000,128.000000,0.000000,0.000000,0.000000,1646894759.889619,0.000000
240.000000,55598.734987,47217.858996,36953.803832,39780.696008,7278.353843,35909.843255,42351.817173,43163.207848,0.032000,0.972000,0.176000,192.000000,0.000000,0.000000,0.000000,0.000000,0.000000,0.000000,0.000000,0.000000,0.000000,1646894759.896643,0.000000
241.000000,55613.531841,47275.973532,36982.704637,39844.487887,7310.853280,35940.845125,42369.005664,43210.705305,0.032000,0.972000,0.176000,192.000000,0.000000,0.000000,0.000000,0.000000,0.000000,0.000000,0.000000,0.000000,0.000000,1646894759.903251,0.000000
242.000000,55618.292763,47269.491526,36996.696829,39873.120472,7327.035943,35933.401994,42355.952246,43181.715093,0.032000,0.972000,0.176000,192.000000,0.000000,0.000000,0.000000,0.000000,0.000000,0.000000,0.000000,0.000000,0.000000,1646894759.903267,0.000000
243.000000,55602.981818,47231.158284,36924.701861,39817.710497,7285.729919,35930.786840,42374.794766,43198.456549,0.032000,0.972000,0.176000,192.000000,0.000000,0.000000,0.000000,0.000000,0.000000,0.000000,0.000000,0.000000,0.000000,1646894759.911363,0.000000
244.000000,55608.480347,47251.632482,36960.397596,39820.705631,7298.693931,35922.851971,42369.810327,43178.787014,0.032000,0.972000,0.176000,192.000000,0.000000,0.000000,0.000000,0.000000,0.000000,0.000000,0.000000,0.000000,0.000000,1646894759.911374,0.000000
245.000000,55604.792309,47262.383671,36939.588122,39816.145875,7291.943704,35892.185377,42329.353670,43154.356558,0.032000,0.972000,0.176000,192.000000,0.000000,0.000000,0.000000,0.000000,0.000000,0.000000,0.000000,0.000000,0.000000,1646894759.919285,0.000000
246.000000,55621.220842,47287.216459,36936.235361,39828.886369,7292.614256,35900.388467,42353.962940,43172.774395,0.032000,0.972000,0.176000,192.000000,0.000000,0.000000,0.000000,0.000000,0.000000,0.000000,0.000000,0.000000,0.000000,1646894759.919297,0.000000
247.000000,55634.453074,47297.833538,37018.556835,39891.717123,7343.419772,35940.331035,42390.217470,43186.006628,0.032000,0.972000,0.176000,192.000000,0.000000,0.000000,0.000000,0.000000,0.000000,0.000000,0.000000,0.000000,0.000000,1646894759.926358,0.000000
248.000000,55613.151862,47263.121279,36981.855271,39861.609323,7328.108827,35955.150241,42374.750063,43215.555634,0.032000,0.972000,0.176000,192.000000,0.000000,0.000000,0.000000,0.000000,0.000000,0.000000,0.000000,0.000000,0.000000,1646894759.926375,0.000000
249.000000,55604.166461,47227.850226,36979.709504,39720.972147,7274.710509,35923.611930,42363.954170,43218.684878,0.028000,0.964000,0.174000,192.000000,0.000000,224.000000,30.000000,32.000000,5.000000,112.000000,0.000000,0.000000,0.000000,1646894759.934053,0.000000
250.000000,55596.298646,47264.171811,36922.466686,39813.865997,7287.763928,35942.834430,42373.051330,43224.094000,0.028000,0.964000,0.174000,192.000000,0.000000,0.000000,0.000000,0.000000,0.000000,0.000000,0.000000,0.000000,0.000000,1646894759.934070,0.000000
251.000000,55643.304365,47331.718782,36961.939867,40011.723639,7383.898781,35991.225957,42394.844281,43228.474942,0.028000,0.964000,0.174000,192.000000,0.000000,0.000000,0.000000,0.000000,0.000000,0.000000,0.000000,0.000000,0.000000,1646894759.942031,0.000000
252.000000,55639.213996,47297.162985,37030.045632,39908.369173,7367.872580,35968.114253,42385.255383,43198.791826,0.028000,0.964000,0.174000,192.000000,0.000000,0.000000,0.000000,0.000000,0.000000,0.000000,0.000000,0.000000,0.000000,1646894759.942047,0.000000
253.000000,55616.214051,47281.896744,36982.615230,39838.095288,7325.471321,35934.854857,42368.066891,43195.930802,0.028000,0.964000,0.174000,192.000000,0.000000,0.000000,0.000000,0.000000,0.000000,0.000000,0.000000,0.000000,0.000000,1646894759.949893,0.000000
254.000000,55614.783539,47284.243677,37008.833827,39877.322600,7342.726868,35947.058910,42372.738406,43211.018230,0.028000,0.964000,0.174000,192.000000,0.000000,0.000000,0.000000,0.000000,0.000000,0.000000,0.000000,0.000000,0.000000,1646894759.949905,0.000000
255.000000,55603.205336,47266.518744,36973.272201,39819.386878,7310.629762,35933.379642,42364.490612,43200.289393,0.028000,0.964000,0.174000,192.000000,0.000000,0.000000,0.000000,0.000000,0.000000,0.000000,0.000000,0.000000,0.000000,1646894759.956246,0.000000
0.000000,55606.915725,47266.585799,36965.627905,39804.031229,7302.605486,35910.223235,42352.554781,43185.000799,0.028000,0.964000,0.174000,192.000000,0.000000,0.000000,0.000000,0.000000,0.000000,0.000000,0.000000,0.000000,0.000000,1646894759.963686,0.000000
1.000000,55626.115874,47290.233945,36986.526786,39911.833693,7346.459609,35932.217351,42364.512964,43184.285543,0.028000,0.964000,0.174000,192.000000,0.000000,0.000000,0.000000,0.000000,0.000000,0.000000,0.000000,0.000000,0.000000,1646894759.963703,0.000000
2.000000,55630.228595,47294.816052,37015.204074,39885.860966,7352.136952,35946.455413,42364.132984,43169.712206,0.028000,0.964000,0.174000,192.000000,0.000000,0.000000,0.000000,0.000000,0.000000,0.000000,0.000000,0.000000,0.000000,1646894759.971442,0.000000
3.000000,55604.948772,47268.776270,36944.237285,39848.622960,7312.686123,35925.824753,42353.046519,43168.773433,0.032000,0.966000,0.176000,192.000000,1.000000,0.000000,30.000000,48.000000,5.000000,128.000000,0.000000,0.000000,0.000000,1646894759.971452,0.000000
4.000000,55615.498795,47267.479869,36987.018524,39851.439279,7326.857129,35921.957901,42355.236990,43169.756910,0.032000,0.966000,0.176000,192.000000,0.000000,0.000000,0.000000,0.000000,0.000000,0.000000,0.000000,0.000000,0.000000,1646894759.978525,0.000000
5.000000,55638.923423,47293.899631,37023.094240,39872.539326,7350.505275,35943.035596,42377.924011,43224.451628,0.032000,0.966000,0.176000,192.000000,0.000000,0.000000,0.000000,0.000000,0.000000,0.000000,0.000000,0.000000,0.000000,1646894759.978540,0.000000
6.000000,55614.671780,47289.541041,36968.466576,39867.756053,7332.534472,35939.906352,42376.247630,43212.605204,0.032000,0.966000,0.176000,192.000000,0.000000,0.000000,0.000000,0.000000,0.000000,0.000000,0.000000,0.000000,0.000000,1646894759.986072,0.000000
7.000000,55622.181967,47289.250468,36986.347972,39902.758885,7352.807504,35969.656523,42398.554671,43221.747067,0.032000,0.966000,0.176000,192.000000,0.000000,0.000000,0.000000,0.000000,0.000000,0.000000,0.000000,0.000000,0.000000,1646894759.986086,0.000000
8.000000,55643.438476,47297.431206,37024.323586,39898.981440,7356.495542,35957.877154,42386.104749,43218.796637,0.032000,0.966000,0.176000,192.000000,0.000000,0.000000,0.000000,0.000000,0.000000,0.000000,0.000000,0.000000,0.000000,1646894759.993997,0.000000
9.000000,55638.766961,47287.618791,36999.870777,39877.724931,7341.274004,35939.727538,42369.989141,43195.282602,0.032000,0.966000,0.176000,192.000000,0.000000,0.000000,0.000000,0.000000,0.000000,0.000000,0.000000,0.000000,0.000000,1646894759.994010,0.000000
10.000000,55584.251056,47236.746220,36917.169323,39814.693012,7289.149736,35904.702354,42331.946472,43141.973691,0.032000,0.966000,0.176000,192.000000,0.000000,0.000000,0.000000,0.000000,0.000000,0.000000,0.000000,0.000000,0.000000,1646894760.001938,0.000000
11.000000,55600.947809,47271.167907,36988.180815,39836.530666,7314.675428,35923.299005,42374.258324,43208.067800,0.032000,0.966000,0.176000,192.000000,0.000000,0.000000,0.000000,0.000000,0.000000,0.000000,0.000000,0.000000,0.000000,1646894760.001946,0.000000
12.000000,55628.798083,47310.238756,37046.697682,39903.250623,7364.586874,35961.542840,42411.988069,43245.574027,0.032000,0.966000,0.176000,192.000000,0.000000,0.000000,0.000000,0.000000,0.000000,0.000000,0.000000,0.000000,0.000000,1646894760.009909,0.000000
13.000000,55638.722257,47325.884977,37011.627795,39920.193245,7365.793868,35966.214355,42397.995877,43216.516759,0.036000,0.966000,0.178000,192.000000,1.000000,32.000000,30.000000,48.000000,5.000000,144.000000,0.000000,0.000000,0.000000,1646894760.009916,0.000000
14.000000,55606.111062,47277.851078,36966.611381,39884.676323,7329.829911,35942.722671,42382.148490,43195.595526,0.036000,0.966000,0.178000,192.000000,0.000000,0.000000,0.000000,0.000000,0.000000,0.000000,0.000000,0.000000,0.000000,1646894760.016937,0.000000
15.000000,55610.737873,47275.057110,36983.106969,39871.980533,7330.858091,35945.740157,42385.344790,43207.218433,0.036000,0.966000,0.178000,192.000000,0.000000,0.000000,0.000000,0.000000,0.000000,0.000000,0.000000,0.000000,0.000000,1646894760.024945,0.000000
16.000000,55629.379228,47256.616921,36993.902861,39822.113791,7320.822158,35961.185212,42385.769473,43216.941442,0.036000,0.966000,0.178000,192.000000,0.000000,0.000000,0.000000,0.000000,0.000000,0.000000,0.000000,0.000000,0.000000,1646894760.024951,0.000000
17.000000,55624.528900,47295.017218,36991.153597,39881.636486,7337.831835,35957.966561,42372.358426,43208.693648,0.036000,0.966000,0.178000,192.000000,0.000000,0.000000,0.000000,0.000000,0.000000,0.000000,0.000000,0.000000,0.000000,1646894760.033273,0.000000
18.000000,55604.971123,47279.840384,36973.741588,39862.928076,7323.392609,35937.112383,42353.717071,43189.694666,0.036000,0.966000,0.178000,192.000000,0.000000,0.000000,0.000000,0.000000,0.000000,0.000000,0.000000,0.000000,0.000000,1646894760.033286,0.000000
19.000000,55620.326772,47290.502166,36952.350968,39859.910591,7327.058295,35950.925762,42385.568307,43223.356393,0.036000,0.966000,0.178000,192.000000,0.000000,0.000000,0.000000,0.000000,0.000000,0.000000,0.000000,0.000000,0.000000,1646894760.039701,0.000000
20.000000,55626.652315,47299.711084,36986.862062,39887.358533,7342.257481,35960.581715,42390.820967,43239.516704,0.036000,0.966000,0.178000,192.000000,0.000000,0.000000,0.000000,0.000000,0.000000,0.000000,0.000000,0.000000,0.000000,1646894760.039717,0.000000
21.000000,55603.071225,47294.570183,36998.037934,39898.579109,7338.278870,35945.449584,42382.841394,43218.014326,0.036000,0.966000,0.178000,192.000000,0.000000,0.000000,0.000000,0.000000,0.000000,0.000000,0.000000,0.000000,0.000000,1646894760.046387,0.000000
22.000000,55610.626115,47290.122186,37007.291556,39871.108815,7331.998030,35948.802346,42380.114481,43210.861768,0.036000,0.966000,0.178000,192.000000,0.000000,0.000000,0.000000,0.000000,0.000000,0.000000,0.000000,0.000000,0.000000,1646894760.046399,0.000000
23.000000,55604.389978,47255.298168,36984.448073,39851.662797,7324.957231,35950.344616,42375.040635,43197.495424,0.034000,0.968000,0.182000,192.000000,1.000000,16.000000,30.000000,64.000000,5.000000,176.000000,0.000000,0.000000,0.000000,1646894760.054608,0.000000
24.000000,55604.747606,47265.401157,36979.709504,39849.405271,7315.837719,35943.259113,42367.932781,43188.286506,0.034000,0.968000,0.182000,192.000000,0.000000,0.000000,0.000000,0.000000,0.000000,0.000000,0.000000,0.000000,0.000000,1646894760.054626,0.000000
25.000000,55617.778673,47305.455483,36978.569565,39863.196297,7326.790074,35946.455413,42361.808403,43207.419599,0.034000,0.968000,0.182000,192.000000,0.000000,0.000000,0.000000,0.000000,0.000000,0.000000,0.000000,0.000000,0.000000,1646894760.061665,0.000000
26.000000,55630.787388,47315.111436,37023.518923,39925.267091,7365.927978,35964.023884,42370.682045,43216.539111,0.034000,0.968000,0.182000,192.000000,0.000000,0.000000,0.000000,0.000000,0.000000,0.000000,0.000000,0.000000,0.000000,1646894760.061681,0.000000
27.000000,55632.352010,47292.267953,37018.422725,39912.995984,7358.440144,35964.470919,42383.847223,43208.403076,0.034000,0.968000,0.182000,192.000000,0.000000,0.000000,0.000000,0.000000,0.000000,0.000000,0.000000,0.000000,0.000000,1646894760.069230,0.000000
28.000000,55615.923478,47280.130956,36969.025370,39854.657931,7326.991239,35944.443756,42367.508098,43184.486709,0.034000,0.968000,0.182000,192.000000,0.000000,0.000000,0.000000,0.000000,0.000000,0.000000,0.000000,0.000000,0.000000,1646894760.069242,0.000000
29.000000,55633.804874,47293.407892,37003.625870,39861.497564,7334.791998,35931.189171,42358.366234,43184.643171,0.034000,0.968000,0.182000,192.000000,0.000000,0.000000,0.000000,0.000000,0.000000,0.000000,0.000000,0.000000,0.000000,1646894760.076308,0.000000
30.000000,55625.422970,47291.440939,36983.844576,39892.722951,7341.899853,35935.860686,42355.840487,43164.571305,0.034000,0.968000,0.182000,192.000000,0.000000,0.000000,0.000000,0.000000,0.000000,0.000000,0.000000,0.000000,0.000000,1646894760.076325,0.000000
31.000000,55631.770865,47298.884070,36992.785274,39899.339068,7346.638423,35945.918971,42358.165068,43173.489651,0.034000,0.968000,0.182000,192.000000,0.000000,0.000000,0.000000,0.000000,0.000000,0.000000,0.000000,0.000000,0.000000,1646894760.084273,0.000000
32.000000,55626.428798,47301.789797,36985.655068,39872.002884,7331.774513,35937.537067,42355.862839,43173.869631,0.034000,0.968000,0.182000,192.000000,0.000000,0.000000,0.000000,0.000000,0.000000,0.000000,0.000000,0.000000,0.000000,1646894760.092240,0.000000
33.000000,55613.621248,47278.543982,36964.532669,39848.578256,7312.999047,35920.773258,42339.814286,43169.131061,0.034000,0.968000,0.182000,192.000000,0.000000,0.000000,0.000000,0.000000,0.000000,0.000000,0.000000,0.000000,0.000000,1646894760.092257,0.000000
34.000000,55644.198435,47330.601195,37037.309949,39938.946359,7381.440089,35977.613744,42378.639266,43230.888931,0.028000,0.972000,0.182000,192.000000,0.000000,224.000000,30.000000,96.000000,5.000000,176.000000,0.000000,0.000000,0.000000,1646894760.100207,0.000000
35.000000,55670.081755,47344.325166,37064.892002,39938.588731,7399.500298,35996.992707,42411.608089,43249.865562,0.028000,0.972000,0.182000,192.000000,0.000000,0.000000,0.000000,0.000000,0.000000,0.000000,0.000000,0.000000,0.000000,1646894760.100218,0.000000
36.000000,55643.080848,47291.977381,37014.868798,39887.336181,7359.825952,35963.979180,42381.589697,43210.325326,0.028000,0.972000,0.182000,192.000000,0.000000,0.000000,0.000000,0.000000,0.000000,0.000000,0.000000,0.000000,0.000000,1646894760.107476,0.000000
37.000000,55633.961336,47291.664456,37016.925158,39867.353722,7342.816275,35940.353386,42364.445909,43183.704398,0.028000,0.972000,0.182000,192.000000,0.000000,0.000000,0.000000,0.000000,0.000000,0.000000,0.000000,0.000000,0.000000,1646894760.107493,0.000000
38.000000,55638.588147,47314.507939,37017.126324,39884.788082,7351.555807,35942.186229,42365.943475,43197.406017,0.028000,0.972000,0.182000,192.000000,0.000000,0.000000,0.000000,0.000000,0.000000,0.000000,0.000000,0.000000,0.000000,1646894760.116134,0.000000
39.000000,55638.834016,47314.396180,37020.680251,39913.711240,7368.833705,35973.009285,42378.907487,43196.690762,0.028000,0.972000,0.182000,192.000000,0.000000,0.000000,0.000000,0.000000,0.000000,0.000000,0.000000,0.000000,0.000000,1646894760.116145,0.000000
40.000000,55624.730065,47299.487567,37017.439248,39875.713274,7356.652004,35975.333867,42392.631458,43224.451628,0.028000,0.972000,0.182000,192.000000,0.000000,0.000000,0.000000,0.000000,0.000000,0.000000,0.000000,0.000000,0.000000,1646894760.122564,0.000000
41.000000,55632.307307,47285.383616,36999.915481,39896.925079,7346.459609,35956.491346,42378.706322,43198.925936,0.028000,0.972000,0.182000,192.000000,0.000000,0.000000,0.000000,0.000000,0.000000,0.000000,0.000000,0.000000,0.000000,1646894760.122581,0.000000
42.000000,55645.137208,47314.753808,37043.121403,39918.829789,7375.025138,35978.016076,42383.444891,43212.247576,0.028000,0.972000,0.182000,192.000000,0.000000,0.000000,0.000000,0.000000,0.000000,0.000000,0.000000,0.000000,0.000000,1646894760.129514,0.000000
43.000000,55649.942833,47318.397143,37038.516943,39927.748135,7380.791888,35979.111311,42382.014380,43237.862675,0.028000,0.972000,0.182000,192.000000,0.000000,0.000000,0.000000,0.000000,0.000000,0.000000,0.000000,0.000000,0.000000,1646894760.129531,0.000000
44.000000,55640.733914,47302.974439,36997.121513,39907.206882,7364.743336,35973.098692,42374.571249,43221.501198,0.028000,0.966000,0.184000,192.000000,0.000000,224.000000,30.000000,48.000000,5.000000,192.000000,0.000000,0.000000,0.000000,1646894760.137516,0.000000
45.000000,55640.152769,47298.057055,36983.732818,39871.824070,7337.988298,35938.431136,42366.926952,43193.874442,0.028000,0.966000,0.184000,192.000000,0.000000,0.000000,0.000000,0.000000,0.000000,0.000000,0.000000,0.000000,0.000000,1646894760.137533,0.000000
46.000000,55657.095391,47330.891768,37037.220542,39913.308908,7369.437202,35955.060834,42365.854069,43187.794767,0.028000,0.966000,0.184000,192.000000,0.000000,0.000000,0.000000,0.000000,0.000000,0.000000,0.000000,0.000000,0.000000,1646894760.143557,0.000000
47.000000,55631.346182,47295.307791,37011.158408,39877.836690,7355.310900,35965.543802,42365.407034,43198.858881,0.028000,0.966000,0.184000,192.000000,0.000000,0.000000,0.000000,0.000000,0.000000,0.000000,0.000000,0.000000,0.000000,1646894760.151161,0.000000
48.000000,55641.560929,47296.850061,37028.413955,39867.197259,7355.310900,35961.676951,42366.077586,43189.806424,0.028000,0.966000,0.184000,192.000000,0.000000,0.000000,0.000000,0.000000,0.000000,0.000000,0.000000,0.000000,0.000000,1646894760.151178,0.000000
49.000000,55630.899147,47324.029782,37011.046649,39913.755943,7360.384746,35958.100672,42359.640284,43179.166994,0.028000,0.966000,0.184000,192.000000,0.000000,0.000000,0.000000,0.000000,0.000000,0.000000,0.000000,0.000000,0.000000,1646894760.159243,0.000000
50.000000,55649.384040,47329.058925,37032.817248,39956.581885,7389.263199,35981.212375,42372.783109,43210.057105,0.028000,0.966000,0.184000,192.000000,0.000000,0.000000,0.000000,0.000000,0.000000,0.000000,0.000000,0.000000,0.000000,1646894760.159261,0.000000
51.000000,55636.800007,47313.211538,37005.972803,39880.384789,7348.337155,35952.468032,42355.885190,43187.168919,0.028000,0.966000,0.184000,192.000000,0.000000,0.000000,0.000000,0.000000,0.000000,0.000000,0.000000,0.000000,0.000000,1646894760.167179,0.000000
52.000000,55652.557987,47316.541948,37052.553839,39919.187417,7374.600455,35965.521451,42369.944438,43197.227204,0.028000,0.966000,0.184000,192.000000,0.000000,0.000000,0.000000,0.000000,0.000000,0.000000,0.000000,0.000000,0.000000,1646894760.167195,0.000000
53.000000,55681.011758,47338.848989,37081.566403,39964.449699,7408.776272,35985.615669,42380.315647,43211.174692,0.028000,0.966000,0.184000,192.000000,0.000000,0.000000,0.000000,0.000000,0.000000,0.000000,0.000000,0.000000,0.000000,1646894760.175149,0.000000
54.000000,55665.991386,47314.239718,37045.803612,39880.675361,7372.946426,35978.887794,42370.704397,43206.436122,0.028000,0.968000,0.180000,192.000000,0.000000,224.000000,30.000000,64.000000,5.000000,160.000000,0.000000,0.000000,0.000000,1646894760.175166,0.000000
55.000000,55646.232444,47309.948183,37027.251664,39887.313829,7358.462496,35956.983084,42350.051385,43162.827869,0.028000,0.968000,0.180000,192.000000,0.000000,0.000000,0.000000,0.000000,0.000000,0.000000,0.000000,0.000000,0.000000,1646894760.182307,0.000000
56.000000,55638.699906,47299.286401,37014.131190,39884.899841,7349.030059,35945.896619,42365.027054,43165.487726,0.028000,0.968000,0.180000,192.000000,0.000000,0.000000,0.000000,0.000000,0.000000,0.000000,0.000000,0.000000,0.000000,1646894760.182323,0.000000
57.000000,55650.546330,47302.415645,37015.114667,39872.941658,7345.274966,35946.924799,42374.191269,43218.707230,0.028000,0.968000,0.180000,192.000000,0.000000,0.000000,0.000000,0.000000,0.000000,0.000000,0.000000,0.000000,0.000000,1646894760.191187,0.000000
58.000000,55663.622101,47310.685791,37037.019376,39929.938606,7377.103850,35977.949021,42389.949249,43237.080364,0.028000,0.968000,0.180000,192.000000,0.000000,0.000000,0.000000,0.000000,0.000000,0.000000,0.000000,0.000000,0.000000,1646894760.191204,0.000000
59.000000,55667.421897,47320.140579,37060.823984,39939.862781,7393.755900,35982.575832,42386.775301,43213.409867,0.028000,0.968000,0.180000,192.000000,0.000000,0.000000,0.000000,0.000000,0.000000,0.000000,0.000000,0.000000,0.000000,1646894760.198356,0.000000
60.000000,55643.572586,47313.658573,37026.804629,39864.470347,7345.029097,35946.053081,42368.312760,43181.089244,0.028000,0.968000,0.180000,192.000000,0.000000,0.000000,0.000000,0.000000,0.000000,0.000000,0.000000,0.000000,0.000000,1646894760.198373,0.000000
61.000000,55644.824284,47320.341744,37033.443097,39934.788935,7365.659757,35952.244514,42354.745252,43184.196136,0.028000,0.968000,0.180000,192.000000,0.000000,0.000000,0.000000,0.000000,0.000000,0.000000,0.000000,0.000000,0.000000,1646894760.204477,0.000000
62.000000,55658.972938,47319.850006,37044.596618,39926.161161,7379.719005,35983.715771,42372.738406,43220.830646,0.028000,0.968000,0.180000,192.000000,0.000000,0.000000,0.000000,0.000000,0.000000,0.000000,0.000000,0.000000,0.000000,1646894760.211147,0.000000
63.000000,55646.567720,47293.743169,36989.700733,39867.487832,7335.395495,35937.000625,42351.392490,43164.414843,0.028000,0.968000,0.180000,192.000000,0.000000,0.000000,0.000000,0.000000,0.000000,0.000000,0.000000,0.000000,0.000000,1646894760.211159,0.000000
64.000000,55644.131380,47301.678038,37001.837731,39884.296344,7334.188501,35920.683851,42333.108763,43135.111706,0.022000,0.968000,0.174000,192.000000,0.000000,176.000000,30.000000,64.000000,5.000000,112.000000,0.000000,0.000000,0.000000,1646894760.219254,0.000000
65.000000,55649.518150,47329.550663,37040.282731,39926.988176,7373.572275,35973.031637,42360.310836,43214.348640,0.022000,0.968000,0.174000,192.000000,0.000000,0.000000,0.000000,0.000000,0.000000,0.000000,0.000000,0.000000,0.000000,1646894760.219266,0.000000
66.000000,55640.733914,47303.421474,37020.546141,39893.482911,7354.819161,35970.707055,42360.869629,43216.136779,0.022000,0.968000,0.174000,192.000000,0.000000,0.000000,0.000000,0.000000,0.000000,0.000000,0.000000,0.000000,0.000000,1646894760.226530,0.000000
67.000000,55636.732952,47284.310732,36992.092370,39865.252658,7327.594737,35945.315474,42356.846315,43189.068817,0.022000,0.968000,0.174000,192.000000,0.000000,0.000000,0.000000,0.000000,0.000000,0.000000,0.000000,0.000000,0.000000,1646894760.226546,0.000000
68.000000,55651.462752,47321.012297,37035.968844,39915.767600,7363.402231,35966.795500,42386.685894,43212.426390,0.022000,0.968000,0.174000,192.000000,0.000000,0.000000,0.000000,0.000000,0.000000,0.000000,0.000000,0.000000,0.000000,1646894760.234072,0.000000
69.000000,55641.650336,47316.050210,37039.567475,39925.825885,7369.459554,35967.913087,42375.577077,43189.046465,0.022000,0.968000,0.174000,192.000000,0.000000,0.000000,0.000000,0.000000,0.000000,0.000000,0.000000,0.000000,0.000000,1646894760.234089,0.000000
70.000000,55657.184798,47331.025878,37048.508173,39923.546007,7371.650025,35973.657486,42374.459490,43190.231108,0.022000,0.968000,0.174000,192.000000,0.000000,0.000000,0.000000,0.000000,0.000000,0.000000,0.000000,0.000000,0.000000,1646894760.242057,0.000000
71.000000,55656.983633,47328.433076,37035.231237,39915.387620,7360.965891,35968.181308,42363.909467,43200.199986,0.022000,0.968000,0.174000,192.000000,0.000000,0.000000,0.000000,0.000000,0.000000,0.000000,0.000000,0.000000,0.000000,1646894760.242074,0.000000
72.000000,55636.263566,47308.271802,37004.832864,39888.811396,7340.961080,35964.515622,42368.826851,43210.593547,0.022000,0.968000,0.174000,192.000000,0.000000,0.000000,0.000000,0.000000,0.000000,0.000000,0.000000,0.000000,0.000000,1646894760.250030,0.000000
73.000000,55637.984650,47316.206672,37009.258510,39912.437190,7346.928995,35965.409692,42378.683970,43208.291317,0.022000,0.968000,0.174000,192.000000,0.000000,0.000000,0.000000,0.000000,0.000000,0.000000,0.000000,0.000000,0.000000,1646894760.250042,0.000000
74.000000,55636.554138,47313.233890,37006.889225,39932.732574,7354.863865,35961.073454,42372.738406,43189.225279,0.024000,0.960000,0.178000,192.000000,0.000000,192.000000,30.000000,0.000000,5.000000,144.000000,0.000000,0.000000,0.000000,1646894760.257242,0.000000
75.000000,55639.906900,47309.612907,37027.095202,39926.652900,7359.133048,35970.304724,42381.276772,43199.462378,0.024000,0.960000,0.178000,192.000000,0.000000,0.000000,0.000000,0.000000,0.000000,0.000000,0.000000,0.000000,0.000000,1646894760.257258,0.000000
76.000000,55628.105179,47287.819956,37011.605443,39897.617984,7342.905681,35961.118157,42367.150470,43186.721884,0.024000,0.960000,0.178000,192.000000,0.000000,0.000000,0.000000,0.000000,0.000000,0.000000,0.000000,0.000000,0.000000,1646894760.265162,0.000000
77.000000,55621.846690,47300.627506,37001.167178,39887.626754,7330.992202,35945.829564,42355.214638,43173.355540,0.024000,0.960000,0.178000,192.000000,0.000000,0.000000,0.000000,0.000000,0.000000,0.000000,0.000000,0.000000,0.000000,1646894760.272256,0.000000
78.000000,55636.285917,47307.243622,37035.812382,39912.906577,7354.081554,35960.045273,42360.780223,43189.739369,0.024000,0.960000,0.178000,192.000000,0.000000,0.000000,0.000000,0.000000,0.000000,0.000000,0.000000,0.000000,0.000000,1646894760.272268,0.000000
79.000000,55627.635792,47296.492433,37030.023280,39914.359440,7355.646176,35958.055968,42367.686912,43211.487616,0.024000,0.960000,0.178000,192.000000,0.000000,0.000000,0.000000,0.000000,0.000000,0.000000,0.000000,0.000000,0.000000,1646894760.279771,0.000000
80.000000,55615.610554,47286.702369,36997.009754,39890.934812,7334.412019,35952.535087,42368.111595,43204.044486,0.024000,0.960000,0.178000,192.000000,0.000000,0.000000,0.000000,0.000000,0.000000,0.000000,0.000000,0.000000,0.000000,1646894760.279788,0.000000
81.000000,55625.825301,47295.754826,36983.755169,39907.005716,7338.211815,35962.682779,42367.753967,43201.585794,0.024000,0.960000,0.178000,192.000000,0.000000,0.000000,0.000000,0.000000,0.000000,0.000000,0.000000,0.000000,0.000000,1646894760.286146,0.000000
82.000000,55620.058551,47269.625636,36993.835806,39885.816262,7332.623879,35950.389320,42351.101917,43185.000799,0.024000,0.960000,0.178000,192.000000,0.000000,0.000000,0.000000,0.000000,0.000000,0.000000,0.000000,0.000000,0.000000,1646894760.286163,0.000000
83.000000,55644.041973,47313.569166,37032.437269,39872.673437,7346.571368,35966.840204,42385.970639,43207.799579,0.024000,0.960000,0.178000,192.000000,0.000000,0.000000,0.000000,0.000000,0.000000,0.000000,0.000000,0.000000,0.000000,1646894760.294330,0.000000
84.000000,55633.246080,47312.563337,37016.813399,39904.770542,7344.515007,35955.820794,42377.633438,43180.597506,0.024000,0.964000,0.184000,192.000000,0.000000,192.000000,30.000000,32.000000,5.000000,192.000000,0.000000,0.000000,0.000000,1646894760.294347,0.000000
85.000000,55641.717391,47316.944279,37024.949434,39934.431307,7361.077650,35965.767320,42378.885136,43174.763700,0.024000,0.964000,0.184000,192.000000,0.000000,0.000000,0.000000,0.000000,0.000000,0.000000,0.000000,0.000000,0.000000,1646894760.302077,0.000000
86.000000,55625.870004,47284.556602,36996.070981,39896.031010,7338.927071,35949.964637,42355.952246,43161.442061,0.024000,0.964000,0.184000,192.000000,0.000000,0.000000,0.000000,0.000000,0.000000,0.000000,0.000000,0.000000,0.000000,1646894760.302089,0.000000
87.000000,55622.226670,47283.081386,36983.218727,39887.358533,7325.918356,35943.795555,42355.572266,43172.081491,0.024000,0.964000,0.184000,192.000000,0.000000,0.000000,0.000000,0.000000,0.000000,0.000000,0.000000,0.000000,0.000000,1646894760.308776,0.000000
88.000000,55631.279127,47303.443826,37006.173969,39909.956146,7350.125295,35968.784805,42385.434197,43229.301957,0.024000,0.964000,0.184000,192.000000,0.000000,0.000000,0.000000,0.000000,0.000000,0.000000,0.000000,0.000000,0.000000,1646894760.308792,0.000000
89.000000,55636.710600,47302.348590,37033.018414,39918.405106,7362.374051,35983.715771,42394.129025,43230.151323,0.024000,0.964000,0.184000,192.000000,0.000000,0.000000,0.000000,0.000000,0.000000,0.000000,0.000000,0.000000,0.000000,1646894760.316975,0.000000
90.000000,55619.879737,47269.670340,37016.791048,39881.055341,7338.211815,35963.800366,42376.873479,43204.044486,0.024000,0.964000,0.184000,192.000000,0.000000,0.000000,0.000000,0.000000,0.000000,0.000000,0.000000,0.000000,0.000000,1646894760.316993,0.000000
91.000000,55630.340353,47308.718837,36998.686135,39904.055286,7335.596661,35940.554552,42341.982405,43159.832735,0.024000,0.964000,0.184000,192.000000,0.000000,0.000000,0.000000,0.000000,0.000000,0.000000,0.000000,0.000000,0.000000,1646894760.324049,0.000000
92.000000,55626.294688,47291.910326,36989.052533,39907.229234,7336.066048,35953.920895,42335.746269,43172.528526,0.024000,0.964000,0.184000,192.000000,0.000000,0.000000,0.000000,0.000000,0.000000,0.000000,0.000000,0.000000,0.000000,1646894760.324066,0.000000
93.000000,55633.246080,47300.560451,37030.425612,39926.876417,7360.742374,35978.954849,42374.124214,43219.198968,0.024000,0.964000,0.184000,192.000000,0.000000,0.000000,0.000000,0.000000,0.000000,0.000000,0.000000,0.000000,0.000000,1646894760.332212,0.000000
94.000000,55622.964278,47284.914230,37009.526731,39886.285649,7337.831835,35963.755663,42379.868612,43181.066892,0.018000,0.962000,0.184000,192.000000,0.000000,144.000000,30.000000,16.000000,5.000000,192.000000,0.000000,0.000000,0.000000,1646894760.338702,0.000000
95.000000,55599.539649,47271.279665,36986.839710,39872.516975,7314.541318,35941.135698,42356.511039,43144.722956,0.018000,0.962000,0.184000,192.000000,0.000000,0.000000,0.000000,0.000000,0.000000,0.000000,0.000000,0.000000,0.000000,1646894760.338720,0.000000
96.000000,55601.327789,47282.835517,36988.516091,39858.256562,7312.462606,35949.003512,42362.836583,43182.206831,0.018000,0.962000,0.184000,192.000000,0.000000,0.000000,0.000000,0.000000,0.000000,0.000000,0.000000,0.000000,0.000000,1646894760.346686,0.000000
97.000000,55591.984760,47280.041549,36984.492777,39879.960105,7319.212832,35944.443756,42334.874551,43168.214639,0.018000,0.962000,0.184000,192.000000,0.000000,0.000000,0.000000,0.000000,0.000000,0.000000,0.000000,0.000000,0.000000,1646894760.346704,0.000000
98.000000,55597.237420,47261.646064,36982.034085,39848.175925,7307.031132,35939.884000,42332.885245,43158.625741,0.018000,0.962000,0.184000,192.000000,0.000000,0.000000,0.000000,0.000000,0.000000,0.000000,0.000000,0.000000,0.000000,1646894760.354479,0.000000
99.000000,55592.990588,47242.848246,36960.710521,39873.522803,7301.890230,35941.962712,42348.352653,43177.892945,0.018000,0.962000,0.184000,192.000000,0.000000,0.000000,0.000000,0.000000,0.000000,0.000000,0.000000,0.000000,0.000000,1646894760.354495,0.000000
100.000000,55571.219989,47243.094116,36952.350968,39816.369392,7285.014663,35927.769354,42346.922141,43165.510078,0.018000,0.962000,0.184000,192.000000,0.000000,0.000000,0.000000,0.000000,0.000000,0.000000,0.000000,0.000000,0.000000,1646894760.361855,0.000000
101.000000,55578.551361,47258.002729,36981.967030,39879.222498,7311.210908,35935.860686,42336.528580,43159.273941,0.018000,0.962000,0.184000,192.000000,0.000000,0.000000,0.000000,0.000000,0.000000,0.000000,0.000000,0.000000,0.000000,1646894760.361873,0.000000
102.000000,55583.267579,47261.444898,36978.256640,39889.325486,7313.602544,35934.094898,42335.612158,43153.618950,0.018000,0.962000,0.184000,192.000000,0.000000,0.000000,0.000000,0.000000,0.000000,0.000000,0.000000,0.000000,0.000000,1646894760.369278,0.000000
103.000000,55576.517353,47250.984281,36941.353910,39841.962140,7284.277056,35922.740212,42334.494571,43148.925084,0.018000,0.962000,0.184000,192.000000,0.000000,0.000000,0.000000,0.000000,0.000000,0.000000,0.000000,0.000000,0.000000,1646894760.369294,0.000000
104.000000,55580.048928,47256.303997,36970.657047,39880.854175,7310.875632,35938.162915,42350.140792,43165.264209,0.020000,0.958000,0.184000,192.000000,0.000000,160.000000,29.000000,240.000000,5.000000,192.000000,0.000000,0.000000,0.000000,1646894760.377154,0.000000
105.000000,55576.629111,47246.580988,36969.070073,39860.335274,7305.734730,35936.888866,42340.261321,43150.333244,0.020000,0.958000,0.184000,192.000000,0.000000,0.000000,0.000000,0.000000,0.000000,0.000000,0.000000,0.000000,0.000000,1646894760.377171,0.000000
106.000000,55586.799155,47258.136840,36973.853347,39865.409120,7307.254649,35932.977311,42336.349766,43151.584941,0.020000,0.958000,0.184000,192.000000,0.000000,0.000000,0.000000,0.000000,0.000000,0.000000,0.000000,0.000000,0.000000,1646894760.385058,0.000000
107.000000,55604.389978,47273.626599,36988.136111,39909.687926,7334.791998,35959.106500,42352.375967,43162.425537,0.020000,0.958000,0.184000,192.000000,0.000000,0.000000,0.000000,0.000000,0.000000,0.000000,0.000000,0.000000,0.000000,1646894760.385075,0.000000
108.000000,55611.497833,47274.878296,36987.510262,39886.933850,7324.130216,35958.503003,42365.161164,43180.977485,0.020000,0.958000,0.184000,192.000000,0.000000,0.000000,0.000000,0.000000,0.000000,0.000000,0.000000,0.000000,0.000000,1646894760.391556,0.000000
109.000000,55615.476443,47281.472061,36971.104082,39905.195225,7322.163263,35951.506907,42364.892943,43180.128119,0.020000,0.958000,0.184000,192.000000,0.000000,0.000000,0.000000,0.000000,0.000000,0.000000,0.000000,0.000000,0.000000,1646894760.398852,0.000000
110.000000,55593.482327,47271.033796,36987.130283,39879.602478,7320.799806,35965.946134,42369.206830,43191.013419,0.020000,0.958000,0.184000,192.000000,0.000000,0.000000,0.000000,0.000000,0.000000,0.000000,0.000000,0.000000,0.000000,1646894760.398863,0.000000
111.000000,55584.563981,47260.327311,36969.651219,39850.388748,7300.303257,35943.102651,42336.975615,43156.345863,0.020000,0.958000,0.184000,192.000000,0.000000,0.000000,0.000000,0.000000,0.000000,0.000000,0.000000,0.000000,0.000000,1646894760.406856,0.000000
112.000000,55589.414309,47262.584837,36975.172099,39892.119454,7306.449986,35935.659520,42331.812362,43137.793915,0.020000,0.958000,0.184000,192.000000,0.000000,0.000000,0.000000,0.000000,0.000000,0.000000,0.000000,0.000000,0.000000,1646894760.406873,0.000000
113.000000,55605.641676,47290.613924,36985.520957,39890.688943,7323.057332,35964.493270,42366.122289,43179.435215,0.020000,0.958000,0.184000,192.000000,0.000000,0.000000,0.000000,0.000000,0.000000,0.000000,0.000000,0.000000,0.000000,1646894760.414977,0.000000
114.000000,55609.419120,47288.423453,36997.590899,39892.454731,7326.097170,35964.850898,42364.982350,43190.409921,0.016000,0.960000,0.184000,192.000000,0.000000,128.000000,30.000000,0.000000,5.000000,192.000000,0.000000,0.000000,0.000000,1646894760.414993,0.000000
115.000000,55603.831184,47274.967703,36994.551062,39890.890108,7328.891138,35966.437872,42374.593601,43194.209718,0.016000,0.960000,0.184000,192.000000,0.000000,0.000000,0.000000,0.000000,0.000000,0.000000,0.000000,0.000000,0.000000,1646894760.421498,0.000000
116.000000,55588.386129,47277.471099,36976.021466,39900.300193,7326.655963,35961.699302,42370.927914,43193.650924,0.016000,0.960000,0.184000,192.000000,0.000000,0.000000,0.000000,0.000000,0.000000,0.000000,0.000000,0.000000,0.000000,1646894760.421514,0.000000
117.000000,55566.414364,47254.381747,36954.317922,39869.164213,7300.526774,35939.571075,42342.451792,43167.164107,0.016000,0.960000,0.184000,192.000000,0.000000,0.000000,0.000000,0.000000,0.000000,0.000000,0.000000,0.000000,0.000000,1646894760.429184,0.000000
118.000000,55596.678626,47265.289398,36979.061303,39887.090312,7320.956268,35961.453433,42357.919199,43178.183517,0.016000,0.960000,0.184000,192.000000,0.000000,0.000000,0.000000,0.000000,0.000000,0.000000,0.000000,0.000000,0.000000,1646894760.429196,0.000000
119.000000,55579.959521,47247.542113,36944.952541,39853.272123,7292.837774,35933.089069,42338.495533,43134.351746,0.016000,0.960000,0.184000,192.000000,0.000000,0.000000,0.000000,0.000000,0.000000,0.000000,0.000000,0.000000,0.000000,1646894760.437558,0.000000
120.000000,55581.010053,47265.021177,36949.422890,39887.135015,7308.707512,35953.160936,42358.187420,43153.596598,0.016000,0.960000,0.184000,192.000000,0.000000,0.000000,0.000000,0.000000,0.000000,0.000000,0.000000,0.000000,0.000000,1646894760.437573,0.000000
121.000000,55559.619434,47222.038772,36923.606625,39826.539436,7276.968035,35929.110459,42339.523714,43163.207848,0.016000,0.960000,0.184000,192.000000,0.000000,0.000000,0.000000,0.000000,0.000000,0.000000,0.000000,0.000000,0.000000,1646894760.444509,0.000000
122.000000,55582.395861,47247.139781,36947.970026,39846.320730,7284.858201,35927.992872,42334.360461,43172.640285,0.016000,0.960000,0.184000,192.000000,0.000000,0.000000,0.000000,0.000000,0.000000,0.000000,0.000000,0.000000,0.000000,1646894760.444526,0.000000
123.000000,55618.382170,47297.431206,37018.601539,39939.929836,7352.516932,35978.977201,42362.836583,43189.180576,0.016000,0.960000,0.184000,192.000000,0.000000,0.000000,0.000000,0.000000,0.000000,0.000000,0.000000,0.000000,0.000000,1646894760.451076,0.000000
124.000000,55631.435589,47305.880166,37019.383850,39937.560551,7358.261330,35987.224995,42374.079510,43193.807387,0.016000,0.970000,0.190000,192.000000,0.000000,128.000000,30.000000,80.000000,5.000000,240.000000,0.000000,0.000000,0.000000,1646894760.459139,0.000000
125.000000,55575.511524,47239.428430,36928.076974,39848.980588,7279.382024,35916.861703,42319.027164,43126.662746,0.016000,0.970000,0.190000,192.000000,0.000000,0.000000,0.000000,0.000000,0.000000,0.000000,0.000000,0.000000,0.000000,1646894760.459155,0.000000
126.000000,55552.824504,47218.864825,36914.576520,39815.229453,7256.404430,35897.862720,42313.126303,43128.674403,0.016000,0.970000,0.190000,192.000000,0.000000,0.000000,0.000000,0.000000,0.000000,0.000000,0.000000,0.000000,0.000000,1646894760.467090,0.000000
127.000000,55592.454146,47253.308863,36986.303268,39883.491681,7315.860071,35947.058910,42347.480935,43171.589753,0.016000,0.970000,0.190000,192.000000,0.000000,0.000000,0.000000,0.000000,0.000000,0.000000,0.000000,0.000000,0.000000,1646894760.467107,0.000000
128.000000,55592.118870,47253.666491,36981.363533,39874.260411,7310.339190,35943.706148,42354.521734,43168.728729,0.016000,0.970000,0.190000,192.000000,0.000000,0.000000,0.000000,0.000000,0.000000,0.000000,0.000000,0.000000,0.000000,1646894760.474213,0.000000
129.000000,55592.834126,47265.892895,36979.664800,39871.801719,7310.316838,35946.723634,42360.266132,43154.825944,0.016000,0.970000,0.190000,192.000000,0.000000,0.000000,0.000000,0.000000,0.000000,0.000000,0.000000,0.000000,0.000000,1646894760.474225,0.000000
130.000000,55579.043100,47253.174752,36978.569565,39874.908611,7308.036960,35934.586636,42333.488743,43119.666650,0.016000,0.970000,0.190000,192.000000,0.000000,0.000000,0.000000,0.000000,0.000000,0.000000,0.000000,0.000000,0.000000,1646894760.481722,0.000000
131.000000,55572.382280,47252.995938,36951.099271,39870.192393,7293.620085,35937.134735,42345.558685,43176.305971,0.016000,0.970000,0.190000,192.000000,0.000000,0.000000,0.000000,0.000000,0.000000,0.000000,0.000000,0.000000,0.000000,1646894760.481738,0.000000
132.000000,55600.590181,47266.697558,36966.924306,39885.793911,7304.974771,35951.730424,42369.095071,43208.671297,0.016000,0.970000,0.190000,192.000000,0.000000,0.000000,0.000000,0.000000,0.000000,0.000000,0.000000,0.000000,0.000000,1646894760.489852,0.000000
133.000000,55589.526068,47259.097965,36981.207070,39870.170041,7304.035998,35932.463221,42341.267150,43163.274904,0.016000,0.970000,0.190000,192.000000,0.000000,0.000000,0.000000,0.000000,0.000000,0.000000,0.000000,0.000000,0.000000,1646894760.489869,0.000000
134.000000,55590.129565,47276.867601,36994.729876,39894.198167,7320.643344,35936.777107,42341.401260,43154.490668,0.006000,0.974000,0.194000,192.000000,0.000000,48.000000,30.000000,112.000000,6.000000,16.000000,0.000000,0.000000,0.000000,1646894760.496858,0.000000
135.000000,55578.663120,47251.833648,36961.537535,39879.043684,7300.258553,35933.022014,42362.143679,43186.096035,0.006000,0.974000,0.194000,192.000000,0.000000,0.000000,0.000000,0.000000,0.000000,0.000000,0.000000,0.000000,0.000000,1646894760.496874,0.000000
136.000000,55588.609646,47263.501258,36961.626942,39866.727873,7294.178879,35928.797535,42355.236990,43175.166032,0.006000,0.974000,0.194000,192.000000,0.000000,0.000000,0.000000,0.000000,0.000000,0.000000,0.000000,0.000000,0.000000,1646894760.505825,0.000000
137.000000,55597.326827,47283.014331,36967.773672,39879.244850,7309.266306,35931.390337,42351.101917,43158.111651,0.006000,0.974000,0.194000,192.000000,0.000000,0.000000,0.000000,0.000000,0.000000,0.000000,0.000000,0.000000,0.000000,1646894760.505837,0.000000
138.000000,55587.872039,47279.281590,36989.968954,39872.584030,7318.922260,35937.045328,42362.434252,43167.566439,0.006000,0.974000,0.194000,192.000000,0.000000,0.000000,0.000000,0.000000,0.000000,0.000000,0.000000,0.000000,0.000000,1646894760.511954,0.000000
139.000000,55582.217047,47265.825840,36985.073922,39863.464518,7312.596716,35944.689625,42365.697606,43198.389494,0.006000,0.974000,0.194000,192.000000,0.000000,0.000000,0.000000,0.000000,0.000000,0.000000,0.000000,0.000000,0.000000,1646894760.519404,0.000000
140.000000,55585.614513,47270.229133,36984.336315,39900.993097,7320.598641,35935.033671,42345.134001,43171.634456,0.006000,0.974000,0.194000,192.000000,0.000000,0.000000,0.000000,0.000000,0.000000,0.000000,0.000000,0.000000,0.000000,1646894760.519420,0.000000
141.000000,55582.149992,47270.542058,36974.747416,39891.962992,7317.648210,35937.425308,42353.627664,43173.579058,0.006000,0.974000,0.194000,192.000000,0.000000,0.000000,0.000000,0.000000,0.000000,0.000000,0.000000,0.000000,0.000000,1646894760.526454,0.000000
142.000000,55583.848725,47282.053206,36975.753245,39858.390672,7309.981562,35931.412689,42347.838562,43178.742311,0.006000,0.974000,0.194000,192.000000,0.000000,0.000000,0.000000,0.000000,0.000000,0.000000,0.000000,0.000000,0.000000,1646894760.526465,0.000000
143.000000,55594.465803,47292.670285,36994.238138,39883.581088,7326.030114,35941.761546,42365.630551,43189.962887,0.006000,0.974000,0.194000,192.000000,0.000000,0.000000,0.000000,0.000000,0.000000,0.000000,0.000000,0.000000,0.000000,1646894760.533823,0.000000
144.000000,55591.783594,47270.363244,36982.905803,39898.713219,7325.694838,35939.973407,42350.207847,43187.884174,0.006000,0.974000,0.194000,192.000000,0.000000,0.000000,0.000000,0.000000,0.000000,0.000000,0.000000,0.000000,0.000000,1646894760.533840,0.000000
145.000000,55577.769050,47256.035776,36991.555928,39887.067960,7324.286678,35933.089069,42332.393507,43169.913372,0.006000,0.974000,0.204000,192.000000,0.000000,48.000000,30.000000,112.000000,6.000000,96.000000,0.000000,0.000000,0.000000,1646894760.542085,0.000000
146.000000,55566.459068,47256.192238,36966.521974,39874.573335,7309.266306,35940.554552,42358.053310,43209.788884,0.006000,0.974000,0.204000,192.000000,0.000000,0.000000,0.000000,0.000000,0.000000,0.000000,0.000000,0.000000,0.000000,1646894760.542102,0.000000
147.000000,55582.373510,47288.199936,36980.648277,39896.075713,7330.411056,35953.987951,42371.553763,43222.976413,0.006000,0.974000,0.204000,192.000000,0.000000,0.000000,0.000000,0.000000,0.000000,0.000000,0.000000,0.000000,0.000000,1646894760.550035,0.000000
148.000000,55578.283140,47274.721834,36988.292573,39879.088387,7328.645269,35944.689625,42355.885190,43200.267041,0.006000,0.974000,0.204000,192.000000,0.000000,0.000000,0.000000,0.000000,0.000000,0.000000,0.000000,0.000000,0.000000,1646894760.550053,0.000000
149.000000,55579.244265,47267.748090,36963.728006,39877.613172,7323.236146,35931.747965,42338.763754,43159.832735,0.006000,0.974000,0.204000,192.000000,0.000000,0.000000,0.000000,0.000000,0.000000,0.000000,0.000000,0.000000,0.000000,1646894760.556712,0.000000
150.000000,55578.663120,47271.547886,36951.926285,39877.948448,7323.347905,35943.415575,42354.253513,43192.622744,0.006000,0.974000,0.204000,192.000000,0.000000,0.000000,0.000000,0.000000,0.000000,0.000000,0.000000,0.000000,0.000000,1646894760.556730,0.000000
151.000000,55577.411422,47282.187317,36984.783350,39879.513071,7335.909585,35963.129814,42377.208755,43228.005556,0.006000,0.974000,0.204000,192.000000,0.000000,0.000000,0.000000,0.000000,0.000000,0.000000,0.000000,0.000000,0.000000,1646894760.564681,0.000000
152.000000,55570.504733,47278.812203,36980.648277,39888.386713,7330.813388,35946.410709,42360.869629,43197.450721,0.006000,0.974000,0.204000,192.000000,0.000000,0.000000,0.000000,0.000000,0.000000,0.000000,0.000000,0.000000,0.000000,1646894760.564698,0.000000
153.000000,55558.568902,47265.535267,36951.948637,39862.481041,7310.897983,35921.801439,42332.929949,43163.498421,0.006000,0.974000,0.204000,192.000000,0.000000,0.000000,0.000000,0.000000,0.000000,0.000000,0.000000,0.000000,0.000000,1646894760.571777,0.000000
154.000000,55558.703012,47265.199991,36955.033178,39856.714291,7309.400417,35930.004529,42351.101917,43187.839471,0.006000,0.974000,0.204000,192.000000,0.000000,0.000000,0.000000,0.000000,0.000000,0.000000,0.000000,0.000000,0.000000,1646894760.571794,0.000000
155.000000,55558.770068,47271.324369,36938.694053,39867.733701,7308.551050,35934.810154,42353.113574,43197.718942,0.010000,0.968000,0.204000,192.000000,0.000000,80.000000,30.000000,64.000000,6.000000,96.000000,0.000000,0.000000,0.000000,1646894760.579718,0.000000
156.000000,55561.385222,47271.883162,36961.582239,39887.000905,7328.041771,35948.757642,42363.127156,43192.823910,0.010000,0.968000,0.204000,192.000000,0.000000,0.000000,0.000000,0.000000,0.000000,0.000000,0.000000,0.000000,0.000000,1646894760.587726,0.000000
157.000000,55547.616547,47250.760764,36958.609457,39869.387730,7322.610298,35944.264942,42360.333188,43172.662636,0.010000,0.968000,0.204000,192.000000,0.000000,0.000000,0.000000,0.000000,0.000000,0.000000,0.000000,0.000000,0.000000,1646894760.587742,0.000000
158.000000,55547.214216,47255.767555,36964.107986,39874.036893,7319.615164,35934.765450,42351.168972,43176.149508,0.010000,0.968000,0.204000,192.000000,0.000000,0.000000,0.000000,0.000000,0.000000,0.000000,0.000000,0.000000,0.000000,1646894760.594894,0.000000
159.000000,55547.258919,47263.344796,36970.366474,39873.634562,7324.577251,35949.629360,42362.613066,43212.113465,0.010000,0.968000,0.204000,192.000000,0.000000,0.000000,0.000000,0.000000,0.000000,0.000000,0.000000,0.000000,0.000000,1646894760.594910,0.000000
160.000000,55543.436771,47257.131011,36956.575448,39865.543230,7314.340152,35940.219276,42347.592693,43197.271907,0.010000,0.968000,0.204000,192.000000,0.000000,0.000000,0.000000,0.000000,0.000000,0.000000,0.000000,0.000000,0.000000,1646894760.602639,0.000000
161.000000,55549.181169,47255.611093,36972.266373,39869.097158,7318.586984,35944.734328,42376.761720,43207.687820,0.010000,0.968000,0.204000,192.000000,0.000000,0.000000,0.000000,0.000000,0.000000,0.000000,0.000000,0.000000,0.000000,1646894760.602651,0.000000
162.000000,55548.354155,47257.466287,36963.996227,39864.068015,7317.201175,35950.858706,42392.854976,43203.776265,0.010000,0.968000,0.204000,192.000000,0.000000,0.000000,0.000000,0.000000,0.000000,0.000000,0.000000,0.000000,0.000000,1646894760.610798,0.000000
163.000000,55517.128768,47236.790924,36889.386104,39841.090422,7276.744518,35918.336918,42355.371100,43170.963904,0.010000,0.968000,0.204000,192.000000,0.000000,0.000000,0.000000,0.000000,0.000000,0.000000,0.000000,0.000000,0.000000,1646894760.610815,0.000000
