%OpenBCI Raw EEG Data
%Number of channels = 8
%Sample Rate = 256 Hz
%Board = OpenBCI_GUI$BoardCytonSerial
%Channels = Fp1, Fp2, F3, F4, Fz, Pz, O1, O2
%Data recorded at AIMS Lab (http://aimsl.uiu.ac.bd) by Rana Depto (mail@ranadepto.com)
%Brainwaves were obtained via the Ultracortex Mark IV Headset using the OpenBCI Cyton Board
%Recording Application = ConcentrateToday (https://concentrate.today)
%Data type = RAW data with noise
%Day No = 4
%Subject ID = 9
%Session ID = 7
%Record starting timestamp (UTC+6) = 2022-03-21T16:27:50.285411
%Record ending timestamp (UTC+6)   = 2022-03-21T16:28:26.152122
%Recorded durations = ~35 seconds
Sample Index, EXG Channel 0, EXG Channel 1, EXG Channel 2, EXG Channel 3, EXG Channel 4, EXG Channel 5, EXG Channel 6, EXG Channel 7, Accel Channel 0, Accel Channel 1, Accel Channel 2, Other, Other, Other, Other, Other, Other, Other, Analog Channel 0, Analog Channel 1, Analog Channel 2, Timestamp, Timestamp (Formatted)
221.000000,40731.248645,29148.999351,31069.327124,29453.519518,-12598.426652,54786.562000,63089.788030,35855.796737,0.104000,0.992000,-0.046000,192.000000,0.000000,0.000000,0.000000,0.000000,0.000000,0.000000,0.000000,0.000000,0.000000,1647858470.290460,0.000000
222.000000,40725.839523,29143.232601,31046.863621,29437.269799,-12613.044693,54772.346291,63093.341958,35892.766522,0.104000,0.992000,-0.046000,192.000000,0.000000,0.000000,0.000000,0.000000,0.000000,0.000000,0.000000,0.000000,0.000000,1647858470.290469,0.000000
223.000000,40747.319549,29179.442427,31068.656572,29457.632239,-12600.795937,54792.239343,63091.799687,35925.064793,0.098000,0.990000,-0.058000,192.000000,3.000000,16.000000,30.000000,240.000000,254.000000,48.000000,0.000000,0.000000,0.000000,1647858470.298399,0.000000
224.000000,40749.822944,29184.404514,31069.081255,29459.912117,-12598.158431,54797.626114,63064.687021,35929.512790,0.098000,0.990000,-0.058000,192.000000,0.000000,0.000000,0.000000,0.000000,0.000000,0.000000,0.000000,0.000000,0.000000,1647858470.298405,0.000000
225.000000,40732.232121,29192.182921,31069.550642,29453.184241,-12588.994216,54803.325808,63040.480082,35936.665349,0.098000,0.990000,-0.058000,192.000000,0.000000,0.000000,0.000000,0.000000,0.000000,0.000000,0.000000,0.000000,0.000000,1647858470.306403,0.000000
226.000000,40745.509058,29204.766954,31078.446636,29450.725550,-12581.506381,54804.532803,63027.136091,35958.100672,0.098000,0.990000,-0.058000,192.000000,0.000000,0.000000,0.000000,0.000000,0.000000,0.000000,0.000000,0.000000,0.000000,1647858470.306407,0.000000
227.000000,40787.217413,29197.882616,31079.050133,29467.019971,-12581.640492,54803.035236,63019.357684,35983.805178,0.098000,0.990000,-0.058000,192.000000,0.000000,0.000000,0.000000,0.000000,0.000000,0.000000,0.000000,0.000000,0.000000,1647858470.313582,0.000000
228.000000,40771.258267,29178.727171,31066.376694,29461.096759,-12595.632684,54792.909896,63006.840707,36007.274509,0.098000,0.990000,-0.058000,192.000000,0.000000,0.000000,0.000000,0.000000,0.000000,0.000000,0.000000,0.000000,0.000000,1647858470.313586,0.000000
229.000000,40743.028014,29202.844704,31078.603098,29471.244451,-12586.379062,54801.023579,62983.840762,36025.044146,0.098000,0.990000,-0.058000,192.000000,0.000000,0.000000,0.000000,0.000000,0.000000,0.000000,0.000000,0.000000,0.000000,1647858470.321008,0.000000
230.000000,40771.012398,29220.167305,31079.564223,29461.253221,-12586.870800,54802.185869,62942.914718,36027.189914,0.098000,0.990000,-0.058000,192.000000,0.000000,0.000000,0.000000,0.000000,0.000000,0.000000,0.000000,0.000000,0.000000,1647858470.321012,0.000000
231.000000,40774.141642,29219.608512,31105.782819,29470.663306,-12578.734765,54803.638733,62920.406511,36045.786565,0.098000,0.990000,-0.058000,192.000000,0.000000,0.000000,0.000000,0.000000,0.000000,0.000000,0.000000,0.000000,0.000000,1647858470.328032,0.000000
232.000000,40785.496329,29215.696957,31097.110343,29478.017030,-12572.610387,54803.057588,62911.309351,36072.563955,0.098000,0.990000,-0.058000,192.000000,0.000000,0.000000,0.000000,0.000000,0.000000,0.000000,0.000000,0.000000,0.000000,1647858470.328037,0.000000
233.000000,40836.368899,29232.572524,31047.936505,29463.734265,-12579.718242,54808.466710,62892.690348,36093.194615,0.090000,0.990000,-0.056000,192.000000,2.000000,208.000000,30.000000,240.000000,254.000000,64.000000,0.000000,0.000000,0.000000,1647858470.336060,0.000000
234.000000,40766.743215,29217.485096,31065.057941,29463.756617,-12587.630759,54801.269448,62861.822589,36105.063391,0.090000,0.990000,-0.056000,192.000000,0.000000,0.000000,0.000000,0.000000,0.000000,0.000000,0.000000,0.000000,0.000000,1647858470.343256,0.000000
235.000000,40730.488685,29208.879675,31101.044250,29497.395992,-12569.436439,54809.807814,62840.119045,36122.095421,0.090000,0.990000,-0.056000,192.000000,0.000000,0.000000,0.000000,0.000000,0.000000,0.000000,0.000000,0.000000,0.000000,1647858470.343260,0.000000
236.000000,40746.760755,29190.372430,31109.783782,29499.385297,-12567.089506,54807.170308,62822.818795,36144.290703,0.090000,0.990000,-0.056000,192.000000,0.000000,0.000000,0.000000,0.000000,0.000000,0.000000,0.000000,0.000000,0.000000,1647858470.350648,0.000000
237.000000,40720.452752,29186.103247,31134.348349,29493.730306,-12561.367459,54809.114910,62817.275562,36174.286744,0.090000,0.990000,-0.056000,192.000000,0.000000,0.000000,0.000000,0.000000,0.000000,0.000000,0.000000,0.000000,0.000000,1647858470.350652,0.000000
238.000000,40706.192339,29175.128540,31117.293968,29469.679829,-12579.986463,54797.000265,62811.240591,36206.294442,0.090000,0.990000,-0.056000,192.000000,0.000000,0.000000,0.000000,0.000000,0.000000,0.000000,0.000000,0.000000,0.000000,1647858470.358666,0.000000
239.000000,40740.234046,29197.547340,31113.918854,29476.787684,-12581.841657,54808.399654,62787.346576,36223.549989,0.090000,0.990000,-0.056000,192.000000,0.000000,0.000000,0.000000,0.000000,0.000000,0.000000,0.000000,0.000000,0.000000,1647858470.358670,0.000000
240.000000,40768.240782,29234.628884,31106.900407,29481.079219,-12579.472372,54809.897221,62771.253320,36247.913390,0.090000,0.990000,-0.056000,192.000000,0.000000,0.000000,0.000000,0.000000,0.000000,0.000000,0.000000,0.000000,0.000000,1647858470.366672,0.000000
241.000000,40770.341846,29220.033195,31106.989814,29471.311506,-12584.836791,54811.126567,62765.553625,36282.446835,0.090000,0.990000,-0.056000,192.000000,0.000000,0.000000,0.000000,0.000000,0.000000,0.000000,0.000000,0.000000,0.000000,1647858470.366675,0.000000
242.000000,40784.289334,29199.447238,31107.012165,29472.987887,-12579.047689,54819.061437,62764.234872,36322.210589,0.090000,0.990000,-0.056000,192.000000,0.000000,0.000000,0.000000,0.000000,0.000000,0.000000,0.000000,0.000000,0.000000,1647858470.373297,0.000000
243.000000,40807.311631,29202.174151,31069.975325,29474.977192,-12587.809573,54813.093521,62746.576994,36346.126955,0.086000,0.994000,-0.060000,192.000000,2.000000,176.000000,31.000000,16.000000,254.000000,32.000000,0.000000,0.000000,0.000000,1647858470.373301,0.000000
244.000000,40808.272756,29222.246018,31072.210499,29488.120018,-12590.760003,54809.226669,62724.135843,36367.808147,0.086000,0.994000,-0.060000,192.000000,0.000000,0.000000,0.000000,0.000000,0.000000,0.000000,0.000000,0.000000,0.000000,1647858470.381298,0.000000
245.000000,40793.252384,29232.818393,31106.453372,29483.694373,-12579.047689,54820.961335,62685.556732,36373.306677,0.086000,0.994000,-0.060000,192.000000,0.000000,0.000000,0.000000,0.000000,0.000000,0.000000,0.000000,0.000000,0.000000,1647858470.381326,0.000000
246.000000,40790.681933,29248.106986,31112.801267,29498.781800,-12571.872779,54831.421951,62673.553845,36410.164703,0.086000,0.994000,-0.060000,192.000000,0.000000,0.000000,0.000000,0.000000,0.000000,0.000000,0.000000,0.000000,0.000000,1647858470.389229,0.000000
247.000000,40777.784977,29233.310131,31098.093819,29502.179265,-12572.565683,54827.979783,62679.208836,36461.372550,0.086000,0.994000,-0.060000,192.000000,0.000000,0.000000,0.000000,0.000000,0.000000,0.000000,0.000000,0.000000,0.000000,1647858470.389233,0.000000
248.000000,40746.805459,29196.228587,31116.891636,29498.424172,-12574.040899,54829.164425,62666.133066,36495.458960,0.086000,0.994000,-0.060000,192.000000,0.000000,0.000000,0.000000,0.000000,0.000000,0.000000,0.000000,0.000000,0.000000,1647858470.396408,0.000000
249.000000,40741.485744,29201.101267,31133.789555,29500.793457,-12567.067154,54836.741666,62637.500481,36512.781562,0.086000,0.994000,-0.060000,192.000000,0.000000,0.000000,0.000000,0.000000,0.000000,0.000000,0.000000,0.000000,0.000000,1647858470.402919,0.000000
250.000000,40746.090203,29212.992396,31121.876075,29499.899387,-12567.268320,54832.338373,62608.823193,36530.126516,0.086000,0.994000,-0.060000,192.000000,0.000000,0.000000,0.000000,0.000000,0.000000,0.000000,0.000000,0.000000,0.000000,1647858470.402922,0.000000
251.000000,40744.570284,29206.420983,31109.381450,29489.192902,-12575.605521,54823.263564,62598.273170,36566.537507,0.086000,0.994000,-0.060000,192.000000,0.000000,0.000000,0.000000,0.000000,0.000000,0.000000,0.000000,0.000000,0.000000,1647858470.410870,0.000000
252.000000,40778.455529,29221.173134,31109.001471,29494.646727,-12568.944701,54833.388905,62579.788277,36590.699743,0.086000,0.994000,-0.060000,192.000000,0.000000,0.000000,0.000000,0.000000,0.000000,0.000000,0.000000,0.000000,0.000000,1647858470.410873,0.000000
253.000000,40797.499215,29220.882561,31087.387334,29481.436846,-12580.925236,54817.049780,62567.763039,36621.120467,0.078000,0.994000,-0.066000,192.000000,2.000000,112.000000,31.000000,16.000000,253.000000,240.000000,0.000000,0.000000,0.000000,1647858470.418949,0.000000
254.000000,40805.970526,29216.836896,31081.397066,29486.734210,-12586.155544,54820.894280,62535.800044,36631.894008,0.078000,0.994000,-0.066000,192.000000,0.000000,0.000000,0.000000,0.000000,0.000000,0.000000,0.000000,0.000000,0.000000,1647858470.418953,0.000000
255.000000,40775.415692,29217.216875,31135.264770,29503.207446,-12552.538520,54852.723164,62513.560058,36643.718081,0.078000,0.994000,-0.066000,192.000000,0.000000,0.000000,0.000000,0.000000,0.000000,0.000000,0.000000,0.000000,0.000000,1647858470.425563,0.000000
0.000000,40761.132927,29207.873846,31137.835221,29503.542722,-12549.476331,54851.225597,62517.471614,36683.124206,0.078000,0.994000,-0.066000,192.000000,0.000000,0.000000,0.000000,0.000000,0.000000,0.000000,0.000000,0.000000,0.000000,1647858470.425569,0.000000
1.000000,40768.978389,29219.988492,31147.290009,29525.738004,-12536.802892,54858.646376,62510.140241,36705.632413,0.078000,0.994000,-0.066000,192.000000,0.000000,0.000000,0.000000,0.000000,0.000000,0.000000,0.000000,0.000000,0.000000,1647858470.433617,0.000000
2.000000,40767.324360,29211.897160,31146.999436,29525.782707,-12536.802892,54853.438420,62496.729195,36725.570169,0.078000,0.994000,-0.066000,192.000000,0.000000,0.000000,0.000000,0.000000,0.000000,0.000000,0.000000,0.000000,0.000000,1647858470.433621,0.000000
3.000000,40763.010474,29204.923416,31137.611704,29518.049004,-12543.731933,54852.387888,62475.763258,36740.322320,0.078000,0.994000,-0.066000,192.000000,0.000000,0.000000,0.000000,0.000000,0.000000,0.000000,0.000000,0.000000,0.000000,1647858470.441476,0.000000
4.000000,40776.622686,29211.025442,31117.338671,29506.694318,-12543.195491,54851.113838,62457.747752,36753.085167,0.078000,0.994000,-0.066000,192.000000,0.000000,0.000000,0.000000,0.000000,0.000000,0.000000,0.000000,0.000000,0.000000,1647858470.441479,0.000000
5.000000,40788.156186,29215.942826,31086.336802,29495.853722,-12560.808666,54839.915614,62459.960575,36784.690533,0.078000,0.994000,-0.066000,192.000000,0.000000,0.000000,0.000000,0.000000,0.000000,0.000000,0.000000,0.000000,0.000000,1647858470.448571,0.000000
6.000000,40820.745030,29232.594875,31111.191942,29507.409573,-12550.638622,54855.651242,62459.982927,36808.361031,0.078000,0.994000,-0.066000,192.000000,0.000000,0.000000,0.000000,0.000000,0.000000,0.000000,0.000000,0.000000,0.000000,1647858470.448575,0.000000
7.000000,40798.147416,29223.073032,31109.962596,29494.087934,-12564.072021,54842.754286,62448.829406,36821.302691,0.078000,0.994000,-0.066000,192.000000,0.000000,0.000000,0.000000,0.000000,0.000000,0.000000,0.000000,0.000000,0.000000,1647858470.455247,0.000000
8.000000,40781.450663,29212.053622,31106.095744,29491.070448,-12571.716317,54845.212978,62436.580650,36834.289054,0.070000,0.990000,-0.062000,192.000000,2.000000,48.000000,30.000000,240.000000,254.000000,16.000000,0.000000,0.000000,0.000000,1647858470.463213,0.000000
9.000000,40794.571137,29214.467611,31107.950939,29495.317280,-12563.043840,54855.047745,62420.263877,36838.513534,0.070000,0.990000,-0.062000,192.000000,0.000000,0.000000,0.000000,0.000000,0.000000,0.000000,0.000000,0.000000,0.000000,1647858470.463217,0.000000
10.000000,40790.056084,29200.497770,31104.642881,29484.744905,-12568.251797,54839.356821,62413.848926,36848.102432,0.070000,0.990000,-0.062000,192.000000,0.000000,0.000000,0.000000,0.000000,0.000000,0.000000,0.000000,0.000000,0.000000,1647858470.471175,0.000000
11.000000,40798.058009,29200.564826,31108.465029,29482.129751,-12561.188646,54844.251853,62415.547659,36869.113072,0.070000,0.990000,-0.062000,192.000000,0.000000,0.000000,0.000000,0.000000,0.000000,0.000000,0.000000,0.000000,0.000000,1647858470.471179,0.000000
12.000000,40783.395265,29202.285910,31094.651651,29483.448503,-12566.262491,54837.859254,62407.545734,36880.691276,0.070000,0.990000,-0.062000,192.000000,0.000000,0.000000,0.000000,0.000000,0.000000,0.000000,0.000000,0.000000,0.000000,1647858470.478298,0.000000
13.000000,40762.406977,29182.728134,31094.875168,29490.310489,-12569.838771,54832.561890,62408.484508,36899.243224,0.070000,0.990000,-0.062000,192.000000,0.000000,0.000000,0.000000,0.000000,0.000000,0.000000,0.000000,0.000000,0.000000,1647858470.478303,0.000000
14.000000,40757.802517,29160.488148,31075.831482,29490.176379,-12574.063250,54826.750437,62419.660380,36918.063392,0.070000,0.990000,-0.062000,192.000000,0.000000,0.000000,0.000000,0.000000,0.000000,0.000000,0.000000,0.000000,0.000000,1647858470.485719,0.000000
15.000000,40767.838450,29156.107206,31071.741113,29488.365887,-12581.484029,54817.519166,62422.767272,36923.316052,0.070000,0.990000,-0.062000,192.000000,0.000000,0.000000,0.000000,0.000000,0.000000,0.000000,0.000000,0.000000,0.000000,1647858470.485753,0.000000
16.000000,40747.140735,29164.869090,31067.538985,29480.520425,-12580.657015,54809.785463,62442.481511,36942.091518,0.070000,0.990000,-0.062000,192.000000,0.000000,0.000000,0.000000,0.000000,0.000000,0.000000,0.000000,0.000000,0.000000,1647858470.493843,0.000000
17.000000,40747.051328,29192.629956,31084.436904,29487.449466,-12572.319814,54819.821396,62438.949935,36936.883561,0.070000,0.990000,-0.062000,192.000000,0.000000,0.000000,0.000000,0.000000,0.000000,0.000000,0.000000,0.000000,0.000000,1647858470.493876,0.000000
18.000000,40747.207790,29184.873901,31081.955860,29477.033553,-12588.658939,54808.198489,62446.393066,36945.556038,0.072000,0.984000,-0.052000,192.000000,2.000000,64.000000,30.000000,192.000000,254.000000,96.000000,0.000000,0.000000,0.000000,1647858470.501844,0.000000
19.000000,40761.177631,29175.240299,31070.087084,29467.377599,-12594.112765,54806.298590,62446.147197,36945.623093,0.072000,0.984000,-0.052000,192.000000,0.000000,0.000000,0.000000,0.000000,0.000000,0.000000,0.000000,0.000000,0.000000,1647858470.501847,0.000000
20.000000,40777.315590,29163.907965,31050.149328,29461.633201,-12598.359597,54801.492965,62464.497979,36959.257657,0.072000,0.984000,-0.052000,192.000000,0.000000,0.000000,0.000000,0.000000,0.000000,0.000000,0.000000,0.000000,0.000000,1647858470.508471,0.000000
21.000000,40762.295218,29137.935238,31050.126976,29452.468986,-12602.539373,54792.731082,62496.393919,36984.045742,0.072000,0.984000,-0.052000,192.000000,0.000000,0.000000,0.000000,0.000000,0.000000,0.000000,0.000000,0.000000,0.000000,1647858470.508475,0.000000
22.000000,40741.105764,29121.104374,31050.238735,29454.212422,-12600.505364,54797.849631,62514.901163,36994.528710,0.072000,0.984000,-0.052000,192.000000,0.000000,0.000000,0.000000,0.000000,0.000000,0.000000,0.000000,0.000000,0.000000,1647858470.515543,0.000000
23.000000,40737.261264,29127.206400,31054.083235,29448.780948,-12604.908658,54806.902088,62516.577544,36988.292573,0.072000,0.984000,-0.052000,192.000000,0.000000,0.000000,0.000000,0.000000,0.000000,0.000000,0.000000,0.000000,0.000000,1647858470.523498,0.000000
24.000000,40729.639319,29116.924598,31031.396214,29427.591494,-12620.890155,54801.090634,62530.413274,36992.561757,0.072000,0.984000,-0.052000,192.000000,0.000000,0.000000,0.000000,0.000000,0.000000,0.000000,0.000000,0.000000,0.000000,1647858470.523503,0.000000
25.000000,40718.754020,29100.741935,31035.598342,29425.289264,-12625.472263,54795.502698,62579.207132,37029.352728,0.072000,0.984000,-0.052000,192.000000,0.000000,0.000000,0.000000,0.000000,0.000000,0.000000,0.000000,0.000000,0.000000,1647858470.531407,0.000000
26.000000,40714.551892,29104.877008,31038.839345,29435.861639,-12629.763797,54795.323884,62624.156490,37058.633513,0.072000,0.984000,-0.052000,192.000000,0.000000,0.000000,0.000000,0.000000,0.000000,0.000000,0.000000,0.000000,0.000000,1647858470.531412,0.000000
27.000000,40726.957110,29127.318159,31035.933618,29449.540907,-12623.035922,54800.777710,62641.479092,37057.560630,0.072000,0.984000,-0.052000,192.000000,0.000000,0.000000,0.000000,0.000000,0.000000,0.000000,0.000000,0.000000,0.000000,1647858470.538095,0.000000
28.000000,40722.240892,29130.425052,31011.346699,29445.696407,-12629.562632,54786.830221,62650.151569,37044.730728,0.078000,0.976000,-0.048000,192.000000,2.000000,112.000000,30.000000,128.000000,254.000000,128.000000,0.000000,0.000000,0.000000,1647858470.538099,0.000000
29.000000,40713.657822,29125.753537,31000.036716,29426.317445,-12632.133082,54768.658253,62680.460534,37050.251609,0.078000,0.976000,-0.048000,192.000000,0.000000,0.000000,0.000000,0.000000,0.000000,0.000000,0.000000,0.000000,0.000000,1647858470.546194,0.000000
30.000000,40707.086409,29102.597130,31004.283548,29411.230017,-12641.610222,54748.273462,62723.755863,37069.116481,0.078000,0.976000,-0.048000,192.000000,0.000000,0.000000,0.000000,0.000000,0.000000,0.000000,0.000000,0.000000,0.000000,1647858470.546198,0.000000
31.000000,40702.481950,29087.509702,31025.584760,29432.620637,-12630.836681,54755.358965,62773.063811,37092.943441,0.078000,0.976000,-0.048000,192.000000,0.000000,0.000000,0.000000,0.000000,0.000000,0.000000,0.000000,0.000000,0.000000,1647858470.554020,0.000000
32.000000,40691.373133,29086.682688,31018.722775,29433.514706,-12636.782245,54749.122828,62805.049158,37097.525549,0.078000,0.976000,-0.048000,192.000000,0.000000,0.000000,0.000000,0.000000,0.000000,0.000000,0.000000,0.000000,0.000000,1647858470.554023,0.000000
33.000000,40707.622851,29096.137476,31020.443859,29437.538020,-12635.664658,54747.111171,62829.032580,37094.150435,0.078000,0.976000,-0.048000,192.000000,0.000000,0.000000,0.000000,0.000000,0.000000,0.000000,0.000000,0.000000,0.000000,1647858470.560794,0.000000
34.000000,40713.009621,29108.989729,31017.851057,29425.535134,-12637.430446,54737.678735,62850.333792,37082.572232,0.078000,0.976000,-0.048000,192.000000,0.000000,0.000000,0.000000,0.000000,0.000000,0.000000,0.000000,0.000000,0.000000,1647858470.560797,0.000000
35.000000,40718.217578,29112.007214,31018.543961,29414.828648,-12637.028114,54740.293889,62877.893493,37075.442025,0.078000,0.976000,-0.048000,192.000000,0.000000,0.000000,0.000000,0.000000,0.000000,0.000000,0.000000,0.000000,0.000000,1647858470.568669,0.000000
36.000000,40732.835619,29092.650603,31010.810257,29409.419526,-12643.286603,54723.641839,62930.867127,37096.363258,0.078000,0.976000,-0.048000,192.000000,0.000000,0.000000,0.000000,0.000000,0.000000,0.000000,0.000000,0.000000,0.000000,1647858470.568673,0.000000
37.000000,40708.181644,29084.134589,31003.791810,29413.733412,-12647.667545,54714.365866,62961.198445,37095.066857,0.078000,0.976000,-0.048000,192.000000,0.000000,0.000000,0.000000,0.000000,0.000000,0.000000,0.000000,0.000000,0.000000,1647858470.575795,0.000000
38.000000,40673.670551,29070.768246,30987.430333,29394.287395,-12668.432315,54695.746862,63005.968989,37107.047392,0.092000,0.972000,-0.046000,192.000000,2.000000,224.000000,30.000000,96.000000,254.000000,144.000000,0.000000,0.000000,0.000000,1647858470.575799,0.000000
39.000000,40679.951391,29078.166673,30992.571234,29404.345680,-12664.744278,54702.966476,63054.338164,37123.095944,0.092000,0.972000,-0.046000,192.000000,0.000000,0.000000,0.000000,0.000000,0.000000,0.000000,0.000000,0.000000,0.000000,1647858470.583941,0.000000
40.000000,40713.434304,29088.828455,30990.604280,29420.103660,-12658.128161,54711.214270,63093.252551,37129.712061,0.092000,0.972000,-0.046000,192.000000,0.000000,0.000000,0.000000,0.000000,0.000000,0.000000,0.000000,0.000000,0.000000,1647858470.590334,0.000000
41.000000,40720.653918,29089.431952,31000.036716,29428.485564,-12648.248690,54725.429979,63123.427406,37122.894779,0.092000,0.972000,-0.046000,192.000000,0.000000,0.000000,0.000000,0.000000,0.000000,0.000000,0.000000,0.000000,0.000000,1647858470.590338,0.000000
42.000000,40703.845406,29081.228862,30989.866673,29421.131840,-12644.672411,54731.308488,63151.590604,37116.815104,0.092000,0.972000,-0.046000,192.000000,0.000000,0.000000,0.000000,0.000000,0.000000,0.000000,0.000000,0.000000,0.000000,1647858470.598464,0.000000
43.000000,40687.528633,29084.715734,30982.870577,29422.383538,-12648.807484,54721.384313,63169.919034,37106.063915,0.092000,0.972000,-0.046000,192.000000,0.000000,0.000000,0.000000,0.000000,0.000000,0.000000,0.000000,0.000000,0.000000,1647858470.598468,0.000000
44.000000,40692.222499,29098.350298,30989.218472,29421.556523,-12652.584929,54720.177319,63192.583703,37098.866653,0.092000,0.972000,-0.046000,192.000000,0.000000,0.000000,0.000000,0.000000,0.000000,0.000000,0.000000,0.000000,0.000000,1647858470.606444,0.000000
45.000000,40694.077694,29100.473714,30977.640269,29388.207720,-12671.114525,54706.140424,63220.076349,37096.452665,0.092000,0.972000,-0.046000,192.000000,0.000000,0.000000,0.000000,0.000000,0.000000,0.000000,0.000000,0.000000,0.000000,1647858470.606448,0.000000
46.000000,40706.147636,29078.524301,30973.348734,29373.120293,-12680.457554,54701.848889,63267.774971,37113.439991,0.092000,0.972000,-0.046000,192.000000,0.000000,0.000000,0.000000,0.000000,0.000000,0.000000,0.000000,0.000000,0.000000,1647858470.613444,0.000000
47.000000,40706.684078,29063.168652,30989.777266,29403.161037,-12662.173827,54721.026685,63300.967312,37114.490523,0.092000,0.972000,-0.046000,192.000000,0.000000,0.000000,0.000000,0.000000,0.000000,0.000000,0.000000,0.000000,0.000000,1647858470.613476,0.000000
48.000000,40712.003793,29064.330943,30985.955117,29397.997784,-12663.827856,54727.128712,63311.785556,37094.977450,0.090000,0.978000,-0.038000,192.000000,2.000000,208.000000,30.000000,144.000000,254.000000,208.000000,0.000000,0.000000,0.000000,1647858470.621021,0.000000
49.000000,40705.499435,29069.091865,30985.977469,29395.852017,-12663.134952,54732.560185,63319.899240,37075.129101,0.090000,0.978000,-0.038000,192.000000,0.000000,0.000000,0.000000,0.000000,0.000000,0.000000,0.000000,0.000000,0.000000,1647858470.621024,0.000000
50.000000,40689.607345,29054.898507,30971.024152,29382.060991,-12675.920150,54713.985886,63357.785446,37083.153377,0.090000,0.978000,-0.038000,192.000000,0.000000,0.000000,0.000000,0.000000,0.000000,0.000000,0.000000,0.000000,0.000000,1647858470.628954,0.000000
51.000000,40672.307095,29044.013207,30951.131100,29366.392418,-12691.186391,54702.944124,63404.813517,37101.302993,0.090000,0.978000,-0.038000,192.000000,0.000000,0.000000,0.000000,0.000000,0.000000,0.000000,0.000000,0.000000,0.000000,1647858470.628957,0.000000
52.000000,40670.809528,29052.819795,30950.549954,29374.170825,-12681.083403,54717.584517,63428.081683,37098.844302,0.090000,0.978000,-0.038000,192.000000,0.000000,0.000000,0.000000,0.000000,0.000000,0.000000,0.000000,0.000000,0.000000,1647858470.637015,0.000000
53.000000,40652.190525,29046.874231,30973.996934,29368.091150,-12687.967740,54704.955781,63437.581174,37085.142682,0.090000,0.978000,-0.038000,192.000000,0.000000,0.000000,0.000000,0.000000,0.000000,0.000000,0.000000,0.000000,0.000000,1647858470.637019,0.000000
54.000000,40641.819315,29059.681780,30971.046504,29359.977467,-12698.160136,54682.492278,63442.967944,37066.993066,0.090000,0.978000,-0.038000,192.000000,0.000000,0.000000,0.000000,0.000000,0.000000,0.000000,0.000000,0.000000,0.000000,1647858470.643142,0.000000
55.000000,40629.168228,29047.656542,30956.786091,29349.583906,-12702.228153,54672.568103,63483.424602,37081.320534,0.090000,0.978000,-0.038000,192.000000,0.000000,0.000000,0.000000,0.000000,0.000000,0.000000,0.000000,0.000000,0.000000,1647858470.650595,0.000000
56.000000,40631.023423,29017.571094,30959.758873,29352.087301,-12694.181525,54671.562275,63535.124187,37103.761685,0.090000,0.978000,-0.038000,192.000000,0.000000,0.000000,0.000000,0.000000,0.000000,0.000000,0.000000,0.000000,0.000000,1647858470.650599,0.000000
57.000000,40653.866905,29020.119193,30961.167033,29344.510060,-12695.366167,54668.522438,63573.233911,37117.776229,0.090000,0.978000,-0.038000,192.000000,0.000000,0.000000,0.000000,0.000000,0.000000,0.000000,0.000000,0.000000,0.000000,1647858470.658596,0.000000
58.000000,40668.037911,29036.883001,30974.242803,29362.726732,-12690.582894,54680.950008,63568.897673,37092.630517,0.096000,0.976000,-0.042000,192.000000,3.000000,0.000000,30.000000,128.000000,254.000000,176.000000,0.000000,0.000000,0.000000,1647858470.658600,0.000000
59.000000,40682.946525,29059.480615,30970.934745,29373.947307,-12678.334138,54685.308598,63574.865589,37074.011513,0.096000,0.976000,-0.042000,192.000000,0.000000,0.000000,0.000000,0.000000,0.000000,0.000000,0.000000,0.000000,0.000000,1647858470.666722,0.000000
60.000000,40703.376019,29076.803217,30970.778283,29375.556633,-12665.325423,54693.064653,63600.458336,37073.743293,0.096000,0.976000,-0.042000,192.000000,0.000000,0.000000,0.000000,0.000000,0.000000,0.000000,0.000000,0.000000,0.000000,1647858470.666726,0.000000
61.000000,40701.319659,29057.670123,30974.689838,29382.418618,-12670.131048,54684.638045,63644.558328,37096.877348,0.096000,0.976000,-0.042000,192.000000,0.000000,0.000000,0.000000,0.000000,0.000000,0.000000,0.000000,0.000000,0.000000,1647858470.673298,0.000000
62.000000,40663.545211,29042.873268,30975.829777,29370.862767,-12674.623749,54683.185182,63659.958680,37093.859863,0.096000,0.976000,-0.042000,192.000000,0.000000,0.000000,0.000000,0.000000,0.000000,0.000000,0.000000,0.000000,0.000000,1647858470.673302,0.000000
63.000000,40666.383882,29049.087053,31003.501237,29381.993935,-12661.726792,54693.802261,63657.522340,37073.162147,0.096000,0.976000,-0.042000,192.000000,0.000000,0.000000,0.000000,0.000000,0.000000,0.000000,0.000000,0.000000,0.000000,1647858470.681224,0.000000
64.000000,40672.083577,29052.439815,30998.852074,29379.825816,-12660.653908,54694.361054,63668.586453,37068.155356,0.096000,0.976000,-0.042000,192.000000,0.000000,0.000000,0.000000,0.000000,0.000000,0.000000,0.000000,0.000000,0.000000,1647858470.681228,0.000000
65.000000,40675.279877,29053.266830,30971.046504,29363.151415,-12673.059127,54688.370787,63679.158828,37064.467319,0.096000,0.976000,-0.042000,192.000000,0.000000,0.000000,0.000000,0.000000,0.000000,0.000000,0.000000,0.000000,0.000000,1647858470.689327,0.000000
66.000000,40677.179775,29061.425216,30962.999876,29372.561499,-12676.389536,54693.802261,63676.409564,37048.664635,0.096000,0.976000,-0.042000,192.000000,0.000000,0.000000,0.000000,0.000000,0.000000,0.000000,0.000000,0.000000,0.000000,1647858470.689331,0.000000
67.000000,40684.220574,29075.082132,30999.075591,29390.174674,-12665.884217,54706.632162,63677.974186,37042.294388,0.096000,0.976000,-0.042000,192.000000,0.000000,0.000000,0.000000,0.000000,0.000000,0.000000,0.000000,0.000000,0.000000,1647858470.695949,0.000000
68.000000,40684.265278,29094.595205,31016.755821,29401.059973,-12650.327402,54725.407627,63668.742915,37024.122420,0.106000,0.984000,-0.044000,192.000000,3.000000,80.000000,30.000000,192.000000,254.000000,160.000000,0.000000,0.000000,0.000000,1647858470.695952,0.000000
69.000000,40694.547080,29100.227845,31001.847208,29384.340869,-12651.087362,54724.178281,63662.573834,37009.906710,0.106000,0.984000,-0.044000,192.000000,0.000000,0.000000,0.000000,0.000000,0.000000,0.000000,0.000000,0.000000,0.000000,1647858470.702880,0.000000
70.000000,40712.853159,29097.970319,30987.765609,29389.548825,-12654.395420,54720.400837,63672.252139,37010.197283,0.106000,0.984000,-0.044000,192.000000,0.000000,0.000000,0.000000,0.000000,0.000000,0.000000,0.000000,0.000000,0.000000,1647858470.710902,0.000000
71.000000,40723.134962,29087.464999,31005.468190,29407.966662,-12647.175806,54730.883805,63669.681689,36994.104027,0.106000,0.984000,-0.044000,192.000000,0.000000,0.000000,0.000000,0.000000,0.000000,0.000000,0.000000,0.000000,0.000000,1647858470.710906,0.000000
72.000000,40693.898880,29070.432969,31006.921054,29397.997784,-12650.439161,54725.027648,63666.954776,36986.526786,0.106000,0.984000,-0.044000,192.000000,0.000000,0.000000,0.000000,0.000000,0.000000,0.000000,0.000000,0.000000,0.000000,1647858470.718920,0.000000
73.000000,40676.375112,29075.976202,31024.891856,29408.838380,-12644.895928,54729.967383,63649.475712,36966.097291,0.106000,0.984000,-0.044000,192.000000,0.000000,0.000000,0.000000,0.000000,0.000000,0.000000,0.000000,0.000000,0.000000,1647858470.718924,0.000000
74.000000,40689.830862,29080.468903,31033.251409,29412.615825,-12641.543167,54733.722476,63632.354275,36945.556038,0.106000,0.984000,-0.044000,192.000000,0.000000,0.000000,0.000000,0.000000,0.000000,0.000000,0.000000,0.000000,0.000000,1647858470.725520,0.000000
75.000000,40707.578147,29087.733220,31017.873409,29400.344718,-12645.253556,54722.457197,63623.301819,36936.458878,0.106000,0.984000,-0.044000,192.000000,0.000000,0.000000,0.000000,0.000000,0.000000,0.000000,0.000000,0.000000,0.000000,1647858470.725526,0.000000
76.000000,40716.854121,29101.568949,31027.305845,29415.521552,-12638.145702,54729.542700,63619.882002,36932.480268,0.106000,0.984000,-0.044000,192.000000,0.000000,0.000000,0.000000,0.000000,0.000000,0.000000,0.000000,0.000000,0.000000,1647858470.733530,0.000000
77.000000,40718.396392,29092.717659,31016.018214,29418.941369,-12644.739466,54724.558261,63612.237705,36925.461820,0.106000,0.984000,-0.044000,192.000000,0.000000,0.000000,0.000000,0.000000,0.000000,0.000000,0.000000,0.000000,0.000000,1647858470.733536,0.000000
78.000000,40705.432380,29087.062667,31023.774269,29413.979282,-12645.186501,54727.106360,63599.318397,36917.169323,0.106000,0.984000,-0.048000,192.000000,3.000000,80.000000,30.000000,192.000000,254.000000,128.000000,0.000000,0.000000,0.000000,1647858470.741524,0.000000
79.000000,40721.615043,29100.250196,31040.381615,29424.216381,-12629.562632,54741.076200,63571.937510,36890.950726,0.106000,0.984000,-0.048000,192.000000,0.000000,0.000000,0.000000,0.000000,0.000000,0.000000,0.000000,0.000000,0.000000,1647858470.741529,0.000000
80.000000,40757.713110,29121.327892,31016.733470,29416.214456,-12628.757969,54735.734133,63560.605176,36880.914793,0.106000,0.984000,-0.048000,192.000000,0.000000,0.000000,0.000000,0.000000,0.000000,0.000000,0.000000,0.000000,0.000000,1647858470.748527,0.000000
81.000000,40743.184476,29109.995557,31019.013348,29416.706194,-12635.239975,54730.414418,63569.344708,36893.163549,0.106000,0.984000,-0.048000,192.000000,0.000000,0.000000,0.000000,0.000000,0.000000,0.000000,0.000000,0.000000,0.000000,1647858470.748531,0.000000
82.000000,40715.468313,29092.762362,31007.837475,29413.755764,-12639.620917,54722.367790,63557.207710,36888.089703,0.106000,0.984000,-0.048000,192.000000,0.000000,0.000000,0.000000,0.000000,0.000000,0.000000,0.000000,0.000000,0.000000,1647858470.756191,0.000000
83.000000,40723.246720,29095.958662,31008.999766,29418.986072,-12638.369219,54731.844930,63531.212632,36873.985752,0.106000,0.984000,-0.048000,192.000000,0.000000,0.000000,0.000000,0.000000,0.000000,0.000000,0.000000,0.000000,0.000000,1647858470.756195,0.000000
84.000000,40708.069886,29090.147208,31031.418566,29410.604168,-12630.657867,54730.772046,63517.019274,36870.051845,0.106000,0.984000,-0.048000,192.000000,0.000000,0.000000,0.000000,0.000000,0.000000,0.000000,0.000000,0.000000,0.000000,1647858470.763216,0.000000
85.000000,40683.594726,29094.841074,31056.810147,29406.267930,-12620.890155,54733.856587,63509.531439,36871.348246,0.106000,0.984000,-0.048000,192.000000,0.000000,0.000000,0.000000,0.000000,0.000000,0.000000,0.000000,0.000000,0.000000,1647858470.771223,0.000000
86.000000,40681.717179,29102.865351,31061.906345,29410.335947,-12618.140890,54739.042191,63500.456631,36872.644648,0.106000,0.984000,-0.048000,192.000000,0.000000,0.000000,0.000000,0.000000,0.000000,0.000000,0.000000,0.000000,0.000000,1647858470.771227,0.000000
87.000000,40694.502377,29100.697231,31060.676999,29423.523477,-12615.928068,54744.518369,63480.205951,36865.469738,0.106000,0.984000,-0.048000,192.000000,0.000000,0.000000,0.000000,0.000000,0.000000,0.000000,0.000000,0.000000,0.000000,1647858470.778514,0.000000
88.000000,40706.237043,29102.261853,31062.956877,29427.256218,-12614.274039,54746.306508,63457.831855,36859.166546,0.104000,0.980000,-0.048000,192.000000,3.000000,64.000000,30.000000,160.000000,254.000000,128.000000,0.000000,0.000000,0.000000,1647858470.778522,0.000000
89.000000,40710.103894,29111.716641,31058.933563,29423.389366,-12611.278905,54744.965404,63446.566575,36862.608714,0.104000,0.980000,-0.048000,192.000000,0.000000,0.000000,0.000000,0.000000,0.000000,0.000000,0.000000,0.000000,0.000000,1647858470.786048,0.000000
90.000000,40721.771505,29127.094642,31059.827633,29439.974360,-12603.209925,54752.967328,63417.643418,36845.688444,0.104000,0.980000,-0.048000,192.000000,0.000000,0.000000,0.000000,0.000000,0.000000,0.000000,0.000000,0.000000,0.000000,1647858470.786059,0.000000
91.000000,40715.848293,29112.543656,31026.747051,29424.126974,-12624.242917,54725.631145,63426.181784,36866.274401,0.104000,0.980000,-0.048000,192.000000,0.000000,0.000000,0.000000,0.000000,0.000000,0.000000,0.000000,0.000000,0.000000,1647858470.793960,0.000000
92.000000,40729.661671,29109.883798,31026.031795,29420.483639,-12625.293449,54729.363886,63423.968962,36881.272421,0.104000,0.980000,-0.048000,192.000000,0.000000,0.000000,0.000000,0.000000,0.000000,0.000000,0.000000,0.000000,0.000000,1647858470.793971,0.000000
93.000000,40748.817116,29120.053842,31022.768441,29431.838325,-12616.039826,54742.394953,63396.945703,36875.125691,0.104000,0.980000,-0.048000,192.000000,0.000000,0.000000,0.000000,0.000000,0.000000,0.000000,0.000000,0.000000,0.000000,1647858470.801143,0.000000
94.000000,40758.562476,29132.615522,31045.187240,29446.389311,-12601.935876,54762.802096,63369.028374,36864.083930,0.104000,0.980000,-0.048000,192.000000,0.000000,0.000000,0.000000,0.000000,0.000000,0.000000,0.000000,0.000000,0.000000,1647858470.801155,0.000000
95.000000,40735.763697,29124.457136,31051.736301,29424.149325,-12602.517021,54754.800171,63353.985650,36868.330761,0.104000,0.980000,-0.048000,192.000000,0.000000,0.000000,0.000000,0.000000,0.000000,0.000000,0.000000,0.000000,0.000000,1647858470.808825,0.000000
96.000000,40742.938607,29129.419223,31063.135691,29417.779078,-12611.725940,54750.575692,63355.617327,36891.643630,0.104000,0.980000,-0.048000,192.000000,0.000000,0.000000,0.000000,0.000000,0.000000,0.000000,0.000000,0.000000,0.000000,1647858470.808843,0.000000
97.000000,40754.628569,29146.339494,31056.921906,29418.337872,-12615.324571,54750.776857,63337.355952,36896.985697,0.104000,0.980000,-0.048000,192.000000,0.000000,0.000000,0.000000,0.000000,0.000000,0.000000,0.000000,0.000000,0.000000,1647858470.816759,0.000000
98.000000,40728.901712,29147.434729,31066.756674,29426.853886,-12611.837698,54764.433773,63305.549420,36889.274346,0.100000,0.982000,-0.048000,192.000000,3.000000,32.000000,30.000000,176.000000,254.000000,128.000000,0.000000,0.000000,0.000000,1647858470.816775,0.000000
99.000000,40725.638357,29148.306447,31061.973400,29426.540962,-12604.774547,54766.199561,63291.445469,36898.349154,0.100000,0.982000,-0.048000,192.000000,0.000000,0.000000,0.000000,0.000000,0.000000,0.000000,0.000000,0.000000,0.000000,1647858470.823896,0.000000
100.000000,40739.295273,29150.921601,31055.401987,29420.707157,-12603.276980,54759.851665,63270.613643,36902.148950,0.100000,0.982000,-0.048000,192.000000,0.000000,0.000000,0.000000,0.000000,0.000000,0.000000,0.000000,0.000000,0.000000,1647858470.823912,0.000000
101.000000,40748.548895,29160.242279,31071.741113,29437.649779,-12592.570495,54768.479439,63254.788608,36916.498770,0.100000,0.982000,-0.048000,192.000000,0.000000,0.000000,0.000000,0.000000,0.000000,0.000000,0.000000,0.000000,0.000000,1647858470.830847,0.000000
102.000000,40744.369119,29157.202441,31071.227023,29438.007407,-12590.156506,54775.319073,63227.675942,36924.254826,0.100000,0.982000,-0.048000,192.000000,0.000000,0.000000,0.000000,0.000000,0.000000,0.000000,0.000000,0.000000,0.000000,1647858470.838447,0.000000
103.000000,40737.685947,29157.515366,31042.907362,29428.507916,-12604.394568,54767.250093,63199.490392,36933.597855,0.100000,0.982000,-0.048000,192.000000,0.000000,0.000000,0.000000,0.000000,0.000000,0.000000,0.000000,0.000000,0.000000,1647858470.838464,0.000000
104.000000,40758.428366,29162.544508,31049.478775,29447.953933,-12597.107899,54775.497887,63162.297089,36928.792230,0.100000,0.982000,-0.048000,192.000000,0.000000,0.000000,0.000000,0.000000,0.000000,0.000000,0.000000,0.000000,0.000000,1647858470.846404,0.000000
105.000000,40780.511890,29169.160625,31077.016124,29470.842120,-12580.500553,54782.941018,63141.755836,36941.286855,0.100000,0.982000,-0.048000,192.000000,0.000000,0.000000,0.000000,0.000000,0.000000,0.000000,0.000000,0.000000,0.000000,1647858470.846421,0.000000
106.000000,40767.279657,29168.557128,31090.069543,29469.970402,-12582.713375,54779.454145,63146.203833,36979.754207,0.100000,0.982000,-0.048000,192.000000,0.000000,0.000000,0.000000,0.000000,0.000000,0.000000,0.000000,0.000000,0.000000,1647858470.854587,0.000000
107.000000,40758.271904,29174.636802,31095.612776,29460.135634,-12572.632739,54786.182020,63130.065874,36998.127341,0.100000,0.982000,-0.048000,192.000000,0.000000,0.000000,0.000000,0.000000,0.000000,0.000000,0.000000,0.000000,0.000000,1647858470.854604,0.000000
108.000000,40744.793802,29171.015819,31105.939282,29463.354285,-12570.464619,54788.059567,63108.541144,37010.756077,0.100000,0.982000,-0.048000,192.000000,0.000000,0.000000,0.000000,0.000000,0.000000,0.000000,0.000000,0.000000,0.000000,1647858470.861107,0.000000
109.000000,40746.581941,29167.260726,31105.380488,29462.795492,-12571.559855,54794.385111,63068.598577,37003.715277,0.088000,0.982000,-0.050000,192.000000,2.000000,192.000000,30.000000,176.000000,254.000000,112.000000,0.000000,0.000000,0.000000,1647858470.861125,0.000000
110.000000,40762.228163,29176.559052,31104.307604,29464.203651,-12567.313023,54793.826317,63048.482007,37012.611271,0.088000,0.982000,-0.050000,192.000000,0.000000,0.000000,0.000000,0.000000,0.000000,0.000000,0.000000,0.000000,0.000000,1647858470.869053,0.000000
111.000000,40747.028976,29189.053677,31093.757581,29450.837308,-12578.555951,54782.605741,63049.420780,37045.155411,0.088000,0.982000,-0.050000,192.000000,0.000000,0.000000,0.000000,0.000000,0.000000,0.000000,0.000000,0.000000,0.000000,1647858470.869070,0.000000
112.000000,40736.031918,29171.194633,31092.639994,29451.351398,-12588.189553,54777.107212,63030.868832,37064.288505,0.088000,0.982000,-0.050000,192.000000,0.000000,0.000000,0.000000,0.000000,0.000000,0.000000,0.000000,0.000000,0.000000,1647858470.877131,0.000000
113.000000,40760.104747,29167.975982,31099.412572,29466.260012,-12581.685195,54786.986683,62996.067166,37067.797729,0.088000,0.982000,-0.050000,192.000000,0.000000,0.000000,0.000000,0.000000,0.000000,0.000000,0.000000,0.000000,0.000000,1647858470.877147,0.000000
114.000000,40791.732465,29192.585253,31087.655555,29471.713838,-12571.068117,54799.391901,62970.139142,37076.157281,0.088000,0.982000,-0.050000,192.000000,0.000000,0.000000,0.000000,0.000000,0.000000,0.000000,0.000000,0.000000,0.000000,1647858470.884249,0.000000
115.000000,40806.126989,29199.782515,31079.564223,29464.002486,-12570.934006,54798.117852,62968.373354,37100.788903,0.088000,0.982000,-0.050000,192.000000,0.000000,0.000000,0.000000,0.000000,0.000000,0.000000,0.000000,0.000000,0.000000,1647858470.884266,0.000000
116.000000,40786.658619,29187.176131,31080.167720,29455.330009,-12583.473335,54784.572695,62960.751410,37119.720831,0.088000,0.982000,-0.050000,192.000000,0.000000,0.000000,0.000000,0.000000,0.000000,0.000000,0.000000,0.000000,0.000000,1647858470.890718,0.000000
117.000000,40764.932724,29194.149875,31087.655555,29461.677904,-12582.355748,54783.008073,62948.525005,37136.685805,0.088000,0.982000,-0.050000,192.000000,0.000000,0.000000,0.000000,0.000000,0.000000,0.000000,0.000000,0.000000,0.000000,1647858470.898841,0.000000
118.000000,40765.804442,29204.565788,31115.461125,29487.337707,-12560.294576,54806.969143,62931.738845,37150.543886,0.088000,0.982000,-0.050000,192.000000,0.000000,0.000000,0.000000,0.000000,0.000000,0.000000,0.000000,0.000000,0.000000,1647858470.898857,0.000000
119.000000,40762.652846,29190.417134,31119.752660,29482.420323,-12559.825189,54805.538631,62932.074121,37177.097759,0.080000,0.988000,-0.050000,192.000000,2.000000,128.000000,30.000000,224.000000,254.000000,112.000000,0.000000,0.000000,0.000000,1647858470.906841,0.000000
120.000000,40757.176668,29190.350078,31108.777953,29482.465027,-12560.339279,54800.867117,62925.994447,37195.381486,0.080000,0.988000,-0.050000,192.000000,0.000000,0.000000,0.000000,0.000000,0.000000,0.000000,0.000000,0.000000,0.000000,1647858470.906859,0.000000
121.000000,40743.452697,29188.271366,31102.698279,29468.428131,-12570.397564,54795.033311,62916.383197,37212.257053,0.080000,0.988000,-0.050000,192.000000,0.000000,0.000000,0.000000,0.000000,0.000000,0.000000,0.000000,0.000000,0.000000,1647858470.913533,0.000000
122.000000,40756.081433,29185.745619,31093.109380,29452.312523,-12576.790163,54789.020692,62913.164546,37237.134545,0.080000,0.988000,-0.050000,192.000000,0.000000,0.000000,0.000000,0.000000,0.000000,0.000000,0.000000,0.000000,0.000000,1647858470.913550,0.000000
123.000000,40765.893849,29197.122657,31103.793514,29466.662343,-12574.666747,54792.351102,62890.812801,37240.263789,0.080000,0.988000,-0.050000,192.000000,0.000000,0.000000,0.000000,0.000000,0.000000,0.000000,0.000000,0.000000,0.000000,1647858470.921299,0.000000
124.000000,40778.276715,29212.970044,31118.947997,29479.604003,-12564.943739,54798.967218,62874.406621,37245.024710,0.080000,0.988000,-0.050000,192.000000,0.000000,0.000000,0.000000,0.000000,0.000000,0.000000,0.000000,0.000000,0.000000,1647858470.921314,0.000000
125.000000,40765.223296,29184.493921,31105.246378,29466.036494,-12570.531675,54789.445375,62871.523246,37264.671894,0.080000,0.988000,-0.050000,192.000000,0.000000,0.000000,0.000000,0.000000,0.000000,0.000000,0.000000,0.000000,0.000000,1647858470.929262,0.000000
126.000000,40743.184476,29160.778720,31075.719723,29451.083177,-12588.077794,54774.715576,62876.284167,37295.517301,0.080000,0.988000,-0.050000,192.000000,0.000000,0.000000,0.000000,0.000000,0.000000,0.000000,0.000000,0.000000,0.000000,1647858470.929277,0.000000
127.000000,40764.038654,29183.868072,31070.824691,29439.214401,-12592.279922,54778.560076,62877.111182,37322.317043,0.080000,0.988000,-0.050000,192.000000,0.000000,0.000000,0.000000,0.000000,0.000000,0.000000,0.000000,0.000000,0.000000,1647858470.937447,0.000000
128.000000,40796.180462,29219.787326,31077.664325,29445.986980,-12586.244951,54796.195602,62859.810932,37325.133362,0.080000,0.988000,-0.050000,192.000000,0.000000,0.000000,0.000000,0.000000,0.000000,0.000000,0.000000,0.000000,0.000000,1647858470.937464,0.000000
129.000000,40774.834546,29208.544398,31073.350438,29451.440805,-12580.053518,54797.648465,62850.602013,37335.459868,0.076000,0.994000,-0.050000,192.000000,2.000000,96.000000,31.000000,16.000000,254.000000,112.000000,0.000000,0.000000,0.000000,1647858470.943944,0.000000
130.000000,40762.406977,29198.709631,31082.849930,29447.261029,-12577.036032,54789.266561,62853.641850,37357.655151,0.076000,0.994000,-0.050000,192.000000,0.000000,0.000000,0.000000,0.000000,0.000000,0.000000,0.000000,0.000000,0.000000,1647858470.943960,0.000000
131.000000,40775.259230,29209.214951,31091.812979,29453.296000,-12574.689099,54791.524087,62866.427048,37388.679372,0.076000,0.994000,-0.050000,192.000000,0.000000,0.000000,0.000000,0.000000,0.000000,0.000000,0.000000,0.000000,0.000000,1647858470.951062,0.000000
132.000000,40783.529375,29212.768878,31095.880997,29471.311506,-12578.690061,54793.692207,62860.615594,37397.821235,0.076000,0.994000,-0.050000,192.000000,0.000000,0.000000,0.000000,0.000000,0.000000,0.000000,0.000000,0.000000,0.000000,1647858470.959039,0.000000
133.000000,40778.924916,29217.038061,31094.919872,29472.652611,-12572.453925,54802.655256,62839.560251,37392.032134,0.076000,0.994000,-0.050000,192.000000,0.000000,0.000000,0.000000,0.000000,0.000000,0.000000,0.000000,0.000000,0.000000,1647858470.959056,0.000000
134.000000,40764.172764,29203.247035,31078.401933,29451.172584,-12578.287730,54790.026520,62851.563138,37417.803695,0.076000,0.994000,-0.050000,192.000000,0.000000,0.000000,0.000000,0.000000,0.000000,0.000000,0.000000,0.000000,0.000000,1647858470.966136,0.000000
135.000000,40766.117366,29205.638672,31085.174511,29448.266858,-12584.412108,54789.177154,62858.380420,37436.757974,0.076000,0.994000,-0.050000,192.000000,0.000000,0.000000,0.000000,0.000000,0.000000,0.000000,0.000000,0.000000,0.000000,1647858470.966154,0.000000
136.000000,40764.731558,29192.115866,31083.989869,29444.332951,-12587.250780,54786.092613,62855.765266,37446.033948,0.076000,0.994000,-0.050000,192.000000,0.000000,0.000000,0.000000,0.000000,0.000000,0.000000,0.000000,0.000000,0.000000,1647858470.973680,0.000000
137.000000,40781.607125,29183.309279,31063.783892,29451.038474,-12588.904809,54790.272390,62865.912958,37467.804547,0.076000,0.994000,-0.050000,192.000000,0.000000,0.000000,0.000000,0.000000,0.000000,0.000000,0.000000,0.000000,0.000000,1647858470.973696,0.000000
138.000000,40775.974485,29172.111055,31070.444711,29452.893669,-12591.475259,54795.078015,62858.000440,37472.587821,0.076000,0.994000,-0.050000,192.000000,0.000000,0.000000,0.000000,0.000000,0.000000,0.000000,0.000000,0.000000,0.000000,1647858470.981727,0.000000
139.000000,40742.245703,29173.563918,31078.513691,29442.567163,-12593.397509,54790.853535,62871.970281,37501.734495,0.068000,0.998000,-0.044000,192.000000,2.000000,32.000000,31.000000,48.000000,254.000000,160.000000,0.000000,0.000000,0.000000,1647858470.981743,0.000000
140.000000,40725.191322,29181.230567,31083.073447,29431.905381,-12598.001969,54783.455108,62898.233580,37541.341787,0.068000,0.998000,-0.044000,192.000000,0.000000,0.000000,0.000000,0.000000,0.000000,0.000000,0.000000,0.000000,0.000000,1647858470.989716,0.000000
141.000000,40719.357517,29162.969191,31068.656572,29424.931636,-12609.580172,54773.374471,62921.680560,37571.360179,0.068000,0.998000,-0.044000,192.000000,0.000000,0.000000,0.000000,0.000000,0.000000,0.000000,0.000000,0.000000,0.000000,1647858470.989732,0.000000
142.000000,40732.433287,29177.654288,31053.010351,29424.238732,-12609.066082,54779.342387,62929.570726,37580.636153,0.068000,0.998000,-0.044000,192.000000,0.000000,0.000000,0.000000,0.000000,0.000000,0.000000,0.000000,0.000000,0.000000,1647858470.996269,0.000000
143.000000,40750.649959,29186.706744,31043.354397,29436.979227,-12606.719149,54785.757337,62926.061502,37588.951002,0.068000,0.998000,-0.044000,192.000000,0.000000,0.000000,0.000000,0.000000,0.000000,0.000000,0.000000,0.000000,0.000000,1647858470.996285,0.000000
144.000000,40762.339921,29164.287944,31056.251354,29443.327122,-12601.555896,54789.579486,62934.465758,37609.112276,0.068000,0.998000,-0.044000,192.000000,0.000000,0.000000,0.000000,0.000000,0.000000,0.000000,0.000000,0.000000,0.000000,1647858471.004057,0.000000
145.000000,40780.690703,29156.777758,31067.002543,29451.977247,-12591.095280,54796.754396,62936.767988,37619.125857,0.068000,0.998000,-0.044000,192.000000,0.000000,0.000000,0.000000,0.000000,0.000000,0.000000,0.000000,0.000000,0.000000,1647858471.004068,0.000000
146.000000,40801.187253,29176.849625,31070.735284,29457.766349,-12583.495686,54798.408425,62936.365656,37625.049070,0.068000,0.998000,-0.044000,192.000000,0.000000,0.000000,0.000000,0.000000,0.000000,0.000000,0.000000,0.000000,0.000000,1647858471.011011,0.000000
147.000000,40775.259230,29177.028439,31074.825653,29454.704160,-12585.909675,54793.178116,62947.519177,37641.231733,0.068000,0.998000,-0.044000,192.000000,0.000000,0.000000,0.000000,0.000000,0.000000,0.000000,0.000000,0.000000,0.000000,1647858471.018964,0.000000
148.000000,40741.061061,29160.957534,31100.396049,29459.040398,-12585.887323,54795.659160,62935.449235,37630.011157,0.068000,0.998000,-0.044000,192.000000,0.000000,0.000000,0.000000,0.000000,0.000000,0.000000,0.000000,0.000000,0.000000,1647858471.018970,0.000000
149.000000,40724.520770,29151.390988,31090.963613,29451.396102,-12587.764870,54790.674721,62946.334534,37642.639892,0.074000,0.992000,-0.042000,192.000000,2.000000,80.000000,31.000000,0.000000,254.000000,176.000000,0.000000,0.000000,0.000000,1647858471.025587,0.000000
150.000000,40729.438153,29146.473604,31086.247395,29436.979227,-12589.329492,54780.236456,62962.986584,37657.839079,0.074000,0.992000,-0.042000,192.000000,0.000000,0.000000,0.000000,0.000000,0.000000,0.000000,0.000000,0.000000,0.000000,1647858471.025596,0.000000
151.000000,40737.551837,29148.328799,31074.468026,29437.068634,-12599.365425,54768.971177,62986.880599,37682.068370,0.074000,0.992000,-0.042000,192.000000,0.000000,0.000000,0.000000,0.000000,0.000000,0.000000,0.000000,0.000000,0.000000,1647858471.033740,0.000000
152.000000,40745.397299,29150.943953,31056.787796,29445.830518,-12599.432480,54768.680605,62977.984605,37670.668980,0.074000,0.992000,-0.042000,192.000000,0.000000,0.000000,0.000000,0.000000,0.000000,0.000000,0.000000,0.000000,0.000000,1647858471.033748,0.000000
153.000000,40748.548895,29153.112072,31055.379636,29449.451500,-12604.059291,54764.210256,62980.823276,37669.529041,0.074000,0.992000,-0.042000,192.000000,0.000000,0.000000,0.000000,0.000000,0.000000,0.000000,0.000000,0.000000,0.000000,1647858471.041668,0.000000
154.000000,40732.455639,29150.943953,31061.660476,29438.476794,-12610.764815,54759.114058,63004.113794,37687.231623,0.074000,0.992000,-0.042000,192.000000,0.000000,0.000000,0.000000,0.000000,0.000000,0.000000,0.000000,0.000000,0.000000,1647858471.041675,0.000000
155.000000,40732.388584,29158.856470,31059.805281,29424.395195,-12606.965018,54764.254959,63013.434471,37689.287983,0.074000,0.992000,-0.042000,192.000000,0.000000,0.000000,0.000000,0.000000,0.000000,0.000000,0.000000,0.000000,0.000000,1647858471.048093,0.000000
156.000000,40749.219447,29136.258857,31043.868487,29413.733412,-12618.453815,54753.392011,63039.653068,37704.531873,0.074000,0.992000,-0.042000,192.000000,0.000000,0.000000,0.000000,0.000000,0.000000,0.000000,0.000000,0.000000,0.000000,1647858471.048099,0.000000
157.000000,40745.844334,29108.341528,31023.774269,29420.729508,-12631.306068,54744.473665,63057.355649,37709.158684,0.074000,0.992000,-0.042000,192.000000,0.000000,0.000000,0.000000,0.000000,0.000000,0.000000,0.000000,0.000000,0.000000,1647858471.056126,0.000000
158.000000,40740.211694,29113.102450,31026.948217,29412.235846,-12627.662734,54743.534892,63065.178760,37706.923509,0.074000,0.992000,-0.042000,192.000000,0.000000,0.000000,0.000000,0.000000,0.000000,0.000000,0.000000,0.000000,0.000000,1647858471.056133,0.000000
159.000000,40724.990156,29120.992615,31030.569199,29400.635290,-12629.115597,54738.393991,63111.536278,37748.810679,0.088000,0.986000,-0.050000,192.000000,2.000000,192.000000,30.000000,208.000000,254.000000,112.000000,0.000000,0.000000,0.000000,1647858471.064224,0.000000
160.000000,40723.894921,29116.410508,31015.325310,29384.631441,-12643.308955,54726.301697,63162.855883,37793.335354,0.088000,0.986000,-0.050000,192.000000,0.000000,0.000000,0.000000,0.000000,0.000000,0.000000,0.000000,0.000000,0.000000,1647858471.064230,0.000000
161.000000,40728.544084,29113.281264,31020.913246,29404.077459,-12642.280774,54730.794398,63187.554561,37804.265357,0.088000,0.986000,-0.050000,192.000000,0.000000,0.000000,0.000000,0.000000,0.000000,0.000000,0.000000,0.000000,0.000000,1647858471.071222,0.000000
162.000000,40700.179720,29086.459170,31031.463269,29411.073555,-12634.748237,54728.268651,63188.225113,37789.267336,0.088000,0.986000,-0.050000,192.000000,0.000000,0.000000,0.000000,0.000000,0.000000,0.000000,0.000000,0.000000,0.000000,1647858471.071228,0.000000
163.000000,40687.640391,29078.658411,31042.057996,29408.212532,-12632.021324,54726.882842,63190.437936,37776.951525,0.088000,0.986000,-0.050000,192.000000,0.000000,0.000000,0.000000,0.000000,0.000000,0.000000,0.000000,0.000000,0.000000,1647858471.077702,0.000000
164.000000,40692.647182,29080.535958,31030.211571,29391.448723,-12640.872614,54716.019895,63219.897535,37788.797949,0.088000,0.986000,-0.050000,192.000000,0.000000,0.000000,0.000000,0.000000,0.000000,0.000000,0.000000,0.000000,0.000000,1647858471.085836,0.000000
165.000000,40718.575206,29091.465961,31018.253388,29387.358354,-12648.025173,54711.102511,63248.038381,37798.655069,0.088000,0.986000,-0.050000,192.000000,0.000000,0.000000,0.000000,0.000000,0.000000,0.000000,0.000000,0.000000,0.000000,1647858471.085840,0.000000
166.000000,40750.158221,29113.840057,30996.348679,29389.817046,-12655.781228,54706.498051,63268.870207,37802.186644,0.088000,0.986000,-0.050000,192.000000,0.000000,0.000000,0.000000,0.000000,0.000000,0.000000,0.000000,0.000000,0.000000,1647858471.094027,0.000000
167.000000,40724.788991,29106.240464,30978.936670,29378.149435,-12665.325423,54704.687560,63275.732192,37789.781426,0.088000,0.986000,-0.050000,192.000000,0.000000,0.000000,0.000000,0.000000,0.000000,0.000000,0.000000,0.000000,0.000000,1647858471.094039,0.000000
168.000000,40702.616060,29100.429010,30999.992013,29386.643098,-12660.452743,54709.761406,63282.571826,37778.650257,0.088000,0.986000,-0.050000,192.000000,0.000000,0.000000,0.000000,0.000000,0.000000,0.000000,0.000000,0.000000,0.000000,1647858471.101170,0.000000
169.000000,40685.628734,29090.303670,31014.811220,29382.575081,-12653.121370,54709.470833,63302.688396,37780.348990,0.094000,0.986000,-0.048000,192.000000,2.000000,240.000000,30.000000,208.000000,254.000000,128.000000,0.000000,0.000000,0.000000,1647858471.101186,0.000000
170.000000,40681.359551,29070.008286,31007.658661,29366.057142,-12661.078591,54692.192935,63340.060513,37797.068095,0.094000,0.986000,-0.048000,192.000000,0.000000,0.000000,0.000000,0.000000,0.000000,0.000000,0.000000,0.000000,0.000000,1647858471.108780,0.000000
171.000000,40699.866796,29087.420295,31030.569199,29395.002651,-12651.780266,54711.080159,63348.040086,37781.310115,0.094000,0.986000,-0.048000,192.000000,0.000000,0.000000,0.000000,0.000000,0.000000,0.000000,0.000000,0.000000,0.000000,1647858471.108797,0.000000
172.000000,40698.592746,29087.576757,31022.187295,29397.573101,-12653.791923,54708.375598,63351.817531,37767.921420,0.094000,0.986000,-0.048000,192.000000,0.000000,0.000000,0.000000,0.000000,0.000000,0.000000,0.000000,0.000000,0.000000,1647858471.116703,0.000000
173.000000,40690.032028,29071.438798,31011.078478,29379.088209,-12665.437182,54687.320255,63378.863141,37779.343162,0.094000,0.986000,-0.048000,192.000000,0.000000,0.000000,0.000000,0.000000,0.000000,0.000000,0.000000,0.000000,0.000000,1647858471.116720,0.000000
174.000000,40696.469330,29078.189025,31027.194086,29386.307822,-12659.178693,54690.583609,63403.293598,37784.014676,0.094000,0.986000,-0.048000,192.000000,0.000000,0.000000,0.000000,0.000000,0.000000,0.000000,0.000000,0.000000,0.000000,1647858471.124894,0.000000
175.000000,40703.264261,29084.000478,31017.336967,29388.990031,-12654.417772,54691.969418,63412.234296,37774.157557,0.094000,0.986000,-0.048000,192.000000,0.000000,0.000000,0.000000,0.000000,0.000000,0.000000,0.000000,0.000000,0.000000,1647858471.124910,0.000000
176.000000,40705.901767,29085.475693,30995.387554,29382.753895,-12669.549903,54678.580723,63437.335305,37781.466577,0.094000,0.986000,-0.048000,192.000000,0.000000,0.000000,0.000000,0.000000,0.000000,0.000000,0.000000,0.000000,0.000000,1647858471.131295,0.000000
177.000000,40711.936738,29093.142342,30990.984260,29387.268947,-12672.634443,54681.978188,63464.649137,37790.317868,0.094000,0.986000,-0.048000,192.000000,0.000000,0.000000,0.000000,0.000000,0.000000,0.000000,0.000000,0.000000,0.000000,1647858471.131312,0.000000
178.000000,40727.471200,29087.956737,30975.427446,29381.166921,-12676.166019,54679.385385,63487.067936,37796.933984,0.094000,0.986000,-0.048000,192.000000,0.000000,0.000000,0.000000,0.000000,0.000000,0.000000,0.000000,0.000000,0.000000,1647858471.138321,0.000000
179.000000,40739.943473,29094.215225,30972.767588,29377.635345,-12672.567388,54683.296941,63511.118413,37803.438342,0.100000,0.988000,-0.044000,192.000000,3.000000,32.000000,30.000000,224.000000,254.000000,160.000000,0.000000,0.000000,0.000000,1647858471.146342,0.000000
180.000000,40694.569432,29075.998554,30970.554766,29363.889022,-12679.362318,54673.573932,63545.428341,37820.649185,0.100000,0.988000,-0.044000,192.000000,0.000000,0.000000,0.000000,0.000000,0.000000,0.000000,0.000000,0.000000,0.000000,1647858471.146358,0.000000
181.000000,40658.493717,29058.541841,30985.306917,29357.317609,-12689.398252,54662.934502,63575.983176,37837.748270,0.100000,0.988000,-0.044000,192.000000,0.000000,0.000000,0.000000,0.000000,0.000000,0.000000,0.000000,0.000000,0.000000,1647858471.154371,0.000000
182.000000,40670.742472,29082.435856,31011.816086,29379.714057,-12671.360394,54686.068557,63565.030821,37813.809551,0.100000,0.988000,-0.044000,192.000000,0.000000,0.000000,0.000000,0.000000,0.000000,0.000000,0.000000,0.000000,0.000000,1647858471.154386,0.000000
183.000000,40679.303191,29108.430935,31014.319481,29380.094037,-12656.720001,54698.049092,63548.870510,37787.568603,0.100000,0.988000,-0.044000,192.000000,0.000000,0.000000,0.000000,0.000000,0.000000,0.000000,0.000000,0.000000,0.000000,1647858471.161039,0.000000
184.000000,40689.070903,29092.382382,31010.430278,29379.267023,-12657.971699,54690.471851,63563.846179,37794.519996,0.100000,0.988000,-0.044000,192.000000,0.000000,0.000000,0.000000,0.000000,0.000000,0.000000,0.000000,0.000000,0.000000,1647858471.161055,0.000000
185.000000,40689.316772,29085.721563,31011.056126,29377.411828,-12661.525626,54685.286246,63588.477801,37813.027240,0.100000,0.988000,-0.044000,192.000000,0.000000,0.000000,0.000000,0.000000,0.000000,0.000000,0.000000,0.000000,0.000000,1647858471.168866,0.000000
186.000000,40703.823054,29097.523284,31007.681013,29386.687802,-12658.150513,54690.494202,63588.701318,37811.060287,0.100000,0.988000,-0.044000,192.000000,0.000000,0.000000,0.000000,0.000000,0.000000,0.000000,0.000000,0.000000,0.000000,1647858471.168881,0.000000
187.000000,40719.133999,29101.501894,31003.411830,29386.307822,-12662.017365,54688.951932,63594.244551,37813.764848,0.100000,0.988000,-0.044000,192.000000,0.000000,0.000000,0.000000,0.000000,0.000000,0.000000,0.000000,0.000000,0.000000,1647858471.176911,0.000000
188.000000,40728.767601,29115.158810,31008.150400,29399.785924,-12655.445952,54692.148232,63572.898635,37786.160444,0.100000,0.988000,-0.044000,192.000000,0.000000,0.000000,0.000000,0.000000,0.000000,0.000000,0.000000,0.000000,0.000000,1647858471.176922,0.000000
189.000000,40711.154426,29101.144266,30988.771437,29379.825816,-12662.352641,54671.562275,63579.380641,37782.025371,0.106000,0.976000,-0.040000,192.000000,3.000000,80.000000,30.000000,128.000000,254.000000,192.000000,0.000000,0.000000,0.000000,1647858471.183537,0.000000
190.000000,40691.261374,29081.899414,30996.549844,29378.931746,-12657.144684,54676.412603,63612.684740,37802.723086,0.106000,0.976000,-0.040000,192.000000,0.000000,0.000000,0.000000,0.000000,0.000000,0.000000,0.000000,0.000000,0.000000,1647858471.183551,0.000000
191.000000,40693.541252,29083.106408,31025.517705,29394.913244,-12643.845397,54693.891668,63607.230915,37787.859176,0.106000,0.976000,-0.040000,192.000000,0.000000,0.000000,0.000000,0.000000,0.000000,0.000000,0.000000,0.000000,0.000000,1647858471.191515,0.000000
192.000000,40691.484891,29084.000478,31019.013348,29378.663525,-12656.496484,54683.855734,63616.149261,37792.910670,0.106000,0.976000,-0.040000,192.000000,0.000000,0.000000,0.000000,0.000000,0.000000,0.000000,0.000000,0.000000,0.000000,1647858471.191528,0.000000
193.000000,40688.802682,29089.499007,31009.357394,29374.796674,-12659.558673,54681.598208,63619.122043,37791.636621,0.106000,0.976000,-0.040000,192.000000,0.000000,0.000000,0.000000,0.000000,0.000000,0.000000,0.000000,0.000000,0.000000,1647858471.198434,0.000000
194.000000,40685.338162,29082.078228,31014.990034,29380.898700,-12653.523702,54688.594304,63629.515604,37793.625926,0.106000,0.976000,-0.040000,192.000000,0.000000,0.000000,0.000000,0.000000,0.000000,0.000000,0.000000,0.000000,0.000000,1647858471.206708,0.000000
195.000000,40708.874549,29089.543711,31023.014310,29393.370973,-12648.114580,54691.611790,63634.142415,37789.893185,0.106000,0.976000,-0.040000,192.000000,0.000000,0.000000,0.000000,0.000000,0.000000,0.000000,0.000000,0.000000,0.000000,1647858471.206724,0.000000
196.000000,40727.471200,29104.139400,31017.784002,29378.752932,-12648.539263,54692.014121,63636.489348,37789.155577,0.106000,0.976000,-0.040000,192.000000,0.000000,0.000000,0.000000,0.000000,0.000000,0.000000,0.000000,0.000000,0.000000,1647858471.213127,0.000000
197.000000,40719.983366,29109.123839,31011.458458,29371.242746,-12658.083458,54685.822688,63641.764360,37798.118627,0.106000,0.976000,-0.040000,192.000000,0.000000,0.000000,0.000000,0.000000,0.000000,0.000000,0.000000,0.000000,0.000000,1647858471.213141,0.000000
198.000000,40700.067961,29119.137421,31022.187295,29383.178578,-12659.446914,54697.020912,63622.407749,37783.589993,0.106000,0.976000,-0.040000,192.000000,0.000000,0.000000,0.000000,0.000000,0.000000,0.000000,0.000000,0.000000,0.000000,1647858471.221117,0.000000
199.000000,40702.504301,29110.666109,31011.749031,29380.429313,-12654.596586,54697.266781,63622.497156,37782.248888,0.104000,0.980000,-0.038000,192.000000,3.000000,64.000000,30.000000,160.000000,254.000000,208.000000,0.000000,0.000000,0.000000,1647858471.221130,0.000000
200.000000,40719.536331,29098.819685,31008.373917,29385.078476,-12650.506216,54700.261915,63627.503947,37782.673571,0.104000,0.980000,-0.038000,192.000000,0.000000,0.000000,0.000000,0.000000,0.000000,0.000000,0.000000,0.000000,0.000000,1647858471.229089,0.000000
201.000000,40719.066944,29088.023792,30998.025059,29390.353488,-12648.203987,54697.937333,63624.777034,37780.997191,0.104000,0.980000,-0.038000,192.000000,0.000000,0.000000,0.000000,0.000000,0.000000,0.000000,0.000000,0.000000,0.000000,1647858471.229102,0.000000
202.000000,40707.958127,29101.121915,30997.823894,29386.508988,-12650.617975,54697.400891,63623.145357,37780.818377,0.104000,0.980000,-0.038000,192.000000,0.000000,0.000000,0.000000,0.000000,0.000000,0.000000,0.000000,0.000000,0.000000,1647858471.236268,0.000000
203.000000,40690.501415,29092.449438,30997.488618,29366.347714,-12663.403173,54686.537944,63626.408711,37790.988420,0.104000,0.980000,-0.038000,192.000000,0.000000,0.000000,0.000000,0.000000,0.000000,0.000000,0.000000,0.000000,0.000000,1647858471.236282,0.000000
204.000000,40706.125284,29094.885778,31019.281568,29366.459473,-12656.183559,54690.918886,63623.570040,37795.257604,0.104000,0.980000,-0.038000,192.000000,0.000000,0.000000,0.000000,0.000000,0.000000,0.000000,0.000000,0.000000,0.000000,1647858471.243848,0.000000
205.000000,40723.157313,29104.832304,31021.673205,29377.188310,-12655.937690,54694.249296,63640.356200,37816.938796,0.104000,0.980000,-0.038000,192.000000,0.000000,0.000000,0.000000,0.000000,0.000000,0.000000,0.000000,0.000000,0.000000,1647858471.243864,0.000000
206.000000,40730.108706,29119.249179,31027.730528,29397.438991,-12644.203024,54709.984924,63630.074397,37809.897996,0.104000,0.980000,-0.038000,192.000000,0.000000,0.000000,0.000000,0.000000,0.000000,0.000000,0.000000,0.000000,0.000000,1647858471.251852,0.000000
207.000000,40709.254528,29107.201589,31025.763574,29401.059973,-12640.045600,54708.375598,63628.129796,37811.641432,0.104000,0.980000,-0.038000,192.000000,0.000000,0.000000,0.000000,0.000000,0.000000,0.000000,0.000000,0.000000,0.000000,1647858471.251866,0.000000
208.000000,40706.572319,29116.902246,31048.562354,29416.035642,-12624.198213,54720.557299,63605.152202,37792.955374,0.104000,0.980000,-0.038000,192.000000,0.000000,0.000000,0.000000,0.000000,0.000000,0.000000,0.000000,0.000000,0.000000,1647858471.258701,0.000000
209.000000,40719.513979,29134.537772,31063.895650,29436.241619,-12609.714283,54729.162720,63587.717842,37779.186699,0.104000,0.980000,-0.038000,192.000000,0.000000,0.000000,0.000000,0.000000,0.000000,0.000000,0.000000,0.000000,0.000000,1647858471.265766,0.000000
210.000000,40740.770488,29145.020741,31065.080293,29429.223171,-12600.281847,54734.348325,63589.014243,37781.555984,0.104000,0.972000,-0.042000,192.000000,3.000000,64.000000,30.000000,96.000000,254.000000,176.000000,0.000000,0.000000,0.000000,1647858471.265771,0.000000
211.000000,40762.943418,29151.189822,31064.812072,29432.084195,-12603.902829,54737.522273,63584.588597,37781.354819,0.104000,0.972000,-0.042000,192.000000,0.000000,0.000000,0.000000,0.000000,0.000000,0.000000,0.000000,0.000000,0.000000,1647858471.273424,0.000000
212.000000,40759.992988,29147.837060,31049.858755,29426.965645,-12613.134100,54731.219081,63568.048306,37769.418987,0.104000,0.972000,-0.042000,192.000000,0.000000,0.000000,0.000000,0.000000,0.000000,0.000000,0.000000,0.000000,0.000000,1647858471.273433,0.000000
213.000000,40730.041651,29132.101432,31030.725662,29415.409793,-12627.640382,54720.445540,63558.325298,37766.982647,0.104000,0.972000,-0.042000,192.000000,0.000000,0.000000,0.000000,0.000000,0.000000,0.000000,0.000000,0.000000,0.000000,1647858471.281401,0.000000
214.000000,40739.921122,29137.599961,31029.406909,29417.890837,-12619.951382,54723.172453,63555.911309,37771.631810,0.104000,0.972000,-0.042000,192.000000,0.000000,0.000000,0.000000,0.000000,0.000000,0.000000,0.000000,0.000000,0.000000,1647858471.281413,0.000000
215.000000,40736.456601,29153.313238,31042.952066,29414.627482,-12613.849355,54722.233680,63556.157178,37777.644429,0.104000,0.972000,-0.042000,192.000000,0.000000,0.000000,0.000000,0.000000,0.000000,0.000000,0.000000,0.000000,0.000000,1647858471.289731,0.000000
216.000000,40729.482857,29157.716531,31066.667267,29425.624541,-12601.578248,54732.671944,63549.205786,37775.185737,0.104000,0.972000,-0.042000,192.000000,0.000000,0.000000,0.000000,0.000000,0.000000,0.000000,0.000000,0.000000,0.000000,1647858471.289747,0.000000
217.000000,40737.238912,29141.444462,31066.086121,29422.495296,-12600.818288,54734.929470,63544.869547,37776.772711,0.104000,0.972000,-0.042000,192.000000,0.000000,0.000000,0.000000,0.000000,0.000000,0.000000,0.000000,0.000000,0.000000,1647858471.296035,0.000000
218.000000,40749.152392,29160.219927,31060.945220,29430.229000,-12597.085547,54747.938186,63512.683035,37752.074033,0.104000,0.972000,-0.042000,192.000000,0.000000,0.000000,0.000000,0.000000,0.000000,0.000000,0.000000,0.000000,0.000000,1647858471.296046,0.000000
219.000000,40763.211639,29169.607660,31076.524386,29429.558448,-12590.916466,54752.564997,63494.175791,37739.847629,0.104000,0.972000,-0.042000,192.000000,0.000000,0.000000,0.000000,0.000000,0.000000,0.000000,0.000000,0.000000,0.000000,1647858471.304056,0.000000
220.000000,40745.419651,29141.265648,31069.125959,29427.658549,-12597.107899,54735.823540,63507.005692,37759.427757,0.108000,0.980000,-0.038000,192.000000,3.000000,96.000000,30.000000,160.000000,254.000000,208.000000,0.000000,0.000000,0.000000,1647858471.304072,0.000000
221.000000,40727.270034,29137.912886,31073.641011,29432.263009,-12605.020416,54732.359020,63490.867733,37753.146917,0.108000,0.980000,-0.038000,192.000000,0.000000,0.000000,0.000000,0.000000,0.000000,0.000000,0.000000,0.000000,0.000000,1647858471.312077,0.000000
222.000000,40736.903636,29152.039188,31070.355305,29425.535134,-12603.835774,54735.935299,63475.288567,37744.608551,0.108000,0.980000,-0.038000,192.000000,0.000000,0.000000,0.000000,0.000000,0.000000,0.000000,0.000000,0.000000,0.000000,1647858471.312090,0.000000
223.000000,40763.256343,29156.129558,31074.244508,29449.004465,-12589.262437,54748.094648,63452.154511,37730.504600,0.108000,0.980000,-0.038000,192.000000,0.000000,0.000000,0.000000,0.000000,0.000000,0.000000,0.000000,0.000000,0.000000,1647858471.318082,0.000000
224.000000,40765.089186,29152.732092,31068.120130,29447.372788,-12589.910637,54747.781723,63445.672506,37731.666891,0.108000,0.980000,-0.038000,192.000000,0.000000,0.000000,0.000000,0.000000,0.000000,0.000000,0.000000,0.000000,0.000000,1647858471.318098,0.000000
225.000000,40759.501250,29165.986677,31074.155101,29439.996712,-12590.000044,54746.082991,63434.183709,37728.470591,0.108000,0.980000,-0.038000,192.000000,0.000000,0.000000,0.000000,0.000000,0.000000,0.000000,0.000000,0.000000,0.000000,1647858471.325743,0.000000
226.000000,40755.455584,29167.886575,31068.902441,29434.945218,-12590.715300,54745.278328,63421.823194,37728.649405,0.108000,0.980000,-0.038000,192.000000,0.000000,0.000000,0.000000,0.000000,0.000000,0.000000,0.000000,0.000000,0.000000,1647858471.333808,0.000000
227.000000,40756.170840,29163.304468,31077.038476,29439.840250,-12590.290617,54749.234587,63402.310121,37716.445353,0.108000,0.980000,-0.038000,192.000000,0.000000,0.000000,0.000000,0.000000,0.000000,0.000000,0.000000,0.000000,0.000000,1647858471.333823,0.000000
228.000000,40755.366177,29156.129558,31062.465139,29427.703253,-12601.488841,54737.544625,63396.543371,37718.769934,0.108000,0.980000,-0.038000,192.000000,0.000000,0.000000,0.000000,0.000000,0.000000,0.000000,0.000000,0.000000,0.000000,1647858471.341843,0.000000
229.000000,40779.014323,29172.982773,31056.564278,29435.101680,-12601.310027,54745.948880,63386.507438,37716.467704,0.108000,0.980000,-0.038000,192.000000,0.000000,0.000000,0.000000,0.000000,0.000000,0.000000,0.000000,0.000000,0.000000,1647858471.341858,0.000000
230.000000,40766.251477,29170.434674,31029.116336,29414.851000,-12616.218640,54727.978078,63381.500647,37719.664004,0.108000,0.980000,-0.044000,192.000000,3.000000,96.000000,30.000000,160.000000,254.000000,160.000000,0.000000,0.000000,0.000000,1647858471.348507,0.000000
231.000000,40732.902674,29160.018761,31051.468080,29423.255256,-12615.123405,54730.950860,63369.900092,37714.344289,0.108000,0.980000,-0.044000,192.000000,0.000000,0.000000,0.000000,0.000000,0.000000,0.000000,0.000000,0.000000,0.000000,1647858471.348524,0.000000
232.000000,40735.271959,29160.488148,31087.610851,29437.359206,-12599.857163,54741.590290,63353.382153,37703.503693,0.108000,0.980000,-0.044000,192.000000,0.000000,0.000000,0.000000,0.000000,0.000000,0.000000,0.000000,0.000000,0.000000,1647858471.356335,0.000000
233.000000,40736.501305,29169.764122,31082.402895,29439.370863,-12595.230352,54745.099514,63346.207243,37708.264614,0.108000,0.980000,-0.044000,192.000000,0.000000,0.000000,0.000000,0.000000,0.000000,0.000000,0.000000,0.000000,0.000000,1647858471.356350,0.000000
234.000000,40737.216561,29167.372485,31075.272688,29446.098738,-12595.252704,54748.407572,63340.395789,37713.427867,0.108000,0.980000,-0.044000,192.000000,0.000000,0.000000,0.000000,0.000000,0.000000,0.000000,0.000000,0.000000,0.000000,1647858471.364441,0.000000
235.000000,40741.105764,29166.165491,31073.439845,29439.192049,-12593.308102,54750.240415,63343.256812,37724.201408,0.108000,0.980000,-0.044000,192.000000,0.000000,0.000000,0.000000,0.000000,0.000000,0.000000,0.000000,0.000000,0.000000,1647858471.364456,0.000000
236.000000,40743.229180,29180.336497,31073.641011,29441.270762,-12595.185649,54756.051869,63323.140242,37712.779667,0.108000,0.980000,-0.044000,192.000000,0.000000,0.000000,0.000000,0.000000,0.000000,0.000000,0.000000,0.000000,0.000000,1647858471.371570,0.000000
237.000000,40735.741345,29173.899194,31062.934525,29436.085157,-12604.416919,54744.384258,63316.926458,37715.864207,0.108000,0.980000,-0.044000,192.000000,0.000000,0.000000,0.000000,0.000000,0.000000,0.000000,0.000000,0.000000,0.000000,1647858471.371587,0.000000
238.000000,40746.514886,29180.470607,31068.388351,29437.985055,-12603.947533,54749.458104,63294.619417,37703.458989,0.108000,0.980000,-0.044000,192.000000,0.000000,0.000000,0.000000,0.000000,0.000000,0.000000,0.000000,0.000000,0.000000,1647858471.378821,0.000000
239.000000,40750.202924,29170.479378,31069.952973,29441.203706,-12600.617123,54748.117000,63298.955655,37716.512408,0.108000,0.980000,-0.044000,192.000000,0.000000,0.000000,0.000000,0.000000,0.000000,0.000000,0.000000,0.000000,0.000000,1647858471.378827,0.000000
240.000000,40748.750061,29157.090683,31062.599249,29433.201782,-12610.049559,54734.527139,63316.054739,37740.048795,0.100000,0.988000,-0.046000,192.000000,3.000000,32.000000,30.000000,224.000000,254.000000,144.000000,0.000000,0.000000,0.000000,1647858471.386043,0.000000
241.000000,40736.277787,29159.325857,31064.454444,29435.258142,-12613.916411,54741.053848,63311.606742,37742.954522,0.100000,0.988000,-0.046000,192.000000,0.000000,0.000000,0.000000,0.000000,0.000000,0.000000,0.000000,0.000000,0.000000,1647858471.394021,0.000000
242.000000,40734.556703,29171.105226,31071.316430,29437.783890,-12610.362483,54751.961500,63303.448356,37743.893295,0.100000,0.988000,-0.046000,192.000000,0.000000,0.000000,0.000000,0.000000,0.000000,0.000000,0.000000,0.000000,0.000000,1647858471.394036,0.000000
243.000000,40731.539217,29170.680543,31067.650743,29421.556523,-12619.504347,54741.053848,63303.403652,37753.482193,0.100000,0.988000,-0.046000,192.000000,0.000000,0.000000,0.000000,0.000000,0.000000,0.000000,0.000000,0.000000,0.000000,1647858471.401122,0.000000
244.000000,40736.791877,29171.038171,31060.386426,29415.990939,-12621.627763,54736.896424,63280.336652,37739.847629,0.100000,0.988000,-0.046000,192.000000,0.000000,0.000000,0.000000,0.000000,0.000000,0.000000,0.000000,0.000000,0.000000,1647858471.401138,0.000000
245.000000,40767.369064,29191.780590,31080.413590,29440.175526,-12600.371254,54756.901235,63260.533006,37726.190713,0.100000,0.988000,-0.046000,192.000000,0.000000,0.000000,0.000000,0.000000,0.000000,0.000000,0.000000,0.000000,0.000000,1647858471.408775,0.000000
246.000000,40786.859785,29199.536645,31082.671116,29456.760521,-12593.643378,54762.623282,63236.437826,37711.572672,0.100000,0.988000,-0.046000,192.000000,0.000000,0.000000,0.000000,0.000000,0.000000,0.000000,0.000000,0.000000,0.000000,1647858471.408791,0.000000
247.000000,40769.961866,29180.381200,31069.014200,29437.761538,-12609.647227,54748.608738,63229.218212,37714.143123,0.100000,0.988000,-0.046000,192.000000,0.000000,0.000000,0.000000,0.000000,0.000000,0.000000,0.000000,0.000000,0.000000,1647858471.416648,0.000000
248.000000,40763.301046,29182.683430,31076.703200,29441.449576,-12606.629742,54753.146142,63213.773157,37711.416210,0.100000,0.988000,-0.046000,192.000000,0.000000,0.000000,0.000000,0.000000,0.000000,0.000000,0.000000,0.000000,0.000000,1647858471.416664,0.000000
249.000000,40768.665465,29198.530817,31082.358191,29452.089006,-12597.420823,54755.671889,63182.860694,37687.455140,0.100000,0.988000,-0.046000,192.000000,0.000000,0.000000,0.000000,0.000000,0.000000,0.000000,0.000000,0.000000,0.000000,1647858471.423849,0.000000
250.000000,40749.890000,29199.827218,31077.172587,29443.349474,-12597.420823,54749.815732,63177.518627,37689.086817,0.092000,0.988000,-0.056000,192.000000,2.000000,224.000000,30.000000,224.000000,254.000000,64.000000,0.000000,0.000000,0.000000,1647858471.423865,0.000000
251.000000,40748.235971,29191.914700,31085.263918,29438.499145,-12591.363501,54756.297738,63178.010366,37697.647536,0.092000,0.988000,-0.056000,192.000000,0.000000,0.000000,0.000000,0.000000,0.000000,0.000000,0.000000,0.000000,0.000000,1647858471.431365,0.000000
252.000000,40766.363235,29189.031325,31084.749828,29439.057939,-12596.146774,54754.397840,63151.680011,37678.626201,0.092000,0.988000,-0.056000,192.000000,0.000000,0.000000,0.000000,0.000000,0.000000,0.000000,0.000000,0.000000,0.000000,1647858471.431380,0.000000
253.000000,40781.629477,29193.971061,31065.214403,29429.804317,-12608.663751,54742.909043,63145.756798,37681.956611,0.092000,0.988000,-0.056000,192.000000,0.000000,0.000000,0.000000,0.000000,0.000000,0.000000,0.000000,0.000000,0.000000,1647858471.439320,0.000000
254.000000,40783.641134,29215.875771,31096.506846,29447.462195,-12589.284788,54766.288968,63142.471092,37686.158739,0.092000,0.988000,-0.056000,192.000000,0.000000,0.000000,0.000000,0.000000,0.000000,0.000000,0.000000,0.000000,0.000000,1647858471.439336,0.000000
255.000000,40764.396282,29200.989509,31103.033555,29457.721646,-12573.839733,54777.621302,63136.056141,37685.018800,0.092000,0.988000,-0.056000,192.000000,0.000000,0.000000,0.000000,0.000000,0.000000,0.000000,0.000000,0.000000,0.000000,1647858471.446254,0.000000
0.000000,40753.242761,29192.495846,31091.701220,29446.657532,-12588.167201,54763.025613,63123.628571,37679.095588,0.092000,0.988000,-0.056000,192.000000,0.000000,0.000000,0.000000,0.000000,0.000000,0.000000,0.000000,0.000000,0.000000,1647858471.453456,0.000000
1.000000,40755.120308,29191.937052,31083.587537,29439.907305,-12598.806631,54758.667023,63105.903638,37668.076178,0.092000,0.988000,-0.056000,192.000000,0.000000,0.000000,0.000000,0.000000,0.000000,0.000000,0.000000,0.000000,0.000000,1647858471.453473,0.000000
2.000000,40758.495421,29199.447238,31088.259052,29441.404872,-12598.560762,54758.219988,63110.552801,37678.022704,0.092000,0.988000,-0.056000,192.000000,0.000000,0.000000,0.000000,0.000000,0.000000,0.000000,0.000000,0.000000,0.000000,1647858471.461039,0.000000
3.000000,40756.260247,29206.085706,31088.683735,29442.656570,-12594.448041,54767.384203,63094.459545,37666.064521,0.092000,0.988000,-0.056000,192.000000,0.000000,0.000000,0.000000,0.000000,0.000000,0.000000,0.000000,0.000000,0.000000,1647858471.461055,0.000000
4.000000,40743.609159,29194.306337,31069.327124,29430.251352,-12607.680274,54753.235549,63109.345807,37686.114035,0.080000,0.990000,-0.048000,192.000000,2.000000,128.000000,30.000000,240.000000,254.000000,128.000000,0.000000,0.000000,0.000000,1647858471.469146,0.000000
5.000000,40739.094107,29202.867055,31072.478720,29423.456421,-12611.390664,54759.337575,63097.924065,37681.420169,0.080000,0.990000,-0.048000,192.000000,0.000000,0.000000,0.000000,0.000000,0.000000,0.000000,0.000000,0.000000,0.000000,1647858471.469163,0.000000
6.000000,40739.429383,29202.531779,31062.286325,29427.725605,-12608.037902,54759.650500,63078.031013,37668.724378,0.080000,0.990000,-0.048000,192.000000,0.000000,0.000000,0.000000,0.000000,0.000000,0.000000,0.000000,0.000000,0.000000,1647858471.476947,0.000000
7.000000,40758.316607,29212.053622,31074.669191,29448.043340,-12595.252704,54765.283139,63058.160312,37655.067462,0.080000,0.990000,-0.048000,192.000000,0.000000,0.000000,0.000000,0.000000,0.000000,0.000000,0.000000,0.000000,0.000000,1647858471.476963,0.000000
8.000000,40785.473977,29219.720271,31066.711970,29440.443747,-12590.380024,54764.210256,63053.354687,37657.347340,0.080000,0.990000,-0.048000,192.000000,0.000000,0.000000,0.000000,0.000000,0.000000,0.000000,0.000000,0.000000,0.000000,1647858471.483545,0.000000
9.000000,40777.673218,29216.702785,31065.415569,29438.297980,-12596.258533,54752.788514,63061.289556,37669.618448,0.080000,0.990000,-0.048000,192.000000,0.000000,0.000000,0.000000,0.000000,0.000000,0.000000,0.000000,0.000000,0.000000,1647858471.483561,0.000000
10.000000,40743.519752,29203.425849,31062.956877,29425.177506,-12607.523812,54737.298755,63077.271053,37690.606736,0.080000,0.990000,-0.048000,192.000000,0.000000,0.000000,0.000000,0.000000,0.000000,0.000000,0.000000,0.000000,0.000000,1647858471.491591,0.000000
11.000000,40749.621779,29203.984643,31068.433054,29432.710044,-12605.378044,54742.350250,63087.999891,37710.164512,0.080000,0.990000,-0.048000,192.000000,0.000000,0.000000,0.000000,0.000000,0.000000,0.000000,0.000000,0.000000,0.000000,1647858471.491608,0.000000
12.000000,40761.758776,29201.213026,31074.289212,29426.250389,-12600.885344,54752.453238,63084.043632,37711.349155,0.080000,0.990000,-0.048000,192.000000,0.000000,0.000000,0.000000,0.000000,0.000000,0.000000,0.000000,0.000000,0.000000,1647858471.499533,0.000000
13.000000,40764.195116,29179.755352,31072.366962,29416.750898,-12602.829945,54748.094648,63090.011548,37718.658175,0.080000,0.990000,-0.048000,192.000000,0.000000,0.000000,0.000000,0.000000,0.000000,0.000000,0.000000,0.000000,0.000000,1647858471.499549,0.000000
14.000000,40766.765567,29186.036192,31073.261031,29422.338834,-12601.824117,54756.476552,63100.315702,37731.085745,0.074000,0.998000,-0.050000,192.000000,2.000000,80.000000,31.000000,48.000000,254.000000,112.000000,0.000000,0.000000,0.000000,1647858471.506671,0.000000
15.000000,40750.269979,29192.697012,31092.639994,29429.267875,-12593.330454,54775.833163,63087.888132,37722.346213,0.074000,0.998000,-0.050000,192.000000,0.000000,0.000000,0.000000,0.000000,0.000000,0.000000,0.000000,0.000000,0.000000,1647858471.513181,0.000000
16.000000,40743.273883,29194.865131,31096.372735,29439.750843,-12595.766794,54782.985721,63085.116516,37728.045908,0.074000,0.998000,-0.050000,192.000000,0.000000,0.000000,0.000000,0.000000,0.000000,0.000000,0.000000,0.000000,0.000000,1647858471.513193,0.000000
17.000000,40752.773375,29207.784439,31083.855758,29444.958799,-12593.285751,54787.098442,63074.007699,37727.285949,0.074000,0.998000,-0.050000,192.000000,0.000000,0.000000,0.000000,0.000000,0.000000,0.000000,0.000000,0.000000,0.000000,1647858471.521289,0.000000
18.000000,40769.313666,29215.115811,31057.838328,29446.434015,-12596.817326,54791.635846,63070.543178,37731.152800,0.074000,0.998000,-0.050000,192.000000,0.000000,0.000000,0.000000,0.000000,0.000000,0.000000,0.000000,0.000000,0.000000,1647858471.521300,0.000000
19.000000,40786.636267,29222.804811,31069.908270,29440.354340,-12597.689044,54794.832146,63073.627719,37743.848591,0.074000,0.998000,-0.050000,192.000000,0.000000,0.000000,0.000000,0.000000,0.000000,0.000000,0.000000,0.000000,0.000000,1647858471.529206,0.000000
20.000000,40778.768453,29205.884541,31057.279534,29426.652721,-12613.670541,54779.342387,63069.358536,37757.751376,0.074000,0.998000,-0.050000,192.000000,0.000000,0.000000,0.000000,0.000000,0.000000,0.000000,0.000000,0.000000,0.000000,1647858471.529216,0.000000
21.000000,40792.335962,29202.822352,31061.615772,29433.872334,-12615.615143,54786.450241,63036.792044,37746.597856,0.074000,0.998000,-0.050000,192.000000,0.000000,0.000000,0.000000,0.000000,0.000000,0.000000,0.000000,0.000000,0.000000,1647858471.535780,0.000000
22.000000,40783.954058,29210.176076,31085.152159,29446.188145,-12598.806631,54799.660122,63007.846535,37737.321882,0.074000,0.998000,-0.050000,192.000000,0.000000,0.000000,0.000000,0.000000,0.000000,0.000000,0.000000,0.000000,0.000000,1647858471.535789,0.000000
23.000000,40764.239820,29208.119715,31106.207503,29450.479680,-12591.117631,54799.369550,62999.375224,37751.023501,0.074000,0.998000,-0.050000,192.000000,0.000000,0.000000,0.000000,0.000000,0.000000,0.000000,0.000000,0.000000,0.000000,1647858471.543712,0.000000
24.000000,40742.759793,29204.990471,31105.626357,29448.848003,-12593.822192,54791.434680,63003.823221,37777.376208,0.074000,0.996000,-0.046000,192.000000,2.000000,80.000000,31.000000,32.000000,254.000000,144.000000,0.000000,0.000000,0.000000,1647858471.543725,0.000000
25.000000,40721.905616,29206.041003,31086.448561,29437.381558,-12608.708454,54773.106250,63003.331483,37804.086543,0.074000,0.996000,-0.046000,192.000000,0.000000,0.000000,0.000000,0.000000,0.000000,0.000000,0.000000,0.000000,0.000000,1647858471.551760,0.000000
26.000000,40748.146564,29194.038116,31092.192959,29448.691541,-12599.052501,54784.460936,62986.791192,37817.318775,0.074000,0.996000,-0.046000,192.000000,0.000000,0.000000,0.000000,0.000000,0.000000,0.000000,0.000000,0.000000,0.000000,1647858471.551771,0.000000
27.000000,40768.106671,29180.224738,31073.037514,29441.315465,-12597.666692,54784.773861,62972.083744,37830.796877,0.074000,0.996000,-0.046000,192.000000,0.000000,0.000000,0.000000,0.000000,0.000000,0.000000,0.000000,0.000000,0.000000,1647858471.558909,0.000000
28.000000,40773.582849,29180.157683,31061.749883,29437.068634,-12601.354730,54779.074166,62954.582328,37843.403261,0.074000,0.996000,-0.046000,192.000000,0.000000,0.000000,0.000000,0.000000,0.000000,0.000000,0.000000,0.000000,0.000000,1647858471.558922,0.000000
29.000000,40764.619799,29179.263613,31064.588554,29437.426262,-12605.020416,54775.319073,62954.872901,37875.321552,0.074000,0.996000,-0.046000,192.000000,0.000000,0.000000,0.000000,0.000000,0.000000,0.000000,0.000000,0.000000,0.000000,1647858471.565502,0.000000
30.000000,40760.283561,29190.059506,31092.572939,29450.814957,-12595.252704,54792.664026,62927.067331,37880.015419,0.074000,0.996000,-0.046000,192.000000,0.000000,0.000000,0.000000,0.000000,0.000000,0.000000,0.000000,0.000000,0.000000,1647858471.565519,0.000000
31.000000,40763.144584,29196.273291,31106.252206,29459.062750,-12587.519000,54803.817547,62894.813763,37883.234070,0.074000,0.996000,-0.046000,192.000000,0.000000,0.000000,0.000000,0.000000,0.000000,0.000000,0.000000,0.000000,0.000000,1647858471.573494,0.000000
32.000000,40767.793747,29193.904006,31108.241511,29454.748864,-12593.956303,54797.760224,62872.283205,37898.321497,0.074000,0.996000,-0.046000,192.000000,0.000000,0.000000,0.000000,0.000000,0.000000,0.000000,0.000000,0.000000,0.000000,1647858471.581424,0.000000
33.000000,40785.898660,29202.442372,31107.347442,29462.080236,-12583.763907,54807.684399,62848.143321,37901.786018,0.074000,0.996000,-0.046000,192.000000,0.000000,0.000000,0.000000,0.000000,0.000000,0.000000,0.000000,0.000000,0.000000,1647858471.581437,0.000000
34.000000,40787.150358,29198.933148,31078.513691,29449.272686,-12592.995178,54796.441471,62850.222033,37928.094021,0.068000,0.986000,-0.050000,192.000000,2.000000,32.000000,30.000000,208.000000,254.000000,112.000000,0.000000,0.000000,0.000000,1647858471.588805,0.000000
35.000000,40785.049294,29213.148858,31082.179377,29447.328084,-12599.410129,54791.188811,62848.791522,37956.324274,0.068000,0.986000,-0.050000,192.000000,0.000000,0.000000,0.000000,0.000000,0.000000,0.000000,0.000000,0.000000,0.000000,1647858471.588822,0.000000
36.000000,40764.597447,29208.969082,31081.911156,29449.719721,-12602.002931,54793.379282,62830.396036,37968.528327,0.068000,0.986000,-0.050000,192.000000,0.000000,0.000000,0.000000,0.000000,0.000000,0.000000,0.000000,0.000000,0.000000,1647858471.596126,0.000000
37.000000,40748.437136,29185.030363,31070.534118,29439.147346,-12603.545201,54785.019730,62821.231821,37983.392237,0.068000,0.986000,-0.050000,192.000000,0.000000,0.000000,0.000000,0.000000,0.000000,0.000000,0.000000,0.000000,0.000000,1647858471.596142,0.000000
38.000000,40745.106726,29172.602793,31080.525348,29445.048206,-12603.567553,54784.170363,62821.768263,38004.022897,0.068000,0.986000,-0.050000,192.000000,0.000000,0.000000,0.000000,0.000000,0.000000,0.000000,0.000000,0.000000,0.000000,1647858471.604029,0.000000
39.000000,40761.267038,29186.080895,31092.081200,29468.517538,-12589.374195,54793.871021,62819.331922,38017.858627,0.068000,0.986000,-0.050000,192.000000,0.000000,0.000000,0.000000,0.000000,0.000000,0.000000,0.000000,0.000000,0.000000,1647858471.604045,0.000000
40.000000,40763.301046,29191.959404,31092.550587,29457.453425,-12593.576323,54783.410404,62825.344542,38035.382394,0.068000,0.986000,-0.050000,192.000000,0.000000,0.000000,0.000000,0.000000,0.000000,0.000000,0.000000,0.000000,0.000000,1647858471.612145,0.000000
41.000000,40768.710168,29192.674660,31078.357229,29447.886878,-12604.618085,54774.782631,62827.423254,38049.732214,0.068000,0.986000,-0.050000,192.000000,0.000000,0.000000,0.000000,0.000000,0.000000,0.000000,0.000000,0.000000,0.000000,1647858471.612161,0.000000
42.000000,40788.782035,29200.833047,31052.116281,29448.512727,-12614.475204,54767.138334,62825.925687,38058.114118,0.068000,0.986000,-0.050000,192.000000,0.000000,0.000000,0.000000,0.000000,0.000000,0.000000,0.000000,0.000000,0.000000,1647858471.618748,0.000000
43.000000,40788.804387,29195.312166,31055.826671,29439.281456,-12621.605411,54762.690337,62831.737141,38069.446453,0.068000,0.986000,-0.050000,192.000000,0.000000,0.000000,0.000000,0.000000,0.000000,0.000000,0.000000,0.000000,0.000000,1647858471.618765,0.000000
44.000000,40782.568250,29201.637709,31065.996714,29424.372843,-12619.638457,54754.040212,62862.470789,38102.415276,0.062000,0.988000,-0.048000,192.000000,1.000000,240.000000,30.000000,224.000000,254.000000,128.000000,0.000000,0.000000,0.000000,1647858471.626692,0.000000
45.000000,40768.441948,29189.388953,31067.673095,29431.212477,-12614.162280,54763.740869,62858.089847,38100.157750,0.062000,0.988000,-0.048000,192.000000,0.000000,0.000000,0.000000,0.000000,0.000000,0.000000,0.000000,0.000000,0.000000,1647858471.626707,0.000000
46.000000,40728.275863,29150.072235,31064.968534,29409.955968,-12621.985390,54756.051869,62865.443571,38113.121761,0.062000,0.988000,-0.048000,192.000000,0.000000,0.000000,0.000000,0.000000,0.000000,0.000000,0.000000,0.000000,0.000000,1647858471.633772,0.000000
47.000000,40708.449865,29143.053787,31059.604115,29412.079383,-12624.846414,54750.128657,62887.683557,38140.368538,0.062000,0.988000,-0.048000,192.000000,0.000000,0.000000,0.000000,0.000000,0.000000,0.000000,0.000000,0.000000,0.000000,1647858471.641756,0.000000
48.000000,40716.250624,29140.952723,31062.755711,29411.207665,-12626.723960,54745.032459,62912.404586,38165.581306,0.062000,0.988000,-0.048000,192.000000,0.000000,0.000000,0.000000,0.000000,0.000000,0.000000,0.000000,0.000000,0.000000,1647858471.641773,0.000000
49.000000,40745.866686,29153.223831,31074.602136,29431.033663,-12613.603486,54758.555264,62927.268496,38177.986524,0.062000,0.988000,-0.048000,192.000000,0.000000,0.000000,0.000000,0.000000,0.000000,0.000000,0.000000,0.000000,0.000000,1647858471.648424,0.000000
50.000000,40749.197096,29161.538680,31072.679886,29423.501125,-12608.753158,54760.231645,62939.941936,38190.481149,0.062000,0.988000,-0.048000,192.000000,0.000000,0.000000,0.000000,0.000000,0.000000,0.000000,0.000000,0.000000,0.000000,1647858471.648434,0.000000
51.000000,40741.329281,29175.240299,31068.500110,29421.735337,-12616.643323,54755.940110,62951.475436,38201.209986,0.062000,0.988000,-0.048000,192.000000,0.000000,0.000000,0.000000,0.000000,0.000000,0.000000,0.000000,0.000000,0.000000,1647858471.656366,0.000000
52.000000,40760.685892,29184.091590,31090.226005,29446.255201,-12603.299332,54768.390032,62943.652325,38188.268326,0.062000,0.988000,-0.048000,192.000000,0.000000,0.000000,0.000000,0.000000,0.000000,0.000000,0.000000,0.000000,0.000000,1647858471.656376,0.000000
53.000000,40764.463337,29171.127578,31066.711970,29430.117241,-12616.911544,54750.128657,62965.981718,38206.574405,0.062000,0.988000,-0.048000,192.000000,0.000000,0.000000,0.000000,0.000000,0.000000,0.000000,0.000000,0.000000,0.000000,1647858471.664254,0.000000
54.000000,40768.710168,29182.683430,31057.391293,29444.221192,-12613.581135,54750.016898,62977.470514,38207.580234,0.062000,0.988000,-0.048000,192.000000,0.000000,0.000000,0.000000,0.000000,0.000000,0.000000,0.000000,0.000000,0.000000,1647858471.664262,0.000000
55.000000,40773.895773,29163.080950,31054.507918,29444.332951,-12609.088434,54745.434790,62988.355814,38207.826103,0.060000,0.988000,-0.050000,192.000000,1.000000,224.000000,30.000000,224.000000,254.000000,112.000000,0.000000,0.000000,0.000000,1647858471.670965,0.000000
56.000000,40764.619799,29137.264685,31052.093929,29417.466154,-12622.633591,54727.463988,63006.192506,38219.717231,0.060000,0.988000,-0.050000,192.000000,0.000000,0.000000,0.000000,0.000000,0.000000,0.000000,0.000000,0.000000,0.000000,1647858471.670980,0.000000
57.000000,40765.290352,29131.341473,31061.928697,29416.817953,-12625.427559,54723.418322,63021.637562,38227.316824,0.060000,0.988000,-0.050000,192.000000,0.000000,0.000000,0.000000,0.000000,0.000000,0.000000,0.000000,0.000000,0.000000,1647858471.679457,0.000000
58.000000,40747.051328,29146.406549,31067.002543,29425.401023,-12619.951382,54725.877014,63019.111814,38214.933957,0.060000,0.988000,-0.050000,192.000000,0.000000,0.000000,0.000000,0.000000,0.000000,0.000000,0.000000,0.000000,0.000000,1647858471.679473,0.000000
59.000000,40733.282653,29147.747653,31061.906345,29418.002596,-12619.146719,54722.680714,63055.299289,38236.749260,0.060000,0.988000,-0.050000,192.000000,0.000000,0.000000,0.000000,0.000000,0.000000,0.000000,0.000000,0.000000,0.000000,1647858471.687046,0.000000
60.000000,40736.523656,29163.729151,31059.872336,29429.290227,-12618.498518,54726.592270,63067.257472,38232.971815,0.060000,0.988000,-0.050000,192.000000,0.000000,0.000000,0.000000,0.000000,0.000000,0.000000,0.000000,0.000000,0.000000,1647858471.687062,0.000000
61.000000,40738.803534,29170.926412,31078.334877,29428.932599,-12617.313876,54734.013049,63071.593710,38221.304205,0.060000,0.988000,-0.050000,192.000000,0.000000,0.000000,0.000000,0.000000,0.000000,0.000000,0.000000,0.000000,0.000000,1647858471.694193,0.000000
62.000000,40738.043575,29162.902136,31071.517595,29423.434070,-12616.531565,54736.628203,63081.830809,38217.884388,0.060000,0.988000,-0.050000,192.000000,0.000000,0.000000,0.000000,0.000000,0.000000,0.000000,0.000000,0.000000,0.000000,1647858471.700664,0.000000
63.000000,40737.931816,29148.127633,31053.703255,29406.379689,-12627.528623,54717.740979,63110.195173,38232.144801,0.060000,0.988000,-0.050000,192.000000,0.000000,0.000000,0.000000,0.000000,0.000000,0.000000,0.000000,0.000000,0.000000,1647858471.700681,0.000000
64.000000,40749.599427,29151.994485,31047.981208,29416.616788,-12626.701609,54719.059732,63134.692685,38240.102022,0.060000,0.988000,-0.050000,192.000000,0.000000,0.000000,0.000000,0.000000,0.000000,0.000000,0.000000,0.000000,0.000000,1647858471.708713,0.000000
65.000000,40757.780165,29160.778720,31054.038531,29428.329102,-12618.766739,54726.324049,63141.934650,38230.893103,0.074000,0.980000,-0.040000,192.000000,2.000000,80.000000,30.000000,160.000000,254.000000,192.000000,0.000000,0.000000,0.000000,1647858471.708729,0.000000
66.000000,40748.973578,29152.799148,31040.023987,29408.883084,-12637.095170,54708.599115,63156.776208,38232.211856,0.074000,0.980000,-0.040000,192.000000,0.000000,0.000000,0.000000,0.000000,0.000000,0.000000,0.000000,0.000000,0.000000,1647858471.716679,0.000000
67.000000,40767.257305,29152.352113,31035.151307,29415.610959,-12636.044638,54708.532060,63160.620709,38219.784286,0.074000,0.980000,-0.040000,192.000000,0.000000,0.000000,0.000000,0.000000,0.000000,0.000000,0.000000,0.000000,0.000000,1647858471.716695,0.000000
68.000000,40770.453605,29143.232601,31046.975380,29405.351508,-12638.235109,54703.346455,63182.704232,38228.792039,0.074000,0.980000,-0.040000,192.000000,0.000000,0.000000,0.000000,0.000000,0.000000,0.000000,0.000000,0.000000,0.000000,1647858471.723735,0.000000
69.000000,40745.419651,29149.334627,31046.751862,29404.680956,-12644.292431,54696.462118,63216.053035,38245.354682,0.074000,0.980000,-0.040000,192.000000,0.000000,0.000000,0.000000,0.000000,0.000000,0.000000,0.000000,0.000000,0.000000,1647858471.723745,0.000000
70.000000,40699.039781,29140.550392,31028.982226,29389.615880,-12652.182597,54683.341644,63250.944108,38264.554830,0.074000,0.980000,-0.040000,192.000000,0.000000,0.000000,0.000000,0.000000,0.000000,0.000000,0.000000,0.000000,0.000000,1647858471.731232,0.000000
71.000000,40691.596650,29128.905133,31034.257237,29387.336002,-12658.262272,54684.727452,63265.025707,38266.052397,0.074000,0.980000,-0.040000,192.000000,0.000000,0.000000,0.000000,0.000000,0.000000,0.000000,0.000000,0.000000,0.000000,1647858471.731238,0.000000
72.000000,40713.568415,29123.272493,31032.737319,29386.240767,-12652.920205,54685.241542,63289.322053,38277.049455,0.074000,0.980000,-0.040000,192.000000,0.000000,0.000000,0.000000,0.000000,0.000000,0.000000,0.000000,0.000000,0.000000,1647858471.739029,0.000000
73.000000,40716.272976,29121.216133,31010.854961,29379.334078,-12660.720964,54674.669167,63330.941001,38303.469217,0.074000,0.980000,-0.040000,192.000000,0.000000,0.000000,0.000000,0.000000,0.000000,0.000000,0.000000,0.000000,0.000000,1647858471.739036,0.000000
74.000000,40714.440133,29134.560124,31024.735394,29389.280604,-12651.355583,54685.800336,63349.671763,38304.475046,0.074000,0.980000,-0.040000,192.000000,0.000000,0.000000,0.000000,0.000000,0.000000,0.000000,0.000000,0.000000,0.000000,1647858471.747358,0.000000
75.000000,40698.503339,29118.533923,31010.385574,29377.702400,-12667.694708,54671.361109,63367.374345,38306.687868,0.084000,0.982000,-0.040000,192.000000,2.000000,160.000000,30.000000,176.000000,254.000000,192.000000,0.000000,0.000000,0.000000,1647858471.747375,0.000000
76.000000,40700.783217,29107.134534,31002.607167,29379.825816,-12675.495467,54668.835362,63380.450115,38305.346764,0.084000,0.982000,-0.040000,192.000000,0.000000,0.000000,0.000000,0.000000,0.000000,0.000000,0.000000,0.000000,0.000000,1647858471.753400,0.000000
77.000000,40702.861929,29108.475638,31003.657699,29377.210662,-12674.355528,54664.946159,63389.904903,38301.457560,0.084000,0.982000,-0.040000,192.000000,0.000000,0.000000,0.000000,0.000000,0.000000,0.000000,0.000000,0.000000,0.000000,1647858471.760856,0.000000
78.000000,40711.936738,29122.534886,31024.668339,29391.068744,-12661.279757,54674.669167,63404.522944,38303.156293,0.084000,0.982000,-0.040000,192.000000,0.000000,0.000000,0.000000,0.000000,0.000000,0.000000,0.000000,0.000000,0.000000,1647858471.760866,0.000000
79.000000,40709.634508,29123.764232,31023.796621,29385.860787,-12664.207836,54672.098717,63414.760043,38301.926947,0.084000,0.982000,-0.040000,192.000000,0.000000,0.000000,0.000000,0.000000,0.000000,0.000000,0.000000,0.000000,0.000000,1647858471.768926,0.000000
80.000000,40702.034915,29108.855618,31003.680051,29364.894851,-12678.959987,54653.792638,63430.182747,38307.894863,0.084000,0.982000,-0.040000,192.000000,0.000000,0.000000,0.000000,0.000000,0.000000,0.000000,0.000000,0.000000,0.000000,1647858471.768937,0.000000
81.000000,40704.493607,29113.661243,31016.487600,29369.029924,-12681.329272,54663.850923,63432.417921,38303.312755,0.084000,0.982000,-0.040000,192.000000,0.000000,0.000000,0.000000,0.000000,0.000000,0.000000,0.000000,0.000000,0.000000,1647858471.777068,0.000000
82.000000,40689.272069,29120.053842,31012.844266,29361.676200,-12684.771441,54658.553560,63433.222584,38298.395371,0.084000,0.982000,-0.040000,192.000000,0.000000,0.000000,0.000000,0.000000,0.000000,0.000000,0.000000,0.000000,0.000000,1647858471.777079,0.000000
83.000000,40698.682153,29128.703967,31017.381670,29365.565403,-12676.925978,54667.248388,63444.040828,38297.993040,0.084000,0.982000,-0.040000,192.000000,0.000000,0.000000,0.000000,0.000000,0.000000,0.000000,0.000000,0.000000,0.000000,1647858471.783510,0.000000
84.000000,40722.643223,29133.509592,31018.029871,29365.408941,-12672.522685,54673.015138,63456.021363,38296.227252,0.084000,0.982000,-0.040000,192.000000,0.000000,0.000000,0.000000,0.000000,0.000000,0.000000,0.000000,0.000000,0.000000,1647858471.783519,0.000000
85.000000,40723.336127,29126.289979,30994.672298,29350.567383,-12687.766574,54656.139571,63481.480000,38315.785028,0.082000,0.982000,-0.036000,192.000000,2.000000,144.000000,30.000000,176.000000,254.000000,224.000000,0.000000,0.000000,0.000000,1647858471.791453,0.000000
86.000000,40707.891072,29123.384252,30982.915280,29360.580964,-12694.159173,54654.463190,63490.353643,38321.194151,0.082000,0.982000,-0.036000,192.000000,0.000000,0.000000,0.000000,0.000000,0.000000,0.000000,0.000000,0.000000,0.000000,1647858471.791464,0.000000
87.000000,40705.477083,29123.853639,30990.090190,29369.409903,-12679.138801,54667.114278,63485.682128,38304.028011,0.082000,0.982000,-0.036000,192.000000,0.000000,0.000000,0.000000,0.000000,0.000000,0.000000,0.000000,0.000000,0.000000,1647858471.799601,0.000000
88.000000,40706.192339,29125.395909,31004.998804,29364.894851,-12671.896836,54672.791621,63492.566465,38294.327354,0.082000,0.982000,-0.036000,192.000000,0.000000,0.000000,0.000000,0.000000,0.000000,0.000000,0.000000,0.000000,0.000000,1647858471.799613,0.000000
89.000000,40709.433342,29118.399813,31006.339908,29358.278734,-12673.372051,54667.315443,63515.007617,38305.033839,0.082000,0.982000,-0.036000,192.000000,0.000000,0.000000,0.000000,0.000000,0.000000,0.000000,0.000000,0.000000,0.000000,1647858471.806618,0.000000
90.000000,40690.590822,29118.824496,31016.577007,29367.577060,-12670.622786,54670.332929,63533.738379,38315.427401,0.082000,0.982000,-0.036000,192.000000,0.000000,0.000000,0.000000,0.000000,0.000000,0.000000,0.000000,0.000000,0.000000,1647858471.806631,0.000000
91.000000,40680.309019,29117.192819,31021.449688,29380.451665,-12666.174789,54674.065670,63518.896820,38293.969726,0.082000,0.982000,-0.036000,192.000000,0.000000,0.000000,0.000000,0.000000,0.000000,0.000000,0.000000,0.000000,0.000000,1647858471.813255,0.000000
92.000000,40690.032028,29123.473659,31024.042490,29378.842339,-12660.743315,54674.847981,63529.782120,38298.104799,0.082000,0.982000,-0.036000,192.000000,0.000000,0.000000,0.000000,0.000000,0.000000,0.000000,0.000000,0.000000,0.000000,1647858471.813272,0.000000
93.000000,40695.664668,29133.509592,31027.529362,29383.737371,-12662.419696,54681.888781,63545.674210,38310.398258,0.082000,0.982000,-0.036000,192.000000,0.000000,0.000000,0.000000,0.000000,0.000000,0.000000,0.000000,0.000000,0.000000,1647858471.821359,0.000000
94.000000,40716.004755,29141.377406,31015.861752,29385.257290,-12656.898815,54691.432976,63543.953126,38299.401200,0.082000,0.982000,-0.036000,192.000000,0.000000,0.000000,0.000000,0.000000,0.000000,0.000000,0.000000,0.000000,0.000000,1647858471.829386,0.000000
95.000000,40744.436174,29137.398796,31008.105696,29375.914261,-12657.055277,54681.821726,63557.922966,38305.927909,0.092000,0.978000,-0.040000,192.000000,2.000000,224.000000,30.000000,144.000000,254.000000,192.000000,0.000000,0.000000,0.000000,1647858471.829402,0.000000
96.000000,40752.773375,29144.864278,31005.088211,29376.964793,-12664.878388,54680.592380,63566.438981,38311.515845,0.092000,0.978000,-0.040000,192.000000,0.000000,0.000000,0.000000,0.000000,0.000000,0.000000,0.000000,0.000000,0.000000,1647858471.835899,0.000000
97.000000,40744.413822,29154.229659,31008.932711,29387.090133,-12653.166074,54689.443670,63572.384545,38313.303985,0.092000,0.978000,-0.040000,192.000000,0.000000,0.000000,0.000000,0.000000,0.000000,0.000000,0.000000,0.000000,0.000000,1647858471.835915,0.000000
98.000000,40725.392488,29139.946895,31011.391403,29384.653793,-12652.406115,54685.822688,63587.896656,38321.663537,0.092000,0.978000,-0.040000,192.000000,0.000000,0.000000,0.000000,0.000000,0.000000,0.000000,0.000000,0.000000,0.000000,1647858471.843815,0.000000
99.000000,40718.709316,29124.501839,30997.913301,29383.089171,-12667.404135,54670.064708,63632.600144,38362.254305,0.092000,0.978000,-0.040000,192.000000,0.000000,0.000000,0.000000,0.000000,0.000000,0.000000,0.000000,0.000000,0.000000,1647858471.843831,0.000000
100.000000,40715.714182,29137.018816,31026.098851,29384.899662,-12656.742353,54686.090909,63625.380531,38345.691663,0.092000,0.978000,-0.040000,192.000000,0.000000,0.000000,0.000000,0.000000,0.000000,0.000000,0.000000,0.000000,0.000000,1647858471.851807,0.000000
101.000000,40689.249717,29149.178165,31038.101737,29380.183444,-12652.473170,54686.560295,63615.389301,38328.592578,0.092000,0.978000,-0.040000,192.000000,0.000000,0.000000,0.000000,0.000000,0.000000,0.000000,0.000000,0.000000,0.000000,1647858471.851821,0.000000
102.000000,40692.669534,29175.687334,31044.963723,29388.431238,-12639.822082,54690.650665,63628.018037,38331.297139,0.092000,0.978000,-0.040000,192.000000,0.000000,0.000000,0.000000,0.000000,0.000000,0.000000,0.000000,0.000000,0.000000,1647858471.858960,0.000000
103.000000,40698.905671,29170.993468,31033.497278,29386.531339,-12645.030039,54683.408699,63644.491273,38333.442907,0.092000,0.978000,-0.040000,192.000000,0.000000,0.000000,0.000000,0.000000,0.000000,0.000000,0.000000,0.000000,0.000000,1647858471.858970,0.000000
104.000000,40724.297252,29150.496918,31032.916133,29400.478828,-12643.979507,54690.829479,63654.884834,38330.179552,0.092000,0.978000,-0.040000,192.000000,0.000000,0.000000,0.000000,0.000000,0.000000,0.000000,0.000000,0.000000,0.000000,1647858471.866459,0.000000
105.000000,40723.403182,29138.829307,31022.701385,29388.945328,-12652.339059,54685.621522,63653.767246,38318.221369,0.104000,0.984000,-0.046000,192.000000,3.000000,64.000000,30.000000,192.000000,254.000000,144.000000,0.000000,0.000000,0.000000,1647858471.866470,0.000000
106.000000,40725.459543,29143.389063,31024.824801,29394.399154,-12649.433333,54692.282342,63656.740028,38311.538197,0.104000,0.984000,-0.046000,192.000000,0.000000,0.000000,0.000000,0.000000,0.000000,0.000000,0.000000,0.000000,0.000000,1647858471.874451,0.000000
107.000000,40726.264206,29155.526061,31021.226170,29394.019174,-12640.470283,54701.044226,63664.518436,38309.235967,0.104000,0.984000,-0.046000,192.000000,0.000000,0.000000,0.000000,0.000000,0.000000,0.000000,0.000000,0.000000,0.000000,1647858471.874462,0.000000
108.000000,40732.075659,29169.585308,31039.353435,29408.346642,-12627.953306,54709.493185,63666.016002,38298.730647,0.104000,0.984000,-0.046000,192.000000,0.000000,0.000000,0.000000,0.000000,0.000000,0.000000,0.000000,0.000000,0.000000,1647858471.881547,0.000000
109.000000,40724.230197,29156.353075,31040.940409,29403.965700,-12631.328420,54702.184165,63684.053860,38303.089238,0.104000,0.984000,-0.046000,192.000000,0.000000,0.000000,0.000000,0.000000,0.000000,0.000000,0.000000,0.000000,0.000000,1647858471.888634,0.000000
110.000000,40727.582959,29157.403607,31046.841269,29411.073555,-12632.982449,54705.089892,63686.244331,38295.377886,0.104000,0.984000,-0.046000,192.000000,0.000000,0.000000,0.000000,0.000000,0.000000,0.000000,0.000000,0.000000,0.000000,1647858471.888651,0.000000
111.000000,40743.005662,29162.857433,31032.312635,29402.915168,-12635.351734,54706.118072,63679.292939,38280.715141,0.104000,0.984000,-0.046000,192.000000,0.000000,0.000000,0.000000,0.000000,0.000000,0.000000,0.000000,0.000000,0.000000,1647858471.896198,0.000000
112.000000,40728.186456,29155.459005,31021.829667,29398.958909,-12640.827911,54697.132671,63696.280264,38288.784121,0.104000,0.984000,-0.046000,192.000000,0.000000,0.000000,0.000000,0.000000,0.000000,0.000000,0.000000,0.000000,0.000000,1647858471.896214,0.000000
113.000000,40725.616005,29166.523119,31045.634275,29410.514761,-12628.087417,54711.773063,63688.591264,38274.501356,0.104000,0.984000,-0.046000,192.000000,0.000000,0.000000,0.000000,0.000000,0.000000,0.000000,0.000000,0.000000,0.000000,1647858471.904100,0.000000
114.000000,40729.929892,29182.146988,31053.189165,29403.675127,-12628.534452,54707.883860,63688.233636,38265.873583,0.104000,0.984000,-0.046000,192.000000,0.000000,0.000000,0.000000,0.000000,0.000000,0.000000,0.000000,0.000000,0.000000,1647858471.904116,0.000000
115.000000,40728.924063,29195.356869,31042.125051,29377.680049,-12640.850263,54699.256086,63688.568913,38262.073787,0.100000,0.984000,-0.050000,192.000000,3.000000,32.000000,30.000000,192.000000,254.000000,112.000000,0.000000,0.000000,0.000000,1647858471.911159,0.000000
116.000000,40739.854066,29193.725192,31037.498240,29378.819988,-12635.776417,54706.654514,63658.394058,38228.881446,0.100000,0.984000,-0.050000,192.000000,0.000000,0.000000,0.000000,0.000000,0.000000,0.000000,0.000000,0.000000,0.000000,1647858471.911175,0.000000
117.000000,40741.508095,29168.735941,31027.909342,29405.597377,-12634.859995,54694.629275,63661.165674,38227.741507,0.100000,0.984000,-0.050000,192.000000,0.000000,0.000000,0.000000,0.000000,0.000000,0.000000,0.000000,0.000000,0.000000,1647858471.918775,0.000000
118.000000,40746.648997,29181.968174,31047.154194,29437.940352,-12620.867803,54706.118072,63661.143322,38223.606434,0.100000,0.984000,-0.050000,192.000000,0.000000,0.000000,0.000000,0.000000,0.000000,0.000000,0.000000,0.000000,0.000000,1647858471.918790,0.000000
119.000000,40735.406069,29178.660116,31042.907362,29417.376747,-12625.539318,54695.121014,63675.582549,38236.391632,0.100000,0.984000,-0.050000,192.000000,0.000000,0.000000,0.000000,0.000000,0.000000,0.000000,0.000000,0.000000,0.000000,1647858471.926726,0.000000
120.000000,40744.614988,29192.607605,31057.480700,29417.823782,-12622.611239,54705.089892,63659.578700,38221.505370,0.100000,0.984000,-0.050000,192.000000,0.000000,0.000000,0.000000,0.000000,0.000000,0.000000,0.000000,0.000000,0.000000,1647858471.926741,0.000000
121.000000,40744.749098,29208.365584,31067.516633,29433.313541,-12617.515042,54718.366828,63632.175461,38194.325649,0.100000,0.984000,-0.050000,192.000000,0.000000,0.000000,0.000000,0.000000,0.000000,0.000000,0.000000,0.000000,0.000000,1647858471.934711,0.000000
122.000000,40734.109668,29196.317994,31064.879127,29427.591494,-12617.962076,54716.645743,63618.496194,38179.260573,0.100000,0.984000,-0.050000,192.000000,0.000000,0.000000,0.000000,0.000000,0.000000,0.000000,0.000000,0.000000,0.000000,1647858471.934727,0.000000
123.000000,40725.616005,29183.979831,31053.390330,29408.927787,-12625.852242,54708.085025,63625.939325,38185.876690,0.100000,0.984000,-0.050000,192.000000,0.000000,0.000000,0.000000,0.000000,0.000000,0.000000,0.000000,0.000000,0.000000,1647858471.940768,0.000000
124.000000,40733.684985,29180.403552,31057.905383,29404.457439,-12629.428521,54708.174432,63617.691531,38176.064274,0.100000,0.984000,-0.050000,192.000000,0.000000,0.000000,0.000000,0.000000,0.000000,0.000000,0.000000,0.000000,0.000000,1647858471.948474,0.000000
125.000000,40754.516811,29183.957479,31069.528290,29419.410756,-12622.901812,54716.556336,63604.816926,38164.821346,0.106000,0.984000,-0.048000,192.000000,3.000000,80.000000,30.000000,192.000000,254.000000,128.000000,0.000000,0.000000,0.000000,1647858471.948490,0.000000
126.000000,40750.784069,29187.042020,31050.551659,29415.141572,-12629.495577,54716.466929,63587.650786,38149.733919,0.106000,0.984000,-0.048000,192.000000,0.000000,0.000000,0.000000,0.000000,0.000000,0.000000,0.000000,0.000000,0.000000,1647858471.956466,0.000000
127.000000,40740.703433,29197.703802,31052.697426,29415.432145,-12629.652039,54720.333781,63571.356365,38133.730070,0.106000,0.984000,-0.048000,192.000000,0.000000,0.000000,0.000000,0.000000,0.000000,0.000000,0.000000,0.000000,0.000000,1647858471.956483,0.000000
128.000000,40735.718994,29218.222704,31053.122110,29415.409793,-12629.003838,54719.976153,63563.600309,38128.097430,0.106000,0.984000,-0.048000,192.000000,0.000000,0.000000,0.000000,0.000000,0.000000,0.000000,0.000000,0.000000,0.000000,1647858471.964347,0.000000
129.000000,40715.356554,29207.784439,31046.774214,29408.614863,-12638.995068,54711.415435,63571.781048,38142.111974,0.106000,0.984000,-0.048000,192.000000,0.000000,0.000000,0.000000,0.000000,0.000000,0.000000,0.000000,0.000000,0.000000,1647858471.964364,0.000000
130.000000,40718.217578,29203.358794,31047.400063,29405.306805,-12641.677277,54715.349342,63566.170760,38142.670768,0.106000,0.984000,-0.048000,192.000000,0.000000,0.000000,0.000000,0.000000,0.000000,0.000000,0.000000,0.000000,0.000000,1647858471.971080,0.000000
131.000000,40746.917218,29210.064317,31062.688656,29411.364128,-12637.385742,54724.178281,63540.600364,38122.755363,0.106000,0.984000,-0.048000,192.000000,0.000000,0.000000,0.000000,0.000000,0.000000,0.000000,0.000000,0.000000,0.000000,1647858471.971097,0.000000
132.000000,40778.723750,29215.853419,31073.417494,29414.985110,-12626.545146,54730.794398,63521.891954,38108.696116,0.106000,0.984000,-0.048000,192.000000,0.000000,0.000000,0.000000,0.000000,0.000000,0.000000,0.000000,0.000000,0.000000,1647858471.979073,0.000000
133.000000,40768.754872,29231.253771,31073.126921,29430.184296,-12610.273076,54736.136465,63504.926980,38093.854558,0.106000,0.984000,-0.048000,192.000000,0.000000,0.000000,0.000000,0.000000,0.000000,0.000000,0.000000,0.000000,0.000000,1647858471.979090,0.000000
134.000000,40744.860857,29200.788343,31059.224136,29413.934578,-12620.599582,54723.932412,63514.560582,38108.137322,0.106000,0.984000,-0.048000,192.000000,0.000000,0.000000,0.000000,0.000000,0.000000,0.000000,0.000000,0.000000,0.000000,1647858471.986966,0.000000
135.000000,40744.346767,29198.284948,31074.557432,29415.230979,-12621.627763,54733.722476,63506.089271,38103.465808,0.104000,0.986000,-0.050000,192.000000,3.000000,64.000000,30.000000,208.000000,254.000000,112.000000,0.000000,0.000000,0.000000,1647858471.986976,0.000000
136.000000,40742.446869,29220.681396,31080.257127,29428.843192,-12612.575306,54750.218064,63462.995108,38063.657351,0.104000,0.986000,-0.050000,192.000000,0.000000,0.000000,0.000000,0.000000,0.000000,0.000000,0.000000,0.000000,0.000000,1647858471.994073,0.000000
137.000000,40738.624720,29223.832992,31063.627429,29424.126974,-12611.681236,54745.792418,63443.839663,38049.240476,0.104000,0.986000,-0.050000,192.000000,0.000000,0.000000,0.000000,0.000000,0.000000,0.000000,0.000000,0.000000,0.000000,1647858471.994089,0.000000
138.000000,40755.276770,29226.001111,31055.245525,29423.568180,-12615.749254,54733.744828,63445.113712,38056.817717,0.104000,0.986000,-0.050000,192.000000,0.000000,0.000000,0.000000,0.000000,0.000000,0.000000,0.000000,0.000000,0.000000,1647858472.000563,0.000000
139.000000,40760.350616,29231.343178,31059.961743,29413.219322,-12614.564611,54732.113151,63443.347924,38061.466880,0.104000,0.986000,-0.050000,192.000000,0.000000,0.000000,0.000000,0.000000,0.000000,0.000000,0.000000,0.000000,0.000000,1647858472.008588,0.000000
140.000000,40759.613008,29227.342215,31072.009334,29419.053128,-12613.558783,54733.722476,63425.108901,38051.967389,0.104000,0.986000,-0.050000,192.000000,0.000000,0.000000,0.000000,0.000000,0.000000,0.000000,0.000000,0.000000,0.000000,1647858472.008602,0.000000
141.000000,40750.493497,29226.984588,31076.613793,29435.995750,-12612.240030,54730.772046,63396.923351,38034.577731,0.104000,0.986000,-0.050000,192.000000,0.000000,0.000000,0.000000,0.000000,0.000000,0.000000,0.000000,0.000000,0.000000,1647858472.016593,0.000000
142.000000,40743.050366,29221.195486,31060.051150,29424.953988,-12617.783262,54717.092778,63395.291674,38043.451374,0.104000,0.986000,-0.050000,192.000000,0.000000,0.000000,0.000000,0.000000,0.000000,0.000000,0.000000,0.000000,0.000000,1647858472.016607,0.000000
143.000000,40755.455584,29220.390823,31048.428243,29413.755764,-12619.929030,54716.064598,63392.587112,38051.922685,0.104000,0.986000,-0.050000,192.000000,0.000000,0.000000,0.000000,0.000000,0.000000,0.000000,0.000000,0.000000,0.000000,1647858472.023515,0.000000
144.000000,40775.706264,29236.774652,31062.643953,29417.197933,-12615.525736,54726.636973,63382.372365,38050.916857,0.104000,0.986000,-0.050000,192.000000,0.000000,0.000000,0.000000,0.000000,0.000000,0.000000,0.000000,0.000000,0.000000,1647858472.023524,0.000000
145.000000,40781.808291,29252.085597,31076.122055,29444.422358,-12610.138966,54744.987755,63371.732935,38048.547572,0.104000,0.986000,-0.050000,192.000000,0.000000,0.000000,0.000000,0.000000,0.000000,0.000000,0.000000,0.000000,0.000000,1647858472.031235,0.000000
146.000000,40777.606163,29251.683265,31071.674057,29450.859660,-12609.423710,54748.027593,63349.872929,38036.499981,0.094000,0.980000,-0.046000,192.000000,2.000000,240.000000,30.000000,160.000000,254.000000,144.000000,0.000000,0.000000,0.000000,1647858472.031248,0.000000
147.000000,40776.689741,29258.567602,31063.873299,29440.600209,-12597.823155,54754.934282,63334.383170,38027.805153,0.094000,0.980000,-0.046000,192.000000,0.000000,0.000000,0.000000,0.000000,0.000000,0.000000,0.000000,0.000000,0.000000,1647858472.039296,0.000000
148.000000,40761.199982,29261.518033,31064.096816,29438.566201,-12595.252704,54752.520293,63331.455091,38027.603987,0.094000,0.980000,-0.046000,192.000000,0.000000,0.000000,0.000000,0.000000,0.000000,0.000000,0.000000,0.000000,0.000000,1647858472.039308,0.000000
149.000000,40743.162125,29257.293553,31076.166758,29432.061843,-12594.492745,54753.123790,63327.945868,38024.631205,0.094000,0.980000,-0.046000,192.000000,0.000000,0.000000,0.000000,0.000000,0.000000,0.000000,0.000000,0.000000,0.000000,1647858472.046256,0.000000
150.000000,40754.449755,29247.324675,31097.311508,29444.802337,-12591.519963,54760.164590,63304.297722,38003.285289,0.094000,0.980000,-0.046000,192.000000,0.000000,0.000000,0.000000,0.000000,0.000000,0.000000,0.000000,0.000000,0.000000,1647858472.046262,0.000000
151.000000,40754.829735,29237.288742,31098.429096,29450.792605,-12594.269227,54754.934282,63285.343443,37991.684734,0.094000,0.980000,-0.046000,192.000000,0.000000,0.000000,0.000000,0.000000,0.000000,0.000000,0.000000,0.000000,0.000000,1647858472.053737,0.000000
152.000000,40769.783052,29247.168213,31112.465991,29456.268782,-12585.641454,54768.546494,63276.827428,37985.739170,0.094000,0.980000,-0.046000,192.000000,0.000000,0.000000,0.000000,0.000000,0.000000,0.000000,0.000000,0.000000,0.000000,1647858472.053743,0.000000
153.000000,40784.356390,29263.797911,31120.266750,29459.889765,-12570.174047,54784.751509,63265.249224,37975.390312,0.094000,0.980000,-0.046000,192.000000,0.000000,0.000000,0.000000,0.000000,0.000000,0.000000,0.000000,0.000000,0.000000,1647858472.060875,0.000000
154.000000,40765.737386,29260.087521,31097.602081,29445.338779,-12589.262437,54772.592160,63276.358041,37991.841196,0.094000,0.980000,-0.046000,192.000000,0.000000,0.000000,0.000000,0.000000,0.000000,0.000000,0.000000,0.000000,0.000000,1647858472.060887,0.000000
155.000000,40762.205811,29263.820262,31095.433962,29454.659457,-12596.035015,54773.218009,63261.248262,37987.817882,0.094000,0.980000,-0.046000,192.000000,0.000000,0.000000,0.000000,0.000000,0.000000,0.000000,0.000000,0.000000,0.000000,1647858472.068922,0.000000
156.000000,40796.649849,29262.367399,31091.790627,29457.609887,-12597.197306,54775.654349,63226.245430,37967.589553,0.080000,0.990000,-0.044000,192.000000,2.000000,128.000000,30.000000,240.000000,254.000000,160.000000,0.000000,0.000000,0.000000,1647858472.075987,0.000000
157.000000,40813.145436,29253.829033,31088.102590,29441.293113,-12604.014588,54771.049889,63212.387349,37966.159042,0.080000,0.990000,-0.044000,192.000000,0.000000,0.000000,0.000000,0.000000,0.000000,0.000000,0.000000,0.000000,0.000000,1647858472.076000,0.000000
158.000000,40790.659582,29253.225536,31094.651651,29440.175526,-12603.813422,54774.603817,63199.088061,37968.103643,0.080000,0.990000,-0.044000,192.000000,0.000000,0.000000,0.000000,0.000000,0.000000,0.000000,0.000000,0.000000,0.000000,1647858472.083603,0.000000
159.000000,40766.676160,29261.138053,31095.523369,29449.384445,-12600.438309,54779.141221,63176.088116,37966.091986,0.080000,0.990000,-0.044000,192.000000,0.000000,0.000000,0.000000,0.000000,0.000000,0.000000,0.000000,0.000000,0.000000,1647858472.083615,0.000000
160.000000,40750.828773,29257.248850,31099.367869,29454.480643,-12601.019454,54778.716538,63152.104694,37962.940390,0.080000,0.990000,-0.044000,192.000000,0.000000,0.000000,0.000000,0.000000,0.000000,0.000000,0.000000,0.000000,0.000000,1647858472.091604,0.000000
