%OpenBCI Raw EEG Data
%Number of channels = 8
%Sample Rate = 256 Hz
%Board = OpenBCI_GUI$BoardCytonSerial
%Channels = Fp1, Fp2, F3, F4, Fz, Pz, O1, O2
%Data recorded at AIMS Lab (http://aimsl.uiu.ac.bd) by Rana Depto (mail@ranadepto.com)
%Brainwaves were obtained via the Ultracortex Mark IV Headset using the OpenBCI Cyton Board
%Recording Application = ConcentrateToday (https://concentrate.today)
%Data type = RAW data with noise
%Day No = 4
%Subject ID = 2
%Session ID = 7
%Record starting timestamp (UTC+6) = 2022-03-09T12:45:54.328531
%Record ending timestamp (UTC+6)   = 2022-03-09T12:46:10.203504
%Recorded durations = ~15 seconds
Sample Index, EXG Channel 0, EXG Channel 1, EXG Channel 2, EXG Channel 3, EXG Channel 4, EXG Channel 5, EXG Channel 6, EXG Channel 7, Accel Channel 0, Accel Channel 1, Accel Channel 2, Other, Other, Other, Other, Other, Other, Other, Analog Channel 0, Analog Channel 1, Analog Channel 2, Timestamp, Timestamp (Formatted)
219.000000,33280.004058,32880.019591,20411.322464,-16.115608,26554.632372,18871.644899,11998.930514,15277.953777,-0.048000,0.956000,0.220000,192.000000,0.000000,0.000000,0.000000,0.000000,0.000000,0.000000,0.000000,0.000000,0.000000,1646808354.328275,0.000000
220.000000,33279.355857,32880.243108,20415.099909,-11.377038,26558.633334,18880.317376,12008.541764,15288.056766,-0.048000,0.956000,0.220000,192.000000,0.000000,0.000000,0.000000,0.000000,0.000000,0.000000,0.000000,0.000000,0.000000,1646808354.328426,0.000000
221.000000,33279.489968,32884.244071,20414.585819,-12.785198,26558.946259,18878.864512,12007.692398,15288.012062,-0.048000,0.956000,0.220000,192.000000,0.000000,0.000000,0.000000,0.000000,0.000000,0.000000,0.000000,0.000000,0.000000,1646808354.334681,0.000000
222.000000,33287.693058,32891.888367,20418.072691,-7.063151,26563.103683,18878.506884,12005.256057,15283.295844,-0.048000,0.956000,0.220000,192.000000,0.000000,0.000000,0.000000,0.000000,0.000000,0.000000,0.000000,0.000000,0.000000,1646808354.334689,0.000000
223.000000,33280.607555,32882.992373,20408.349682,-15.623869,26554.341800,18868.761524,11996.874153,15268.677803,-0.044000,0.960000,0.214000,192.000000,254.000000,160.000000,30.000000,0.000000,6.000000,176.000000,0.000000,0.000000,0.000000,1646808354.342652,0.000000
224.000000,33284.183834,32881.070123,20409.467269,-16.182663,26555.951125,18872.427210,12005.367816,15277.953777,-0.044000,0.960000,0.214000,192.000000,0.000000,0.000000,0.000000,0.000000,0.000000,0.000000,0.000000,0.000000,0.000000,1646808354.342657,0.000000
225.000000,33296.320831,32892.223643,20422.744205,-4.693866,26570.390352,18888.967501,12020.768168,15299.590266,-0.044000,0.960000,0.214000,192.000000,0.000000,0.000000,0.000000,0.000000,0.000000,0.000000,0.000000,0.000000,0.000000,1646808354.350639,0.000000
226.000000,33292.677497,32891.798960,20420.196106,-6.571413,26567.529329,18888.721632,12015.068473,15304.775870,-0.044000,0.960000,0.214000,192.000000,0.000000,0.000000,0.000000,0.000000,0.000000,0.000000,0.000000,0.000000,0.000000,1646808354.350643,0.000000
227.000000,33290.643488,32892.268347,20417.223324,-8.806587,26564.221271,18880.652652,12008.407653,15296.550428,-0.044000,0.960000,0.214000,192.000000,0.000000,0.000000,0.000000,0.000000,0.000000,0.000000,0.000000,0.000000,0.000000,1646808354.357777,0.000000
228.000000,33291.716372,32888.557957,20417.424490,-10.930003,26563.483663,18878.931568,12001.746834,15288.146173,-0.044000,0.960000,0.214000,192.000000,0.000000,0.000000,0.000000,0.000000,0.000000,0.000000,0.000000,0.000000,0.000000,1646808354.357782,0.000000
229.000000,33291.269337,32880.623088,20413.803508,-17.523768,26559.817977,18877.076373,12005.814851,15286.514495,-0.044000,0.960000,0.214000,192.000000,0.000000,0.000000,0.000000,0.000000,0.000000,0.000000,0.000000,0.000000,0.000000,1646808354.364218,0.000000
230.000000,33289.637660,32887.775646,20418.206801,-14.439227,26563.707180,18878.126905,12006.060720,15286.626254,-0.044000,0.960000,0.214000,192.000000,0.000000,0.000000,0.000000,0.000000,0.000000,0.000000,0.000000,0.000000,0.000000,1646808354.364223,0.000000
231.000000,33289.347087,32896.202254,20423.772386,-10.952355,26566.590555,18881.032632,12015.515508,15289.889609,-0.044000,0.960000,0.214000,192.000000,0.000000,0.000000,0.000000,0.000000,0.000000,0.000000,0.000000,0.000000,0.000000,1646808354.372311,0.000000
232.000000,33273.007962,32886.322783,20411.590685,-20.720067,26554.587669,18869.186207,12000.450432,15275.562140,-0.044000,0.960000,0.214000,192.000000,0.000000,0.000000,0.000000,0.000000,0.000000,0.000000,0.000000,0.000000,0.000000,1646808354.380355,0.000000
233.000000,33277.143035,32886.814521,20413.311769,-19.535425,26556.420512,18873.835370,12002.305627,15281.552408,-0.044000,0.956000,0.218000,192.000000,254.000000,160.000000,29.000000,224.000000,6.000000,208.000000,0.000000,0.000000,0.000000,1646808354.380361,0.000000
234.000000,33294.242119,32897.029268,20422.431281,-10.974707,26564.914175,18877.769277,11996.605932,15277.462039,-0.044000,0.956000,0.218000,192.000000,0.000000,0.000000,0.000000,0.000000,0.000000,0.000000,0.000000,0.000000,0.000000,1646808354.387416,0.000000
235.000000,33300.813532,32904.852379,20429.360322,-4.850329,26571.127960,18882.843123,11999.623418,15284.011100,-0.044000,0.956000,0.218000,192.000000,0.000000,0.000000,0.000000,0.000000,0.000000,0.000000,0.000000,0.000000,0.000000,1646808354.387421,0.000000
236.000000,33293.392753,32900.247920,20429.539136,-6.571413,26568.915137,18886.128829,12011.223973,15294.941103,-0.044000,0.956000,0.218000,192.000000,0.000000,0.000000,0.000000,0.000000,0.000000,0.000000,0.000000,0.000000,0.000000,1646808354.394957,0.000000
237.000000,33284.429703,32889.832007,20419.726720,-17.747285,26556.129939,18870.415553,11995.600104,15273.237559,-0.044000,0.956000,0.218000,192.000000,0.000000,0.000000,0.000000,0.000000,0.000000,0.000000,0.000000,0.000000,0.000000,1646808354.394962,0.000000
238.000000,33281.300459,32885.361658,20417.379787,-18.417837,26553.693599,18863.732381,11989.431022,15262.061687,-0.044000,0.956000,0.218000,192.000000,0.000000,0.000000,0.000000,0.000000,0.000000,0.000000,0.000000,0.000000,0.000000,1646808354.404302,0.000000
239.000000,33288.967107,32892.290699,20424.331179,-9.745361,26562.053151,18873.835370,11999.265790,15283.295844,-0.044000,0.956000,0.218000,192.000000,0.000000,0.000000,0.000000,0.000000,0.000000,0.000000,0.000000,0.000000,0.000000,1646808354.404306,0.000000
240.000000,33291.425799,32896.314013,20421.201935,-11.444093,26560.086198,18872.494265,11997.611761,15284.256969,-0.044000,0.956000,0.218000,192.000000,0.000000,0.000000,0.000000,0.000000,0.000000,0.000000,0.000000,0.000000,0.000000,1646808354.410941,0.000000
241.000000,33298.779523,32900.002050,20428.041569,-10.773541,26562.679000,18875.422344,12002.640903,15289.442574,-0.044000,0.956000,0.218000,192.000000,0.000000,0.000000,0.000000,0.000000,0.000000,0.000000,0.000000,0.000000,0.000000,1646808354.410945,0.000000
242.000000,33294.040953,32899.979699,20430.902592,-5.386770,26562.835462,18877.389297,12000.338674,15282.334719,-0.044000,0.956000,0.218000,192.000000,0.000000,0.000000,0.000000,0.000000,0.000000,0.000000,0.000000,0.000000,0.000000,1646808354.417547,0.000000
243.000000,33292.230462,32901.745486,20432.198993,-4.068017,26561.628468,18879.199788,12001.903296,15277.015004,-0.048000,0.952000,0.224000,192.000000,254.000000,128.000000,29.000000,192.000000,7.000000,0.000000,0.000000,0.000000,0.000000,1646808354.417551,0.000000
244.000000,33281.747494,32889.072047,20420.285513,-14.930965,26549.938506,18872.494265,11992.470860,15273.729297,-0.048000,0.952000,0.224000,192.000000,0.000000,0.000000,0.000000,0.000000,0.000000,0.000000,0.000000,0.000000,0.000000,1646808354.425521,0.000000
245.000000,33295.851445,32901.343155,20428.421548,-5.789102,26559.214480,18885.123001,12001.389206,15284.838114,-0.048000,0.952000,0.224000,192.000000,0.000000,0.000000,0.000000,0.000000,0.000000,0.000000,0.000000,0.000000,0.000000,1646808354.425524,0.000000
246.000000,33289.347087,32900.896120,20422.274819,-10.438265,26554.878241,18885.167704,12000.718653,15282.804106,-0.048000,0.952000,0.224000,192.000000,0.000000,0.000000,0.000000,0.000000,0.000000,0.000000,0.000000,0.000000,0.000000,1646808354.432592,0.000000
247.000000,33288.095389,32899.331498,20419.302037,-13.835730,26551.145500,18884.184227,11999.690473,15281.194780,-0.048000,0.952000,0.224000,192.000000,0.000000,0.000000,0.000000,0.000000,0.000000,0.000000,0.000000,0.000000,0.000000,1646808354.439689,0.000000
248.000000,33293.973898,32905.858207,20423.124185,-10.147692,26553.157157,18888.185190,12003.557325,15283.675824,-0.048000,0.952000,0.224000,192.000000,0.000000,0.000000,0.000000,0.000000,0.000000,0.000000,0.000000,0.000000,0.000000,1646808354.439693,0.000000
249.000000,33292.006945,32905.589987,20422.364226,-10.550023,26550.631410,18889.302777,12005.323113,15283.742879,-0.048000,0.952000,0.224000,192.000000,0.000000,0.000000,0.000000,0.000000,0.000000,0.000000,0.000000,0.000000,0.000000,1646808354.447194,0.000000
250.000000,33291.872834,32905.187655,20421.626618,-11.086465,26549.580878,18888.811039,12005.390168,15279.563103,-0.048000,0.952000,0.224000,192.000000,0.000000,0.000000,0.000000,0.000000,0.000000,0.000000,0.000000,0.000000,0.000000,1646808354.447197,0.000000
251.000000,33287.246023,32903.220702,20417.849173,-10.773541,26549.536174,18888.788687,12005.658389,15289.062594,-0.048000,0.952000,0.224000,192.000000,0.000000,0.000000,0.000000,0.000000,0.000000,0.000000,0.000000,0.000000,0.000000,1646808354.455230,0.000000
252.000000,33279.311154,32897.699821,20413.982321,-14.148654,26544.998770,18881.032632,12002.573848,15283.765231,-0.048000,0.952000,0.224000,192.000000,0.000000,0.000000,0.000000,0.000000,0.000000,0.000000,0.000000,0.000000,0.000000,1646808354.455233,0.000000
253.000000,33283.289764,32900.270271,20421.067824,-11.153520,26549.245602,18881.926701,12001.568020,15284.748707,-0.048000,0.948000,0.226000,192.000000,254.000000,128.000000,29.000000,160.000000,7.000000,16.000000,0.000000,0.000000,0.000000,1646808354.463209,0.000000
254.000000,33278.260622,32892.894196,20417.379787,-13.813378,26547.032779,18875.779972,11985.541819,15278.870199,-0.048000,0.948000,0.226000,192.000000,0.000000,0.000000,0.000000,0.000000,0.000000,0.000000,0.000000,0.000000,0.000000,1646808354.463213,0.000000
255.000000,33276.360724,32898.102152,20419.547906,-12.651087,26550.720817,18878.082201,11996.918857,15276.366803,-0.048000,0.948000,0.226000,192.000000,0.000000,0.000000,0.000000,0.000000,0.000000,0.000000,0.000000,0.000000,0.000000,1646808354.469821,0.000000
0.000000,33283.222709,32899.733829,20424.018255,-8.851291,26553.581840,18881.166742,12001.903296,15277.529094,-0.048000,0.948000,0.226000,192.000000,0.000000,0.000000,0.000000,0.000000,0.000000,0.000000,0.000000,0.000000,0.000000,1646808354.469825,0.000000
1.000000,33286.642526,32902.393687,20427.236906,-6.437302,26555.057055,18883.804248,12006.284238,15279.473696,-0.048000,0.948000,0.226000,192.000000,0.000000,0.000000,0.000000,0.000000,0.000000,0.000000,0.000000,0.000000,0.000000,1646808354.477808,0.000000
2.000000,33284.183834,32900.784361,20424.152365,-13.746323,26549.692637,18878.551588,12000.383377,15277.886722,-0.048000,0.948000,0.226000,192.000000,0.000000,0.000000,0.000000,0.000000,0.000000,0.000000,0.000000,0.000000,0.000000,1646808354.477812,0.000000
3.000000,33282.663915,32900.404382,20425.605229,-13.679268,26547.412759,18882.843123,12004.943133,15287.319158,-0.048000,0.948000,0.226000,192.000000,0.000000,0.000000,0.000000,0.000000,0.000000,0.000000,0.000000,0.000000,0.000000,1646808354.485901,0.000000
4.000000,33269.029351,32889.228510,20416.038682,-24.050477,26533.621732,18870.482608,11992.895543,15269.840094,-0.048000,0.948000,0.226000,192.000000,0.000000,0.000000,0.000000,0.000000,0.000000,0.000000,0.000000,0.000000,0.000000,1646808354.485927,0.000000
5.000000,33255.685360,32876.800940,20402.068842,-41.663652,26516.969683,18849.181396,11967.593368,15254.484445,-0.048000,0.948000,0.226000,192.000000,0.000000,0.000000,0.000000,0.000000,0.000000,0.000000,0.000000,0.000000,0.000000,1646808354.493051,0.000000
6.000000,33267.196508,32888.714419,20415.412833,-28.476122,26530.760709,18863.240643,11990.280389,15271.583530,-0.048000,0.948000,0.226000,192.000000,0.000000,0.000000,0.000000,0.000000,0.000000,0.000000,0.000000,0.000000,0.000000,1646808354.499495,0.000000
7.000000,33278.193567,32897.386896,20425.515822,-20.205977,26539.969628,18872.538969,12001.009226,15272.745821,-0.054000,0.954000,0.220000,192.000000,254.000000,80.000000,29.000000,208.000000,6.000000,224.000000,0.000000,0.000000,0.000000,1646808354.499499,0.000000
8.000000,33268.179985,32884.065257,20411.344816,-31.672422,26524.681035,18859.351439,11986.994682,15271.851751,-0.054000,0.954000,0.220000,192.000000,0.000000,0.000000,0.000000,0.000000,0.000000,0.000000,0.000000,0.000000,0.000000,1646808354.507535,0.000000
9.000000,33272.203299,32897.364545,20419.503202,-19.580128,26533.487622,18870.482608,11990.101575,15276.880893,-0.054000,0.954000,0.220000,192.000000,0.000000,0.000000,0.000000,0.000000,0.000000,0.000000,0.000000,0.000000,0.000000,1646808354.507539,0.000000
10.000000,33275.109026,32902.840722,20425.135842,-15.065076,26538.181488,18878.372774,11999.019921,15287.162696,-0.054000,0.954000,0.220000,192.000000,0.000000,0.000000,0.000000,0.000000,0.000000,0.000000,0.000000,0.000000,0.000000,1646808354.515518,0.000000
11.000000,33280.093465,32902.058411,20428.242734,-15.132131,26541.601305,18881.591425,12008.720578,15288.548504,-0.054000,0.954000,0.220000,192.000000,0.000000,0.000000,0.000000,0.000000,0.000000,0.000000,0.000000,0.000000,0.000000,1646808354.515524,0.000000
12.000000,33279.735837,32901.119638,20423.884144,-18.261375,26540.483718,18876.875207,12000.696302,15282.737050,-0.054000,0.954000,0.220000,192.000000,0.000000,0.000000,0.000000,0.000000,0.000000,0.000000,0.000000,0.000000,0.000000,1646808354.522775,0.000000
13.000000,33273.097369,32900.404382,20418.519726,-19.691887,26536.683921,18874.863550,11999.265790,15282.647643,-0.054000,0.954000,0.220000,192.000000,0.000000,0.000000,0.000000,0.000000,0.000000,0.000000,0.000000,0.000000,0.000000,1646808354.522779,0.000000
14.000000,33266.972991,32896.559882,20412.037720,-26.419762,26529.732529,18865.006431,11994.795441,15271.360012,-0.054000,0.954000,0.220000,192.000000,0.000000,0.000000,0.000000,0.000000,0.000000,0.000000,0.000000,0.000000,0.000000,1646808354.530214,0.000000
15.000000,33270.281049,32895.308184,20414.116432,-28.811399,26529.978398,18865.520521,11986.681758,15274.265739,-0.054000,0.954000,0.220000,192.000000,0.000000,0.000000,0.000000,0.000000,0.000000,0.000000,0.000000,0.000000,0.000000,1646808354.530219,0.000000
16.000000,33271.622154,32893.900024,20421.492508,-22.508207,26539.209669,18877.523408,11995.018958,15281.775925,-0.054000,0.954000,0.220000,192.000000,0.000000,0.000000,0.000000,0.000000,0.000000,0.000000,0.000000,0.000000,0.000000,1646808354.538187,0.000000
17.000000,33273.454997,32891.776608,20425.985208,-18.641355,26544.618791,18882.127867,11999.489307,15283.519361,-0.052000,0.956000,0.228000,192.000000,254.000000,96.000000,29.000000,224.000000,7.000000,32.000000,0.000000,0.000000,0.000000,1646808354.538217,0.000000
18.000000,33274.393770,32889.988469,20427.169851,-21.435323,26541.713064,18875.578806,11996.740043,15277.372632,-0.052000,0.956000,0.228000,192.000000,0.000000,0.000000,0.000000,0.000000,0.000000,0.000000,0.000000,0.000000,0.000000,1646808354.546102,0.000000
19.000000,33271.376285,32887.932108,20422.185412,-29.034916,26535.901610,18866.638108,11989.118098,15270.443591,-0.052000,0.956000,0.228000,192.000000,0.000000,0.000000,0.000000,0.000000,0.000000,0.000000,0.000000,0.000000,0.000000,1646808354.546106,0.000000
20.000000,33271.555098,32893.073010,20423.682979,-24.385753,26539.746110,18868.247434,11995.577752,15280.010138,-0.052000,0.956000,0.228000,192.000000,0.000000,0.000000,0.000000,0.000000,0.000000,0.000000,0.000000,0.000000,0.000000,1646808354.552244,0.000000
21.000000,33274.550232,32895.531702,20427.818051,-20.608308,26541.578953,18871.667251,11993.431985,15277.506742,-0.052000,0.956000,0.228000,192.000000,0.000000,0.000000,0.000000,0.000000,0.000000,0.000000,0.000000,0.000000,0.000000,1646808354.559797,0.000000
22.000000,33271.711561,32891.731905,20421.581915,-26.017431,26535.275762,18866.392239,11989.431022,15271.851751,-0.052000,0.956000,0.228000,192.000000,0.000000,0.000000,0.000000,0.000000,0.000000,0.000000,0.000000,0.000000,0.000000,1646808354.559801,0.000000
23.000000,33268.872889,32892.313050,20421.067824,-26.106838,26537.063901,18865.319355,11986.815868,15270.331832,-0.052000,0.956000,0.228000,192.000000,0.000000,0.000000,0.000000,0.000000,0.000000,0.000000,0.000000,0.000000,0.000000,1646808354.567834,0.000000
24.000000,33270.146939,32897.588062,20422.230115,-21.748247,26540.863698,18869.655594,11996.695339,15275.718603,-0.052000,0.956000,0.228000,192.000000,0.000000,0.000000,0.000000,0.000000,0.000000,0.000000,0.000000,0.000000,0.000000,1646808354.567837,0.000000
25.000000,33269.364628,32893.564748,20421.671322,-21.927061,26541.131919,18868.180378,11996.784746,15275.293919,-0.052000,0.956000,0.228000,192.000000,0.000000,0.000000,0.000000,0.000000,0.000000,0.000000,0.000000,0.000000,0.000000,1646808354.575824,0.000000
26.000000,33266.145976,32888.602661,20417.782118,-27.380887,26538.136785,18862.905367,11985.072432,15271.605882,-0.052000,0.956000,0.228000,192.000000,0.000000,0.000000,0.000000,0.000000,0.000000,0.000000,0.000000,0.000000,0.000000,1646808354.575828,0.000000
27.000000,33272.963258,32898.169207,20427.750996,-19.177797,26547.636276,18870.795533,11986.592351,15274.422201,-0.044000,0.964000,0.220000,192.000000,254.000000,160.000000,30.000000,32.000000,6.000000,224.000000,0.000000,0.000000,0.000000,1646808354.582364,0.000000
28.000000,33270.973953,32894.235300,20425.761691,-21.949413,26544.663494,18868.403896,11990.436851,15263.089867,-0.044000,0.964000,0.220000,192.000000,0.000000,0.000000,0.000000,0.000000,0.000000,0.000000,0.000000,0.000000,0.000000,1646808354.582368,0.000000
29.000000,33276.964221,32897.588062,20431.237868,-16.137959,26550.787872,18874.081239,12006.530107,15271.784696,-0.044000,0.964000,0.220000,192.000000,0.000000,0.000000,0.000000,0.000000,0.000000,0.000000,0.000000,0.000000,0.000000,1646808354.590404,0.000000
30.000000,33269.923421,32895.151722,20423.347702,-20.496550,26544.395273,18867.509826,11989.833354,15272.231730,-0.044000,0.964000,0.220000,192.000000,0.000000,0.000000,0.000000,0.000000,0.000000,0.000000,0.000000,0.000000,0.000000,1646808354.590427,0.000000
31.000000,33274.036142,32901.387859,20427.303961,-15.735628,26548.396236,18872.874245,11997.477650,15277.886722,-0.044000,0.964000,0.220000,192.000000,0.000000,0.000000,0.000000,0.000000,0.000000,0.000000,0.000000,0.000000,0.000000,1646808354.598508,0.000000
32.000000,33278.350029,32903.623033,20431.260220,-13.455750,26551.838404,18876.606986,11999.556363,15275.942120,-0.044000,0.964000,0.220000,192.000000,0.000000,0.000000,0.000000,0.000000,0.000000,0.000000,0.000000,0.000000,0.000000,1646808354.598512,0.000000
33.000000,33277.679476,32902.751315,20431.550793,-13.925137,26551.547831,18875.377640,11997.432947,15275.606844,-0.044000,0.964000,0.220000,192.000000,0.000000,0.000000,0.000000,0.000000,0.000000,0.000000,0.000000,0.000000,0.000000,1646808354.604968,0.000000
34.000000,33273.879680,32898.348021,20428.622714,-16.115608,26549.044436,18877.411649,12004.250229,15284.547542,-0.044000,0.964000,0.220000,192.000000,0.000000,0.000000,0.000000,0.000000,0.000000,0.000000,0.000000,0.000000,0.000000,1646808354.604972,0.000000
35.000000,33275.891337,32903.824199,20429.963819,-11.600555,26551.033741,18883.424268,12005.211354,15295.186972,-0.044000,0.964000,0.220000,192.000000,0.000000,0.000000,0.000000,0.000000,0.000000,0.000000,0.000000,0.000000,0.000000,1646808354.612144,0.000000
36.000000,33265.117796,32895.129370,20418.050339,-20.138922,26539.612000,18871.711954,11990.660368,15282.066498,-0.044000,0.964000,0.220000,192.000000,0.000000,0.000000,0.000000,0.000000,0.000000,0.000000,0.000000,0.000000,0.000000,1646808354.612147,0.000000
37.000000,33267.464729,32898.035097,20419.078519,-17.546119,26540.930753,18871.264919,11990.660368,15279.272530,-0.052000,0.960000,0.224000,192.000000,254.000000,96.000000,30.000000,0.000000,7.000000,0.000000,0.000000,0.000000,0.000000,1646808354.620031,0.000000
38.000000,33283.066247,32917.324652,20429.337970,-2.481044,26553.872413,18883.044289,12000.606895,15293.309426,-0.052000,0.960000,0.224000,192.000000,0.000000,0.000000,0.000000,0.000000,0.000000,0.000000,0.000000,0.000000,0.000000,1646808354.628143,0.000000
39.000000,33280.719314,32911.356737,20429.069749,-6.526709,26550.273782,18879.043326,11995.242476,15286.536847,-0.052000,0.960000,0.224000,192.000000,0.000000,0.000000,0.000000,0.000000,0.000000,0.000000,0.000000,0.000000,0.000000,1646808354.628148,0.000000
40.000000,33269.565793,32898.772704,20419.413795,-15.534462,26542.383616,18870.929643,11989.922761,15275.249216,-0.052000,0.960000,0.224000,192.000000,0.000000,0.000000,0.000000,0.000000,0.000000,0.000000,0.000000,0.000000,0.000000,1646808354.634720,0.000000
41.000000,33266.816529,32900.113809,20417.580952,-18.306079,26538.114433,18864.335878,11977.785763,15264.721544,-0.052000,0.960000,0.224000,192.000000,0.000000,0.000000,0.000000,0.000000,0.000000,0.000000,0.000000,0.000000,0.000000,1646808354.634723,0.000000
42.000000,33262.301476,32898.660946,20418.139746,-20.451846,26535.968666,18862.212463,11975.952920,15263.492198,-0.052000,0.960000,0.224000,192.000000,0.000000,0.000000,0.000000,0.000000,0.000000,0.000000,0.000000,0.000000,0.000000,1646808354.642581,0.000000
43.000000,33269.364628,32900.203216,20423.794737,-17.769637,26541.288381,18869.387373,11990.235685,15273.036393,-0.052000,0.960000,0.224000,192.000000,0.000000,0.000000,0.000000,0.000000,0.000000,0.000000,0.000000,0.000000,0.000000,1646808354.642585,0.000000
44.000000,33279.266450,32908.875693,20430.008522,-11.198224,26547.479814,18875.623509,11999.779880,15277.663204,-0.052000,0.960000,0.224000,192.000000,0.000000,0.000000,0.000000,0.000000,0.000000,0.000000,0.000000,0.000000,0.000000,1646808354.650712,0.000000
45.000000,33273.075017,32904.315937,20423.258295,-16.607346,26542.115395,18871.086105,11986.346482,15274.980995,-0.052000,0.960000,0.224000,192.000000,0.000000,0.000000,0.000000,0.000000,0.000000,0.000000,0.000000,0.000000,0.000000,1646808354.650716,0.000000
46.000000,33270.593973,32903.131295,20422.073653,-16.361477,26542.495375,18872.471913,11988.559304,15276.478562,-0.052000,0.960000,0.224000,192.000000,0.000000,0.000000,0.000000,0.000000,0.000000,0.000000,0.000000,0.000000,0.000000,1646808354.657797,0.000000
47.000000,33279.489968,32913.033117,20432.422511,-6.973744,26552.710122,18880.496190,12000.293970,15287.900303,-0.054000,0.960000,0.224000,192.000000,254.000000,80.000000,30.000000,0.000000,7.000000,0.000000,0.000000,0.000000,0.000000,1646808354.657801,0.000000
48.000000,33267.978819,32909.121562,20425.113490,-12.405218,26545.512860,18874.349460,11997.611761,15286.313329,-0.054000,0.960000,0.224000,192.000000,0.000000,0.000000,0.000000,0.000000,0.000000,0.000000,0.000000,0.000000,0.000000,1646808354.665347,0.000000
49.000000,33270.191642,32908.965100,20421.604266,-13.053419,26542.115395,18872.628376,11991.912066,15281.820629,-0.054000,0.960000,0.224000,192.000000,0.000000,0.000000,0.000000,0.000000,0.000000,0.000000,0.000000,0.000000,0.000000,1646808354.665351,0.000000
50.000000,33270.146939,32905.589987,20419.637313,-15.847387,26541.266029,18868.605062,11986.815868,15274.131629,-0.054000,0.960000,0.224000,192.000000,0.000000,0.000000,0.000000,0.000000,0.000000,0.000000,0.000000,0.000000,0.000000,1646808354.673270,0.000000
51.000000,33266.771825,32904.874731,20421.380749,-14.729800,26543.680017,18871.644899,11991.912066,15269.080135,-0.054000,0.960000,0.224000,192.000000,0.000000,0.000000,0.000000,0.000000,0.000000,0.000000,0.000000,0.000000,0.000000,1646808354.673274,0.000000
52.000000,33269.968125,32908.473362,20422.431281,-13.768675,26543.456500,18869.029745,11983.440755,15268.364879,-0.054000,0.960000,0.224000,192.000000,0.000000,0.000000,0.000000,0.000000,0.000000,0.000000,0.000000,0.000000,0.000000,1646808354.680322,0.000000
53.000000,33274.438474,32911.334385,20421.738377,-14.238061,26541.869526,18867.800399,11981.697319,15267.984899,-0.054000,0.960000,0.224000,192.000000,0.000000,0.000000,0.000000,0.000000,0.000000,0.000000,0.000000,0.000000,0.000000,1646808354.687370,0.000000
54.000000,33277.970049,32914.754202,20419.100871,-15.646221,26538.203840,18864.939376,11986.927627,15263.022812,-0.054000,0.960000,0.224000,192.000000,0.000000,0.000000,0.000000,0.000000,0.000000,0.000000,0.000000,0.000000,0.000000,1646808354.687374,0.000000
55.000000,33265.564831,32900.292623,20414.339949,-24.743381,26531.833593,18864.626451,11983.530162,15272.187027,-0.054000,0.960000,0.224000,192.000000,0.000000,0.000000,0.000000,0.000000,0.000000,0.000000,0.000000,0.000000,0.000000,1646808354.694967,0.000000
56.000000,33254.724235,32887.149797,20416.262199,-26.084486,26535.007541,18870.549663,11994.236647,15277.506742,-0.054000,0.960000,0.224000,192.000000,0.000000,0.000000,0.000000,0.000000,0.000000,0.000000,0.000000,0.000000,0.000000,1646808354.694971,0.000000
57.000000,33264.179023,32897.029268,20422.297170,-20.675364,26542.115395,18875.243530,12001.500964,15284.882818,-0.054000,0.960000,0.224000,192.000000,0.000000,0.000000,0.000000,0.000000,0.000000,0.000000,0.000000,0.000000,0.000000,1646808354.703050,0.000000
58.000000,33267.621191,32898.526835,20419.860830,-20.541253,26543.210631,18875.109419,11997.209429,15284.972225,-0.048000,0.956000,0.236000,192.000000,254.000000,128.000000,29.000000,224.000000,7.000000,96.000000,0.000000,0.000000,0.000000,1646808354.703077,0.000000
59.000000,33259.820433,32894.525873,20410.920133,-27.157370,26536.952142,18865.878149,11979.886827,15273.416373,-0.048000,0.956000,0.236000,192.000000,0.000000,0.000000,0.000000,0.000000,0.000000,0.000000,0.000000,0.000000,0.000000,1646808354.710992,0.000000
60.000000,33260.490985,32896.314013,20411.903609,-26.151541,26535.164003,18865.967556,11985.921798,15275.249216,-0.048000,0.956000,0.236000,192.000000,0.000000,0.000000,0.000000,0.000000,0.000000,0.000000,0.000000,0.000000,0.000000,1646808354.710997,0.000000
61.000000,33254.031331,32892.916547,20408.550848,-29.012564,26531.431261,18862.458332,11988.961636,15271.382364,-0.048000,0.956000,0.236000,192.000000,0.000000,0.000000,0.000000,0.000000,0.000000,0.000000,0.000000,0.000000,0.000000,1646808354.717520,0.000000
62.000000,33261.474462,32899.487960,20417.357435,-21.547082,26538.181488,18871.868416,11999.534011,15284.592245,-0.048000,0.956000,0.236000,192.000000,0.000000,0.000000,0.000000,0.000000,0.000000,0.000000,0.000000,0.000000,0.000000,1646808354.717523,0.000000
63.000000,33256.870002,32894.637632,20411.903609,-26.576224,26530.984227,18865.788742,11995.398938,15277.484390,-0.048000,0.956000,0.236000,192.000000,0.000000,0.000000,0.000000,0.000000,0.000000,0.000000,0.000000,0.000000,0.000000,1646808354.725542,0.000000
64.000000,33247.303456,32884.646402,20402.247656,-38.199131,26520.367148,18854.299945,11986.301778,15268.409582,-0.048000,0.956000,0.236000,192.000000,0.000000,0.000000,0.000000,0.000000,0.000000,0.000000,0.000000,0.000000,0.000000,1646808354.725546,0.000000
65.000000,33261.273296,32895.062315,20412.328292,-25.659803,26532.504145,18862.100704,11994.504868,15271.874103,-0.048000,0.956000,0.236000,192.000000,0.000000,0.000000,0.000000,0.000000,0.000000,0.000000,0.000000,0.000000,0.000000,1646808354.733555,0.000000
66.000000,33277.500663,32911.446144,20426.164022,-10.371209,26546.228116,18875.064716,11995.689511,15281.284187,-0.048000,0.956000,0.236000,192.000000,0.000000,0.000000,0.000000,0.000000,0.000000,0.000000,0.000000,0.000000,0.000000,1646808354.733559,0.000000
67.000000,33276.785407,32908.003975,20426.096967,-13.343991,26544.328218,18872.963652,11989.341615,15277.506742,-0.048000,0.956000,0.236000,192.000000,0.000000,0.000000,0.000000,0.000000,0.000000,0.000000,0.000000,0.000000,0.000000,1646808354.740672,0.000000
68.000000,33269.878718,32905.210007,20422.811261,-18.015506,26541.042512,18871.197864,11990.526258,15274.265739,-0.048000,0.956000,0.226000,192.000000,254.000000,128.000000,29.000000,224.000000,7.000000,16.000000,0.000000,0.000000,0.000000,1646808354.747196,0.000000
69.000000,33260.692151,32901.857245,20414.541115,-25.838617,26534.180526,18868.403896,11993.744909,15282.379422,-0.048000,0.956000,0.226000,192.000000,0.000000,0.000000,0.000000,0.000000,0.000000,0.000000,0.000000,0.000000,0.000000,1646808354.747199,0.000000
70.000000,33254.612476,32896.738696,20405.734528,-32.387678,26524.770442,18860.312564,11985.474764,15272.835228,-0.048000,0.956000,0.226000,192.000000,0.000000,0.000000,0.000000,0.000000,0.000000,0.000000,0.000000,0.000000,0.000000,1646808354.755220,0.000000
71.000000,33261.183889,32900.292623,20411.434223,-28.766695,26529.173735,18864.157064,11983.440755,15266.777905,-0.048000,0.956000,0.226000,192.000000,0.000000,0.000000,0.000000,0.000000,0.000000,0.000000,0.000000,0.000000,0.000000,1646808354.755223,0.000000
72.000000,33259.842784,32903.064239,20413.714101,-27.380887,26530.470136,18865.744038,11983.686624,15267.560216,-0.048000,0.956000,0.226000,192.000000,0.000000,0.000000,0.000000,0.000000,0.000000,0.000000,0.000000,0.000000,0.000000,1646808354.763172,0.000000
73.000000,33262.949677,32906.908739,20415.032853,-23.402276,26533.621732,18866.168721,11983.664272,15265.816780,-0.048000,0.956000,0.226000,192.000000,0.000000,0.000000,0.000000,0.000000,0.000000,0.000000,0.000000,0.000000,0.000000,1646808354.763176,0.000000
74.000000,33264.760168,32905.679393,20417.156269,-21.636489,26535.074596,18866.615756,11981.227932,15267.291995,-0.048000,0.956000,0.226000,192.000000,0.000000,0.000000,0.000000,0.000000,0.000000,0.000000,0.000000,0.000000,0.000000,1646808354.769809,0.000000
75.000000,33267.800005,32907.311071,20418.229153,-20.228329,26536.527459,18867.643937,11986.368833,15270.331832,-0.048000,0.956000,0.226000,192.000000,0.000000,0.000000,0.000000,0.000000,0.000000,0.000000,0.000000,0.000000,0.000000,1646808354.769814,0.000000
76.000000,33262.033255,32901.812542,20411.501278,-26.911500,26530.850116,18862.994774,11986.637054,15268.543693,-0.048000,0.956000,0.226000,192.000000,0.000000,0.000000,0.000000,0.000000,0.000000,0.000000,0.000000,0.000000,0.000000,1646808354.777906,0.000000
77.000000,33262.748511,32901.074934,20411.501278,-28.431419,26530.313674,18861.385448,11983.083127,15267.716678,-0.048000,0.956000,0.226000,192.000000,0.000000,0.000000,0.000000,0.000000,0.000000,0.000000,0.000000,0.000000,0.000000,1646808354.777910,0.000000
78.000000,33257.093520,32895.934033,20403.566409,-31.717125,26526.625636,18857.116265,11984.915970,15263.156922,-0.044000,0.954000,0.226000,192.000000,254.000000,160.000000,29.000000,208.000000,7.000000,16.000000,0.000000,0.000000,0.000000,1646808354.785848,0.000000
79.000000,33258.412273,32902.460742,20403.409946,-29.236082,26529.419604,18860.044343,11982.099650,15266.308518,-0.044000,0.954000,0.226000,192.000000,0.000000,0.000000,0.000000,0.000000,0.000000,0.000000,0.000000,0.000000,0.000000,1646808354.785851,0.000000
80.000000,33258.680494,32902.728963,20407.634426,-29.414896,26529.486660,18859.060867,11975.260016,15260.742934,-0.044000,0.954000,0.226000,192.000000,0.000000,0.000000,0.000000,0.000000,0.000000,0.000000,0.000000,0.000000,0.000000,1646808354.793077,0.000000
81.000000,33264.223726,32905.366469,20414.876391,-24.899843,26535.745148,18864.514692,11977.495191,15259.871216,-0.044000,0.954000,0.226000,192.000000,0.000000,0.000000,0.000000,0.000000,0.000000,0.000000,0.000000,0.000000,0.000000,1646808354.793082,0.000000
82.000000,33267.688247,32910.552074,20419.279685,-18.909576,26540.416663,18867.196902,11977.763412,15262.262852,-0.044000,0.954000,0.226000,192.000000,0.000000,0.000000,0.000000,0.000000,0.000000,0.000000,0.000000,0.000000,0.000000,1646808354.799380,0.000000
83.000000,33268.582316,32911.624958,20420.017293,-16.741457,26539.924924,18872.315451,11990.705072,15274.601015,-0.044000,0.954000,0.226000,192.000000,0.000000,0.000000,0.000000,0.000000,0.000000,0.000000,0.000000,0.000000,0.000000,1646808354.807495,0.000000
84.000000,33274.170253,32918.822219,20422.431281,-9.097160,26544.954067,18876.070544,11989.520429,15273.528132,-0.044000,0.954000,0.226000,192.000000,0.000000,0.000000,0.000000,0.000000,0.000000,0.000000,0.000000,0.000000,0.000000,1646808354.807499,0.000000
85.000000,33274.170253,32916.967024,20419.503202,-14.126302,26541.109567,18869.208559,11985.184191,15263.849826,-0.044000,0.954000,0.226000,192.000000,0.000000,0.000000,0.000000,0.000000,0.000000,0.000000,0.000000,0.000000,0.000000,1646808354.815441,0.000000
86.000000,33261.832090,32905.366469,20406.338025,-26.822093,26528.704349,18861.273689,11979.931531,15262.754591,-0.044000,0.954000,0.226000,192.000000,0.000000,0.000000,0.000000,0.000000,0.000000,0.000000,0.000000,0.000000,0.000000,1646808354.815471,0.000000
87.000000,33249.002188,32893.520045,20399.230170,-36.656861,26519.406023,18857.138617,11975.707051,15268.163713,-0.044000,0.954000,0.226000,192.000000,0.000000,0.000000,0.000000,0.000000,0.000000,0.000000,0.000000,0.000000,0.000000,1646808354.822596,0.000000
88.000000,33245.381206,32893.050658,20402.739394,-37.036841,26518.646064,18857.898576,11981.250284,15268.186065,-0.044000,0.954000,0.216000,192.000000,254.000000,160.000000,29.000000,208.000000,6.000000,192.000000,0.000000,0.000000,0.000000,1646808354.822599,0.000000
89.000000,33239.502697,32887.082742,20395.720946,-43.742364,26512.745203,18852.712971,11978.769240,15260.944100,-0.044000,0.954000,0.216000,192.000000,0.000000,0.000000,0.000000,0.000000,0.000000,0.000000,0.000000,0.000000,0.000000,1646808354.830396,0.000000
90.000000,33253.114909,32895.174074,20405.846287,-36.008660,26524.234000,18863.195939,11989.475726,15268.990728,-0.044000,0.954000,0.216000,192.000000,0.000000,0.000000,0.000000,0.000000,0.000000,0.000000,0.000000,0.000000,0.000000,1646808354.830403,0.000000
91.000000,33254.903049,32899.063277,20408.684958,-31.851236,26525.552753,18866.034611,11994.460165,15270.711812,-0.044000,0.954000,0.216000,192.000000,0.000000,0.000000,0.000000,0.000000,0.000000,0.000000,0.000000,0.000000,0.000000,1646808354.838363,0.000000
92.000000,33255.439491,32900.672603,20409.735490,-28.990213,26525.508049,18870.974347,12000.204563,15278.959606,-0.044000,0.954000,0.216000,192.000000,0.000000,0.000000,0.000000,0.000000,0.000000,0.000000,0.000000,0.000000,0.000000,1646808354.838379,0.000000
93.000000,33254.411310,32896.872806,20402.046490,-33.594672,26520.255389,18866.079314,11995.689511,15271.337661,-0.044000,0.954000,0.216000,192.000000,0.000000,0.000000,0.000000,0.000000,0.000000,0.000000,0.000000,0.000000,0.000000,1646808354.846345,0.000000
94.000000,33258.032293,32898.437428,20406.606246,-29.191378,26525.575104,18871.220216,11988.671063,15276.478562,-0.044000,0.954000,0.216000,192.000000,0.000000,0.000000,0.000000,0.000000,0.000000,0.000000,0.000000,0.000000,0.000000,1646808354.846356,0.000000
95.000000,33257.786424,32902.572501,20410.741319,-25.033954,26531.475965,18876.674041,11996.941208,15278.423164,-0.044000,0.954000,0.216000,192.000000,0.000000,0.000000,0.000000,0.000000,0.000000,0.000000,0.000000,0.000000,0.000000,1646808354.852916,0.000000
96.000000,33252.511412,32900.225568,20407.857944,-26.643279,26529.754881,18876.830504,11999.154031,15279.049013,-0.044000,0.954000,0.216000,192.000000,0.000000,0.000000,0.000000,0.000000,0.000000,0.000000,0.000000,0.000000,0.000000,1646808354.852933,0.000000
97.000000,33255.685360,32904.025364,20410.428394,-26.755038,26528.771404,18877.679870,11998.103499,15284.145210,-0.044000,0.954000,0.216000,192.000000,0.000000,0.000000,0.000000,0.000000,0.000000,0.000000,0.000000,0.000000,0.000000,1646808354.860065,0.000000
98.000000,33255.283029,32902.684260,20407.165039,-30.711297,26524.882200,18873.611852,11990.325092,15280.613635,-0.050000,0.958000,0.220000,192.000000,254.000000,112.000000,29.000000,240.000000,6.000000,224.000000,0.000000,0.000000,0.000000,1646808354.860082,0.000000
99.000000,33262.748511,32909.501542,20411.635388,-21.949413,26533.062939,18879.289195,11995.577752,15282.088850,-0.050000,0.958000,0.220000,192.000000,0.000000,0.000000,0.000000,0.000000,0.000000,0.000000,0.000000,0.000000,0.000000,1646808354.868250,0.000000
100.000000,33265.117796,32913.860132,20416.284551,-16.584994,26536.728625,18883.714841,12002.529145,15283.251141,-0.050000,0.958000,0.220000,192.000000,0.000000,0.000000,0.000000,0.000000,0.000000,0.000000,0.000000,0.000000,0.000000,1646808354.876303,0.000000
101.000000,33260.714502,32910.529722,20413.356473,-18.551948,26533.733491,18880.764411,11996.471822,15283.876989,-0.050000,0.958000,0.220000,192.000000,0.000000,0.000000,0.000000,0.000000,0.000000,0.000000,0.000000,0.000000,0.000000,1646808354.876318,0.000000
102.000000,33251.974970,32905.925263,20404.818106,-24.788085,26525.955084,18871.890768,11982.546685,15271.807047,-0.050000,0.958000,0.220000,192.000000,0.000000,0.000000,0.000000,0.000000,0.000000,0.000000,0.000000,0.000000,0.000000,1646808354.882802,0.000000
103.000000,33256.400616,32912.340213,20404.639292,-23.178759,26524.524572,18869.096800,11985.027729,15270.108315,-0.050000,0.958000,0.220000,192.000000,0.000000,0.000000,0.000000,0.000000,0.000000,0.000000,0.000000,0.000000,0.000000,1646808354.882814,0.000000
104.000000,33260.982723,32919.269254,20405.868638,-21.927061,26525.798622,18867.129846,11984.893618,15265.682669,-0.050000,0.958000,0.220000,192.000000,0.000000,0.000000,0.000000,0.000000,0.000000,0.000000,0.000000,0.000000,0.000000,1646808354.890817,0.000000
105.000000,33249.784499,32905.254710,20404.214609,-25.659803,26525.753918,18869.923815,11984.245418,15266.107353,-0.050000,0.958000,0.220000,192.000000,0.000000,0.000000,0.000000,0.000000,0.000000,0.000000,0.000000,0.000000,0.000000,1646808354.890834,0.000000
106.000000,33245.448261,32896.448123,20410.003711,-23.983422,26529.956046,18883.401916,11999.712825,15287.319158,-0.050000,0.958000,0.220000,192.000000,0.000000,0.000000,0.000000,0.000000,0.000000,0.000000,0.000000,0.000000,0.000000,1646808354.898861,0.000000
107.000000,33253.897220,32904.248882,20419.167926,-19.155445,26536.728625,18888.185190,12006.865383,15294.896399,-0.050000,0.958000,0.220000,192.000000,0.000000,0.000000,0.000000,0.000000,0.000000,0.000000,0.000000,0.000000,0.000000,1646808354.898878,0.000000
108.000000,33247.974008,32897.118675,20408.997882,-29.951338,26525.463346,18874.572977,11994.683682,15282.893513,-0.046000,0.956000,0.220000,192.000000,254.000000,144.000000,29.000000,224.000000,6.000000,224.000000,0.000000,0.000000,0.000000,1646808354.905467,0.000000
109.000000,33251.840860,32898.526835,20406.226266,-32.432381,26522.535267,18869.923815,11984.468935,15272.432896,-0.046000,0.956000,0.220000,192.000000,0.000000,0.000000,0.000000,0.000000,0.000000,0.000000,0.000000,0.000000,0.000000,1646808354.905485,0.000000
110.000000,33244.218915,32894.592928,20398.783135,-39.428477,26516.992035,18862.704201,11981.742022,15263.671012,-0.046000,0.956000,0.220000,192.000000,0.000000,0.000000,0.000000,0.000000,0.000000,0.000000,0.000000,0.000000,0.000000,1646808354.913288,0.000000
111.000000,33243.615418,32893.475341,20398.671377,-41.104858,26517.349662,18861.966593,11986.637054,15256.361992,-0.046000,0.956000,0.220000,192.000000,0.000000,0.000000,0.000000,0.000000,0.000000,0.000000,0.000000,0.000000,0.000000,1646808354.913303,0.000000
112.000000,33241.134374,32892.849492,20392.569350,-44.748192,26513.482811,18858.367963,11986.011205,15261.838169,-0.046000,0.956000,0.220000,192.000000,0.000000,0.000000,0.000000,0.000000,0.000000,0.000000,0.000000,0.000000,0.000000,1646808354.921445,0.000000
113.000000,33244.397729,32898.057449,20392.144667,-39.272015,26516.857924,18864.447637,11990.570961,15277.283225,-0.046000,0.956000,0.220000,192.000000,0.000000,0.000000,0.000000,0.000000,0.000000,0.000000,0.000000,0.000000,0.000000,1646808354.921461,0.000000
114.000000,33232.104270,32887.552129,20383.986280,-47.251588,26507.961930,18853.003544,11974.343595,15262.084039,-0.046000,0.956000,0.220000,192.000000,0.000000,0.000000,0.000000,0.000000,0.000000,0.000000,0.000000,0.000000,0.000000,1646808354.928647,0.000000
115.000000,33240.530877,32897.051620,20394.156324,-38.512056,26517.975511,18860.737248,11985.228894,15266.532036,-0.046000,0.956000,0.220000,192.000000,0.000000,0.000000,0.000000,0.000000,0.000000,0.000000,0.000000,0.000000,0.000000,1646808354.934890,0.000000
116.000000,33246.476441,32902.281928,20399.900722,-33.393506,26523.608151,18864.827617,11991.666197,15267.381402,-0.046000,0.956000,0.220000,192.000000,0.000000,0.000000,0.000000,0.000000,0.000000,0.000000,0.000000,0.000000,0.000000,1646808354.934902,0.000000
117.000000,33251.863212,32906.215835,20405.555714,-25.480989,26528.816107,18871.756658,11993.543743,15278.266701,-0.046000,0.956000,0.220000,192.000000,0.000000,0.000000,0.000000,0.000000,0.000000,0.000000,0.000000,0.000000,0.000000,1646808354.943087,0.000000
118.000000,33258.680494,32910.909702,20408.237923,-25.078657,26530.425433,18870.326146,11984.334825,15267.694326,-0.046000,0.956000,0.220000,192.000000,254.000000,144.000000,29.000000,224.000000,6.000000,224.000000,0.000000,0.000000,0.000000,1646808354.943104,0.000000
119.000000,33257.339389,32908.071030,20410.786022,-25.413933,26531.163041,18872.740134,11985.698281,15269.191893,-0.046000,0.956000,0.220000,192.000000,0.000000,0.000000,0.000000,0.000000,0.000000,0.000000,0.000000,0.000000,0.000000,1646808354.951110,0.000000
120.000000,33258.121700,32914.418926,20414.675226,-18.529596,26534.471099,18875.779972,11984.111307,15272.276434,-0.046000,0.956000,0.220000,192.000000,0.000000,0.000000,0.000000,0.000000,0.000000,0.000000,0.000000,0.000000,0.000000,1646808354.951126,0.000000
121.000000,33258.702845,32917.548170,20416.150441,-17.970803,26535.298113,18875.914082,11990.615665,15272.276434,-0.046000,0.956000,0.220000,192.000000,0.000000,0.000000,0.000000,0.000000,0.000000,0.000000,0.000000,0.000000,0.000000,1646808354.958326,0.000000
122.000000,33249.896258,32908.696879,20407.276798,-25.860968,26528.324369,18867.062791,11985.273598,15262.978108,-0.046000,0.956000,0.220000,192.000000,0.000000,0.000000,0.000000,0.000000,0.000000,0.000000,0.000000,0.000000,0.000000,1646808354.958342,0.000000
123.000000,33261.362703,32915.871789,20414.608170,-15.780332,26537.019198,18876.070544,11986.212371,15270.331832,-0.046000,0.956000,0.220000,192.000000,0.000000,0.000000,0.000000,0.000000,0.000000,0.000000,0.000000,0.000000,0.000000,1646808354.965759,0.000000
124.000000,33256.333561,32912.675490,20412.261237,-19.378962,26533.554677,18873.276576,11980.959711,15264.654489,-0.046000,0.956000,0.220000,192.000000,0.000000,0.000000,0.000000,0.000000,0.000000,0.000000,0.000000,0.000000,0.000000,1646808354.965778,0.000000
125.000000,33251.080901,32912.496676,20407.343853,-24.452808,26527.273837,18865.721687,11981.205580,15258.440704,-0.046000,0.956000,0.220000,192.000000,0.000000,0.000000,0.000000,0.000000,0.000000,0.000000,0.000000,0.000000,0.000000,1646808354.973762,0.000000
126.000000,33258.635790,32920.990338,20408.819069,-21.055343,26532.168869,18872.002527,11992.448508,15278.624329,-0.046000,0.956000,0.220000,192.000000,0.000000,0.000000,0.000000,0.000000,0.000000,0.000000,0.000000,0.000000,0.000000,1646808354.973778,0.000000
127.000000,33261.496813,32925.639501,20409.847249,-16.920271,26536.326294,18878.305719,11997.455299,15277.953777,-0.046000,0.956000,0.220000,192.000000,0.000000,0.000000,0.000000,0.000000,0.000000,0.000000,0.000000,0.000000,0.000000,1646808354.981740,0.000000
128.000000,33260.580392,32925.393632,20412.752976,-16.450884,26536.348645,18881.658480,12005.211354,15278.579626,-0.044000,0.958000,0.222000,192.000000,254.000000,160.000000,29.000000,240.000000,6.000000,240.000000,0.000000,0.000000,0.000000,1646808354.981757,0.000000
129.000000,33254.768938,32917.458763,20408.103813,-23.223462,26528.972570,18873.388335,11994.482517,15265.325041,-0.044000,0.958000,0.222000,192.000000,0.000000,0.000000,0.000000,0.000000,0.000000,0.000000,0.000000,0.000000,0.000000,1646808354.987690,0.000000
130.000000,33263.843747,32923.471382,20416.284551,-16.517939,26536.683921,18880.630300,12003.132642,15275.606844,-0.044000,0.958000,0.222000,192.000000,0.000000,0.000000,0.000000,0.000000,0.000000,0.000000,0.000000,0.000000,0.000000,1646808354.995411,0.000000
131.000000,33264.782520,32921.392670,20412.261237,-20.317736,26536.415700,18880.518541,11999.332845,15280.166600,-0.044000,0.958000,0.222000,192.000000,0.000000,0.000000,0.000000,0.000000,0.000000,0.000000,0.000000,0.000000,0.000000,1646808354.995427,0.000000
132.000000,33263.799043,32927.204123,20413.401176,-20.608308,26536.728625,18879.468009,11989.006339,15274.980995,-0.044000,0.958000,0.222000,192.000000,0.000000,0.000000,0.000000,0.000000,0.000000,0.000000,0.000000,0.000000,0.000000,1646808355.003060,0.000000
133.000000,33261.094482,32926.287702,20411.009539,-24.385753,26530.224267,18874.215349,11985.318301,15269.996556,-0.044000,0.958000,0.222000,192.000000,0.000000,0.000000,0.000000,0.000000,0.000000,0.000000,0.000000,0.000000,0.000000,1646808355.003072,0.000000
134.000000,33263.150843,32924.991301,20410.361339,-24.184588,26526.625636,18870.661422,11978.501019,15264.319213,-0.044000,0.958000,0.222000,192.000000,0.000000,0.000000,0.000000,0.000000,0.000000,0.000000,0.000000,0.000000,0.000000,1646808355.011429,0.000000
135.000000,33270.213994,32933.596722,20414.608170,-18.686058,26531.475965,18872.337803,11980.177400,15262.240501,-0.044000,0.958000,0.222000,192.000000,0.000000,0.000000,0.000000,0.000000,0.000000,0.000000,0.000000,0.000000,0.000000,1646808355.011446,0.000000
136.000000,33265.229555,32932.456783,20414.988150,-20.094218,26529.039625,18871.890768,11985.944150,15264.118047,-0.044000,0.958000,0.222000,192.000000,0.000000,0.000000,0.000000,0.000000,0.000000,0.000000,0.000000,0.000000,0.000000,1646808355.018037,0.000000
137.000000,33263.776691,32931.383900,20415.748109,-20.608308,26528.525535,18871.890768,11984.178362,15268.633100,-0.044000,0.958000,0.222000,192.000000,0.000000,0.000000,0.000000,0.000000,0.000000,0.000000,0.000000,0.000000,0.000000,1646808355.018053,0.000000
138.000000,33264.111968,32929.215780,20414.071728,-22.396448,26528.950218,18869.521483,11983.150182,15261.569948,-0.046000,0.964000,0.230000,192.000000,254.000000,144.000000,30.000000,32.000000,7.000000,48.000000,0.000000,0.000000,0.000000,1646808355.025953,0.000000
139.000000,33257.473499,32923.583141,20411.523630,-23.849311,26526.245657,18868.739172,11978.657482,15260.161788,-0.046000,0.964000,0.230000,192.000000,0.000000,0.000000,0.000000,0.000000,0.000000,0.000000,0.000000,0.000000,0.000000,1646808355.025970,0.000000
140.000000,33269.319924,32939.519935,20426.722816,-8.091331,26541.869526,18884.452448,11991.710900,15272.276434,-0.046000,0.964000,0.230000,192.000000,0.000000,0.000000,0.000000,0.000000,0.000000,0.000000,0.000000,0.000000,0.000000,1646808355.034063,0.000000
141.000000,33261.943848,32936.971836,20421.201935,-10.773541,26538.248544,18881.524370,11988.760470,15269.616576,-0.046000,0.964000,0.230000,192.000000,0.000000,0.000000,0.000000,0.000000,0.000000,0.000000,0.000000,0.000000,0.000000,1646808355.034079,0.000000
142.000000,33264.514299,32935.362510,20425.761691,-8.985401,26540.506070,18885.279463,11990.101575,15273.617539,-0.046000,0.964000,0.230000,192.000000,0.000000,0.000000,0.000000,0.000000,0.000000,0.000000,0.000000,0.000000,0.000000,1646808355.040700,0.000000
143.000000,33267.062398,32933.954350,20424.554697,-11.108817,26540.818994,18883.647786,11986.458240,15267.962547,-0.046000,0.964000,0.230000,192.000000,0.000000,0.000000,0.000000,0.000000,0.000000,0.000000,0.000000,0.000000,0.000000,1646808355.040717,0.000000
144.000000,33268.291744,32931.607417,20422.632447,-11.175872,26539.746110,18884.251283,11988.291083,15272.231730,-0.046000,0.964000,0.230000,192.000000,0.000000,0.000000,0.000000,0.000000,0.000000,0.000000,0.000000,0.000000,0.000000,1646808355.047404,0.000000
145.000000,33254.143090,32920.453897,20412.976493,-20.988288,26526.268009,18873.433038,11987.687586,15261.458190,-0.046000,0.964000,0.230000,192.000000,0.000000,0.000000,0.000000,0.000000,0.000000,0.000000,0.000000,0.000000,0.000000,1646808355.055636,0.000000
146.000000,33264.715465,32929.215780,20419.726720,-15.601518,26532.705311,18879.870341,11988.626360,15265.727373,-0.046000,0.964000,0.230000,192.000000,0.000000,0.000000,0.000000,0.000000,0.000000,0.000000,0.000000,0.000000,0.000000,1646808355.055652,0.000000
147.000000,33269.677552,32933.239094,20425.560525,-9.074808,26537.756805,18885.771201,11985.363005,15277.752611,-0.046000,0.964000,0.230000,192.000000,0.000000,0.000000,0.000000,0.000000,0.000000,0.000000,0.000000,0.000000,0.000000,1646808355.063635,0.000000
148.000000,33261.988552,32927.271179,20424.889973,-13.343991,26532.370035,18881.814943,11988.447546,15275.629196,-0.038000,0.958000,0.226000,192.000000,254.000000,208.000000,29.000000,240.000000,7.000000,16.000000,0.000000,0.000000,0.000000,1646808355.063652,0.000000
149.000000,33263.664933,32932.188562,20427.840403,-9.834768,26535.186355,18882.150219,11988.089918,15271.650585,-0.038000,0.958000,0.226000,192.000000,0.000000,0.000000,0.000000,0.000000,0.000000,0.000000,0.000000,0.000000,0.000000,1646808355.070223,0.000000
150.000000,33268.068226,32939.721100,20432.310752,-2.726913,26540.327256,18892.096745,12000.651598,15281.507704,-0.038000,0.958000,0.226000,192.000000,0.000000,0.000000,0.000000,0.000000,0.000000,0.000000,0.000000,0.000000,0.000000,1646808355.070240,0.000000
151.000000,33268.425854,32936.368339,20433.473043,-2.928079,26539.656703,18893.393146,12001.232743,15279.563103,-0.038000,0.958000,0.226000,192.000000,0.000000,0.000000,0.000000,0.000000,0.000000,0.000000,0.000000,0.000000,0.000000,1646808355.078054,0.000000
152.000000,33271.197471,32933.373205,20435.976438,-3.553927,26540.036683,18890.643882,11994.370758,15275.360975,-0.038000,0.958000,0.226000,192.000000,0.000000,0.000000,0.000000,0.000000,0.000000,0.000000,0.000000,0.000000,0.000000,1646808355.078072,0.000000
153.000000,33269.409331,32932.903818,20434.255354,-5.364419,26538.092081,18887.469934,11992.493211,15279.183123,-0.038000,0.958000,0.226000,192.000000,0.000000,0.000000,0.000000,0.000000,0.000000,0.000000,0.000000,0.000000,0.000000,1646808355.086026,0.000000
154.000000,33256.892354,32922.979644,20424.733511,-16.272070,26528.570238,18882.016108,11992.470860,15276.635024,-0.038000,0.958000,0.226000,192.000000,0.000000,0.000000,0.000000,0.000000,0.000000,0.000000,0.000000,0.000000,0.000000,1646808355.086041,0.000000
155.000000,33257.093520,32924.723080,20425.515822,-13.031067,26531.565372,18889.526294,12001.925647,15282.111202,-0.038000,0.958000,0.226000,192.000000,0.000000,0.000000,0.000000,0.000000,0.000000,0.000000,0.000000,0.000000,0.000000,1646808355.093379,0.000000
156.000000,33256.132395,32919.246902,20419.346740,-19.043686,26524.792793,18882.485495,11993.834316,15275.025699,-0.038000,0.958000,0.226000,192.000000,0.000000,0.000000,0.000000,0.000000,0.000000,0.000000,0.000000,0.000000,0.000000,1646808355.093395,0.000000
157.000000,33263.642581,32924.477211,20419.056167,-19.446018,26523.317578,18878.283367,11989.967464,15271.807047,-0.038000,0.958000,0.226000,192.000000,0.000000,0.000000,0.000000,0.000000,0.000000,0.000000,0.000000,0.000000,0.000000,1646808355.100905,0.000000
158.000000,33272.270354,32938.827031,20424.957028,-8.739532,26529.911343,18884.295986,11997.030615,15277.350280,-0.038000,0.958000,0.226000,192.000000,0.000000,0.000000,0.000000,0.000000,0.000000,0.000000,0.000000,0.000000,0.000000,1646808355.100922,0.000000
159.000000,33260.468633,32935.720138,20422.475984,-10.125340,26525.955084,18883.692489,11996.941208,15276.433858,-0.042000,0.962000,0.222000,192.000000,254.000000,176.000000,30.000000,16.000000,6.000000,240.000000,0.000000,0.000000,0.000000,1646808355.107912,0.000000
160.000000,33251.617342,32929.662815,20426.096967,-7.107855,26529.978398,18889.101611,12000.338674,15283.161734,-0.042000,0.962000,0.222000,192.000000,0.000000,0.000000,0.000000,0.000000,0.000000,0.000000,0.000000,0.000000,0.000000,1646808355.107929,0.000000
161.000000,33241.559057,32916.318824,20415.949275,-18.395486,26520.411851,18878.864512,11993.856668,15278.110239,-0.042000,0.962000,0.222000,192.000000,0.000000,0.000000,0.000000,0.000000,0.000000,0.000000,0.000000,0.000000,0.000000,1646808355.115752,0.000000
162.000000,33243.771880,32911.669661,20411.076595,-25.302175,26515.114488,18872.874245,11991.912066,15275.070402,-0.042000,0.962000,0.222000,192.000000,0.000000,0.000000,0.000000,0.000000,0.000000,0.000000,0.000000,0.000000,0.000000,1646808355.122700,0.000000
163.000000,33246.431738,32914.374222,20410.517801,-25.011602,26514.086308,18869.901463,11992.537915,15267.984899,-0.042000,0.962000,0.222000,192.000000,0.000000,0.000000,0.000000,0.000000,0.000000,0.000000,0.000000,0.000000,0.000000,1646808355.122710,0.000000
164.000000,33253.383130,32922.778478,20416.686883,-18.864872,26522.110584,18872.449562,11986.257075,15269.773039,-0.042000,0.962000,0.222000,192.000000,0.000000,0.000000,0.000000,0.000000,0.000000,0.000000,0.000000,0.000000,0.000000,1646808355.130167,0.000000
165.000000,33251.192659,32921.347966,20417.379787,-19.803646,26522.758785,18874.461219,11989.252208,15271.650585,-0.042000,0.962000,0.222000,192.000000,0.000000,0.000000,0.000000,0.000000,0.000000,0.000000,0.000000,0.000000,0.000000,1646808355.130173,0.000000
166.000000,33255.551249,32926.533571,20419.279685,-16.182663,26525.888029,18876.450524,11985.988854,15275.785658,-0.042000,0.962000,0.222000,192.000000,0.000000,0.000000,0.000000,0.000000,0.000000,0.000000,0.000000,0.000000,0.000000,1646808355.138516,0.000000
167.000000,33257.361741,32922.890237,20415.658702,-15.556814,26525.955084,18878.350422,11993.990778,15283.899341,-0.042000,0.962000,0.222000,192.000000,0.000000,0.000000,0.000000,0.000000,0.000000,0.000000,0.000000,0.000000,0.000000,1646808355.138532,0.000000
168.000000,33250.700921,32921.057394,20409.377862,-17.479064,26522.535267,18874.505922,11992.739081,15273.729297,-0.042000,0.962000,0.222000,192.000000,0.000000,0.000000,0.000000,0.000000,0.000000,0.000000,0.000000,0.000000,0.000000,1646808355.146537,0.000000
169.000000,33257.674665,32933.999054,20419.212630,-11.265279,26530.179564,18883.781896,12001.120985,15276.500914,-0.040000,0.956000,0.218000,192.000000,254.000000,192.000000,29.000000,224.000000,6.000000,208.000000,0.000000,0.000000,0.000000,1646808355.146553,0.000000
170.000000,33260.178061,32932.881466,20418.162098,-13.232233,26527.542058,18879.825637,11997.924685,15273.192856,-0.040000,0.956000,0.218000,192.000000,0.000000,0.000000,0.000000,0.000000,0.000000,0.000000,0.000000,0.000000,0.000000,1646808355.153003,0.000000
171.000000,33251.259715,32923.136106,20408.215571,-19.691887,26520.456555,18875.131771,11991.710900,15265.906187,-0.040000,0.956000,0.218000,192.000000,0.000000,0.000000,0.000000,0.000000,0.000000,0.000000,0.000000,0.000000,0.000000,1646808355.153020,0.000000
172.000000,33241.737871,32917.659929,20396.704423,-26.062134,26512.633444,18865.162893,11987.844048,15252.159864,-0.040000,0.956000,0.218000,192.000000,0.000000,0.000000,0.000000,0.000000,0.000000,0.000000,0.000000,0.000000,0.000000,1646808355.161059,0.000000
173.000000,33243.928342,32919.448068,20404.549885,-24.296346,26515.360357,18871.533140,12006.597162,15272.455248,-0.040000,0.956000,0.218000,192.000000,0.000000,0.000000,0.000000,0.000000,0.000000,0.000000,0.000000,0.000000,0.000000,1646808355.161070,0.000000
174.000000,33244.867116,32917.950501,20408.752013,-24.788085,26516.947331,18871.913120,11997.768223,15279.451344,-0.040000,0.956000,0.218000,192.000000,0.000000,0.000000,0.000000,0.000000,0.000000,0.000000,0.000000,0.000000,0.000000,1646808355.169038,0.000000
175.000000,33249.292761,32918.106963,20411.411871,-24.341050,26519.249561,18871.354326,11996.024787,15275.718603,-0.040000,0.956000,0.218000,192.000000,0.000000,0.000000,0.000000,0.000000,0.000000,0.000000,0.000000,0.000000,0.000000,1646808355.169055,0.000000
176.000000,33251.371473,32917.950501,20414.094080,-25.995079,26519.093099,18873.634204,12003.400863,15274.578664,-0.040000,0.956000,0.218000,192.000000,0.000000,0.000000,0.000000,0.000000,0.000000,0.000000,0.000000,0.000000,0.000000,1646808355.175385,0.000000
177.000000,33261.250944,32924.566618,20413.222362,-29.683117,26515.025081,18866.124018,11992.783784,15261.122913,-0.040000,0.956000,0.218000,192.000000,0.000000,0.000000,0.000000,0.000000,0.000000,0.000000,0.000000,0.000000,0.000000,1646808355.182838,0.000000
178.000000,33267.911764,32930.020443,20413.267066,-27.000907,26516.388537,18865.520521,11992.783784,15263.894530,-0.040000,0.956000,0.218000,192.000000,0.000000,0.000000,0.000000,0.000000,0.000000,0.000000,0.000000,0.000000,0.000000,1646808355.182854,0.000000
179.000000,33250.477403,32920.275083,20416.217496,-13.433398,26527.206782,18887.894617,12015.806081,15287.676786,-0.046000,0.954000,0.224000,192.000000,254.000000,144.000000,29.000000,208.000000,7.000000,0.000000,0.000000,0.000000,0.000000,1646808355.190671,0.000000
180.000000,33240.575581,32914.262463,20419.503202,-5.252660,26535.633389,18901.529181,12028.211299,15300.417280,-0.046000,0.954000,0.224000,192.000000,0.000000,0.000000,0.000000,0.000000,0.000000,0.000000,0.000000,0.000000,0.000000,1646808355.190689,0.000000
181.000000,33240.530877,32911.513199,20415.256371,-13.589861,26529.866639,18893.370794,12016.051950,15288.347338,-0.046000,0.954000,0.224000,192.000000,0.000000,0.000000,0.000000,0.000000,0.000000,0.000000,0.000000,0.000000,0.000000,1646808355.198843,0.000000
182.000000,33239.502697,32907.512237,20403.924036,-22.687021,26520.478907,18879.602120,11999.466956,15272.969338,-0.046000,0.954000,0.224000,192.000000,0.000000,0.000000,0.000000,0.000000,0.000000,0.000000,0.000000,0.000000,0.000000,1646808355.198860,0.000000
183.000000,33241.804927,32912.116696,20407.120336,-16.026201,26525.910381,18885.078297,12003.870249,15277.842018,-0.046000,0.954000,0.224000,192.000000,0.000000,0.000000,0.000000,0.000000,0.000000,0.000000,0.000000,0.000000,0.000000,1646808355.205393,0.000000
184.000000,33246.409386,32920.096269,20414.362301,-7.644297,26533.375863,18891.269730,12010.732235,15285.374556,-0.046000,0.954000,0.224000,192.000000,0.000000,0.000000,0.000000,0.000000,0.000000,0.000000,0.000000,0.000000,0.000000,1646808355.205403,0.000000
185.000000,33238.876848,32913.033117,20411.478926,-11.891128,26530.313674,18887.648748,12006.485403,15283.072327,-0.046000,0.954000,0.224000,192.000000,0.000000,0.000000,0.000000,0.000000,0.000000,0.000000,0.000000,0.000000,0.000000,1646808355.213441,0.000000
186.000000,33235.904066,32912.317862,20411.456574,-10.974707,26531.252448,18889.079260,12011.246325,15284.569893,-0.046000,0.954000,0.224000,192.000000,0.000000,0.000000,0.000000,0.000000,0.000000,0.000000,0.000000,0.000000,0.000000,1646808355.213457,0.000000
187.000000,33236.909895,32910.954405,20404.639292,-12.248756,26526.066843,18882.709012,12001.188040,15271.561178,-0.046000,0.954000,0.224000,192.000000,0.000000,0.000000,0.000000,0.000000,0.000000,0.000000,0.000000,0.000000,0.000000,1646808355.221476,0.000000
188.000000,33244.174212,32916.274120,20409.713138,-9.186567,26528.123203,18883.670137,12000.182211,15271.739992,-0.046000,0.954000,0.224000,192.000000,0.000000,0.000000,0.000000,0.000000,0.000000,0.000000,0.000000,0.000000,0.000000,1646808355.221493,0.000000
189.000000,33240.664988,32918.039908,20410.964836,-9.633602,26529.665474,18881.814943,11998.572886,15269.013079,-0.042000,0.960000,0.224000,192.000000,254.000000,176.000000,30.000000,0.000000,7.000000,0.000000,0.000000,0.000000,0.000000,1646808355.228740,0.000000
190.000000,33241.223781,32915.603568,20412.484755,-11.332334,26531.140689,18881.703184,12003.132642,15270.220073,-0.042000,0.960000,0.224000,192.000000,0.000000,0.000000,0.000000,0.000000,0.000000,0.000000,0.000000,0.000000,0.000000,1646808355.228757,0.000000
191.000000,33245.962351,32915.335347,20411.836554,-11.198224,26531.028930,18877.881036,11994.862496,15267.023774,-0.042000,0.960000,0.224000,192.000000,0.000000,0.000000,0.000000,0.000000,0.000000,0.000000,0.000000,0.000000,0.000000,1646808355.235077,0.000000
192.000000,33253.204316,32928.880504,20419.190278,-2.145767,26539.299076,18886.173533,12006.373645,15273.975167,-0.042000,0.960000,0.224000,192.000000,0.000000,0.000000,0.000000,0.000000,0.000000,0.000000,0.000000,0.000000,0.000000,1646808355.243071,0.000000
193.000000,33242.609589,32922.063222,20409.489621,-7.890166,26530.246619,18880.250320,11998.505831,15272.499951,-0.042000,0.960000,0.224000,192.000000,0.000000,0.000000,0.000000,0.000000,0.000000,0.000000,0.000000,0.000000,0.000000,1646808355.243089,0.000000
194.000000,33245.671778,32925.885370,20412.976493,-7.510186,26533.599381,18882.887826,11999.735177,15274.578664,-0.042000,0.960000,0.224000,192.000000,0.000000,0.000000,0.000000,0.000000,0.000000,0.000000,0.000000,0.000000,0.000000,1646808355.251096,0.000000
195.000000,33243.749528,32922.264388,20412.283589,-8.381904,26534.918134,18883.960710,12000.629246,15276.433858,-0.042000,0.960000,0.224000,192.000000,0.000000,0.000000,0.000000,0.000000,0.000000,0.000000,0.000000,0.000000,0.000000,1646808355.251112,0.000000
196.000000,33248.868078,32923.381975,20411.724795,-11.019410,26533.107642,18881.166742,12003.534973,15271.874103,-0.042000,0.960000,0.224000,192.000000,0.000000,0.000000,0.000000,0.000000,0.000000,0.000000,0.000000,0.000000,0.000000,1646808355.258215,0.000000
197.000000,33244.397729,32920.833876,20405.868638,-16.652050,26527.854982,18874.729440,12000.450432,15268.498989,-0.042000,0.960000,0.224000,192.000000,0.000000,0.000000,0.000000,0.000000,0.000000,0.000000,0.000000,0.000000,0.000000,1646808355.258227,0.000000
198.000000,33237.401633,32916.810562,20403.298188,-19.401314,26522.468212,18870.214387,12002.864421,15249.879986,-0.042000,0.960000,0.224000,192.000000,0.000000,0.000000,0.000000,0.000000,0.000000,0.000000,0.000000,0.000000,0.000000,1646808355.265559,0.000000
199.000000,33242.028444,32922.152629,20408.215571,-13.232233,26526.826802,18878.462181,12012.565078,15268.767210,-0.044000,0.956000,0.220000,192.000000,254.000000,160.000000,29.000000,224.000000,6.000000,224.000000,0.000000,0.000000,0.000000,1646808355.265571,0.000000
200.000000,33239.949732,32920.520952,20405.980397,-12.829901,26526.536229,18881.591425,12008.340598,15281.999443,-0.044000,0.956000,0.220000,192.000000,0.000000,0.000000,0.000000,0.000000,0.000000,0.000000,0.000000,0.000000,0.000000,1646808355.273756,0.000000
201.000000,33240.039139,32913.368394,20399.833667,-19.043686,26522.490564,18874.550626,12002.573848,15279.831324,-0.044000,0.956000,0.220000,192.000000,0.000000,0.000000,0.000000,0.000000,0.000000,0.000000,0.000000,0.000000,0.000000,1646808355.273772,0.000000
202.000000,33239.435642,32916.765859,20396.167981,-18.127265,26520.925942,18872.583672,12003.579677,15276.456210,-0.044000,0.956000,0.220000,192.000000,0.000000,0.000000,0.000000,0.000000,0.000000,0.000000,0.000000,0.000000,0.000000,1646808355.281784,0.000000
203.000000,33247.124642,32923.627844,20409.780194,-8.806587,26530.716006,18881.770239,12015.023770,15286.760364,-0.044000,0.956000,0.220000,192.000000,0.000000,0.000000,0.000000,0.000000,0.000000,0.000000,0.000000,0.000000,0.000000,1646808355.281801,0.000000
204.000000,33245.291799,32915.849437,20410.227228,-12.002887,26530.179564,18878.931568,12007.670046,15276.232693,-0.044000,0.956000,0.220000,192.000000,0.000000,0.000000,0.000000,0.000000,0.000000,0.000000,0.000000,0.000000,0.000000,1646808355.288373,0.000000
205.000000,33251.304418,32928.567580,20417.290380,-2.861023,26538.516764,18884.094821,12010.084034,15278.780792,-0.044000,0.956000,0.220000,192.000000,0.000000,0.000000,0.000000,0.000000,0.000000,0.000000,0.000000,0.000000,0.000000,1646808355.288384,0.000000
206.000000,33239.905028,32920.073917,20406.583894,-14.014544,26529.263142,18873.321280,12000.293970,15268.610748,-0.044000,0.956000,0.220000,192.000000,0.000000,0.000000,0.000000,0.000000,0.000000,0.000000,0.000000,0.000000,0.000000,1646808355.295393,0.000000
207.000000,33243.280142,32923.001995,20406.829763,-13.992192,26528.704349,18868.225082,11993.163764,15262.933405,-0.044000,0.956000,0.220000,192.000000,0.000000,0.000000,0.000000,0.000000,0.000000,0.000000,0.000000,0.000000,0.000000,1646808355.303313,0.000000
208.000000,33250.879735,32933.373205,20413.579990,-3.665686,26536.773328,18875.332937,12001.657427,15270.801219,-0.044000,0.956000,0.220000,192.000000,0.000000,0.000000,0.000000,0.000000,0.000000,0.000000,0.000000,0.000000,0.000000,1646808355.303330,0.000000
209.000000,33251.729101,32929.081670,20410.718967,-6.012619,26537.108605,18876.629338,12005.479575,15276.925597,-0.048000,0.952000,0.222000,192.000000,254.000000,128.000000,29.000000,192.000000,6.000000,240.000000,0.000000,0.000000,0.000000,1646808355.311456,0.000000
210.000000,33259.462805,32931.406251,20412.171830,-4.380942,26538.807337,18879.669175,12006.664217,15275.942120,-0.048000,0.952000,0.222000,192.000000,0.000000,0.000000,0.000000,0.000000,0.000000,0.000000,0.000000,0.000000,0.000000,1646808355.311473,0.000000
211.000000,33249.270409,32927.628807,20401.621807,-10.259451,26532.437090,18872.270748,12000.808060,15268.968376,-0.048000,0.952000,0.222000,192.000000,0.000000,0.000000,0.000000,0.000000,0.000000,0.000000,0.000000,0.000000,0.000000,1646808355.317731,0.000000
212.000000,33233.668892,32917.726984,20390.781211,-22.754076,26521.931770,18862.883015,11987.888752,15258.105428,-0.048000,0.952000,0.222000,192.000000,0.000000,0.000000,0.000000,0.000000,0.000000,0.000000,0.000000,0.000000,0.000000,1646808355.317746,0.000000
213.000000,33228.662101,32912.228455,20391.630577,-25.033954,26517.975511,18863.061829,11980.892656,15259.245367,-0.048000,0.952000,0.222000,192.000000,0.000000,0.000000,0.000000,0.000000,0.000000,0.000000,0.000000,0.000000,0.000000,1646808355.325668,0.000000
214.000000,33237.379281,32919.604530,20401.532400,-17.255547,26524.234000,18874.282405,11995.756566,15267.493161,-0.048000,0.952000,0.222000,192.000000,0.000000,0.000000,0.000000,0.000000,0.000000,0.000000,0.000000,0.000000,0.000000,1646808355.325674,0.000000
215.000000,33246.431738,32925.863019,20409.355510,-11.868776,26529.956046,18879.602120,12000.361025,15271.650585,-0.048000,0.952000,0.222000,192.000000,0.000000,0.000000,0.000000,0.000000,0.000000,0.000000,0.000000,0.000000,0.000000,1646808355.334048,0.000000
216.000000,33242.587238,32921.012690,20405.667473,-17.210843,26525.440994,18877.679870,12001.433909,15270.957681,-0.048000,0.952000,0.222000,192.000000,0.000000,0.000000,0.000000,0.000000,0.000000,0.000000,0.000000,0.000000,0.000000,1646808355.334065,0.000000
217.000000,33242.810755,32921.213856,20404.549885,-12.338163,26527.810279,18879.937396,11998.639941,15270.801219,-0.048000,0.952000,0.222000,192.000000,0.000000,0.000000,0.000000,0.000000,0.000000,0.000000,0.000000,0.000000,0.000000,1646808355.340497,0.000000
218.000000,33248.622209,32929.685167,20410.875429,-5.543233,26532.347683,18885.726498,12009.324075,15275.606844,-0.048000,0.952000,0.222000,192.000000,0.000000,0.000000,0.000000,0.000000,0.000000,0.000000,0.000000,0.000000,0.000000,1646808355.340508,0.000000
219.000000,33238.295703,32921.370318,20400.124240,-14.439227,26524.613979,18877.545759,12003.043235,15264.922710,-0.042000,0.956000,0.226000,192.000000,254.000000,176.000000,29.000000,224.000000,7.000000,16.000000,0.000000,0.000000,0.000000,1646808355.348606,0.000000
220.000000,33240.441470,32923.001995,20402.962911,-13.343991,26526.692692,18878.953919,12000.673950,15266.643794,-0.042000,0.956000,0.226000,192.000000,0.000000,0.000000,0.000000,0.000000,0.000000,0.000000,0.000000,0.000000,0.000000,1646808355.348623,0.000000
221.000000,33241.581409,32921.325615,20404.929865,-14.282765,26526.513878,18881.591425,12008.318246,15275.271568,-0.042000,0.956000,0.226000,192.000000,0.000000,0.000000,0.000000,0.000000,0.000000,0.000000,0.000000,0.000000,0.000000,1646808355.355707,0.000000
222.000000,33244.375377,32922.867885,20405.533362,-11.064114,26526.647988,18882.910178,12015.157880,15277.976129,-0.042000,0.956000,0.226000,192.000000,0.000000,0.000000,0.000000,0.000000,0.000000,0.000000,0.000000,0.000000,0.000000,1646808355.355724,0.000000
223.000000,33247.459918,32925.594798,20408.327330,-7.644297,26529.240791,18882.418440,12003.445566,15270.220073,-0.042000,0.956000,0.226000,192.000000,0.000000,0.000000,0.000000,0.000000,0.000000,0.000000,0.000000,0.000000,0.000000,1646808355.363757,0.000000
224.000000,33235.591142,32915.380051,20396.615016,-19.691887,26518.511953,18870.035573,11995.309531,15255.602033,-0.042000,0.956000,0.226000,192.000000,0.000000,0.000000,0.000000,0.000000,0.000000,0.000000,0.000000,0.000000,0.000000,1646808355.370228,0.000000
225.000000,33236.216990,32917.704632,20399.498391,-15.154483,26522.088232,18875.377640,12002.350331,15270.398887,-0.042000,0.956000,0.226000,192.000000,0.000000,0.000000,0.000000,0.000000,0.000000,0.000000,0.000000,0.000000,0.000000,1646808355.370244,0.000000
226.000000,33241.536706,32923.158458,20406.539191,-10.527672,26528.234962,18882.329033,12008.206488,15281.015966,-0.042000,0.956000,0.226000,192.000000,0.000000,0.000000,0.000000,0.000000,0.000000,0.000000,0.000000,0.000000,0.000000,1646808355.378328,0.000000
227.000000,33239.703863,32916.207065,20402.828801,-16.361477,26524.144593,18877.970443,12006.641866,15277.216170,-0.042000,0.956000,0.226000,192.000000,0.000000,0.000000,0.000000,0.000000,0.000000,0.000000,0.000000,0.000000,0.000000,1646808355.378345,0.000000
228.000000,33244.464784,32922.912588,20409.131993,-11.377038,26528.614942,18882.530198,12007.223011,15274.869236,-0.042000,0.956000,0.226000,192.000000,0.000000,0.000000,0.000000,0.000000,0.000000,0.000000,0.000000,0.000000,0.000000,1646808355.386172,0.000000
229.000000,33239.927380,32917.995205,20402.538228,-17.009678,26522.937599,18876.450524,11998.282313,15272.142324,-0.050000,0.964000,0.228000,192.000000,254.000000,112.000000,30.000000,32.000000,7.000000,32.000000,0.000000,0.000000,0.000000,1646808355.386189,0.000000
230.000000,33233.668892,32913.524856,20395.385670,-21.882358,26518.668415,18870.303794,11993.700206,15264.542730,-0.050000,0.964000,0.228000,192.000000,0.000000,0.000000,0.000000,0.000000,0.000000,0.000000,0.000000,0.000000,0.000000,1646808355.393253,0.000000
231.000000,33227.835086,32915.201237,20390.222417,-19.915404,26516.835572,18868.850931,11995.913028,15258.686573,-0.050000,0.964000,0.228000,192.000000,0.000000,0.000000,0.000000,0.000000,0.000000,0.000000,0.000000,0.000000,0.000000,1646808355.393266,0.000000
232.000000,33227.790383,32921.213856,20391.362356,-16.026201,26518.824878,18869.745001,12002.909124,15265.414448,-0.050000,0.964000,0.228000,192.000000,0.000000,0.000000,0.000000,0.000000,0.000000,0.000000,0.000000,0.000000,0.000000,1646808355.400974,0.000000
233.000000,33235.993473,32924.857190,20398.179638,-12.047590,26523.652854,18872.516617,12003.512621,15265.570911,-0.050000,0.964000,0.228000,192.000000,0.000000,0.000000,0.000000,0.000000,0.000000,0.000000,0.000000,0.000000,0.000000,1646808355.400991,0.000000
234.000000,33239.748566,32923.024347,20400.392461,-13.567509,26526.290360,18872.203692,11995.018958,15263.581605,-0.050000,0.964000,0.228000,192.000000,0.000000,0.000000,0.000000,0.000000,0.000000,0.000000,0.000000,0.000000,0.000000,1646808355.408932,0.000000
235.000000,33239.659159,32920.744469,20400.750089,-13.634564,26528.257314,18876.718745,12007.155956,15273.304614,-0.050000,0.964000,0.228000,192.000000,0.000000,0.000000,0.000000,0.000000,0.000000,0.000000,0.000000,0.000000,0.000000,1646808355.408948,0.000000
236.000000,33243.101328,32923.493734,20402.091193,-11.488797,26529.374901,18879.378602,12008.854688,15276.053879,-0.050000,0.964000,0.228000,192.000000,0.000000,0.000000,0.000000,0.000000,0.000000,0.000000,0.000000,0.000000,0.000000,1646808355.416929,0.000000
237.000000,33232.707767,32916.832914,20388.590740,-24.095181,26517.550828,18867.487474,11993.521392,15262.084039,-0.050000,0.964000,0.228000,192.000000,0.000000,0.000000,0.000000,0.000000,0.000000,0.000000,0.000000,0.000000,0.000000,1646808355.416939,0.000000
238.000000,33232.417194,32920.185676,20387.517856,-21.591785,26519.696596,18870.035573,11999.846935,15262.776943,-0.050000,0.964000,0.228000,192.000000,0.000000,0.000000,0.000000,0.000000,0.000000,0.000000,0.000000,0.000000,0.000000,1646808355.423197,0.000000
239.000000,33241.871982,32926.600626,20396.726775,-11.377038,26529.531363,18880.116210,12008.541764,15275.338623,-0.050000,0.958000,0.218000,192.000000,254.000000,112.000000,29.000000,240.000000,6.000000,208.000000,0.000000,0.000000,0.000000,1646808355.430365,0.000000
240.000000,33233.780650,32916.944673,20388.076650,-19.021335,26521.261218,18869.230910,11992.403804,15265.570911,-0.050000,0.958000,0.218000,192.000000,0.000000,0.000000,0.000000,0.000000,0.000000,0.000000,0.000000,0.000000,0.000000,1646808355.430376,0.000000
241.000000,33233.892409,32924.745432,20392.234074,-13.411047,26523.697558,18873.522445,11996.829450,15264.766248,-0.050000,0.958000,0.218000,192.000000,0.000000,0.000000,0.000000,0.000000,0.000000,0.000000,0.000000,0.000000,0.000000,1646808355.438496,0.000000
242.000000,33238.854496,32931.361548,20404.929865,-5.744398,26531.543020,18879.624472,11998.148203,15265.772076,-0.050000,0.958000,0.218000,192.000000,0.000000,0.000000,0.000000,0.000000,0.000000,0.000000,0.000000,0.000000,0.000000,1646808355.438507,0.000000
243.000000,33242.006092,32929.640464,20405.533362,-6.996096,26530.917171,18879.691527,12003.356159,15257.770152,-0.050000,0.958000,0.218000,192.000000,0.000000,0.000000,0.000000,0.000000,0.000000,0.000000,0.000000,0.000000,0.000000,1646808355.446346,0.000000
244.000000,33241.469650,32929.662815,20399.967778,-9.745361,26528.302017,18878.976271,11997.589409,15264.296861,-0.050000,0.958000,0.218000,192.000000,0.000000,0.000000,0.000000,0.000000,0.000000,0.000000,0.000000,0.000000,0.000000,1646808355.446361,0.000000
245.000000,33247.884601,32934.870772,20405.153382,-3.531576,26535.633389,18886.620568,12005.613685,15279.943082,-0.050000,0.958000,0.218000,192.000000,0.000000,0.000000,0.000000,0.000000,0.000000,0.000000,0.000000,0.000000,0.000000,1646808355.453029,0.000000
246.000000,33249.404520,32936.323635,20406.114507,-0.424683,26536.750977,18887.849914,12000.606895,15273.863408,-0.050000,0.958000,0.218000,192.000000,0.000000,0.000000,0.000000,0.000000,0.000000,0.000000,0.000000,0.000000,0.000000,1646808355.453046,0.000000
247.000000,33243.973046,32932.590894,20401.800621,-5.498529,26530.559543,18879.155085,11994.460165,15256.876082,-0.050000,0.958000,0.218000,192.000000,0.000000,0.000000,0.000000,0.000000,0.000000,0.000000,0.000000,0.000000,0.000000,1646808355.461247,0.000000
248.000000,33235.345272,32927.315882,20393.686938,-10.326506,26524.882200,18875.377640,11990.570961,15257.591338,-0.050000,0.958000,0.218000,192.000000,0.000000,0.000000,0.000000,0.000000,0.000000,0.000000,0.000000,0.000000,0.000000,1646808355.461263,0.000000
249.000000,33227.455107,32923.136106,20388.076650,-14.998021,26523.339930,18875.131771,11991.330921,15270.242425,-0.048000,0.956000,0.216000,192.000000,254.000000,128.000000,29.000000,224.000000,6.000000,192.000000,0.000000,0.000000,0.000000,1646808355.469231,0.000000
250.000000,33220.302548,32915.134181,20387.450801,-20.250680,26520.210686,18874.125942,11993.052005,15273.036393,-0.048000,0.956000,0.216000,192.000000,0.000000,0.000000,0.000000,0.000000,0.000000,0.000000,0.000000,0.000000,0.000000,1646808355.469243,0.000000
251.000000,33227.522162,32919.269254,20391.585874,-15.199186,26522.848192,18877.702222,12003.669084,15270.845922,-0.048000,0.956000,0.216000,192.000000,0.000000,0.000000,0.000000,0.000000,0.000000,0.000000,0.000000,0.000000,0.000000,1646808355.475850,0.000000
252.000000,33225.622264,32915.625920,20386.489676,-16.942622,26520.769479,18876.472876,12004.853726,15271.963510,-0.048000,0.956000,0.216000,192.000000,0.000000,0.000000,0.000000,0.000000,0.000000,0.000000,0.000000,0.000000,0.000000,1646808355.475866,0.000000
253.000000,33216.949787,32905.858207,20377.839551,-26.687983,26511.068822,18867.688640,11993.990778,15264.162751,-0.048000,0.956000,0.216000,192.000000,0.000000,0.000000,0.000000,0.000000,0.000000,0.000000,0.000000,0.000000,0.000000,1646808355.482924,0.000000
254.000000,33226.628092,32915.938844,20390.065955,-16.249718,26520.478907,18881.256149,12006.083072,15280.054841,-0.048000,0.956000,0.216000,192.000000,0.000000,0.000000,0.000000,0.000000,0.000000,0.000000,0.000000,0.000000,0.000000,1646808355.490806,0.000000
255.000000,33233.355967,32928.433469,20396.324443,-10.192395,26526.513878,18887.671100,12013.012113,15286.134516,-0.048000,0.956000,0.216000,192.000000,0.000000,0.000000,0.000000,0.000000,0.000000,0.000000,0.000000,0.000000,0.000000,1646808355.490822,0.000000
0.000000,33229.712633,32931.965045,20395.340967,-9.186567,26526.804450,18890.263902,12014.286162,15280.144248,-0.048000,0.956000,0.216000,192.000000,0.000000,0.000000,0.000000,0.000000,0.000000,0.000000,0.000000,0.000000,0.000000,1646808355.498955,0.000000
1.000000,33237.692206,32937.374167,20398.783135,-4.559756,26531.230096,18892.655539,12013.682665,15280.904207,-0.048000,0.956000,0.216000,192.000000,0.000000,0.000000,0.000000,0.000000,0.000000,0.000000,0.000000,0.000000,0.000000,1646808355.498972,0.000000
2.000000,33239.972084,32940.793984,20397.978472,-2.615154,26531.230096,18887.246416,12006.686569,15274.086925,-0.048000,0.956000,0.216000,192.000000,0.000000,0.000000,0.000000,0.000000,0.000000,0.000000,0.000000,0.000000,0.000000,1646808355.505513,0.000000
3.000000,33235.501735,32935.206048,20396.592664,-4.403294,26527.720872,18885.011242,11997.924685,15271.471771,-0.048000,0.956000,0.216000,192.000000,0.000000,0.000000,0.000000,0.000000,0.000000,0.000000,0.000000,0.000000,0.000000,1646808355.505529,0.000000
4.000000,33237.222819,32936.368339,20398.805487,-0.782311,26529.933695,18893.169629,12012.542726,15281.015966,-0.048000,0.950000,0.224000,192.000000,254.000000,128.000000,29.000000,176.000000,7.000000,0.000000,0.000000,0.000000,0.000000,1646808355.513352,0.000000
5.000000,33244.218915,32945.644313,20403.387595,2.324581,26533.241753,18893.214332,12011.894526,15281.083021,-0.048000,0.950000,0.224000,192.000000,0.000000,0.000000,0.000000,0.000000,0.000000,0.000000,0.000000,0.000000,0.000000,1646808355.513363,0.000000
6.000000,33237.513392,32933.283798,20394.491600,-5.476177,26525.530401,18886.508809,12007.021845,15274.533960,-0.048000,0.950000,0.224000,192.000000,0.000000,0.000000,0.000000,0.000000,0.000000,0.000000,0.000000,0.000000,0.000000,1646808355.521270,0.000000
7.000000,33231.724290,32930.355719,20389.507161,-7.085503,26522.602322,18884.497152,12003.043235,15272.164675,-0.048000,0.950000,0.224000,192.000000,0.000000,0.000000,0.000000,0.000000,0.000000,0.000000,0.000000,0.000000,0.000000,1646808355.521287,0.000000
8.000000,33234.339444,32936.368339,20394.893932,-1.251698,26527.653817,18887.738155,12004.831374,15274.802181,-0.048000,0.950000,0.224000,192.000000,0.000000,0.000000,0.000000,0.000000,0.000000,0.000000,0.000000,0.000000,0.000000,1646808355.528586,0.000000
9.000000,33240.687339,32941.598647,20399.967778,4.805625,26533.331160,18890.487419,12008.027674,15277.685556,-0.048000,0.950000,0.224000,192.000000,0.000000,0.000000,0.000000,0.000000,0.000000,0.000000,0.000000,0.000000,0.000000,1646808355.528603,0.000000
10.000000,33230.941979,32932.367376,20394.715118,-2.793968,26524.613979,18884.117172,12004.205525,15273.148152,-0.048000,0.950000,0.224000,192.000000,0.000000,0.000000,0.000000,0.000000,0.000000,0.000000,0.000000,0.000000,0.000000,1646808355.536130,0.000000
11.000000,33230.070261,32932.054452,20390.982376,-4.202128,26522.714081,18882.552550,12002.529145,15271.427068,-0.048000,0.950000,0.224000,192.000000,0.000000,0.000000,0.000000,0.000000,0.000000,0.000000,0.000000,0.000000,0.000000,1646808355.536146,0.000000
12.000000,33227.388051,32924.588969,20387.674318,-9.655954,26519.741299,18879.423306,11996.807098,15264.766248,-0.048000,0.950000,0.224000,192.000000,0.000000,0.000000,0.000000,0.000000,0.000000,0.000000,0.000000,0.000000,0.000000,1646808355.542990,0.000000
13.000000,33227.052775,32925.505391,20388.680147,-9.410084,26520.300093,18877.970443,11997.254133,15260.698230,-0.048000,0.950000,0.224000,192.000000,0.000000,0.000000,0.000000,0.000000,0.000000,0.000000,0.000000,0.000000,0.000000,1646808355.551149,0.000000
14.000000,33234.562961,32939.341121,20394.826877,0.737608,26529.039625,18884.541855,12008.430005,15261.569948,-0.046000,0.952000,0.222000,192.000000,254.000000,144.000000,29.000000,192.000000,6.000000,240.000000,0.000000,0.000000,0.000000,1646808355.551164,0.000000
15.000000,33238.832145,32944.414967,20398.961949,6.213785,26533.733491,18892.052042,12012.654485,15283.809934,-0.046000,0.952000,0.222000,192.000000,0.000000,0.000000,0.000000,0.000000,0.000000,0.000000,0.000000,0.000000,0.000000,1646808355.558179,0.000000
16.000000,33224.169400,32930.422775,20384.701536,-9.678305,26519.987168,18876.450524,11995.644807,15266.375573,-0.046000,0.952000,0.222000,192.000000,0.000000,0.000000,0.000000,0.000000,0.000000,0.000000,0.000000,0.000000,0.000000,1646808355.558195,0.000000
17.000000,33221.353080,32923.717251,20380.722926,-16.786160,26514.890971,18869.745001,12000.964522,15244.180291,-0.046000,0.952000,0.222000,192.000000,0.000000,0.000000,0.000000,0.000000,0.000000,0.000000,0.000000,0.000000,0.000000,1646808355.565655,0.000000
18.000000,33232.037214,32933.373205,20387.696670,-2.101064,26524.234000,18883.580730,12012.676837,15280.479524,-0.046000,0.952000,0.222000,192.000000,0.000000,0.000000,0.000000,0.000000,0.000000,0.000000,0.000000,0.000000,0.000000,1646808355.565667,0.000000
19.000000,33237.468688,32941.509240,20390.088307,2.078712,26527.519706,18889.369832,12013.816776,15289.397870,-0.046000,0.952000,0.222000,192.000000,0.000000,0.000000,0.000000,0.000000,0.000000,0.000000,0.000000,0.000000,0.000000,1646808355.573735,0.000000
20.000000,33238.295703,32937.061243,20387.316690,-6.392599,26520.568314,18882.261977,12007.424177,15279.697213,-0.046000,0.952000,0.222000,192.000000,0.000000,0.000000,0.000000,0.000000,0.000000,0.000000,0.000000,0.000000,0.000000,1646808355.573752,0.000000
21.000000,33245.314150,32947.812432,20393.128144,-2.838672,26521.998825,18882.776068,12001.523316,15280.010138,-0.046000,0.952000,0.222000,192.000000,0.000000,0.000000,0.000000,0.000000,0.000000,0.000000,0.000000,0.000000,0.000000,1646808355.581762,0.000000
22.000000,33233.646540,32944.392615,20390.065955,0.514090,26523.876372,18887.872265,12008.608819,15284.435783,-0.046000,0.952000,0.222000,192.000000,0.000000,0.000000,0.000000,0.000000,0.000000,0.000000,0.000000,0.000000,0.000000,1646808355.581780,0.000000
23.000000,33224.750546,32937.865906,20386.981414,-0.111759,26523.652854,18889.772164,12015.046121,15286.492143,-0.046000,0.952000,0.222000,192.000000,0.000000,0.000000,0.000000,0.000000,0.000000,0.000000,0.000000,0.000000,0.000000,1646808355.588375,0.000000
24.000000,33227.365700,32944.057339,20385.193275,0.469387,26522.624674,18886.866437,12011.581601,15285.978053,-0.054000,0.958000,0.224000,192.000000,254.000000,80.000000,29.000000,240.000000,7.000000,0.000000,0.000000,0.000000,0.000000,1646808355.588392,0.000000
25.000000,33229.243246,32940.235190,20386.892007,-0.089407,26522.311750,18885.458277,12008.027674,15278.981957,-0.054000,0.958000,0.224000,192.000000,0.000000,0.000000,0.000000,0.000000,0.000000,0.000000,0.000000,0.000000,0.000000,1646808355.596205,0.000000
26.000000,33231.545476,32940.436356,20387.674318,1.072884,26522.043529,18887.961672,12002.417386,15271.784696,-0.054000,0.958000,0.224000,192.000000,0.000000,0.000000,0.000000,0.000000,0.000000,0.000000,0.000000,0.000000,0.000000,1646808355.596216,0.000000
27.000000,33236.328749,32944.191449,20396.302092,7.465483,26528.346721,18896.857667,12015.381398,15286.112164,-0.054000,0.958000,0.224000,192.000000,0.000000,0.000000,0.000000,0.000000,0.000000,0.000000,0.000000,0.000000,0.000000,1646808355.603346,0.000000
28.000000,33227.253941,32931.875638,20386.601435,-3.866852,26517.506125,18888.967501,12010.173441,15277.506742,-0.054000,0.958000,0.224000,192.000000,0.000000,0.000000,0.000000,0.000000,0.000000,0.000000,0.000000,0.000000,0.000000,1646808355.603363,0.000000
29.000000,33236.105232,32947.633618,20390.669452,3.665686,26522.132936,18888.565169,12008.541764,15280.948911,-0.054000,0.958000,0.224000,192.000000,0.000000,0.000000,0.000000,0.000000,0.000000,0.000000,0.000000,0.000000,0.000000,1646808355.610291,0.000000
30.000000,33238.586275,32950.002903,20391.027080,6.616116,26525.105718,18886.508809,12002.395034,15278.713736,-0.054000,0.958000,0.224000,192.000000,0.000000,0.000000,0.000000,0.000000,0.000000,0.000000,0.000000,0.000000,0.000000,1646808355.617860,0.000000
31.000000,33236.954598,32945.800775,20389.596568,5.990268,26525.262180,18886.955844,12010.329903,15281.463001,-0.054000,0.958000,0.224000,192.000000,0.000000,0.000000,0.000000,0.000000,0.000000,0.000000,0.000000,0.000000,0.000000,1646808355.617871,0.000000
32.000000,33247.415214,32951.947505,20394.044565,9.678305,26529.732529,18887.916969,12019.695284,15286.089812,-0.054000,0.958000,0.224000,192.000000,0.000000,0.000000,0.000000,0.000000,0.000000,0.000000,0.000000,0.000000,0.000000,1646808355.625835,0.000000
33.000000,33246.655255,32951.768691,20390.356528,7.554890,26529.933695,18885.704146,12006.440700,15277.193818,-0.054000,0.958000,0.224000,192.000000,0.000000,0.000000,0.000000,0.000000,0.000000,0.000000,0.000000,0.000000,0.000000,1646808355.625848,0.000000
34.000000,33232.059566,32938.245885,20381.304071,-4.045666,26519.584837,18876.472876,11996.650636,15266.889664,-0.050000,0.962000,0.226000,192.000000,254.000000,112.000000,30.000000,16.000000,7.000000,16.000000,0.000000,0.000000,0.000000,1646808355.634049,0.000000
35.000000,33241.737871,32951.008731,20397.687900,8.717180,26531.319503,18888.475762,12007.714749,15277.819667,-0.050000,0.962000,0.226000,192.000000,0.000000,0.000000,0.000000,0.000000,0.000000,0.000000,0.000000,0.000000,0.000000,1646808355.634065,0.000000
36.000000,33245.850592,32954.383845,20404.035795,13.612212,26536.460404,18893.147277,12011.492194,15284.145210,-0.050000,0.962000,0.226000,192.000000,0.000000,0.000000,0.000000,0.000000,0.000000,0.000000,0.000000,0.000000,0.000000,1646808355.640567,0.000000
37.000000,33243.168383,32946.337217,20400.258350,8.001925,26530.604247,18887.715803,12006.530107,15277.663204,-0.050000,0.962000,0.226000,192.000000,0.000000,0.000000,0.000000,0.000000,0.000000,0.000000,0.000000,0.000000,0.000000,1646808355.640583,0.000000
38.000000,33236.999302,32949.041778,20394.424545,5.811454,26525.128070,18881.591425,11999.981046,15259.155960,-0.050000,0.962000,0.226000,192.000000,0.000000,0.000000,0.000000,0.000000,0.000000,0.000000,0.000000,0.000000,0.000000,1646808355.648737,0.000000
39.000000,33252.891392,32962.855156,20404.751051,20.630660,26537.309770,18897.170591,12017.437758,15278.043184,-0.050000,0.962000,0.226000,192.000000,0.000000,0.000000,0.000000,0.000000,0.000000,0.000000,0.000000,0.000000,0.000000,1646808355.648754,0.000000
40.000000,33254.053683,32963.078673,20400.951254,18.909576,26535.007541,18894.063699,12012.587430,15278.780792,-0.050000,0.962000,0.226000,192.000000,0.000000,0.000000,0.000000,0.000000,0.000000,0.000000,0.000000,0.000000,0.000000,1646808355.656621,0.000000
41.000000,33252.533764,32965.470310,20402.135897,22.955242,26538.069730,18895.069527,12012.140395,15276.143286,-0.050000,0.962000,0.226000,192.000000,0.000000,0.000000,0.000000,0.000000,0.000000,0.000000,0.000000,0.000000,0.000000,1646808355.656637,0.000000
42.000000,33250.387996,32959.591801,20398.313749,15.467407,26531.565372,18886.911140,12005.256057,15266.174408,-0.050000,0.962000,0.226000,192.000000,0.000000,0.000000,0.000000,0.000000,0.000000,0.000000,0.000000,0.000000,0.000000,1646808355.663863,0.000000
43.000000,33254.903049,32964.889165,20401.621807,21.971765,26534.985189,18892.677890,12005.993665,15276.210341,-0.050000,0.962000,0.226000,192.000000,0.000000,0.000000,0.000000,0.000000,0.000000,0.000000,0.000000,0.000000,0.000000,1646808355.663880,0.000000
44.000000,33250.656217,32962.408121,20397.084403,19.289555,26530.403081,18888.095783,12000.338674,15280.881856,-0.050000,0.958000,0.230000,192.000000,254.000000,112.000000,29.000000,240.000000,7.000000,48.000000,0.000000,0.000000,0.000000,1646808355.670197,0.000000
45.000000,33261.429758,32977.584955,20401.800621,23.961070,26531.095985,18885.055946,12000.338674,15275.159809,-0.050000,0.958000,0.230000,192.000000,0.000000,0.000000,0.000000,0.000000,0.000000,0.000000,0.000000,0.000000,0.000000,1646808355.678377,0.000000
46.000000,33258.412273,32971.192356,20396.212685,14.573337,26521.283569,18870.996698,11990.570961,15260.385306,-0.050000,0.958000,0.230000,192.000000,0.000000,0.000000,0.000000,0.000000,0.000000,0.000000,0.000000,0.000000,0.000000,1646808355.678393,0.000000
47.000000,33253.271372,32958.094234,20403.432298,15.109779,26528.883163,18887.268768,12003.624380,15266.599091,-0.050000,0.958000,0.230000,192.000000,0.000000,0.000000,0.000000,0.000000,0.000000,0.000000,0.000000,0.000000,0.000000,1646808355.686307,0.000000
48.000000,33238.452165,32949.131185,20396.950292,9.655954,26521.372976,18884.564207,11998.595238,15267.180236,-0.050000,0.958000,0.230000,192.000000,0.000000,0.000000,0.000000,0.000000,0.000000,0.000000,0.000000,0.000000,0.000000,1646808355.686323,0.000000
49.000000,33232.975988,32944.660836,20390.244769,2.257526,26512.767555,18875.578806,11987.195848,15258.284242,-0.050000,0.958000,0.230000,192.000000,0.000000,0.000000,0.000000,0.000000,0.000000,0.000000,0.000000,0.000000,0.000000,1646808355.693440,0.000000
50.000000,33252.243191,32958.876545,20404.415775,14.841558,26524.792793,18888.632225,12001.568020,15269.661280,-0.050000,0.958000,0.230000,192.000000,0.000000,0.000000,0.000000,0.000000,0.000000,0.000000,0.000000,0.000000,0.000000,1646808355.693451,0.000000
51.000000,33251.438528,32959.278877,20400.727737,11.891128,26521.171811,18886.285291,11997.410595,15263.872178,-0.050000,0.958000,0.230000,192.000000,0.000000,0.000000,0.000000,0.000000,0.000000,0.000000,0.000000,0.000000,0.000000,1646808355.700940,0.000000
52.000000,33249.695092,32959.323580,20399.677205,13.165177,26522.088232,18886.195884,11998.125851,15266.286166,-0.050000,0.958000,0.230000,192.000000,0.000000,0.000000,0.000000,0.000000,0.000000,0.000000,0.000000,0.000000,0.000000,1646808355.700956,0.000000
53.000000,33250.142127,32961.804624,20403.298188,15.400352,26523.764613,18888.095783,12002.417386,15271.807047,-0.050000,0.958000,0.230000,192.000000,0.000000,0.000000,0.000000,0.000000,0.000000,0.000000,0.000000,0.000000,0.000000,1646808355.709771,0.000000
54.000000,33256.735892,32967.526670,20408.684958,21.971765,26528.681997,18891.336786,12004.406691,15276.322100,-0.046000,0.950000,0.230000,192.000000,254.000000,144.000000,29.000000,176.000000,7.000000,48.000000,0.000000,0.000000,0.000000,1646808355.709787,0.000000
55.000000,33252.846688,32966.476138,20405.220438,18.082561,26525.329235,18887.469934,12012.050988,15276.992652,-0.046000,0.950000,0.230000,192.000000,0.000000,0.000000,0.000000,0.000000,0.000000,0.000000,0.000000,0.000000,0.000000,1646808355.716379,0.000000
56.000000,33247.616380,32960.351760,20401.487696,10.728837,26516.992035,18882.664309,11998.997569,15272.254082,-0.046000,0.950000,0.230000,192.000000,0.000000,0.000000,0.000000,0.000000,0.000000,0.000000,0.000000,0.000000,0.000000,1646808355.716395,0.000000
57.000000,33249.739796,32963.369246,20401.979435,14.171006,26516.366186,18884.921835,11998.550534,15268.409582,-0.046000,0.950000,0.230000,192.000000,0.000000,0.000000,0.000000,0.000000,0.000000,0.000000,0.000000,0.000000,0.000000,1646808355.724101,0.000000
58.000000,33251.460880,32961.268182,20403.655816,14.930965,26514.063956,18883.759544,11999.064624,15269.616576,-0.046000,0.950000,0.230000,192.000000,0.000000,0.000000,0.000000,0.000000,0.000000,0.000000,0.000000,0.000000,0.000000,1646808355.724138,0.000000
59.000000,33252.131433,32963.503356,20406.338025,17.613175,26515.002729,18884.139524,12002.663255,15273.438725,-0.046000,0.950000,0.230000,192.000000,0.000000,0.000000,0.000000,0.000000,0.000000,0.000000,0.000000,0.000000,0.000000,1646808355.731509,0.000000
60.000000,33254.366607,32969.694790,20404.304016,20.317736,26516.232075,18884.944187,12002.752662,15273.438725,-0.046000,0.950000,0.230000,192.000000,0.000000,0.000000,0.000000,0.000000,0.000000,0.000000,0.000000,0.000000,0.000000,1646808355.737928,0.000000
61.000000,33244.375377,32960.061188,20397.486734,14.148654,26508.587779,18880.876169,12004.786671,15266.442629,-0.046000,0.950000,0.230000,192.000000,0.000000,0.000000,0.000000,0.000000,0.000000,0.000000,0.000000,0.000000,0.000000,1646808355.737946,0.000000
62.000000,33238.899200,32953.825051,20396.123278,9.074808,26504.832686,18877.434001,12001.344502,15264.095696,-0.046000,0.950000,0.230000,192.000000,0.000000,0.000000,0.000000,0.000000,0.000000,0.000000,0.000000,0.000000,0.000000,1646808355.745671,0.000000
63.000000,33254.567773,32973.494586,20413.267066,24.296346,26520.657721,18891.605007,12010.776938,15279.853675,-0.046000,0.950000,0.230000,192.000000,0.000000,0.000000,0.000000,0.000000,0.000000,0.000000,0.000000,0.000000,0.000000,1646808355.745682,0.000000
64.000000,33250.589162,32977.584955,20413.915266,27.425590,26521.775308,18891.761469,12014.755549,15277.171466,-0.046000,0.962000,0.224000,192.000000,254.000000,144.000000,30.000000,16.000000,7.000000,0.000000,0.000000,0.000000,0.000000,1646808355.753896,0.000000
65.000000,33238.452165,32967.794891,20402.225304,20.094218,26510.130049,18881.278501,12000.361025,15261.257024,-0.046000,0.962000,0.224000,192.000000,0.000000,0.000000,0.000000,0.000000,0.000000,0.000000,0.000000,0.000000,0.000000,1646808355.753913,0.000000
66.000000,33239.167421,32963.995095,20397.911417,17.233195,26505.302072,18876.338765,11992.336749,15257.546634,-0.046000,0.962000,0.224000,192.000000,0.000000,0.000000,0.000000,0.000000,0.000000,0.000000,0.000000,0.000000,0.000000,1646808355.761058,0.000000
67.000000,33248.041063,32965.671476,20404.706348,21.971765,26510.152401,18879.043326,11992.023825,15264.878007,-0.046000,0.962000,0.224000,192.000000,0.000000,0.000000,0.000000,0.000000,0.000000,0.000000,0.000000,0.000000,0.000000,1646808355.761074,0.000000
68.000000,33243.838935,32961.491699,20401.308882,16.428532,26504.743279,18876.584634,11995.667159,15275.249216,-0.046000,0.962000,0.224000,192.000000,0.000000,0.000000,0.000000,0.000000,0.000000,0.000000,0.000000,0.000000,0.000000,1646808355.768534,0.000000
69.000000,33249.695092,32964.777406,20404.996920,17.121436,26507.134915,18874.282405,12003.780842,15265.705021,-0.046000,0.962000,0.224000,192.000000,0.000000,0.000000,0.000000,0.000000,0.000000,0.000000,0.000000,0.000000,0.000000,1646808355.768545,0.000000
70.000000,33249.739796,32963.995095,20405.041624,19.401314,26510.264159,18875.288233,12007.066549,15261.748762,-0.046000,0.962000,0.224000,192.000000,0.000000,0.000000,0.000000,0.000000,0.000000,0.000000,0.000000,0.000000,0.000000,1646808355.776613,0.000000
71.000000,33245.582371,32960.597630,20404.102850,20.138922,26509.861828,18876.562283,12002.059758,15265.481504,-0.046000,0.962000,0.224000,192.000000,0.000000,0.000000,0.000000,0.000000,0.000000,0.000000,0.000000,0.000000,0.000000,1646808355.776630,0.000000
72.000000,33246.074110,32968.398388,20407.992054,28.476122,26516.388537,18881.814943,12004.876078,15272.477600,-0.046000,0.962000,0.224000,192.000000,0.000000,0.000000,0.000000,0.000000,0.000000,0.000000,0.000000,0.000000,0.000000,1646808355.784553,0.000000
73.000000,33248.622209,32978.233156,20414.943447,37.573282,26523.943427,18890.509771,12009.122909,15278.892550,-0.046000,0.962000,0.224000,192.000000,0.000000,0.000000,0.000000,0.000000,0.000000,0.000000,0.000000,0.000000,0.000000,1646808355.784570,0.000000
74.000000,33247.348159,32966.722008,20407.947350,26.285651,26513.013424,18879.691527,11998.438775,15270.577701,-0.046000,0.962000,0.222000,192.000000,254.000000,144.000000,30.000000,16.000000,6.000000,240.000000,0.000000,0.000000,0.000000,1646808355.790554,0.000000
75.000000,33249.918610,32960.418816,20404.460478,20.809474,26506.889046,18870.460256,11988.022862,15254.707963,-0.046000,0.962000,0.222000,192.000000,0.000000,0.000000,0.000000,0.000000,0.000000,0.000000,0.000000,0.000000,0.000000,1646808355.798059,0.000000
76.000000,33246.275276,32961.983438,20403.298188,20.697715,26507.961930,18870.348498,11988.469897,15257.032544,-0.046000,0.962000,0.222000,192.000000,0.000000,0.000000,0.000000,0.000000,0.000000,0.000000,0.000000,0.000000,0.000000,1646808355.798075,0.000000
77.000000,33248.331636,32969.180699,20407.120336,28.364364,26516.232075,18878.216312,11994.035482,15265.526207,-0.046000,0.962000,0.222000,192.000000,0.000000,0.000000,0.000000,0.000000,0.000000,0.000000,0.000000,0.000000,0.000000,1646808355.806244,0.000000
78.000000,33253.047854,32975.372133,20415.390481,35.002832,26522.088232,18890.643882,12007.424177,15280.501876,-0.046000,0.962000,0.222000,192.000000,0.000000,0.000000,0.000000,0.000000,0.000000,0.000000,0.000000,0.000000,0.000000,1646808355.806261,0.000000
79.000000,33242.408424,32966.073807,20408.774365,28.252605,26515.069785,18887.134658,12007.334770,15278.780792,-0.046000,0.962000,0.222000,192.000000,0.000000,0.000000,0.000000,0.000000,0.000000,0.000000,0.000000,0.000000,0.000000,1646808355.814204,0.000000
80.000000,33242.654293,32967.884298,20410.517801,29.616061,26515.136840,18886.464105,12006.820680,15279.294882,-0.046000,0.962000,0.222000,192.000000,0.000000,0.000000,0.000000,0.000000,0.000000,0.000000,0.000000,0.000000,0.000000,1646808355.814215,0.000000
81.000000,33246.565848,32973.382827,20412.685920,34.019355,26517.841401,18889.526294,12008.206488,15281.865332,-0.046000,0.962000,0.222000,192.000000,0.000000,0.000000,0.000000,0.000000,0.000000,0.000000,0.000000,0.000000,0.000000,1646808355.820796,0.000000
82.000000,33242.497831,32968.443092,20410.026063,31.292442,26514.935674,18887.872265,12008.921744,15281.083021,-0.046000,0.962000,0.222000,192.000000,0.000000,0.000000,0.000000,0.000000,0.000000,0.000000,0.000000,0.000000,0.000000,1646808355.820807,0.000000
83.000000,33246.476441,32969.918307,20410.942484,34.265224,26514.980378,18889.302777,12011.291028,15283.184085,-0.046000,0.962000,0.222000,192.000000,0.000000,0.000000,0.000000,0.000000,0.000000,0.000000,0.000000,0.000000,0.000000,1646808355.828789,0.000000
84.000000,33242.766052,32966.498490,20403.856981,27.760867,26508.699537,18881.837294,12000.830412,15274.601015,-0.050000,0.958000,0.218000,192.000000,254.000000,112.000000,29.000000,240.000000,6.000000,208.000000,0.000000,0.000000,0.000000,1646808355.828806,0.000000
85.000000,33241.112023,32961.871679,20403.745223,24.832788,26507.894875,18881.390259,12005.479575,15273.796353,-0.050000,0.958000,0.218000,192.000000,0.000000,0.000000,0.000000,0.000000,0.000000,0.000000,0.000000,0.000000,0.000000,1646808355.836767,0.000000
86.000000,33236.999302,32958.585973,20403.745223,21.904710,26507.000805,18879.244492,12001.992703,15271.292957,-0.050000,0.958000,0.218000,192.000000,0.000000,0.000000,0.000000,0.000000,0.000000,0.000000,0.000000,0.000000,0.000000,1646808355.836784,0.000000
87.000000,33240.240304,32959.033008,20408.372034,22.664669,26510.353566,18883.111344,12000.405729,15278.266701,-0.050000,0.958000,0.218000,192.000000,0.000000,0.000000,0.000000,0.000000,0.000000,0.000000,0.000000,0.000000,0.000000,1646808355.843320,0.000000
88.000000,33247.012883,32967.906650,20414.652874,30.264262,26516.142668,18890.576826,12012.520374,15284.279321,-0.050000,0.958000,0.218000,192.000000,0.000000,0.000000,0.000000,0.000000,0.000000,0.000000,0.000000,0.000000,0.000000,1646808355.843332,0.000000
89.000000,33244.710653,32964.643295,20410.227228,27.403239,26511.962892,18889.883922,12015.716674,15283.117030,-0.050000,0.958000,0.218000,192.000000,0.000000,0.000000,0.000000,0.000000,0.000000,0.000000,0.000000,0.000000,0.000000,1646808355.850467,0.000000
90.000000,33245.045930,32967.772540,20408.439089,28.230253,26510.487677,18888.721632,12018.041255,15284.726356,-0.050000,0.958000,0.218000,192.000000,0.000000,0.000000,0.000000,0.000000,0.000000,0.000000,0.000000,0.000000,0.000000,1646808355.850484,0.000000
91.000000,33233.534781,32963.525708,20398.179638,23.223462,26503.335119,18883.178399,12006.373645,15276.322100,-0.050000,0.958000,0.218000,192.000000,0.000000,0.000000,0.000000,0.000000,0.000000,0.000000,0.000000,0.000000,0.000000,1646808355.858389,0.000000
92.000000,33239.413290,32966.498490,20405.734528,30.867759,26509.817125,18889.772164,12011.469842,15283.184085,-0.050000,0.958000,0.218000,192.000000,0.000000,0.000000,0.000000,0.000000,0.000000,0.000000,0.000000,0.000000,0.000000,1646808355.866435,0.000000
93.000000,33248.197526,32971.371170,20407.835592,32.588843,26511.538209,18888.587521,12012.967409,15284.011100,-0.050000,0.958000,0.218000,192.000000,0.000000,0.000000,0.000000,0.000000,0.000000,0.000000,0.000000,0.000000,0.000000,1646808355.866452,0.000000
94.000000,33252.533764,32979.708371,20411.970664,36.634509,26516.388537,18889.973329,12014.822604,15277.663204,-0.050000,0.960000,0.214000,192.000000,254.000000,112.000000,30.000000,0.000000,6.000000,176.000000,0.000000,0.000000,0.000000,1646808355.872949,0.000000
95.000000,33240.821450,32977.674362,20406.785060,34.153466,26513.035776,18888.185190,12014.844956,15280.054841,-0.050000,0.960000,0.214000,192.000000,0.000000,0.000000,0.000000,0.000000,0.000000,0.000000,0.000000,0.000000,0.000000,1646808355.872967,0.000000
96.000000,33238.630979,32969.448920,20404.326368,29.057268,26507.045508,18882.619605,12007.982970,15278.713736,-0.050000,0.960000,0.214000,192.000000,0.000000,0.000000,0.000000,0.000000,0.000000,0.000000,0.000000,0.000000,0.000000,1646808355.881156,0.000000
97.000000,33241.827278,32975.841519,20409.109641,34.376983,26510.957064,18884.497152,12009.212316,15274.936292,-0.050000,0.960000,0.214000,192.000000,0.000000,0.000000,0.000000,0.000000,0.000000,0.000000,0.000000,0.000000,0.000000,1646808355.881173,0.000000
98.000000,33238.988607,32978.166101,20406.539191,35.628681,26510.688843,18886.486457,12003.199697,15274.198684,-0.050000,0.960000,0.214000,192.000000,0.000000,0.000000,0.000000,0.000000,0.000000,0.000000,0.000000,0.000000,0.000000,1646808355.889113,0.000000
99.000000,33243.883639,32981.474159,20409.556676,39.562588,26514.667453,18893.773126,12013.235630,15283.809934,-0.050000,0.960000,0.214000,192.000000,0.000000,0.000000,0.000000,0.000000,0.000000,0.000000,0.000000,0.000000,0.000000,1646808355.889130,0.000000
100.000000,33252.220840,32983.463464,20419.391444,44.770544,26521.440032,18899.092841,12012.766244,15294.158792,-0.050000,0.960000,0.214000,192.000000,0.000000,0.000000,0.000000,0.000000,0.000000,0.000000,0.000000,0.000000,0.000000,1646808355.895970,0.000000
101.000000,33254.143090,32988.358496,20421.559563,48.458582,26524.882200,18899.629283,12016.119005,15291.811859,-0.050000,0.960000,0.214000,192.000000,0.000000,0.000000,0.000000,0.000000,0.000000,0.000000,0.000000,0.000000,0.000000,1646808355.895979,0.000000
102.000000,33244.464784,32980.289516,20414.205839,41.484838,26517.148497,18889.101611,12008.139432,15276.702079,-0.050000,0.960000,0.214000,192.000000,0.000000,0.000000,0.000000,0.000000,0.000000,0.000000,0.000000,0.000000,0.000000,1646808355.903688,0.000000
103.000000,33239.234476,32973.583993,20411.791851,38.065021,26514.399232,18885.726498,12004.496098,15271.918806,-0.050000,0.960000,0.214000,192.000000,0.000000,0.000000,0.000000,0.000000,0.000000,0.000000,0.000000,0.000000,0.000000,1646808355.903704,0.000000
104.000000,33246.923476,32982.211767,20417.648008,43.340032,26519.763651,18890.934454,12012.095691,15282.982920,-0.050000,0.960000,0.214000,192.000000,0.000000,0.000000,0.000000,0.000000,0.000000,0.000000,0.000000,0.000000,0.000000,1646808355.911725,0.000000
105.000000,33253.696055,32993.991136,20417.044510,46.469277,26522.222343,18888.095783,12005.993665,15283.161734,-0.048000,0.956000,0.222000,192.000000,254.000000,128.000000,29.000000,224.000000,6.000000,240.000000,0.000000,0.000000,0.000000,1646808355.911742,0.000000
106.000000,33255.461842,32995.712220,20409.802545,42.825942,26514.600398,18879.512713,12003.132642,15277.193818,-0.048000,0.956000,0.222000,192.000000,0.000000,0.000000,0.000000,0.000000,0.000000,0.000000,0.000000,0.000000,0.000000,1646808355.918792,0.000000
107.000000,33253.517241,32987.866758,20413.155307,42.445963,26516.746165,18886.955844,12011.112214,15284.391079,-0.048000,0.956000,0.222000,192.000000,0.000000,0.000000,0.000000,0.000000,0.000000,0.000000,0.000000,0.000000,0.000000,1646808355.925868,0.000000
108.000000,33233.221857,32964.822109,20411.970664,36.075716,26514.108660,18891.984986,12017.080130,15286.112164,-0.048000,0.956000,0.222000,192.000000,0.000000,0.000000,0.000000,0.000000,0.000000,0.000000,0.000000,0.000000,0.000000,1646808355.925886,0.000000
109.000000,33235.524086,32971.594688,20414.764633,37.394468,26516.321482,18892.007338,12018.398883,15291.230713,-0.048000,0.956000,0.222000,192.000000,0.000000,0.000000,0.000000,0.000000,0.000000,0.000000,0.000000,0.000000,0.000000,1646808355.933108,0.000000
110.000000,33243.928342,32976.377961,20419.123223,41.976576,26519.875410,18894.667196,12018.532994,15287.900303,-0.048000,0.956000,0.222000,192.000000,0.000000,0.000000,0.000000,0.000000,0.000000,0.000000,0.000000,0.000000,0.000000,1646808355.933119,0.000000
111.000000,33242.363720,32973.651048,20420.240810,43.384736,26518.400194,18892.901408,12014.062645,15273.058745,-0.048000,0.956000,0.222000,192.000000,0.000000,0.000000,0.000000,0.000000,0.000000,0.000000,0.000000,0.000000,0.000000,1646808355.941289,0.000000
112.000000,33244.397729,32977.249679,20422.721854,46.670442,26520.098927,18900.568056,12019.628229,15292.750632,-0.048000,0.956000,0.222000,192.000000,0.000000,0.000000,0.000000,0.000000,0.000000,0.000000,0.000000,0.000000,0.000000,1646808355.941305,0.000000
113.000000,33233.557133,32968.688961,20411.188353,35.941605,26508.878351,18893.482553,12011.492194,15285.486315,-0.048000,0.956000,0.222000,192.000000,0.000000,0.000000,0.000000,0.000000,0.000000,0.000000,0.000000,0.000000,0.000000,1646808355.949393,0.000000
114.000000,33230.874924,32964.151557,20404.527534,28.967861,26502.552808,18887.313472,12005.032540,15278.892550,-0.048000,0.956000,0.222000,192.000000,0.000000,0.000000,0.000000,0.000000,0.000000,0.000000,0.000000,0.000000,0.000000,1646808355.949409,0.000000
115.000000,33235.904066,32968.465444,20410.540153,34.824018,26508.565427,18891.113268,12005.881906,15283.899341,-0.042000,0.952000,0.230000,192.000000,254.000000,176.000000,29.000000,192.000000,7.000000,48.000000,0.000000,0.000000,0.000000,1646808355.956014,0.000000
116.000000,33239.793270,32971.371170,20416.128089,38.087373,26512.946369,18898.019957,12019.292953,15292.102431,-0.042000,0.952000,0.230000,192.000000,0.000000,0.000000,0.000000,0.000000,0.000000,0.000000,0.000000,0.000000,0.000000,1646808355.956031,0.000000
117.000000,33237.312226,32975.439188,20414.719929,38.087373,26513.236941,18898.087013,12021.885755,15289.867257,-0.042000,0.952000,0.230000,192.000000,0.000000,0.000000,0.000000,0.000000,0.000000,0.000000,0.000000,0.000000,0.000000,1646808355.963842,0.000000
118.000000,33237.356929,32979.618964,20412.976493,39.428477,26514.421584,18893.571960,12023.763302,15279.496047,-0.042000,0.952000,0.230000,192.000000,0.000000,0.000000,0.000000,0.000000,0.000000,0.000000,0.000000,0.000000,0.000000,1646808355.963859,0.000000
119.000000,33245.068281,32982.167063,20413.021196,43.205922,26516.880276,18895.561265,12014.688494,15285.083984,-0.042000,0.952000,0.230000,192.000000,0.000000,0.000000,0.000000,0.000000,0.000000,0.000000,0.000000,0.000000,0.000000,1646808355.972019,0.000000
120.000000,33240.977912,32976.445016,20411.076595,43.742364,26516.679110,18896.701204,12013.369741,15290.068423,-0.042000,0.952000,0.230000,192.000000,0.000000,0.000000,0.000000,0.000000,0.000000,0.000000,0.000000,0.000000,0.000000,1646808355.972035,0.000000
121.000000,33239.636807,32972.555813,20414.898743,43.429439,26517.550828,18898.355233,12017.169537,15292.482411,-0.042000,0.952000,0.230000,192.000000,0.000000,0.000000,0.000000,0.000000,0.000000,0.000000,0.000000,0.000000,0.000000,1646808355.978250,0.000000
122.000000,33244.710653,32979.440150,20417.871525,48.525637,26521.149459,18902.557361,12018.041255,15294.359957,-0.042000,0.952000,0.230000,192.000000,0.000000,0.000000,0.000000,0.000000,0.000000,0.000000,0.000000,0.000000,0.000000,1646808355.985644,0.000000
123.000000,33242.162555,32983.441112,20416.999807,50.358480,26520.255389,18901.551533,12015.962543,15285.285149,-0.042000,0.952000,0.230000,192.000000,0.000000,0.000000,0.000000,0.000000,0.000000,0.000000,0.000000,0.000000,0.000000,1646808355.985675,0.000000
124.000000,33241.469650,32984.648107,20423.370054,53.264207,26521.954122,18901.216257,12015.604915,15284.011100,-0.042000,0.952000,0.230000,192.000000,0.000000,0.000000,0.000000,0.000000,0.000000,0.000000,0.000000,0.000000,0.000000,1646808355.993669,0.000000
125.000000,33236.619322,32980.535386,20417.513897,49.911445,26518.869581,18895.404803,12006.194831,15282.737050,-0.042000,0.960000,0.230000,192.000000,254.000000,176.000000,30.000000,0.000000,7.000000,48.000000,0.000000,0.000000,0.000000,1646808355.993686,0.000000
126.000000,33245.291799,32989.341973,20424.197069,56.639320,26527.251485,18902.557361,12017.862441,15292.057728,-0.042000,0.960000,0.230000,192.000000,0.000000,0.000000,0.000000,0.000000,0.000000,0.000000,0.000000,0.000000,0.000000,1646808356.001502,0.000000
127.000000,33235.479383,32979.529557,20414.362301,47.408050,26518.020215,18898.198771,12024.255040,15296.259856,-0.042000,0.960000,0.230000,192.000000,0.000000,0.000000,0.000000,0.000000,0.000000,0.000000,0.000000,0.000000,0.000000,1646808356.001515,0.000000
128.000000,33244.129508,32984.849272,20419.190278,53.711242,26525.172773,18900.880981,12025.082055,15293.108260,-0.042000,0.960000,0.230000,192.000000,0.000000,0.000000,0.000000,0.000000,0.000000,0.000000,0.000000,0.000000,0.000000,1646808356.008146,0.000000
129.000000,33252.243191,32988.783179,20422.475984,56.415803,26527.922038,18901.372719,12023.249212,15289.464925,-0.042000,0.960000,0.230000,192.000000,0.000000,0.000000,0.000000,0.000000,0.000000,0.000000,0.000000,0.000000,0.000000,1646808356.008156,0.000000
130.000000,33239.636807,32978.724894,20412.149478,46.290463,26514.600398,18891.828524,12008.474709,15277.238521,-0.042000,0.960000,0.230000,192.000000,0.000000,0.000000,0.000000,0.000000,0.000000,0.000000,0.000000,0.000000,0.000000,1646808356.016329,0.000000
131.000000,33242.319017,32988.649069,20417.536249,51.386661,26516.992035,18893.281387,12009.927572,15276.299748,-0.042000,0.960000,0.230000,192.000000,0.000000,0.000000,0.000000,0.000000,0.000000,0.000000,0.000000,0.000000,0.000000,1646808356.016345,0.000000
132.000000,33241.313188,32990.124284,20420.576086,55.566437,26521.641197,18900.277483,12017.840090,15285.218094,-0.042000,0.960000,0.230000,192.000000,0.000000,0.000000,0.000000,0.000000,0.000000,0.000000,0.000000,0.000000,0.000000,1646808356.024282,0.000000
133.000000,33242.721348,32988.783179,20419.592609,54.828829,26521.685901,18900.478649,12013.637962,15284.592245,-0.042000,0.960000,0.230000,192.000000,0.000000,0.000000,0.000000,0.000000,0.000000,0.000000,0.000000,0.000000,0.000000,1646808356.024294,0.000000
134.000000,33246.342331,32992.717086,20422.341874,59.545047,26527.072671,18908.592332,12021.841052,15290.247237,-0.042000,0.960000,0.230000,192.000000,0.000000,0.000000,0.000000,0.000000,0.000000,0.000000,0.000000,0.000000,0.000000,1646808356.031507,0.000000
135.000000,33234.898238,32984.312830,20412.909438,49.799687,26516.165020,18901.149202,12011.469842,15284.636949,-0.046000,0.952000,0.230000,192.000000,254.000000,144.000000,29.000000,192.000000,7.000000,48.000000,0.000000,0.000000,0.000000,1646808356.031524,0.000000
136.000000,33238.385110,32984.268127,20416.239848,51.699585,26517.930808,18905.194867,12016.074302,15292.303597,-0.046000,0.952000,0.230000,192.000000,0.000000,0.000000,0.000000,0.000000,0.000000,0.000000,0.000000,0.000000,0.000000,1646808356.037959,0.000000
137.000000,33249.069244,32990.526615,20421.894839,59.120364,26525.709215,18913.129737,12028.010133,15297.444498,-0.046000,0.952000,0.230000,192.000000,0.000000,0.000000,0.000000,0.000000,0.000000,0.000000,0.000000,0.000000,0.000000,1646808356.045825,0.000000
138.000000,33249.784499,32998.305023,20422.990075,61.109669,26525.910381,18908.949960,12018.957677,15286.447440,-0.046000,0.952000,0.230000,192.000000,0.000000,0.000000,0.000000,0.000000,0.000000,0.000000,0.000000,0.000000,0.000000,1646808356.045836,0.000000
139.000000,33246.632903,33000.339031,20420.307865,64.328321,26527.832631,18907.698263,12015.761377,15286.872123,-0.046000,0.952000,0.230000,192.000000,0.000000,0.000000,0.000000,0.000000,0.000000,0.000000,0.000000,0.000000,0.000000,1646808356.053648,0.000000
140.000000,33241.827278,32994.102895,20412.328292,58.986254,26524.636331,18903.116155,12012.341560,15289.174353,-0.046000,0.952000,0.230000,192.000000,0.000000,0.000000,0.000000,0.000000,0.000000,0.000000,0.000000,0.000000,0.000000,1646808356.053659,0.000000
141.000000,33248.018712,33001.277805,20419.816127,67.882248,26535.298113,18912.012149,12020.276430,15297.131574,-0.046000,0.952000,0.230000,192.000000,0.000000,0.000000,0.000000,0.000000,0.000000,0.000000,0.000000,0.000000,0.000000,1646808356.061132,0.000000
142.000000,33246.744662,32994.549929,20417.737415,63.456603,26532.593552,18910.089899,12019.985857,15297.712719,-0.046000,0.952000,0.230000,192.000000,0.000000,0.000000,0.000000,0.000000,0.000000,0.000000,0.000000,0.000000,0.000000,1646808356.061148,0.000000
143.000000,33236.395804,32983.105836,20407.679130,50.447887,26519.830706,18897.170591,12014.666142,15285.620425,-0.046000,0.952000,0.230000,192.000000,0.000000,0.000000,0.000000,0.000000,0.000000,0.000000,0.000000,0.000000,0.000000,1646808356.068563,0.000000
144.000000,33234.898238,32983.642278,20410.517801,53.554780,26522.267046,18899.718690,12016.990723,15286.693309,-0.046000,0.952000,0.230000,192.000000,0.000000,0.000000,0.000000,0.000000,0.000000,0.000000,0.000000,0.000000,0.000000,1646808356.068579,0.000000
145.000000,33241.849630,32993.611156,20413.781156,59.746213,26526.245657,18902.445603,12017.773034,15290.291940,-0.042000,0.956000,0.228000,192.000000,254.000000,176.000000,29.000000,224.000000,7.000000,32.000000,0.000000,0.000000,0.000000,1646808356.076442,0.000000
146.000000,33245.157688,32998.707354,20416.329255,63.456603,26529.531363,18904.412556,12015.850784,15293.622350,-0.042000,0.956000,0.228000,192.000000,0.000000,0.000000,0.000000,0.000000,0.000000,0.000000,0.000000,0.000000,0.000000,1646808356.076458,0.000000
147.000000,33238.630979,32993.454694,20413.647045,59.142716,26526.469174,18903.697300,12017.504813,15296.215152,-0.042000,0.956000,0.228000,192.000000,0.000000,0.000000,0.000000,0.000000,0.000000,0.000000,0.000000,0.000000,0.000000,1646808356.084589,0.000000
148.000000,33248.465746,32997.723877,20419.771423,64.015396,26531.632427,18906.513620,12018.264773,15293.599998,-0.042000,0.956000,0.228000,192.000000,0.000000,0.000000,0.000000,0.000000,0.000000,0.000000,0.000000,0.000000,0.000000,1646808356.084605,0.000000
149.000000,33246.230572,32994.549929,20413.982321,58.986254,26526.312712,18899.428117,12015.046121,15285.553370,-0.042000,0.956000,0.228000,192.000000,0.000000,0.000000,0.000000,0.000000,0.000000,0.000000,0.000000,0.000000,0.000000,1646808356.091266,0.000000
150.000000,33241.693168,32991.241871,20408.617903,56.974597,26523.652854,18893.728422,12009.905220,15284.458135,-0.042000,0.956000,0.228000,192.000000,0.000000,0.000000,0.000000,0.000000,0.000000,0.000000,0.000000,0.000000,0.000000,1646808356.091285,0.000000
151.000000,33247.415214,32997.187435,20411.411871,63.233085,26528.771404,18895.583617,12010.665180,15285.843943,-0.042000,0.956000,0.228000,192.000000,0.000000,0.000000,0.000000,0.000000,0.000000,0.000000,0.000000,0.000000,0.000000,1646808356.098182,0.000000
152.000000,33252.444357,33001.546025,20416.373958,67.234047,26533.666436,18899.606931,12014.375569,15278.400812,-0.042000,0.956000,0.228000,192.000000,0.000000,0.000000,0.000000,0.000000,0.000000,0.000000,0.000000,0.000000,0.000000,1646808356.098199,0.000000
153.000000,33239.413290,32996.159255,20409.556676,65.244742,26527.966741,18896.991777,12017.281296,15286.782716,-0.042000,0.956000,0.228000,192.000000,0.000000,0.000000,0.000000,0.000000,0.000000,0.000000,0.000000,0.000000,0.000000,1646808356.106230,0.000000
154.000000,33243.436604,32999.690831,20415.032853,70.273885,26531.699482,18896.522390,12010.464014,15273.706946,-0.042000,0.956000,0.228000,192.000000,0.000000,0.000000,0.000000,0.000000,0.000000,0.000000,0.000000,0.000000,0.000000,1646808356.114121,0.000000
155.000000,33244.487136,33001.546025,20415.546944,71.614989,26532.101814,18895.561265,11999.712825,15277.551446,-0.048000,0.956000,0.226000,192.000000,254.000000,128.000000,29.000000,224.000000,7.000000,16.000000,0.000000,0.000000,0.000000,1646808356.114137,0.000000
156.000000,33245.917648,33003.512979,20414.742281,70.340940,26530.157212,18897.751736,12009.905220,15290.113126,-0.048000,0.956000,0.226000,192.000000,0.000000,0.000000,0.000000,0.000000,0.000000,0.000000,0.000000,0.000000,0.000000,1646808356.120834,0.000000
157.000000,33258.121700,33015.895845,20428.175679,82.120309,26541.646009,18912.168612,12037.755494,15307.905115,-0.048000,0.956000,0.226000,192.000000,0.000000,0.000000,0.000000,0.000000,0.000000,0.000000,0.000000,0.000000,0.000000,1646808356.120846,0.000000
158.000000,33252.198488,33012.252511,20420.419624,76.085338,26535.164003,18904.367853,12025.193813,15296.259856,-0.048000,0.956000,0.226000,192.000000,0.000000,0.000000,0.000000,0.000000,0.000000,0.000000,0.000000,0.000000,0.000000,1646808356.128598,0.000000
159.000000,33246.767014,33002.305985,20412.484755,67.256399,26527.139727,18896.880018,12009.592296,15283.921693,-0.048000,0.956000,0.226000,192.000000,0.000000,0.000000,0.000000,0.000000,0.000000,0.000000,0.000000,0.000000,0.000000,1646808356.128610,0.000000
160.000000,33253.628999,33009.905578,20420.374920,75.034806,26534.046416,18903.138507,12011.805119,15285.173391,-0.048000,0.956000,0.226000,192.000000,0.000000,0.000000,0.000000,0.000000,0.000000,0.000000,0.000000,0.000000,0.000000,1646808356.136683,0.000000
161.000000,33247.303456,33005.904616,20415.882220,73.783108,26529.285494,18901.551533,12012.900354,15284.212266,-0.048000,0.956000,0.226000,192.000000,0.000000,0.000000,0.000000,0.000000,0.000000,0.000000,0.000000,0.000000,0.000000,1646808356.136701,0.000000
162.000000,33243.369549,33002.507150,20411.814202,66.116460,26523.183468,18896.678853,12011.782767,15274.019870,-0.048000,0.956000,0.226000,192.000000,0.000000,0.000000,0.000000,0.000000,0.000000,0.000000,0.000000,0.000000,0.000000,1646808356.143487,0.000000
163.000000,33233.378319,32993.253528,20397.039699,52.325434,26509.906532,18887.894617,12003.691435,15271.292957,-0.048000,0.956000,0.226000,192.000000,0.000000,0.000000,0.000000,0.000000,0.000000,0.000000,0.000000,0.000000,0.000000,1646808356.143505,0.000000
164.000000,33233.043043,32988.872586,20395.296263,54.962940,26509.817125,18887.626396,12001.635075,15271.583530,-0.048000,0.956000,0.226000,192.000000,0.000000,0.000000,0.000000,0.000000,0.000000,0.000000,0.000000,0.000000,0.000000,1646808356.151319,0.000000
