%OpenBCI Raw EEG Data
%Number of channels = 8
%Sample Rate = 256 Hz
%Board = OpenBCI_GUI$BoardCytonSerial
%Channels = Fp1, Fp2, F3, F4, Fz, Pz, O1, O2
%Data recorded at AIMS Lab (http://aimsl.uiu.ac.bd) by Rana Depto (mail@ranadepto.com)
%Brainwaves were obtained via the Ultracortex Mark IV Headset using the OpenBCI Cyton Board
%Recording Application = ConcentrateToday (https://concentrate.today)
%Data type = RAW data with noise
%Day No = 4
%Subject ID = 6
%Session ID = 7
%Record starting timestamp (UTC+6) = 2022-03-16T16:21:22.049245
%Record ending timestamp (UTC+6)   = 2022-03-16T16:21:42.910210
%Recorded durations = ~20 seconds
Sample Index, EXG Channel 0, EXG Channel 1, EXG Channel 2, EXG Channel 3, EXG Channel 4, EXG Channel 5, EXG Channel 6, EXG Channel 7, Accel Channel 0, Accel Channel 1, Accel Channel 2, Other, Other, Other, Other, Other, Other, Other, Analog Channel 0, Analog Channel 1, Analog Channel 2, Timestamp, Timestamp (Formatted)
219.000000,22883.514808,1190.006875,-3350.235921,5514.331819,-47167.545219,-3611.259593,9348.125380,9246.559053,0.042000,0.950000,0.224000,192.000000,0.000000,0.000000,0.000000,0.000000,0.000000,0.000000,0.000000,0.000000,0.000000,1647426082.049128,0.000000
220.000000,22885.638223,1189.425729,-3349.677128,5516.231718,-47163.365443,-3608.890308,9348.058325,9256.259710,0.042000,0.950000,0.224000,192.000000,0.000000,0.000000,0.000000,0.000000,0.000000,0.000000,0.000000,0.000000,0.000000,1647426082.049147,0.000000
221.000000,22885.817037,1189.470433,-3352.024061,5511.582555,-47162.270208,-3611.550166,9345.912557,9252.057582,0.042000,0.950000,0.224000,192.000000,0.000000,0.000000,0.000000,0.000000,0.000000,0.000000,0.000000,0.000000,0.000000,1647426082.056646,0.000000
222.000000,22887.694584,1191.124462,-3353.186351,5510.554375,-47167.344054,-3607.817424,9366.297348,9257.734925,0.042000,0.950000,0.224000,192.000000,0.000000,0.000000,0.000000,0.000000,0.000000,0.000000,0.000000,0.000000,0.000000,1647426082.056653,0.000000
223.000000,22890.108572,1194.007837,-3351.152343,5513.862433,-47169.355711,-3605.895174,9370.208904,9257.153780,0.034000,0.968000,0.224000,192.000000,1.000000,16.000000,30.000000,64.000000,7.000000,0.000000,0.000000,0.000000,0.000000,1647426082.063754,0.000000
224.000000,22888.990985,1203.775549,-3347.888988,5517.371657,-47164.460679,-3603.190613,9386.168049,9265.893312,0.034000,0.968000,0.224000,192.000000,0.000000,0.000000,0.000000,0.000000,0.000000,0.000000,0.000000,0.000000,0.000000,1647426082.063759,0.000000
225.000000,22893.550741,1213.185634,-3342.546921,5522.199633,-47161.465545,-3599.681389,9387.196229,9276.868019,0.034000,0.968000,0.224000,192.000000,0.000000,0.000000,0.000000,0.000000,0.000000,0.000000,0.000000,0.000000,0.000000,1647426082.071305,0.000000
226.000000,22880.229101,1191.325628,-3348.827761,5508.877994,-47165.779432,-3603.369427,9376.869723,9271.928283,0.034000,0.968000,0.224000,192.000000,0.000000,0.000000,0.000000,0.000000,0.000000,0.000000,0.000000,0.000000,0.000000,1647426082.071309,0.000000
227.000000,22870.036706,1178.428671,-3352.806372,5501.568973,-47175.614199,-3609.069122,9360.530598,9247.788399,0.034000,0.968000,0.224000,192.000000,0.000000,0.000000,0.000000,0.000000,0.000000,0.000000,0.000000,0.000000,0.000000,1647426082.079251,0.000000
228.000000,22872.003659,1182.496689,-3355.019194,5501.032531,-47178.654036,-3619.373276,9327.517072,9214.081969,0.034000,0.968000,0.224000,192.000000,0.000000,0.000000,0.000000,0.000000,0.000000,0.000000,0.000000,0.000000,0.000000,1647426082.079255,0.000000
229.000000,22876.764581,1186.698817,-3351.957005,5507.559241,-47167.500516,-3609.560860,9346.784275,9242.625146,0.034000,0.968000,0.224000,192.000000,0.000000,0.000000,0.000000,0.000000,0.000000,0.000000,0.000000,0.000000,0.000000,1647426082.086327,0.000000
230.000000,22885.124133,1192.085587,-3347.106677,5512.633087,-47157.039899,-3596.306276,9372.131154,9283.908818,0.034000,0.968000,0.224000,192.000000,0.000000,0.000000,0.000000,0.000000,0.000000,0.000000,0.000000,0.000000,0.000000,1647426082.086331,0.000000
231.000000,22889.281558,1194.253706,-3344.715040,5511.291982,-47157.017548,-3589.109014,9394.438195,9288.379167,0.034000,0.968000,0.224000,192.000000,0.000000,0.000000,0.000000,0.000000,0.000000,0.000000,0.000000,0.000000,0.000000,1647426082.092977,0.000000
232.000000,22891.896712,1198.321724,-3340.311747,5515.136482,-47160.370309,-3584.526907,9405.144680,9287.127469,0.034000,0.968000,0.224000,192.000000,0.000000,0.000000,0.000000,0.000000,0.000000,0.000000,0.000000,0.000000,0.000000,1647426082.092982,0.000000
233.000000,22890.019165,1195.036017,-3344.871503,5509.325029,-47163.812478,-3592.238258,9389.923142,9273.917588,0.034000,0.968000,0.224000,192.000000,0.000000,0.000000,0.000000,0.000000,0.000000,0.000000,0.000000,0.000000,0.000000,1647426082.100929,0.000000
234.000000,22896.344709,1200.445139,-3342.055183,5514.577689,-47158.828039,-3594.719302,9380.893037,9267.055603,0.036000,0.966000,0.224000,192.000000,1.000000,32.000000,30.000000,48.000000,7.000000,0.000000,0.000000,0.000000,0.000000,1647426082.108878,0.000000
235.000000,22898.535180,1200.333381,-3342.569273,5518.623354,-47154.849429,-3596.976828,9360.865874,9252.415210,0.036000,0.966000,0.224000,192.000000,0.000000,0.000000,0.000000,0.000000,0.000000,0.000000,0.000000,0.000000,0.000000,1647426082.108884,0.000000
236.000000,22900.479782,1197.360599,-3345.922034,5515.449407,-47158.738632,-3609.046770,9339.251738,9240.680544,0.036000,0.966000,0.224000,192.000000,0.000000,0.000000,0.000000,0.000000,0.000000,0.000000,0.000000,0.000000,0.000000,1647426082.116090,0.000000
237.000000,22893.036651,1187.637590,-3353.052241,5495.779871,-47172.552010,-3618.792131,9343.386810,9233.170358,0.036000,0.966000,0.224000,192.000000,0.000000,0.000000,0.000000,0.000000,0.000000,0.000000,0.000000,0.000000,0.000000,1647426082.116094,0.000000
238.000000,22894.578921,1194.521927,-3345.407944,5513.907136,-47164.103051,-3607.482148,9357.803685,9249.464780,0.036000,0.966000,0.224000,192.000000,0.000000,0.000000,0.000000,0.000000,0.000000,0.000000,0.000000,0.000000,0.000000,1647426082.123669,0.000000
239.000000,22897.886979,1199.148738,-3336.981337,5521.394971,-47154.916484,-3592.417072,9383.575247,9272.017690,0.036000,0.966000,0.224000,192.000000,0.000000,0.000000,0.000000,0.000000,0.000000,0.000000,0.000000,0.000000,0.000000,1647426082.123673,0.000000
240.000000,22899.831581,1197.181785,-3339.484732,5514.063598,-47157.956321,-3595.389854,9388.939665,9264.976891,0.036000,0.966000,0.224000,192.000000,0.000000,0.000000,0.000000,0.000000,0.000000,0.000000,0.000000,0.000000,0.000000,1647426082.131587,0.000000
241.000000,22901.105631,1199.863994,-3338.836532,5516.254069,-47159.453888,-3591.567706,9384.156392,9272.218856,0.036000,0.966000,0.224000,192.000000,0.000000,0.000000,0.000000,0.000000,0.000000,0.000000,0.000000,0.000000,0.000000,1647426082.131591,0.000000
242.000000,22892.187284,1196.064198,-3342.301052,5514.018895,-47156.726975,-3591.612410,9378.747270,9275.102231,0.036000,0.966000,0.224000,192.000000,0.000000,0.000000,0.000000,0.000000,0.000000,0.000000,0.000000,0.000000,0.000000,1647426082.139661,0.000000
243.000000,22894.780087,1199.908698,-3339.820008,5516.321125,-47153.217751,-3588.773738,9374.880418,9278.075013,0.036000,0.966000,0.224000,192.000000,0.000000,0.000000,0.000000,0.000000,0.000000,0.000000,0.000000,0.000000,0.000000,1647426082.139665,0.000000
244.000000,22897.976386,1205.675448,-3337.964813,5519.673886,-47149.909693,-3587.879668,9381.541238,9291.486060,0.034000,0.974000,0.218000,192.000000,1.000000,16.000000,30.000000,112.000000,6.000000,208.000000,0.000000,0.000000,0.000000,1647426082.146240,0.000000
245.000000,22897.059965,1200.936878,-3342.144590,5515.471758,-47152.033109,-3592.081796,9387.956189,9285.942827,0.034000,0.974000,0.218000,192.000000,0.000000,0.000000,0.000000,0.000000,0.000000,0.000000,0.000000,0.000000,0.000000,1647426082.146244,0.000000
246.000000,22899.675119,1196.131253,-3346.369069,5508.945049,-47162.873705,-3598.474395,9374.455735,9263.859303,0.034000,0.974000,0.218000,192.000000,0.000000,0.000000,0.000000,0.000000,0.000000,0.000000,0.000000,0.000000,0.000000,1647426082.154172,0.000000
247.000000,22895.607101,1195.706570,-3344.402116,5506.508709,-47163.544257,-3599.279058,9361.469371,9258.561940,0.034000,0.974000,0.218000,192.000000,0.000000,0.000000,0.000000,0.000000,0.000000,0.000000,0.000000,0.000000,0.000000,1647426082.154176,0.000000
248.000000,22896.300005,1197.137081,-3343.977433,5510.576726,-47157.598693,-3593.557011,9373.561665,9281.763051,0.034000,0.974000,0.218000,192.000000,0.000000,0.000000,0.000000,0.000000,0.000000,0.000000,0.000000,0.000000,0.000000,1647426082.161167,0.000000
249.000000,22896.098840,1198.120558,-3343.083363,5511.627258,-47154.335338,-3594.205212,9375.752136,9279.729042,0.034000,0.974000,0.218000,192.000000,0.000000,0.000000,0.000000,0.000000,0.000000,0.000000,0.000000,0.000000,0.000000,1647426082.169297,0.000000
250.000000,22897.842276,1201.249802,-3338.881235,5516.008200,-47154.760022,-3593.467604,9371.281787,9276.443336,0.034000,0.974000,0.218000,192.000000,0.000000,0.000000,0.000000,0.000000,0.000000,0.000000,0.000000,0.000000,0.000000,1647426082.169301,0.000000
251.000000,22899.876285,1201.428616,-3337.137799,5514.778854,-47153.955359,-3592.528831,9373.919293,9272.352966,0.034000,0.974000,0.218000,192.000000,0.000000,0.000000,0.000000,0.000000,0.000000,0.000000,0.000000,0.000000,0.000000,1647426082.175895,0.000000
252.000000,22901.954997,1205.228413,-3333.181540,5517.885747,-47150.155562,-3589.824270,9372.622892,9270.028385,0.034000,0.974000,0.218000,192.000000,0.000000,0.000000,0.000000,0.000000,0.000000,0.000000,0.000000,0.000000,0.000000,1647426082.175898,0.000000
253.000000,22891.181456,1191.750311,-3340.155284,5508.229793,-47156.637568,-3594.920468,9371.795877,9266.653272,0.034000,0.974000,0.218000,192.000000,0.000000,0.000000,0.000000,0.000000,0.000000,0.000000,0.000000,0.000000,0.000000,1647426082.183766,0.000000
254.000000,22895.607101,1192.733788,-3338.970642,5510.844947,-47155.899961,-3593.288790,9367.079659,9267.212065,0.046000,0.966000,0.224000,192.000000,1.000000,112.000000,30.000000,48.000000,7.000000,0.000000,0.000000,0.000000,0.000000,1647426082.183770,0.000000
255.000000,22900.658596,1193.002009,-3337.450723,5512.498976,-47153.530676,-3593.065273,9353.109819,9264.038117,0.046000,0.966000,0.224000,192.000000,0.000000,0.000000,0.000000,0.000000,0.000000,0.000000,0.000000,0.000000,0.000000,1647426082.191792,0.000000
0.000000,22899.496305,1191.459738,-3338.724773,5509.168566,-47156.235237,-3593.422901,9357.244892,9264.105173,0.046000,0.966000,0.224000,192.000000,0.000000,0.000000,0.000000,0.000000,0.000000,0.000000,0.000000,0.000000,0.000000,1647426082.191795,0.000000
1.000000,22900.479782,1193.091416,-3332.198063,5513.929488,-47156.570513,-3586.985598,9372.734651,9273.090574,0.046000,0.966000,0.224000,192.000000,0.000000,0.000000,0.000000,0.000000,0.000000,0.000000,0.000000,0.000000,0.000000,1647426082.198486,0.000000
2.000000,22901.932645,1194.991314,-3331.572215,5519.629183,-47152.502495,-3590.852450,9353.825075,9265.446277,0.046000,0.966000,0.224000,192.000000,0.000000,0.000000,0.000000,0.000000,0.000000,0.000000,0.000000,0.000000,0.000000,1647426082.198490,0.000000
3.000000,22900.725651,1192.733788,-3330.700497,5521.909061,-47147.003966,-3589.623104,9352.841598,9263.814600,0.046000,0.966000,0.224000,192.000000,0.000000,0.000000,0.000000,0.000000,0.000000,0.000000,0.000000,0.000000,0.000000,1647426082.206652,0.000000
4.000000,22897.194075,1184.374235,-3335.394363,5516.745808,-47145.439344,-3588.214944,9373.785183,9275.549266,0.046000,0.966000,0.224000,192.000000,0.000000,0.000000,0.000000,0.000000,0.000000,0.000000,0.000000,0.000000,0.000000,1647426082.206655,0.000000
5.000000,22895.540046,1181.870840,-3334.746162,5515.382351,-47152.927178,-3584.862183,9387.151526,9287.216876,0.046000,0.966000,0.224000,192.000000,0.000000,0.000000,0.000000,0.000000,0.000000,0.000000,0.000000,0.000000,0.000000,1647426082.214465,0.000000
6.000000,22897.305834,1189.179860,-3330.633441,5524.077180,-47151.921350,-3586.404453,9366.274997,9273.269388,0.046000,0.966000,0.224000,192.000000,0.000000,0.000000,0.000000,0.000000,0.000000,0.000000,0.000000,0.000000,0.000000,1647426082.214469,0.000000
7.000000,22904.771317,1202.814424,-3324.039677,5537.287061,-47146.042841,-3580.034206,9352.483970,9273.559961,0.046000,0.966000,0.224000,192.000000,0.000000,0.000000,0.000000,0.000000,0.000000,0.000000,0.000000,0.000000,0.000000,1647426082.221684,0.000000
8.000000,22905.620683,1199.081683,-3325.179616,5537.264709,-47139.806704,-3576.636741,9369.270130,9275.146934,0.042000,0.946000,0.232000,192.000000,1.000000,80.000000,29.000000,144.000000,7.000000,64.000000,0.000000,0.000000,0.000000,1647426082.228117,0.000000
9.000000,22892.433154,1185.894154,-3338.031869,5526.491168,-47150.848466,-3589.041959,9371.438250,9249.464780,0.042000,0.946000,0.232000,192.000000,0.000000,0.000000,0.000000,0.000000,0.000000,0.000000,0.000000,0.000000,0.000000,1647426082.228121,0.000000
10.000000,22884.207712,1178.115747,-3344.156247,5520.277383,-47161.979635,-3593.244087,9370.722994,9252.258748,0.042000,0.946000,0.232000,192.000000,0.000000,0.000000,0.000000,0.000000,0.000000,0.000000,0.000000,0.000000,0.000000,1647426082.236035,0.000000
11.000000,22886.599348,1182.697854,-3338.478904,5522.534910,-47164.505382,-3584.839831,9380.110726,9278.969083,0.042000,0.946000,0.232000,192.000000,0.000000,0.000000,0.000000,0.000000,0.000000,0.000000,0.000000,0.000000,0.000000,1647426082.236039,0.000000
12.000000,22892.947244,1188.397549,-3330.387572,5524.703029,-47161.644359,-3574.289808,9387.531506,9293.497717,0.042000,0.946000,0.232000,192.000000,0.000000,0.000000,0.000000,0.000000,0.000000,0.000000,0.000000,0.000000,0.000000,1647426082.244241,0.000000
13.000000,22894.735383,1186.184726,-3332.801560,5519.606831,-47159.140963,-3578.111956,9374.925122,9276.152763,0.042000,0.946000,0.232000,192.000000,0.000000,0.000000,0.000000,0.000000,0.000000,0.000000,0.000000,0.000000,0.000000,1647426082.244245,0.000000
14.000000,22893.059003,1177.624008,-3340.535264,5514.644744,-47159.319777,-3581.352959,9379.887209,9275.012824,0.042000,0.946000,0.232000,192.000000,0.000000,0.000000,0.000000,0.000000,0.000000,0.000000,0.000000,0.000000,0.000000,1647426082.251372,0.000000
15.000000,22888.990985,1171.209058,-3345.653814,5507.760406,-47167.411109,-3584.258686,9379.261360,9281.628940,0.042000,0.946000,0.232000,192.000000,0.000000,0.000000,0.000000,0.000000,0.000000,0.000000,0.000000,0.000000,0.000000,1647426082.251377,0.000000
16.000000,22886.845218,1174.718282,-3339.104752,5517.595174,-47166.539391,-3580.816517,9376.914427,9278.969083,0.042000,0.946000,0.232000,192.000000,0.000000,0.000000,0.000000,0.000000,0.000000,0.000000,0.000000,0.000000,0.000000,1647426082.258715,0.000000
17.000000,22885.638223,1174.114784,-3338.098924,5518.176319,-47168.796917,-3577.866087,9372.511133,9277.024481,0.042000,0.946000,0.232000,192.000000,0.000000,0.000000,0.000000,0.000000,0.000000,0.000000,0.000000,0.000000,0.000000,1647426082.258719,0.000000
18.000000,22891.941415,1179.121575,-3337.696593,5520.411494,-47163.365443,-3575.742671,9365.000947,9276.510391,0.026000,0.958000,0.236000,192.000000,0.000000,208.000000,29.000000,240.000000,7.000000,96.000000,0.000000,0.000000,0.000000,1647426082.266717,0.000000
19.000000,22888.789819,1178.741596,-3340.579968,5518.444540,-47160.727937,-3580.011854,9362.944587,9267.793210,0.026000,0.958000,0.236000,192.000000,0.000000,0.000000,0.000000,0.000000,0.000000,0.000000,0.000000,0.000000,0.000000,1647426082.266721,0.000000
20.000000,22882.397220,1176.551125,-3343.239825,5514.242412,-47167.366405,-3582.761119,9365.112706,9256.572635,0.026000,0.958000,0.236000,192.000000,0.000000,0.000000,0.000000,0.000000,0.000000,0.000000,0.000000,0.000000,0.000000,1647426082.274776,0.000000
21.000000,22874.819979,1168.459793,-3350.660604,5506.799281,-47174.518964,-3583.208154,9377.741441,9269.246074,0.026000,0.958000,0.236000,192.000000,0.000000,0.000000,0.000000,0.000000,0.000000,0.000000,0.000000,0.000000,0.000000,1647426082.274780,0.000000
22.000000,22876.362249,1166.336377,-3349.855942,5499.467909,-47175.413033,-3584.012816,9368.823095,9270.251902,0.026000,0.958000,0.236000,192.000000,0.000000,0.000000,0.000000,0.000000,0.000000,0.000000,0.000000,0.000000,0.000000,1647426082.280943,0.000000
23.000000,22882.777200,1171.365520,-3346.816104,5501.725435,-47171.389719,-3584.146927,9358.407183,9261.534722,0.026000,0.958000,0.236000,192.000000,0.000000,0.000000,0.000000,0.000000,0.000000,0.000000,0.000000,0.000000,0.000000,1647426082.288453,0.000000
24.000000,22879.647956,1171.521982,-3351.375860,5501.099587,-47172.708472,-3594.518136,9342.693906,9245.709687,0.026000,0.958000,0.236000,192.000000,0.000000,0.000000,0.000000,0.000000,0.000000,0.000000,0.000000,0.000000,0.000000,1647426082.288457,0.000000
25.000000,22878.977404,1175.902924,-3347.911340,5502.552450,-47174.608371,-3596.663904,9325.214842,9249.956518,0.026000,0.958000,0.236000,192.000000,0.000000,0.000000,0.000000,0.000000,0.000000,0.000000,0.000000,0.000000,0.000000,1647426082.296384,0.000000
26.000000,22885.459409,1180.529735,-3341.518741,5508.050979,-47169.802746,-3587.007950,9362.117572,9285.831068,0.026000,0.958000,0.236000,192.000000,0.000000,0.000000,0.000000,0.000000,0.000000,0.000000,0.000000,0.000000,0.000000,1647426082.296388,0.000000
27.000000,22886.487590,1176.841697,-3342.949252,5504.362941,-47167.679330,-3590.561878,9376.869723,9281.427775,0.026000,0.958000,0.236000,192.000000,0.000000,0.000000,0.000000,0.000000,0.000000,0.000000,0.000000,0.000000,0.000000,1647426082.304419,0.000000
28.000000,22891.606139,1182.161412,-3339.149456,5507.447482,-47163.052519,-3594.384026,9373.874590,9265.558036,0.034000,0.952000,0.236000,192.000000,1.000000,16.000000,29.000000,192.000000,7.000000,96.000000,0.000000,0.000000,0.000000,1647426082.304423,0.000000
29.000000,22890.756773,1183.256648,-3338.456552,5511.649610,-47158.313949,-3592.573535,9375.640377,9274.029347,0.034000,0.952000,0.236000,192.000000,0.000000,0.000000,0.000000,0.000000,0.000000,0.000000,0.000000,0.000000,0.000000,1647426082.310997,0.000000
30.000000,22891.852008,1185.044788,-3336.400191,5511.783720,-47158.179838,-3590.628933,9382.614122,9274.766955,0.034000,0.952000,0.236000,192.000000,0.000000,0.000000,0.000000,0.000000,0.000000,0.000000,0.000000,0.000000,0.000000,1647426082.311001,0.000000
31.000000,22889.214502,1185.938857,-3340.155284,5509.213270,-47165.108879,-3597.602677,9368.688985,9265.870960,0.034000,0.952000,0.236000,192.000000,0.000000,0.000000,0.000000,0.000000,0.000000,0.000000,0.000000,0.000000,0.000000,1647426082.319016,0.000000
32.000000,22894.534218,1198.455834,-3334.120313,5518.802168,-47161.554952,-3589.019607,9373.896941,9285.048757,0.034000,0.952000,0.236000,192.000000,0.000000,0.000000,0.000000,0.000000,0.000000,0.000000,0.000000,0.000000,0.000000,1647426082.319019,0.000000
33.000000,22890.600311,1183.323703,-3340.334098,5506.419302,-47160.794993,-3596.462738,9373.651072,9277.739737,0.034000,0.952000,0.236000,192.000000,0.000000,0.000000,0.000000,0.000000,0.000000,0.000000,0.000000,0.000000,0.000000,1647426082.327098,0.000000
34.000000,22878.955052,1165.710529,-3347.441953,5491.667150,-47167.880496,-3597.714436,9364.308043,9264.351042,0.034000,0.952000,0.236000,192.000000,0.000000,0.000000,0.000000,0.000000,0.000000,0.000000,0.000000,0.000000,0.000000,1647426082.327101,0.000000
35.000000,22879.245624,1172.505459,-3339.440029,5503.647685,-47163.320740,-3591.165375,9363.235159,9261.668833,0.034000,0.952000,0.236000,192.000000,0.000000,0.000000,0.000000,0.000000,0.000000,0.000000,0.000000,0.000000,0.000000,1647426082.333567,0.000000
36.000000,22880.676136,1173.421880,-3340.222340,5499.914944,-47163.879533,-3599.502575,9350.941700,9237.663059,0.034000,0.952000,0.236000,192.000000,0.000000,0.000000,0.000000,0.000000,0.000000,0.000000,0.000000,0.000000,0.000000,1647426082.333571,0.000000
37.000000,22881.905482,1175.947628,-3338.054220,5501.568973,-47162.829001,-3597.267401,9353.534502,9247.117847,0.034000,0.952000,0.236000,192.000000,0.000000,0.000000,0.000000,0.000000,0.000000,0.000000,0.000000,0.000000,0.000000,1647426082.340572,0.000000
38.000000,22891.829657,1182.720206,-3336.087267,5503.200651,-47158.470411,-3592.260610,9363.168104,9279.639635,0.038000,0.958000,0.236000,192.000000,1.000000,48.000000,29.000000,240.000000,7.000000,96.000000,0.000000,0.000000,0.000000,1647426082.340576,0.000000
39.000000,22886.956976,1177.579305,-3339.954119,5493.723511,-47161.309083,-3597.423863,9358.116610,9273.604664,0.038000,0.958000,0.236000,192.000000,0.000000,0.000000,0.000000,0.000000,0.000000,0.000000,0.000000,0.000000,0.000000,1647426082.348708,0.000000
40.000000,22876.585767,1181.423805,-3339.752953,5495.846927,-47162.650187,-3595.322799,9363.793953,9274.319920,0.038000,0.958000,0.236000,192.000000,0.000000,0.000000,0.000000,0.000000,0.000000,0.000000,0.000000,0.000000,0.000000,1647426082.356608,0.000000
41.000000,22875.579938,1188.285790,-3337.942462,5502.664209,-47161.890228,-3595.479261,9359.033031,9265.088649,0.038000,0.958000,0.236000,192.000000,0.000000,0.000000,0.000000,0.000000,0.000000,0.000000,0.000000,0.000000,0.000000,1647426082.356626,0.000000
42.000000,22869.701430,1181.647322,-3346.480828,5496.003389,-47168.014606,-3607.705666,9335.116665,9241.619318,0.038000,0.958000,0.236000,192.000000,0.000000,0.000000,0.000000,0.000000,0.000000,0.000000,0.000000,0.000000,0.000000,1647426082.363244,0.000000
43.000000,22878.485665,1187.905811,-3341.183465,5501.881898,-47163.097222,-3598.563802,9344.325583,9256.013841,0.038000,0.958000,0.236000,192.000000,0.000000,0.000000,0.000000,0.000000,0.000000,0.000000,0.000000,0.000000,0.000000,1647426082.363248,0.000000
44.000000,22881.704316,1184.485994,-3342.591625,5497.210383,-47161.800821,-3597.066235,9357.401354,9260.461838,0.038000,0.958000,0.236000,192.000000,0.000000,0.000000,0.000000,0.000000,0.000000,0.000000,0.000000,0.000000,0.000000,1647426082.371358,0.000000
45.000000,22895.093011,1194.119596,-3332.086305,5505.324066,-47157.688100,-3587.030302,9370.946511,9278.343234,0.038000,0.958000,0.236000,192.000000,0.000000,0.000000,0.000000,0.000000,0.000000,0.000000,0.000000,0.000000,0.000000,1647426082.371362,0.000000
46.000000,22898.758697,1195.371293,-3331.773380,5511.336686,-47156.682272,-3585.756252,9377.182648,9275.079879,0.038000,0.958000,0.236000,192.000000,0.000000,0.000000,0.000000,0.000000,0.000000,0.000000,0.000000,0.000000,0.000000,1647426082.379288,0.000000
47.000000,22896.702337,1192.443215,-3333.136837,5510.107340,-47159.543295,-3589.511346,9367.705508,9248.526007,0.038000,0.958000,0.236000,192.000000,0.000000,0.000000,0.000000,0.000000,0.000000,0.000000,0.000000,0.000000,0.000000,1647426082.379291,0.000000
48.000000,22893.975424,1185.447119,-3336.981337,5506.262840,-47158.425708,-3594.182860,9358.071906,9236.366658,0.030000,0.956000,0.236000,192.000000,0.000000,240.000000,29.000000,224.000000,7.000000,96.000000,0.000000,0.000000,0.000000,1647426082.386294,0.000000
49.000000,22896.501171,1187.749349,-3335.260252,5508.207441,-47153.173048,-3590.338360,9353.489799,9258.494885,0.030000,0.956000,0.236000,192.000000,0.000000,0.000000,0.000000,0.000000,0.000000,0.000000,0.000000,0.000000,0.000000,1647426082.386298,0.000000
50.000000,22896.300005,1190.185689,-3334.187369,5510.062636,-47158.403356,-3584.169279,9359.837694,9279.930208,0.030000,0.956000,0.236000,192.000000,0.000000,0.000000,0.000000,0.000000,0.000000,0.000000,0.000000,0.000000,0.000000,1647426082.393865,0.000000
51.000000,22896.612930,1188.978695,-3334.120313,5512.700142,-47158.626873,-3575.988540,9386.324511,9293.430661,0.030000,0.956000,0.236000,192.000000,0.000000,0.000000,0.000000,0.000000,0.000000,0.000000,0.000000,0.000000,0.000000,1647426082.393869,0.000000
52.000000,22891.807305,1181.803785,-3339.954119,5505.972267,-47162.896057,-3582.247029,9384.670482,9278.790269,0.030000,0.956000,0.236000,192.000000,0.000000,0.000000,0.000000,0.000000,0.000000,0.000000,0.000000,0.000000,0.000000,1647426082.401999,0.000000
53.000000,22888.901578,1178.652189,-3342.636328,5496.986866,-47166.561743,-3586.560915,9381.138907,9273.135277,0.030000,0.956000,0.236000,192.000000,0.000000,0.000000,0.000000,0.000000,0.000000,0.000000,0.000000,0.000000,0.000000,1647426082.402003,0.000000
54.000000,22889.885055,1178.898058,-3341.205816,5499.490261,-47165.198286,-3590.740692,9377.741441,9271.637711,0.030000,0.956000,0.236000,192.000000,0.000000,0.000000,0.000000,0.000000,0.000000,0.000000,0.000000,0.000000,0.000000,1647426082.408936,0.000000
55.000000,22891.919064,1177.691064,-3336.288433,5507.000447,-47155.832905,-3581.017683,9368.353709,9264.373394,0.030000,0.956000,0.236000,192.000000,0.000000,0.000000,0.000000,0.000000,0.000000,0.000000,0.000000,0.000000,0.000000,1647426082.415968,0.000000
56.000000,22888.096915,1177.914581,-3340.490561,5503.982962,-47157.732804,-3586.158584,9344.660860,9249.040097,0.030000,0.956000,0.236000,192.000000,0.000000,0.000000,0.000000,0.000000,0.000000,0.000000,0.000000,0.000000,0.000000,1647426082.415972,0.000000
57.000000,22888.655709,1177.467546,-3341.965776,5502.843023,-47158.045728,-3589.466642,9353.623909,9244.770914,0.030000,0.956000,0.236000,192.000000,0.000000,0.000000,0.000000,0.000000,0.000000,0.000000,0.000000,0.000000,0.000000,1647426082.423620,0.000000
58.000000,22892.634319,1184.508346,-3336.534302,5505.435825,-47157.688100,-3585.264514,9359.792991,9247.766047,0.032000,0.956000,0.230000,192.000000,1.000000,0.000000,29.000000,224.000000,7.000000,48.000000,0.000000,0.000000,0.000000,1647426082.423624,0.000000
59.000000,22897.328186,1191.973828,-3331.303994,5509.548546,-47151.966053,-3579.564819,9359.770639,9255.902082,0.032000,0.956000,0.230000,192.000000,0.000000,0.000000,0.000000,0.000000,0.000000,0.000000,0.000000,0.000000,0.000000,1647426082.431569,0.000000
60.000000,22894.288348,1191.772663,-3332.756857,5506.575764,-47153.709490,-3582.783470,9362.564607,9254.471571,0.032000,0.956000,0.230000,192.000000,0.000000,0.000000,0.000000,0.000000,0.000000,0.000000,0.000000,0.000000,0.000000,1647426082.431573,0.000000
61.000000,22897.529351,1194.946610,-3326.610127,5512.476625,-47152.323681,-3579.654226,9365.135058,9253.823370,0.032000,0.956000,0.230000,192.000000,0.000000,0.000000,0.000000,0.000000,0.000000,0.000000,0.000000,0.000000,0.000000,1647426082.438568,0.000000
62.000000,22898.602235,1193.940782,-3322.452703,5514.465930,-47148.054498,-3575.697967,9371.639415,9251.655251,0.032000,0.956000,0.230000,192.000000,0.000000,0.000000,0.000000,0.000000,0.000000,0.000000,0.000000,0.000000,0.000000,1647426082.438572,0.000000
63.000000,22901.910293,1195.237183,-3320.597508,5514.488282,-47141.483085,-3570.333549,9389.520811,9270.251902,0.032000,0.956000,0.230000,192.000000,0.000000,0.000000,0.000000,0.000000,0.000000,0.000000,0.000000,0.000000,0.000000,1647426082.446118,0.000000
64.000000,22901.038575,1190.096282,-3327.191273,5509.839119,-47144.679385,-3579.989502,9375.573322,9262.093516,0.032000,0.956000,0.230000,192.000000,0.000000,0.000000,0.000000,0.000000,0.000000,0.000000,0.000000,0.000000,0.000000,1647426082.446122,0.000000
65.000000,22902.737308,1195.281886,-3324.933746,5511.806072,-47148.188609,-3578.134308,9374.187514,9262.249978,0.032000,0.956000,0.230000,192.000000,0.000000,0.000000,0.000000,0.000000,0.000000,0.000000,0.000000,0.000000,0.000000,1647426082.454290,0.000000
66.000000,22895.875322,1198.589945,-3325.425485,5514.689447,-47152.301330,-3578.380177,9367.191418,9259.768934,0.032000,0.956000,0.230000,192.000000,0.000000,0.000000,0.000000,0.000000,0.000000,0.000000,0.000000,0.000000,0.000000,1647426082.454295,0.000000
67.000000,22894.489514,1201.808596,-3322.944441,5518.221023,-47150.356728,-3576.480279,9359.748287,9262.585254,0.032000,0.956000,0.230000,192.000000,0.000000,0.000000,0.000000,0.000000,0.000000,0.000000,0.000000,0.000000,0.000000,1647426082.462282,0.000000
68.000000,22893.237816,1199.081683,-3322.720924,5518.645706,-47143.248873,-3573.395738,9366.878494,9267.882617,0.036000,0.958000,0.234000,192.000000,1.000000,32.000000,29.000000,240.000000,7.000000,80.000000,0.000000,0.000000,0.000000,1647426082.462286,0.000000
69.000000,22887.247549,1192.242049,-3326.319555,5513.348343,-47146.623987,-3574.580380,9379.864857,9282.679472,0.036000,0.958000,0.234000,192.000000,0.000000,0.000000,0.000000,0.000000,0.000000,0.000000,0.000000,0.000000,0.000000,1647426082.468418,0.000000
70.000000,22880.117342,1191.660904,-3324.799636,5510.576726,-47154.178876,-3576.055595,9375.059232,9277.404461,0.036000,0.958000,0.234000,192.000000,0.000000,0.000000,0.000000,0.000000,0.000000,0.000000,0.000000,0.000000,0.000000,1647426082.475843,0.000000
71.000000,22874.060020,1184.709511,-3328.644136,5503.737092,-47158.313949,-3584.415148,9359.010680,9263.412269,0.036000,0.958000,0.234000,192.000000,0.000000,0.000000,0.000000,0.000000,0.000000,0.000000,0.000000,0.000000,0.000000,1647426082.475847,0.000000
72.000000,22877.636299,1179.233334,-3333.539168,5497.210383,-47156.570513,-3586.493860,9359.055383,9265.289815,0.036000,0.958000,0.234000,192.000000,0.000000,0.000000,0.000000,0.000000,0.000000,0.000000,0.000000,0.000000,0.000000,1647426082.483916,0.000000
73.000000,22881.994889,1182.362578,-3331.393401,5497.657418,-47156.771679,-3581.889401,9360.552950,9276.935074,0.036000,0.958000,0.234000,192.000000,0.000000,0.000000,0.000000,0.000000,0.000000,0.000000,0.000000,0.000000,0.000000,1647426082.483949,0.000000
74.000000,22890.622662,1186.341189,-3326.230148,5504.631162,-47150.803763,-3576.770851,9368.309005,9277.940902,0.036000,0.958000,0.234000,192.000000,0.000000,0.000000,0.000000,0.000000,0.000000,0.000000,0.000000,0.000000,0.000000,1647426082.491781,0.000000
75.000000,22894.780087,1189.023398,-3324.911395,5507.380427,-47150.647301,-3576.592037,9375.126287,9274.096402,0.036000,0.958000,0.234000,192.000000,0.000000,0.000000,0.000000,0.000000,0.000000,0.000000,0.000000,0.000000,0.000000,1647426082.491785,0.000000
76.000000,22885.168837,1179.792128,-3331.125180,5501.859546,-47159.990330,-3582.224677,9371.639415,9262.048812,0.036000,0.958000,0.234000,192.000000,0.000000,0.000000,0.000000,0.000000,0.000000,0.000000,0.000000,0.000000,0.000000,1647426082.498394,0.000000
77.000000,22882.330165,1175.724110,-3332.265119,5502.641857,-47157.710452,-3582.671712,9363.279863,9263.658138,0.036000,0.958000,0.234000,192.000000,0.000000,0.000000,0.000000,0.000000,0.000000,0.000000,0.000000,0.000000,0.000000,1647426082.498398,0.000000
78.000000,22888.812171,1183.837793,-3325.000802,5513.236584,-47148.859161,-3572.747537,9366.990252,9283.752356,0.036000,0.958000,0.234000,192.000000,0.000000,0.000000,0.000000,0.000000,0.000000,0.000000,0.000000,0.000000,0.000000,1647426082.506497,0.000000
79.000000,22889.996814,1182.630799,-3325.559595,5510.733188,-47148.725051,-3577.709624,9361.826999,9271.704766,0.032000,0.958000,0.236000,192.000000,1.000000,0.000000,29.000000,240.000000,7.000000,96.000000,0.000000,0.000000,0.000000,1647426082.506501,0.000000
80.000000,22890.488552,1184.396587,-3324.866691,5509.056808,-47149.954396,-3575.921485,9367.861970,9267.077955,0.032000,0.958000,0.236000,192.000000,0.000000,0.000000,0.000000,0.000000,0.000000,0.000000,0.000000,0.000000,0.000000,1647426082.514517,0.000000
81.000000,22880.005584,1180.999122,-3329.269985,5504.653514,-47152.435440,-3576.234409,9369.247779,9274.476382,0.032000,0.958000,0.236000,192.000000,0.000000,0.000000,0.000000,0.000000,0.000000,0.000000,0.000000,0.000000,0.000000,1647426082.514521,0.000000
82.000000,22880.117342,1182.094357,-3326.051334,5503.088892,-47146.691042,-3576.770851,9363.212808,9272.375318,0.032000,0.958000,0.236000,192.000000,0.000000,0.000000,0.000000,0.000000,0.000000,0.000000,0.000000,0.000000,0.000000,1647426082.521690,0.000000
83.000000,22877.949223,1177.221677,-3329.225281,5500.004351,-47145.752269,-3579.900095,9357.513113,9270.184847,0.032000,0.958000,0.236000,192.000000,0.000000,0.000000,0.000000,0.000000,0.000000,0.000000,0.000000,0.000000,0.000000,1647426082.521720,0.000000
84.000000,22876.518712,1178.831003,-3330.432276,5500.764310,-47149.932045,-3583.722244,9354.450924,9255.164475,0.032000,0.958000,0.236000,192.000000,0.000000,0.000000,0.000000,0.000000,0.000000,0.000000,0.000000,0.000000,0.000000,1647426082.528069,0.000000
85.000000,22874.328241,1181.602619,-3326.744238,5506.061674,-47154.558856,-3580.794165,9354.383869,9256.952614,0.032000,0.958000,0.236000,192.000000,0.000000,0.000000,0.000000,0.000000,0.000000,0.000000,0.000000,0.000000,0.000000,1647426082.536116,0.000000
86.000000,22871.154293,1175.835869,-3330.387572,5503.111244,-47155.072946,-3582.068215,9362.095220,9264.820428,0.032000,0.958000,0.236000,192.000000,0.000000,0.000000,0.000000,0.000000,0.000000,0.000000,0.000000,0.000000,0.000000,1647426082.536120,0.000000
87.000000,22871.981308,1175.500593,-3330.499331,5500.652552,-47154.044766,-3577.933142,9364.732726,9276.465687,0.032000,0.958000,0.236000,192.000000,0.000000,0.000000,0.000000,0.000000,0.000000,0.000000,0.000000,0.000000,0.000000,1647426082.544608,0.000000
88.000000,22872.115418,1178.808651,-3329.426447,5501.568973,-47152.256626,-3576.882610,9362.721069,9280.243132,0.032000,0.958000,0.236000,192.000000,0.000000,0.000000,0.000000,0.000000,0.000000,0.000000,0.000000,0.000000,0.000000,1647426082.544625,0.000000
89.000000,22878.508017,1179.814479,-3327.459494,5504.139424,-47152.770716,-3575.094470,9373.159334,9282.433603,0.030000,0.960000,0.244000,192.000000,0.000000,240.000000,30.000000,0.000000,7.000000,160.000000,0.000000,0.000000,0.000000,1647426082.551150,0.000000
90.000000,22887.716936,1187.972866,-3321.111598,5511.336686,-47151.943702,-3573.105165,9369.292482,9282.768879,0.030000,0.960000,0.244000,192.000000,0.000000,0.000000,0.000000,0.000000,0.000000,0.000000,0.000000,0.000000,0.000000,1647426082.551167,0.000000
91.000000,22885.235892,1182.139061,-3328.085342,5505.972267,-47151.429612,-3579.408357,9363.615139,9280.131373,0.030000,0.960000,0.244000,192.000000,0.000000,0.000000,0.000000,0.000000,0.000000,0.000000,0.000000,0.000000,0.000000,1647426082.559217,0.000000
92.000000,22875.825808,1165.487011,-3343.731564,5492.114185,-47157.844562,-3597.312104,9341.553967,9246.983736,0.030000,0.960000,0.244000,192.000000,0.000000,0.000000,0.000000,0.000000,0.000000,0.000000,0.000000,0.000000,0.000000,1647426082.559234,0.000000
93.000000,22875.021145,1169.197401,-3340.289395,5498.260915,-47153.664786,-3591.455947,9360.217674,9259.679527,0.030000,0.960000,0.244000,192.000000,0.000000,0.000000,0.000000,0.000000,0.000000,0.000000,0.000000,0.000000,0.000000,1647426082.567169,0.000000
94.000000,22880.944357,1171.745500,-3335.081438,5502.239526,-47153.642434,-3579.386005,9385.408090,9282.970045,0.030000,0.960000,0.244000,192.000000,0.000000,0.000000,0.000000,0.000000,0.000000,0.000000,0.000000,0.000000,0.000000,1647426082.567186,0.000000
95.000000,22878.060982,1167.811593,-3335.416715,5501.032531,-47158.738632,-3577.709624,9386.123346,9281.271312,0.030000,0.960000,0.244000,192.000000,0.000000,0.000000,0.000000,0.000000,0.000000,0.000000,0.000000,0.000000,0.000000,1647426082.574208,0.000000
96.000000,22877.256319,1168.862125,-3330.789903,5504.385293,-47155.452926,-3578.402529,9371.304139,9265.781553,0.030000,0.960000,0.244000,192.000000,0.000000,0.000000,0.000000,0.000000,0.000000,0.000000,0.000000,0.000000,0.000000,1647426082.574225,0.000000
97.000000,22880.519674,1170.918485,-3330.946366,5508.274497,-47149.216789,-3577.508459,9368.174895,9273.604664,0.030000,0.960000,0.244000,192.000000,0.000000,0.000000,0.000000,0.000000,0.000000,0.000000,0.000000,0.000000,0.000000,1647426082.581758,0.000000
98.000000,22878.396258,1171.745500,-3332.019249,5508.050979,-47147.629815,-3574.513325,9376.869723,9292.804813,0.030000,0.960000,0.244000,192.000000,0.000000,0.000000,0.000000,0.000000,0.000000,0.000000,0.000000,0.000000,0.000000,1647426082.581774,0.000000
99.000000,22880.229101,1173.824212,-3332.578043,5509.213270,-47147.562760,-3575.429747,9381.541238,9293.184792,0.032000,0.946000,0.242000,192.000000,1.000000,0.000000,29.000000,144.000000,7.000000,144.000000,0.000000,0.000000,0.000000,1647426082.588633,0.000000
100.000000,22880.832598,1173.332473,-3332.153360,5508.341552,-47150.937873,-3581.487069,9372.198209,9284.177039,0.032000,0.946000,0.242000,192.000000,0.000000,0.000000,0.000000,0.000000,0.000000,0.000000,0.000000,0.000000,0.000000,1647426082.588649,0.000000
101.000000,22881.458447,1175.008854,-3332.421581,5510.643782,-47151.317853,-3583.118747,9371.885284,9280.600760,0.032000,0.946000,0.242000,192.000000,0.000000,0.000000,0.000000,0.000000,0.000000,0.000000,0.000000,0.000000,0.000000,1647426082.596911,0.000000
102.000000,22871.288403,1160.413165,-3343.843322,5499.870241,-47154.268283,-3597.647381,9350.405258,9254.382164,0.032000,0.946000,0.242000,192.000000,0.000000,0.000000,0.000000,0.000000,0.000000,0.000000,0.000000,0.000000,0.000000,1647426082.603989,0.000000
103.000000,22869.813188,1157.507438,-3345.027965,5497.411549,-47153.374213,-3598.764968,9342.001002,9238.668887,0.032000,0.946000,0.242000,192.000000,0.000000,0.000000,0.000000,0.000000,0.000000,0.000000,0.000000,0.000000,0.000000,1647426082.604005,0.000000
104.000000,22869.053229,1166.537543,-3342.345755,5500.227869,-47153.150696,-3591.657113,9355.635566,9258.830161,0.032000,0.946000,0.242000,192.000000,0.000000,0.000000,0.000000,0.000000,0.000000,0.000000,0.000000,0.000000,0.000000,1647426082.611472,0.000000
105.000000,22861.453636,1161.553104,-3346.369069,5494.662284,-47153.910655,-3583.431671,9385.475145,9296.939885,0.032000,0.946000,0.242000,192.000000,0.000000,0.000000,0.000000,0.000000,0.000000,0.000000,0.000000,0.000000,0.000000,1647426082.611488,0.000000
106.000000,22864.113493,1157.507438,-3344.580930,5492.024778,-47161.264379,-3585.644494,9378.523753,9286.278103,0.032000,0.946000,0.242000,192.000000,0.000000,0.000000,0.000000,0.000000,0.000000,0.000000,0.000000,0.000000,0.000000,1647426082.619489,0.000000
107.000000,22868.159159,1158.312101,-3345.430296,5489.990770,-47157.732804,-3592.506479,9363.391622,9270.341309,0.032000,0.946000,0.242000,192.000000,0.000000,0.000000,0.000000,0.000000,0.000000,0.000000,0.000000,0.000000,0.000000,1647426082.619506,0.000000
108.000000,22867.935642,1162.380119,-3342.301052,5494.036435,-47153.195399,-3586.650322,9374.701604,9277.583275,0.032000,0.946000,0.242000,192.000000,0.000000,0.000000,0.000000,0.000000,0.000000,0.000000,0.000000,0.000000,0.000000,1647426082.627442,0.000000
109.000000,22874.529406,1169.756194,-3338.322441,5498.439729,-47150.133210,-3580.660055,9378.635511,9286.903952,0.030000,0.944000,0.242000,192.000000,0.000000,240.000000,29.000000,128.000000,7.000000,144.000000,0.000000,0.000000,0.000000,1647426082.627459,0.000000
110.000000,22881.681965,1171.566686,-3341.071706,5497.925639,-47152.949530,-3584.772776,9369.426593,9285.227571,0.030000,0.944000,0.242000,192.000000,0.000000,0.000000,0.000000,0.000000,0.000000,0.000000,0.000000,0.000000,0.000000,1647426082.633981,0.000000
111.000000,22883.917139,1174.472412,-3337.584834,5500.205517,-47152.435440,-3583.945761,9365.224465,9278.924379,0.030000,0.944000,0.242000,192.000000,0.000000,0.000000,0.000000,0.000000,0.000000,0.000000,0.000000,0.000000,0.000000,1647426082.633996,0.000000
112.000000,22874.663517,1166.805764,-3340.781133,5494.349360,-47152.658958,-3588.326703,9355.389697,9270.028385,0.030000,0.944000,0.242000,192.000000,0.000000,0.000000,0.000000,0.000000,0.000000,0.000000,0.000000,0.000000,0.000000,1647426082.642178,0.000000
113.000000,22874.216482,1169.175049,-3337.048392,5493.857621,-47154.312987,-3584.906886,9364.285691,9278.745565,0.030000,0.944000,0.242000,192.000000,0.000000,0.000000,0.000000,0.000000,0.000000,0.000000,0.000000,0.000000,0.000000,1647426082.642194,0.000000
114.000000,22867.265089,1157.820363,-3349.252444,5481.273589,-47164.483030,-3595.479261,9357.647223,9267.390879,0.030000,0.944000,0.242000,192.000000,0.000000,0.000000,0.000000,0.000000,0.000000,0.000000,0.000000,0.000000,0.000000,1647426082.650059,0.000000
115.000000,22868.874415,1164.101203,-3347.933691,5486.190973,-47169.713339,-3592.148851,9367.705508,9270.497772,0.030000,0.944000,0.242000,192.000000,0.000000,0.000000,0.000000,0.000000,0.000000,0.000000,0.000000,0.000000,0.000000,1647426082.650076,0.000000
116.000000,22861.475988,1162.380119,-3352.068764,5485.051034,-47171.412071,-3595.658075,9360.195322,9267.681452,0.030000,0.944000,0.242000,192.000000,0.000000,0.000000,0.000000,0.000000,0.000000,0.000000,0.000000,0.000000,0.000000,1647426082.656337,0.000000
117.000000,22874.350592,1175.433537,-3343.910377,5493.477642,-47159.565647,-3585.376273,9376.623854,9278.790269,0.030000,0.944000,0.242000,192.000000,0.000000,0.000000,0.000000,0.000000,0.000000,0.000000,0.000000,0.000000,0.000000,1647426082.663690,0.000000
118.000000,22881.480799,1177.624008,-3339.909415,5494.751691,-47159.185667,-3583.208154,9372.377023,9280.220780,0.030000,0.944000,0.242000,192.000000,0.000000,0.000000,0.000000,0.000000,0.000000,0.000000,0.000000,0.000000,0.000000,1647426082.663706,0.000000
119.000000,22867.823883,1164.816459,-3348.917168,5484.782813,-47159.744461,-3594.249915,9362.609310,9267.457934,0.032000,0.946000,0.242000,192.000000,1.000000,0.000000,29.000000,144.000000,7.000000,144.000000,0.000000,0.000000,0.000000,1647426082.671783,0.000000
120.000000,22869.589671,1167.856296,-3347.777229,5486.973284,-47162.158449,-3590.830098,9371.818229,9278.097365,0.032000,0.946000,0.242000,192.000000,0.000000,0.000000,0.000000,0.000000,0.000000,0.000000,0.000000,0.000000,0.000000,1647426082.671799,0.000000
121.000000,22871.154293,1170.337340,-3348.000747,5490.683674,-47163.544257,-3593.557011,9362.296386,9271.794173,0.032000,0.946000,0.242000,192.000000,0.000000,0.000000,0.000000,0.000000,0.000000,0.000000,0.000000,0.000000,0.000000,1647426082.679741,0.000000
122.000000,22867.309793,1172.706625,-3345.676165,5494.841098,-47165.108879,-3592.975866,9352.841598,9264.351042,0.032000,0.946000,0.242000,192.000000,0.000000,0.000000,0.000000,0.000000,0.000000,0.000000,0.000000,0.000000,0.000000,1647426082.679758,0.000000
123.000000,22858.167929,1166.448136,-3351.353508,5489.051996,-47164.751251,-3597.937953,9344.236177,9267.390879,0.032000,0.946000,0.242000,192.000000,0.000000,0.000000,0.000000,0.000000,0.000000,0.000000,0.000000,0.000000,0.000000,1647426082.686336,0.000000
124.000000,22859.732552,1164.168258,-3352.180523,5485.632179,-47169.802746,-3598.474395,9353.847427,9266.206237,0.032000,0.946000,0.242000,192.000000,0.000000,0.000000,0.000000,0.000000,0.000000,0.000000,0.000000,0.000000,0.000000,1647426082.686352,0.000000
125.000000,22864.806398,1162.111898,-3352.940482,5484.939275,-47173.088452,-3597.177994,9374.120459,9267.279120,0.032000,0.946000,0.242000,192.000000,0.000000,0.000000,0.000000,0.000000,0.000000,0.000000,0.000000,0.000000,0.000000,1647426082.694396,0.000000
126.000000,22866.818055,1161.821325,-3352.582854,5485.922752,-47169.154545,-3596.842718,9366.476162,9270.050737,0.032000,0.946000,0.242000,192.000000,0.000000,0.000000,0.000000,0.000000,0.000000,0.000000,0.000000,0.000000,0.000000,1647426082.694412,0.000000
127.000000,22872.338935,1165.442308,-3349.565369,5489.275514,-47165.488859,-3596.976828,9354.160351,9259.143085,0.032000,0.946000,0.242000,192.000000,0.000000,0.000000,0.000000,0.000000,0.000000,0.000000,0.000000,0.000000,0.000000,1647426082.702385,0.000000
128.000000,22871.154293,1164.883514,-3351.711136,5487.353264,-47169.780394,-3602.251840,9347.521883,9252.236396,0.032000,0.946000,0.242000,192.000000,0.000000,0.000000,0.000000,0.000000,0.000000,0.000000,0.000000,0.000000,0.000000,1647426082.702401,0.000000
129.000000,22870.841369,1167.699834,-3350.235921,5491.555392,-47169.422766,-3596.328628,9358.518941,9266.586216,0.042000,0.954000,0.244000,192.000000,1.000000,80.000000,29.000000,208.000000,7.000000,160.000000,0.000000,0.000000,0.000000,1647426082.709454,0.000000
130.000000,22865.342839,1159.832020,-3355.756802,5485.028682,-47176.351807,-3596.440386,9371.885284,9275.504562,0.042000,0.954000,0.244000,192.000000,0.000000,0.000000,0.000000,0.000000,0.000000,0.000000,0.000000,0.000000,0.000000,1647426082.709471,0.000000
131.000000,22860.850139,1152.858276,-3359.333081,5477.406737,-47178.274057,-3597.736788,9387.307988,9275.281045,0.042000,0.954000,0.244000,192.000000,0.000000,0.000000,0.000000,0.000000,0.000000,0.000000,0.000000,0.000000,0.000000,1647426082.716000,0.000000
132.000000,22867.175682,1154.378194,-3359.668357,5479.686615,-47172.507307,-3593.892287,9382.770584,9280.913684,0.042000,0.954000,0.244000,192.000000,0.000000,0.000000,0.000000,0.000000,0.000000,0.000000,0.000000,0.000000,0.000000,1647426082.724012,0.000000
133.000000,22870.416685,1154.892284,-3361.098869,5479.753671,-47176.351807,-3593.892287,9382.792936,9285.629903,0.042000,0.954000,0.244000,192.000000,0.000000,0.000000,0.000000,0.000000,0.000000,0.000000,0.000000,0.000000,0.000000,1647426082.724028,0.000000
134.000000,22866.840406,1151.763040,-3363.557561,5478.524325,-47182.654999,-3596.216869,9375.416860,9270.944806,0.042000,0.954000,0.244000,192.000000,0.000000,0.000000,0.000000,0.000000,0.000000,0.000000,0.000000,0.000000,0.000000,1647426082.732070,0.000000
135.000000,22865.208729,1151.517171,-3362.127049,5476.736185,-47182.610295,-3596.105110,9374.276921,9272.554132,0.042000,0.954000,0.244000,192.000000,0.000000,0.000000,0.000000,0.000000,0.000000,0.000000,0.000000,0.000000,0.000000,1647426082.732086,0.000000
136.000000,22858.033819,1151.383060,-3361.702366,5476.222095,-47184.353731,-3596.038055,9374.791011,9270.318958,0.042000,0.954000,0.244000,192.000000,0.000000,0.000000,0.000000,0.000000,0.000000,0.000000,0.000000,0.000000,0.000000,1647426082.738974,0.000000
137.000000,22858.637316,1156.322796,-3357.187314,5478.345511,-47178.966961,-3591.880630,9377.763793,9271.593007,0.042000,0.954000,0.244000,192.000000,0.000000,0.000000,0.000000,0.000000,0.000000,0.000000,0.000000,0.000000,0.000000,1647426082.738989,0.000000
138.000000,22858.145578,1154.378194,-3359.020157,5476.043281,-47179.302237,-3594.384026,9369.247779,9273.783478,0.042000,0.954000,0.244000,192.000000,0.000000,0.000000,0.000000,0.000000,0.000000,0.000000,0.000000,0.000000,0.000000,1647426082.746553,0.000000
139.000000,22857.296211,1152.411241,-3362.842305,5472.087022,-47183.884345,-3600.798977,9351.142866,9264.574559,0.044000,0.956000,0.242000,192.000000,1.000000,96.000000,29.000000,224.000000,7.000000,144.000000,0.000000,0.000000,0.000000,1647426082.746570,0.000000
140.000000,22866.192206,1161.620159,-3354.929788,5480.290113,-47178.497574,-3591.277133,9368.688985,9272.241208,0.044000,0.956000,0.242000,192.000000,0.000000,0.000000,0.000000,0.000000,0.000000,0.000000,0.000000,0.000000,0.000000,1647426082.754658,0.000000
141.000000,22865.834578,1161.597808,-3355.913264,5481.050072,-47178.631685,-3596.216869,9363.346918,9267.346176,0.044000,0.956000,0.242000,192.000000,0.000000,0.000000,0.000000,0.000000,0.000000,0.000000,0.000000,0.000000,0.000000,1647426082.754675,0.000000
142.000000,22871.511921,1166.895171,-3357.142610,5480.066595,-47180.330417,-3605.269325,9352.193398,9254.538626,0.044000,0.956000,0.242000,192.000000,0.000000,0.000000,0.000000,0.000000,0.000000,0.000000,0.000000,0.000000,0.000000,1647426082.762697,0.000000
143.000000,22880.206749,1175.187668,-3352.001709,5484.939275,-47175.234219,-3598.519099,9355.657918,9257.109077,0.044000,0.956000,0.242000,192.000000,0.000000,0.000000,0.000000,0.000000,0.000000,0.000000,0.000000,0.000000,0.000000,1647426082.762713,0.000000
144.000000,22862.235947,1160.971959,-3354.572160,5483.732281,-47178.072891,-3584.258686,9386.056290,9277.627978,0.044000,0.956000,0.242000,192.000000,0.000000,0.000000,0.000000,0.000000,0.000000,0.000000,0.000000,0.000000,0.000000,1647426082.769279,0.000000
145.000000,22852.289421,1145.169275,-3362.171753,5474.232790,-47185.672484,-3589.444290,9386.704491,9267.614397,0.044000,0.956000,0.242000,192.000000,0.000000,0.000000,0.000000,0.000000,0.000000,0.000000,0.000000,0.000000,0.000000,1647426082.769296,0.000000
146.000000,22857.050342,1153.528828,-3362.752898,5478.703139,-47177.581153,-3591.433596,9382.949398,9271.190676,0.044000,0.956000,0.242000,192.000000,0.000000,0.000000,0.000000,0.000000,0.000000,0.000000,0.000000,0.000000,0.000000,1647426082.776112,0.000000
147.000000,22843.438130,1144.364613,-3372.811183,5469.985958,-47185.024284,-3598.206174,9375.349805,9270.855399,0.044000,0.956000,0.242000,192.000000,0.000000,0.000000,0.000000,0.000000,0.000000,0.000000,0.000000,0.000000,0.000000,1647426082.784209,0.000000
148.000000,22840.174775,1142.911749,-3374.219343,5468.488391,-47188.131176,-3600.888383,9366.856142,9261.914702,0.044000,0.956000,0.242000,192.000000,0.000000,0.000000,0.000000,0.000000,0.000000,0.000000,0.000000,0.000000,0.000000,1647426082.784226,0.000000
149.000000,22836.352627,1142.129438,-3376.454517,5467.393156,-47190.433406,-3602.318895,9358.250720,9260.327728,0.028000,0.960000,0.236000,192.000000,0.000000,224.000000,30.000000,0.000000,7.000000,96.000000,0.000000,0.000000,0.000000,1647426082.791420,0.000000
150.000000,22840.442996,1147.560912,-3371.984169,5467.437859,-47194.903755,-3598.787320,9370.991215,9265.289815,0.028000,0.960000,0.236000,192.000000,0.000000,0.000000,0.000000,0.000000,0.000000,0.000000,0.000000,0.000000,0.000000,1647426082.791438,0.000000
151.000000,22841.873508,1147.270339,-3372.855887,5464.375670,-47193.964981,-3602.184785,9364.464505,9254.695088,0.028000,0.960000,0.236000,192.000000,0.000000,0.000000,0.000000,0.000000,0.000000,0.000000,0.000000,0.000000,0.000000,1647426082.798890,0.000000
152.000000,22839.548926,1142.867046,-3378.063843,5459.838266,-47193.652057,-3611.103131,9344.593804,9237.148969,0.028000,0.960000,0.236000,192.000000,0.000000,0.000000,0.000000,0.000000,0.000000,0.000000,0.000000,0.000000,0.000000,1647426082.798906,0.000000
153.000000,22842.275839,1147.002118,-3374.085233,5463.481601,-47193.942630,-3606.342209,9345.599633,9248.704821,0.028000,0.960000,0.236000,192.000000,0.000000,0.000000,0.000000,0.000000,0.000000,0.000000,0.000000,0.000000,0.000000,1647426082.806838,0.000000
154.000000,22841.918211,1151.561874,-3372.051224,5466.633197,-47194.635534,-3592.551183,9380.110726,9286.166344,0.028000,0.960000,0.236000,192.000000,0.000000,0.000000,0.000000,0.000000,0.000000,0.000000,0.000000,0.000000,0.000000,1647426082.806855,0.000000
155.000000,22841.605287,1150.176066,-3371.470078,5464.889761,-47195.998990,-3592.528831,9385.296331,9283.439432,0.028000,0.960000,0.236000,192.000000,0.000000,0.000000,0.000000,0.000000,0.000000,0.000000,0.000000,0.000000,0.000000,1647426082.814871,0.000000
156.000000,22837.447862,1142.643528,-3381.282494,5458.050127,-47205.364371,-3606.252802,9355.657918,9266.206237,0.028000,0.960000,0.236000,192.000000,0.000000,0.000000,0.000000,0.000000,0.000000,0.000000,0.000000,0.000000,0.000000,1647426082.814887,0.000000
157.000000,22850.233060,1149.729031,-3378.175602,5462.095793,-47199.888194,-3609.180881,9356.060249,9262.428792,0.028000,0.960000,0.236000,192.000000,0.000000,0.000000,0.000000,0.000000,0.000000,0.000000,0.000000,0.000000,0.000000,1647426082.821880,0.000000
158.000000,22855.798645,1150.734860,-3372.811183,5465.739127,-47192.623877,-3604.241145,9371.661767,9253.823370,0.028000,0.960000,0.236000,192.000000,0.000000,0.000000,0.000000,0.000000,0.000000,0.000000,0.000000,0.000000,0.000000,1647426082.821896,0.000000
159.000000,22854.412836,1159.072060,-3368.430241,5470.388290,-47194.076740,-3599.815500,9350.181741,9231.113998,0.032000,0.962000,0.238000,192.000000,1.000000,0.000000,30.000000,16.000000,7.000000,112.000000,0.000000,0.000000,0.000000,1647426082.829556,0.000000
160.000000,22860.693677,1169.555029,-3362.663491,5478.032586,-47185.896002,-3584.929238,9382.100032,9284.020577,0.032000,0.962000,0.238000,192.000000,0.000000,0.000000,0.000000,0.000000,0.000000,0.000000,0.000000,0.000000,0.000000,1647426082.829572,0.000000
161.000000,22859.397275,1162.357767,-3364.988073,5470.567104,-47189.896964,-3588.125537,9385.631607,9301.119661,0.032000,0.962000,0.238000,192.000000,0.000000,0.000000,0.000000,0.000000,0.000000,0.000000,0.000000,0.000000,0.000000,1647426082.836598,0.000000
162.000000,22863.957031,1161.418994,-3361.612959,5472.846982,-47187.348865,-3589.310180,9381.049500,9287.060414,0.032000,0.962000,0.238000,192.000000,0.000000,0.000000,0.000000,0.000000,0.000000,0.000000,0.000000,0.000000,0.000000,1647426082.836613,0.000000
163.000000,22864.180549,1158.803840,-3361.523552,5470.231828,-47185.963057,-3592.238258,9378.367290,9288.692092,0.032000,0.962000,0.238000,192.000000,0.000000,0.000000,0.000000,0.000000,0.000000,0.000000,0.000000,0.000000,0.000000,1647426082.844591,0.000000
164.000000,22860.984249,1153.595883,-3366.262122,5462.788697,-47190.366350,-3595.658075,9389.923142,9293.698882,0.032000,0.962000,0.238000,192.000000,0.000000,0.000000,0.000000,0.000000,0.000000,0.000000,0.000000,0.000000,0.000000,1647426082.851061,0.000000
165.000000,22861.341877,1158.245046,-3364.719852,5473.964569,-47184.107862,-3593.333494,9383.619950,9285.562847,0.032000,0.962000,0.238000,192.000000,0.000000,0.000000,0.000000,0.000000,0.000000,0.000000,0.000000,0.000000,0.000000,1647426082.851077,0.000000
166.000000,22863.398238,1159.362633,-3360.517724,5474.456307,-47181.157432,-3595.278096,9375.841543,9268.620225,0.032000,0.962000,0.238000,192.000000,0.000000,0.000000,0.000000,0.000000,0.000000,0.000000,0.000000,0.000000,0.000000,1647426082.859269,0.000000
167.000000,22863.152368,1151.137191,-3365.435107,5462.855752,-47185.896002,-3605.537546,9360.552950,9250.112981,0.032000,0.962000,0.238000,192.000000,0.000000,0.000000,0.000000,0.000000,0.000000,0.000000,0.000000,0.000000,0.000000,1647426082.859285,0.000000
168.000000,22862.124188,1153.931159,-3369.972512,5464.733298,-47190.813385,-3608.331514,9360.195322,9252.124638,0.032000,0.962000,0.238000,192.000000,0.000000,0.000000,0.000000,0.000000,0.000000,0.000000,0.000000,0.000000,0.000000,1647426082.867082,0.000000
169.000000,22868.025049,1166.269322,-3363.646968,5474.344549,-47188.488804,-3597.312104,9378.769622,9278.365586,0.030000,0.962000,0.240000,192.000000,0.000000,240.000000,30.000000,16.000000,7.000000,128.000000,0.000000,0.000000,0.000000,1647426082.867098,0.000000
170.000000,22870.148464,1162.894209,-3365.792735,5476.378557,-47189.896964,-3606.990410,9368.756040,9266.675623,0.030000,0.962000,0.240000,192.000000,0.000000,0.000000,0.000000,0.000000,0.000000,0.000000,0.000000,0.000000,0.000000,1647426082.874224,0.000000
171.000000,22866.259261,1155.316967,-3365.882142,5479.105470,-47185.091339,-3603.503538,9362.028165,9256.125600,0.030000,0.962000,0.240000,192.000000,0.000000,0.000000,0.000000,0.000000,0.000000,0.000000,0.000000,0.000000,0.000000,1647426082.874241,0.000000
172.000000,22872.629508,1159.295578,-3360.450668,5482.078252,-47182.498536,-3603.123558,9363.905712,9255.030364,0.030000,0.962000,0.240000,192.000000,0.000000,0.000000,0.000000,0.000000,0.000000,0.000000,0.000000,0.000000,0.000000,1647426082.881872,0.000000
173.000000,22876.138732,1160.122592,-3360.048337,5480.401871,-47178.475222,-3597.960305,9379.373119,9262.339385,0.030000,0.962000,0.240000,192.000000,0.000000,0.000000,0.000000,0.000000,0.000000,0.000000,0.000000,0.000000,0.000000,1647426082.881888,0.000000
174.000000,22873.031839,1155.205209,-3363.155229,5475.238618,-47183.839641,-3601.223660,9372.712299,9252.728135,0.030000,0.962000,0.240000,192.000000,0.000000,0.000000,0.000000,0.000000,0.000000,0.000000,0.000000,0.000000,0.000000,1647426082.889767,0.000000
175.000000,22870.439037,1150.578398,-3366.306825,5473.182258,-47190.321647,-3604.352904,9357.714278,9242.714553,0.030000,0.962000,0.240000,192.000000,0.000000,0.000000,0.000000,0.000000,0.000000,0.000000,0.000000,0.000000,0.000000,1647426082.889784,0.000000
176.000000,22871.064886,1146.733898,-3368.385538,5471.282360,-47192.892098,-3604.196442,9353.780371,9255.276234,0.030000,0.962000,0.240000,192.000000,0.000000,0.000000,0.000000,0.000000,0.000000,0.000000,0.000000,0.000000,0.000000,1647426082.896833,0.000000
177.000000,22866.885110,1149.639624,-3362.417622,5478.993711,-47185.672484,-3596.574497,9365.559741,9265.155705,0.030000,0.962000,0.240000,192.000000,0.000000,0.000000,0.000000,0.000000,0.000000,0.000000,0.000000,0.000000,0.000000,1647426082.896849,0.000000
178.000000,22858.100874,1144.632834,-3368.005558,5477.540848,-47181.336246,-3600.463700,9371.147677,9260.171266,0.030000,0.962000,0.240000,192.000000,0.000000,0.000000,0.000000,0.000000,0.000000,0.000000,0.000000,0.000000,0.000000,1647426082.903542,0.000000
179.000000,22850.881261,1142.643528,-3372.744128,5469.114240,-47194.568478,-3606.431616,9371.482953,9250.738829,0.030000,0.962000,0.240000,192.000000,0.000000,0.000000,0.000000,0.000000,0.000000,0.000000,0.000000,0.000000,0.000000,1647426082.911559,0.000000
180.000000,22851.708275,1146.622139,-3368.229075,5471.125897,-47193.003856,-3602.363599,9376.020357,9266.519161,0.024000,0.958000,0.236000,192.000000,0.000000,192.000000,29.000000,240.000000,7.000000,96.000000,0.000000,0.000000,0.000000,1647426082.911576,0.000000
181.000000,22853.474063,1148.745555,-3364.921017,5482.011197,-47181.783281,-3596.418035,9391.063081,9287.887429,0.024000,0.958000,0.236000,192.000000,0.000000,0.000000,0.000000,0.000000,0.000000,0.000000,0.000000,0.000000,0.000000,1647426082.919556,0.000000
182.000000,22852.155310,1150.779563,-3360.808296,5480.737147,-47179.436347,-3593.534660,9401.344884,9286.836897,0.024000,0.958000,0.236000,192.000000,0.000000,0.000000,0.000000,0.000000,0.000000,0.000000,0.000000,0.000000,0.000000,1647426082.919572,0.000000
183.000000,22857.653839,1158.289749,-3351.129991,5488.247334,-47173.222562,-3581.777642,9420.209756,9294.838821,0.024000,0.958000,0.236000,192.000000,0.000000,0.000000,0.000000,0.000000,0.000000,0.000000,0.000000,0.000000,0.000000,1647426082.926693,0.000000
184.000000,22854.166967,1155.182857,-3349.498314,5485.431014,-47172.261437,-3577.664921,9413.459529,9295.151746,0.024000,0.958000,0.236000,192.000000,0.000000,0.000000,0.000000,0.000000,0.000000,0.000000,0.000000,0.000000,0.000000,1647426082.926709,0.000000
185.000000,22851.954144,1159.094412,-3348.872465,5483.352302,-47171.389719,-3580.011854,9400.897849,9284.311150,0.024000,0.958000,0.236000,192.000000,0.000000,0.000000,0.000000,0.000000,0.000000,0.000000,0.000000,0.000000,0.000000,1647426082.934119,0.000000
186.000000,22850.210708,1160.591979,-3349.632424,5485.699235,-47167.701682,-3581.509421,9388.649093,9280.354891,0.024000,0.958000,0.236000,192.000000,0.000000,0.000000,0.000000,0.000000,0.000000,0.000000,0.000000,0.000000,0.000000,1647426082.934135,0.000000
187.000000,22842.901688,1154.378194,-3354.549808,5483.575819,-47167.478164,-3582.783470,9384.692834,9281.763051,0.024000,0.958000,0.236000,192.000000,0.000000,0.000000,0.000000,0.000000,0.000000,0.000000,0.000000,0.000000,0.000000,1647426082.941979,0.000000
188.000000,22842.789929,1154.154677,-3357.366128,5484.224020,-47171.657940,-3587.723206,9377.428517,9274.476382,0.024000,0.958000,0.236000,192.000000,0.000000,0.000000,0.000000,0.000000,0.000000,0.000000,0.000000,0.000000,0.000000,1647426082.941994,0.000000
189.000000,22838.923077,1155.093450,-3357.947273,5486.660360,-47173.960170,-3587.812613,9374.522790,9275.057527,0.024000,0.958000,0.236000,192.000000,0.000000,0.000000,0.000000,0.000000,0.000000,0.000000,0.000000,0.000000,0.000000,1647426082.950132,0.000000
190.000000,22838.319580,1159.563799,-3353.745145,5489.879011,-47176.284751,-3581.308255,9378.702566,9276.510391,0.034000,0.952000,0.238000,192.000000,1.000000,16.000000,29.000000,192.000000,7.000000,112.000000,0.000000,0.000000,0.000000,1647426082.950148,0.000000
191.000000,22834.743301,1156.814534,-3357.947273,5487.308560,-47172.663769,-3582.805822,9378.300235,9276.286873,0.034000,0.952000,0.238000,192.000000,0.000000,0.000000,0.000000,0.000000,0.000000,0.000000,0.000000,0.000000,0.000000,1647426082.956764,0.000000
192.000000,22840.688865,1161.754270,-3354.058069,5491.175412,-47167.344054,-3577.530811,9385.139869,9284.489964,0.034000,0.952000,0.238000,192.000000,0.000000,0.000000,0.000000,0.000000,0.000000,0.000000,0.000000,0.000000,0.000000,1647426082.956780,0.000000
193.000000,22846.634429,1157.909770,-3353.722793,5490.773081,-47166.964074,-3579.900095,9381.563590,9282.858286,0.034000,0.952000,0.238000,192.000000,0.000000,0.000000,0.000000,0.000000,0.000000,0.000000,0.000000,0.000000,0.000000,1647426082.963820,0.000000
194.000000,22843.549889,1156.188685,-3353.722793,5490.460156,-47172.507307,-3580.548296,9377.964959,9276.376280,0.034000,0.952000,0.238000,192.000000,0.000000,0.000000,0.000000,0.000000,0.000000,0.000000,0.000000,0.000000,0.000000,1647426082.971830,0.000000
195.000000,22836.218516,1158.625026,-3354.393346,5488.917886,-47173.602542,-3583.342264,9373.561665,9270.296606,0.034000,0.952000,0.238000,192.000000,0.000000,0.000000,0.000000,0.000000,0.000000,0.000000,0.000000,0.000000,0.000000,1647426082.971846,0.000000
196.000000,22837.760787,1162.044842,-3354.035718,5487.800299,-47171.300312,-3584.035168,9377.361462,9270.788344,0.034000,0.952000,0.238000,192.000000,0.000000,0.000000,0.000000,0.000000,0.000000,0.000000,0.000000,0.000000,0.000000,1647426082.979857,0.000000
197.000000,22837.023179,1163.117726,-3352.448744,5489.029645,-47164.773603,-3584.370444,9381.675348,9277.113888,0.034000,0.952000,0.238000,192.000000,0.000000,0.000000,0.000000,0.000000,0.000000,0.000000,0.000000,0.000000,0.000000,1647426082.979874,0.000000
198.000000,22841.672342,1167.453965,-3349.811238,5493.276476,-47161.823173,-3579.497764,9392.270075,9283.819411,0.034000,0.952000,0.238000,192.000000,0.000000,0.000000,0.000000,0.000000,0.000000,0.000000,0.000000,0.000000,0.000000,1647426082.986420,0.000000
199.000000,22843.683999,1165.487011,-3350.302976,5490.236639,-47167.142888,-3583.051691,9385.698662,9283.685301,0.034000,0.952000,0.238000,192.000000,0.000000,0.000000,0.000000,0.000000,0.000000,0.000000,0.000000,0.000000,0.000000,1647426082.986437,0.000000
200.000000,22850.501281,1164.883514,-3349.990052,5489.364921,-47168.238123,-3586.382101,9374.254569,9278.075013,0.042000,0.956000,0.232000,192.000000,1.000000,80.000000,29.000000,224.000000,7.000000,64.000000,0.000000,0.000000,0.000000,1647426082.994434,0.000000
201.000000,22844.421607,1161.016662,-3351.845247,5487.800299,-47164.728900,-3583.431671,9390.392529,9292.916571,0.042000,0.956000,0.232000,192.000000,0.000000,0.000000,0.000000,0.000000,0.000000,0.000000,0.000000,0.000000,0.000000,1647426082.994450,0.000000
202.000000,22835.905592,1158.580322,-3353.856904,5485.810993,-47162.359615,-3582.962284,9397.656846,9295.487022,0.042000,0.956000,0.232000,192.000000,0.000000,0.000000,0.000000,0.000000,0.000000,0.000000,0.000000,0.000000,0.000000,1647426083.002164,0.000000
203.000000,22836.844365,1160.636683,-3350.034755,5486.638008,-47167.008778,-3580.011854,9401.143718,9286.568676,0.042000,0.956000,0.232000,192.000000,0.000000,0.000000,0.000000,0.000000,0.000000,0.000000,0.000000,0.000000,0.000000,1647426083.002177,0.000000
204.000000,22836.576144,1156.121630,-3353.298110,5482.592342,-47173.222562,-3584.526907,9392.247724,9271.302434,0.042000,0.956000,0.232000,192.000000,0.000000,0.000000,0.000000,0.000000,0.000000,0.000000,0.000000,0.000000,0.000000,1647426083.009706,0.000000
205.000000,22830.719987,1151.740688,-3359.511895,5476.467964,-47177.983484,-3591.835927,9379.954264,9270.207199,0.042000,0.956000,0.232000,192.000000,0.000000,0.000000,0.000000,0.000000,0.000000,0.000000,0.000000,0.000000,0.000000,1647426083.009722,0.000000
206.000000,22824.997941,1145.035165,-3362.954064,5473.361072,-47179.771624,-3595.009875,9382.591770,9285.540496,0.042000,0.956000,0.232000,192.000000,0.000000,0.000000,0.000000,0.000000,0.000000,0.000000,0.000000,0.000000,0.000000,1647426083.016852,0.000000
207.000000,22833.983342,1152.813572,-3354.795677,5482.257066,-47171.948513,-3584.571610,9401.322532,9295.732891,0.042000,0.956000,0.232000,192.000000,0.000000,0.000000,0.000000,0.000000,0.000000,0.000000,0.000000,0.000000,0.000000,1647426083.016870,0.000000
208.000000,22840.286534,1154.780526,-3350.280625,5483.754633,-47171.076795,-3585.733901,9391.264247,9280.913684,0.042000,0.956000,0.232000,192.000000,0.000000,0.000000,0.000000,0.000000,0.000000,0.000000,0.000000,0.000000,0.000000,1647426083.023926,0.000000
209.000000,22841.448825,1157.418031,-3347.933691,5483.531115,-47172.708472,-3588.080834,9377.272055,9275.862190,0.042000,0.956000,0.232000,192.000000,0.000000,0.000000,0.000000,0.000000,0.000000,0.000000,0.000000,0.000000,0.000000,1647426083.032099,0.000000
210.000000,22843.013447,1162.581284,-3341.138761,5486.928581,-47170.115670,-3584.191630,9377.808497,9276.331577,0.036000,0.954000,0.226000,192.000000,1.000000,32.000000,29.000000,208.000000,7.000000,16.000000,0.000000,0.000000,0.000000,1647426083.032116,0.000000
211.000000,22841.873508,1163.363595,-3343.418639,5485.989807,-47169.087490,-3588.729035,9377.272055,9260.908873,0.036000,0.954000,0.226000,192.000000,0.000000,0.000000,0.000000,0.000000,0.000000,0.000000,0.000000,0.000000,0.000000,1647426083.038604,0.000000
212.000000,22848.266107,1170.493802,-3341.742258,5488.783775,-47167.276998,-3583.588133,9390.392529,9275.415155,0.036000,0.954000,0.226000,192.000000,0.000000,0.000000,0.000000,0.000000,0.000000,0.000000,0.000000,0.000000,0.000000,1647426083.038622,0.000000
213.000000,22844.153386,1166.336377,-3344.558578,5486.593304,-47170.115670,-3583.454023,9388.336168,9276.420984,0.036000,0.954000,0.226000,192.000000,0.000000,0.000000,0.000000,0.000000,0.000000,0.000000,0.000000,0.000000,0.000000,1647426083.046761,0.000000
214.000000,22845.114511,1169.331511,-3340.624671,5489.454328,-47166.606446,-3579.564819,9386.726843,9266.832085,0.036000,0.954000,0.226000,192.000000,0.000000,0.000000,0.000000,0.000000,0.000000,0.000000,0.000000,0.000000,0.000000,1647426083.046778,0.000000
215.000000,22845.852118,1171.142002,-3337.160151,5490.281342,-47160.794993,-3575.876781,9388.380872,9273.470554,0.036000,0.954000,0.226000,192.000000,0.000000,0.000000,0.000000,0.000000,0.000000,0.000000,0.000000,0.000000,0.000000,1647426083.054737,0.000000
216.000000,22842.186432,1164.928218,-3341.898720,5485.185145,-47154.983539,-3576.435575,9390.280770,9287.842725,0.036000,0.954000,0.226000,192.000000,0.000000,0.000000,0.000000,0.000000,0.000000,0.000000,0.000000,0.000000,0.000000,1647426083.054754,0.000000
217.000000,22839.459519,1160.390813,-3346.726697,5475.260970,-47161.085565,-3584.191630,9379.261360,9270.006033,0.036000,0.954000,0.226000,192.000000,0.000000,0.000000,0.000000,0.000000,0.000000,0.000000,0.000000,0.000000,0.000000,1647426083.061931,0.000000
218.000000,22839.280705,1162.089546,-3345.430296,5476.043281,-47167.902847,-3583.386968,9382.100032,9268.463763,0.036000,0.954000,0.226000,192.000000,0.000000,0.000000,0.000000,0.000000,0.000000,0.000000,0.000000,0.000000,0.000000,1647426083.061947,0.000000
219.000000,22838.252525,1162.424822,-3347.553712,5475.059804,-47172.149679,-3584.482203,9376.310930,9277.940902,0.036000,0.954000,0.226000,192.000000,0.000000,0.000000,0.000000,0.000000,0.000000,0.000000,0.000000,0.000000,0.000000,1647426083.069110,0.000000
220.000000,22843.348723,1168.951532,-3344.916206,5477.138517,-47169.735690,-3582.872877,9377.741441,9278.969083,0.028000,0.958000,0.228000,192.000000,0.000000,224.000000,29.000000,240.000000,7.000000,32.000000,0.000000,0.000000,0.000000,1647426083.069122,0.000000
221.000000,22845.740360,1169.130345,-3342.569273,5478.121993,-47163.901885,-3582.582305,9379.820154,9274.208161,0.028000,0.958000,0.228000,192.000000,0.000000,0.000000,0.000000,0.000000,0.000000,0.000000,0.000000,0.000000,0.000000,1647426083.077251,0.000000
222.000000,22839.727740,1167.632779,-3342.971604,5472.198781,-47161.107917,-3590.919505,9370.901808,9263.278158,0.028000,0.958000,0.228000,192.000000,0.000000,0.000000,0.000000,0.000000,0.000000,0.000000,0.000000,0.000000,0.000000,1647426083.077267,0.000000
223.000000,22836.129109,1161.106069,-3346.145552,5468.510743,-47161.085565,-3591.590058,9382.658825,9273.090574,0.028000,0.958000,0.228000,192.000000,0.000000,0.000000,0.000000,0.000000,0.000000,0.000000,0.000000,0.000000,0.000000,1647426083.084406,0.000000
224.000000,22844.019275,1162.983616,-3340.781133,5472.243485,-47161.264379,-3587.075005,9393.454718,9275.795135,0.028000,0.958000,0.228000,192.000000,0.000000,0.000000,0.000000,0.000000,0.000000,0.000000,0.000000,0.000000,0.000000,1647426083.084422,0.000000
225.000000,22839.213650,1156.501610,-3345.027965,5467.571970,-47167.925199,-3591.992389,9386.726843,9262.473495,0.028000,0.958000,0.228000,192.000000,0.000000,0.000000,0.000000,0.000000,0.000000,0.000000,0.000000,0.000000,0.000000,1647426083.091570,0.000000
226.000000,22844.399255,1160.256703,-3342.032831,5469.829496,-47163.030167,-3587.834965,9384.558724,9265.938016,0.028000,0.958000,0.228000,192.000000,0.000000,0.000000,0.000000,0.000000,0.000000,0.000000,0.000000,0.000000,0.000000,1647426083.098997,0.000000
227.000000,22847.617906,1159.608502,-3343.642157,5467.080232,-47163.678368,-3585.711549,9383.731709,9266.228588,0.028000,0.958000,0.228000,192.000000,0.000000,0.000000,0.000000,0.000000,0.000000,0.000000,0.000000,0.000000,0.000000,1647426083.099014,0.000000
228.000000,22845.628601,1160.368462,-3348.760706,5465.314444,-47170.383891,-3590.539526,9377.070889,9255.298585,0.028000,0.958000,0.228000,192.000000,0.000000,0.000000,0.000000,0.000000,0.000000,0.000000,0.000000,0.000000,0.000000,1647426083.106972,0.000000
229.000000,22846.433264,1164.481183,-3351.353508,5464.487429,-47173.222562,-3589.734863,9377.115593,9266.317995,0.028000,0.958000,0.228000,192.000000,0.000000,0.000000,0.000000,0.000000,0.000000,0.000000,0.000000,0.000000,0.000000,1647426083.106988,0.000000
230.000000,22845.449787,1171.052596,-3349.230093,5468.376633,-47173.200211,-3586.180936,9382.435308,9279.170248,0.028000,0.962000,0.222000,192.000000,0.000000,224.000000,30.000000,16.000000,6.000000,240.000000,0.000000,0.000000,0.000000,1647426083.114934,0.000000
231.000000,22848.936659,1170.717319,-3343.306880,5473.316368,-47170.830926,-3582.112918,9385.229276,9276.666853,0.028000,0.962000,0.222000,192.000000,0.000000,0.000000,0.000000,0.000000,0.000000,0.000000,0.000000,0.000000,0.000000,1647426083.114950,0.000000
232.000000,22853.384656,1168.348034,-3345.139723,5471.058842,-47168.260475,-3587.410282,9379.775450,9265.356870,0.028000,0.962000,0.222000,192.000000,0.000000,0.000000,0.000000,0.000000,0.000000,0.000000,0.000000,0.000000,0.000000,1647426083.121543,0.000000
233.000000,22847.059112,1163.005967,-3350.034755,5462.542827,-47172.104975,-3592.998218,9364.598616,9252.482266,0.028000,0.962000,0.222000,192.000000,0.000000,0.000000,0.000000,0.000000,0.000000,0.000000,0.000000,0.000000,0.000000,1647426083.121560,0.000000
234.000000,22841.582935,1160.301406,-3352.515799,5454.630310,-47180.352769,-3594.696950,9362.452848,9262.585254,0.028000,0.962000,0.222000,192.000000,0.000000,0.000000,0.000000,0.000000,0.000000,0.000000,0.000000,0.000000,0.000000,1647426083.129688,0.000000
235.000000,22838.498394,1162.246008,-3350.437087,5464.643891,-47175.748310,-3592.640590,9377.696738,9276.264522,0.028000,0.962000,0.222000,192.000000,0.000000,0.000000,0.000000,0.000000,0.000000,0.000000,0.000000,0.000000,0.000000,1647426083.129705,0.000000
236.000000,22842.767578,1172.103127,-3349.230093,5465.672072,-47173.379025,-3599.502575,9367.347880,9254.158646,0.028000,0.962000,0.222000,192.000000,0.000000,0.000000,0.000000,0.000000,0.000000,0.000000,0.000000,0.000000,0.000000,1647426083.137596,0.000000
237.000000,22854.278726,1180.216811,-3344.469171,5470.097717,-47170.138022,-3600.687218,9370.834752,9249.241263,0.028000,0.962000,0.222000,192.000000,0.000000,0.000000,0.000000,0.000000,0.000000,0.000000,0.000000,0.000000,0.000000,1647426083.137613,0.000000
238.000000,22841.337066,1166.828116,-3345.296186,5462.721641,-47174.228391,-3591.947686,9392.583000,9272.643539,0.028000,0.962000,0.222000,192.000000,0.000000,0.000000,0.000000,0.000000,0.000000,0.000000,0.000000,0.000000,0.000000,1647426083.144189,0.000000
239.000000,22831.278781,1157.619197,-3349.252444,5459.659452,-47174.094280,-3590.695988,9395.287561,9278.253827,0.028000,0.962000,0.222000,192.000000,0.000000,0.000000,0.000000,0.000000,0.000000,0.000000,0.000000,0.000000,0.000000,1647426083.144205,0.000000
240.000000,22834.832708,1159.005005,-3351.129991,5458.318348,-47176.865897,-3599.591982,9374.858066,9262.428792,0.040000,0.972000,0.230000,192.000000,1.000000,64.000000,30.000000,96.000000,7.000000,48.000000,0.000000,0.000000,0.000000,1647426083.150881,0.000000
241.000000,22841.471176,1166.939875,-3347.486657,5465.761479,-47168.349882,-3591.835927,9383.061157,9262.227626,0.040000,0.972000,0.230000,192.000000,0.000000,0.000000,0.000000,0.000000,0.000000,0.000000,0.000000,0.000000,0.000000,1647426083.159205,0.000000
242.000000,22832.753996,1160.390813,-3356.583817,5459.055955,-47168.104013,-3595.546317,9388.917314,9270.587179,0.040000,0.972000,0.230000,192.000000,0.000000,0.000000,0.000000,0.000000,0.000000,0.000000,0.000000,0.000000,0.000000,1647426083.159221,0.000000
243.000000,22823.165098,1155.942816,-3361.814125,5455.412621,-47177.670560,-3596.485090,9379.663691,9272.375318,0.040000,0.972000,0.230000,192.000000,0.000000,0.000000,0.000000,0.000000,0.000000,0.000000,0.000000,0.000000,0.000000,1647426083.167081,0.000000
244.000000,22817.554810,1148.343223,-3364.138706,5449.824685,-47183.571420,-3596.596849,9378.903732,9270.810696,0.040000,0.972000,0.230000,192.000000,0.000000,0.000000,0.000000,0.000000,0.000000,0.000000,0.000000,0.000000,0.000000,1647426083.167097,0.000000
245.000000,22822.963932,1150.645453,-3361.411793,5451.545769,-47183.392606,-3594.518136,9382.636473,9266.921492,0.040000,0.972000,0.230000,192.000000,0.000000,0.000000,0.000000,0.000000,0.000000,0.000000,0.000000,0.000000,0.000000,1647426083.173903,0.000000
246.000000,22829.647104,1157.172162,-3358.215494,5451.724583,-47181.917391,-3593.244087,9375.618026,9253.398687,0.040000,0.972000,0.230000,192.000000,0.000000,0.000000,0.000000,0.000000,0.000000,0.000000,0.000000,0.000000,0.000000,1647426083.173920,0.000000
247.000000,22842.611115,1171.477279,-3346.123200,5474.188086,-47169.623932,-3585.309218,9378.993139,9256.438524,0.040000,0.972000,0.230000,192.000000,0.000000,0.000000,0.000000,0.000000,0.000000,0.000000,0.000000,0.000000,0.000000,1647426083.181861,0.000000
248.000000,22821.578124,1152.277130,-3364.809259,5455.278510,-47183.772586,-3598.563802,9370.700642,9261.691184,0.040000,0.972000,0.230000,192.000000,0.000000,0.000000,0.000000,0.000000,0.000000,0.000000,0.000000,0.000000,0.000000,1647426083.181877,0.000000
249.000000,22833.156327,1158.356805,-3360.830648,5449.578816,-47187.997066,-3606.073988,9364.665671,9252.549321,0.040000,0.972000,0.230000,192.000000,0.000000,0.000000,0.000000,0.000000,0.000000,0.000000,0.000000,0.000000,0.000000,1647426083.189850,0.000000
250.000000,22847.684961,1171.767851,-3350.057107,5476.914999,-47169.534525,-3591.299485,9373.807534,9252.594024,0.040000,0.970000,0.226000,192.000000,1.000000,64.000000,30.000000,80.000000,7.000000,16.000000,0.000000,0.000000,0.000000,1647426083.189866,0.000000
251.000000,22846.455615,1171.544334,-3349.230093,5471.774098,-47167.254647,-3590.159546,9367.191418,9251.364678,0.040000,0.970000,0.226000,192.000000,0.000000,0.000000,0.000000,0.000000,0.000000,0.000000,0.000000,0.000000,0.000000,1647426083.196964,0.000000
252.000000,22845.002752,1166.336377,-3351.353508,5466.633197,-47172.328493,-3597.714436,9358.831866,9240.635841,0.040000,0.970000,0.226000,192.000000,0.000000,0.000000,0.000000,0.000000,0.000000,0.000000,0.000000,0.000000,0.000000,1647426083.196980,0.000000
253.000000,22840.822976,1163.251837,-3355.533285,5462.609883,-47175.256571,-3600.709570,9360.195322,9254.315109,0.040000,0.970000,0.226000,192.000000,0.000000,0.000000,0.000000,0.000000,0.000000,0.000000,0.000000,0.000000,0.000000,1647426083.204502,0.000000
254.000000,22836.911420,1166.403433,-3354.482753,5463.123973,-47178.139946,-3600.620163,9350.271148,9263.658138,0.040000,0.970000,0.226000,192.000000,0.000000,0.000000,0.000000,0.000000,0.000000,0.000000,0.000000,0.000000,0.000000,1647426083.204519,0.000000
255.000000,22832.038740,1164.458831,-3353.745145,5463.794525,-47179.369292,-3597.513270,9367.236122,9254.516274,0.040000,0.970000,0.226000,192.000000,0.000000,0.000000,0.000000,0.000000,0.000000,0.000000,0.000000,0.000000,0.000000,1647426083.211498,0.000000
0.000000,22831.658761,1159.653206,-3359.713061,5458.340699,-47179.279885,-3596.663904,9396.986293,9268.597873,0.040000,0.970000,0.226000,192.000000,0.000000,0.000000,0.000000,0.000000,0.000000,0.000000,0.000000,0.000000,0.000000,1647426083.219549,0.000000
1.000000,22839.638333,1164.324720,-3358.774288,5455.591435,-47183.884345,-3591.523003,9406.239916,9292.849516,0.040000,0.970000,0.226000,192.000000,0.000000,0.000000,0.000000,0.000000,0.000000,0.000000,0.000000,0.000000,0.000000,1647426083.219566,0.000000
2.000000,22841.091197,1165.554066,-3361.858828,5460.039432,-47188.198231,-3598.116767,9390.258418,9281.561885,0.040000,0.970000,0.226000,192.000000,0.000000,0.000000,0.000000,0.000000,0.000000,0.000000,0.000000,0.000000,0.000000,1647426083.226697,0.000000
3.000000,22843.616944,1166.269322,-3354.259235,5459.927673,-47185.896002,-3602.117729,9383.441136,9271.414193,0.040000,0.970000,0.226000,192.000000,0.000000,0.000000,0.000000,0.000000,0.000000,0.000000,0.000000,0.000000,0.000000,1647426083.226713,0.000000
4.000000,22846.254450,1165.151735,-3343.329232,5468.153115,-47176.105937,-3588.080834,9392.046558,9269.469591,0.036000,0.962000,0.224000,192.000000,1.000000,32.000000,30.000000,16.000000,7.000000,0.000000,0.000000,0.000000,0.000000,1647426083.234104,0.000000
5.000000,22848.802549,1173.176011,-3337.808351,5474.702176,-47167.366405,-3580.123613,9387.799726,9265.490981,0.036000,0.962000,0.224000,192.000000,0.000000,0.000000,0.000000,0.000000,0.000000,0.000000,0.000000,0.000000,0.000000,1647426083.234121,0.000000
6.000000,22849.830729,1177.892229,-3341.518741,5471.237656,-47165.444155,-3587.790261,9380.155430,9256.438524,0.036000,0.962000,0.224000,192.000000,0.000000,0.000000,0.000000,0.000000,0.000000,0.000000,0.000000,0.000000,0.000000,1647426083.242144,0.000000
7.000000,22855.128092,1174.450061,-3341.049354,5465.180333,-47172.328493,-3588.147889,9375.953302,9255.142123,0.036000,0.962000,0.224000,192.000000,0.000000,0.000000,0.000000,0.000000,0.000000,0.000000,0.000000,0.000000,0.000000,1647426083.242160,0.000000
8.000000,22841.672342,1167.766889,-3344.960909,5460.777040,-47179.861031,-3591.411244,9365.380927,9247.095495,0.036000,0.962000,0.224000,192.000000,0.000000,0.000000,0.000000,0.000000,0.000000,0.000000,0.000000,0.000000,0.000000,1647426083.250106,0.000000
9.000000,22837.358455,1173.310122,-3343.597453,5464.576836,-47171.948513,-3593.132328,9361.536427,9238.490074,0.036000,0.962000,0.224000,192.000000,0.000000,0.000000,0.000000,0.000000,0.000000,0.000000,0.000000,0.000000,0.000000,1647426083.250122,0.000000
10.000000,22833.603362,1169.599732,-3346.190255,5460.106487,-47170.987388,-3595.725131,9356.641395,9240.613489,0.036000,0.962000,0.224000,192.000000,0.000000,0.000000,0.000000,0.000000,0.000000,0.000000,0.000000,0.000000,0.000000,1647426083.256609,0.000000
11.000000,22828.507165,1164.928218,-3347.911340,5457.200761,-47172.529658,-3594.562840,9358.250720,9247.564882,0.036000,0.962000,0.224000,192.000000,0.000000,0.000000,0.000000,0.000000,0.000000,0.000000,0.000000,0.000000,0.000000,1647426083.256626,0.000000
12.000000,22820.795813,1164.570590,-3345.407944,5454.786772,-47171.009740,-3587.499689,9359.480066,9249.844760,0.036000,0.962000,0.224000,192.000000,0.000000,0.000000,0.000000,0.000000,0.000000,0.000000,0.000000,0.000000,0.000000,1647426083.264793,0.000000
13.000000,22810.312845,1162.268360,-3350.146514,5449.690574,-47174.295446,-3589.712511,9369.471296,9252.772838,0.036000,0.962000,0.224000,192.000000,0.000000,0.000000,0.000000,0.000000,0.000000,0.000000,0.000000,0.000000,0.000000,1647426083.264811,0.000000
14.000000,22812.972702,1168.504497,-3344.536226,5459.435935,-47167.478164,-3585.465680,9375.975654,9263.814600,0.036000,0.962000,0.224000,192.000000,0.000000,0.000000,0.000000,0.000000,0.000000,0.000000,0.000000,0.000000,0.000000,1647426083.272387,0.000000
15.000000,22804.568446,1160.636683,-3352.158171,5452.082211,-47172.775528,-3597.423863,9360.485895,9249.487132,0.034000,0.962000,0.224000,192.000000,1.000000,16.000000,30.000000,16.000000,7.000000,0.000000,0.000000,0.000000,0.000000,1647426083.279172,0.000000
16.000000,22809.441127,1166.448136,-3348.671299,5454.630310,-47172.417900,-3599.435520,9356.663746,9248.280138,0.034000,0.962000,0.224000,192.000000,0.000000,0.000000,0.000000,0.000000,0.000000,0.000000,0.000000,0.000000,0.000000,1647426083.279188,0.000000
17.000000,22809.150554,1164.794107,-3349.118334,5456.373746,-47175.234219,-3605.984581,9342.157464,9235.852568,0.034000,0.962000,0.224000,192.000000,0.000000,0.000000,0.000000,0.000000,0.000000,0.000000,0.000000,0.000000,0.000000,1647426083.287148,0.000000
18.000000,22804.657853,1160.390813,-3347.888988,5456.977243,-47175.122461,-3596.619200,9370.722994,9250.805885,0.034000,0.962000,0.224000,192.000000,0.000000,0.000000,0.000000,0.000000,0.000000,0.000000,0.000000,0.000000,0.000000,1647426083.287163,0.000000
19.000000,22806.222475,1166.045805,-3345.206779,5461.335833,-47170.182725,-3592.797052,9379.618988,9260.126562,0.034000,0.962000,0.224000,192.000000,0.000000,0.000000,0.000000,0.000000,0.000000,0.000000,0.000000,0.000000,0.000000,1647426083.294104,0.000000
20.000000,22803.830839,1164.123555,-3350.727660,5457.580740,-47171.389719,-3606.833948,9350.628775,9228.275326,0.034000,0.962000,0.224000,192.000000,0.000000,0.000000,0.000000,0.000000,0.000000,0.000000,0.000000,0.000000,0.000000,1647426083.294121,0.000000
21.000000,22803.316749,1162.424822,-3349.498314,5454.563255,-47171.367368,-3601.558936,9372.622892,9245.776742,0.034000,0.962000,0.224000,192.000000,0.000000,0.000000,0.000000,0.000000,0.000000,0.000000,0.000000,0.000000,0.000000,1647426083.301805,0.000000
22.000000,22796.007728,1157.395680,-3351.398212,5453.065688,-47175.345978,-3593.266439,9394.572305,9279.907856,0.034000,0.962000,0.224000,192.000000,0.000000,0.000000,0.000000,0.000000,0.000000,0.000000,0.000000,0.000000,0.000000,1647426083.301823,0.000000
23.000000,22797.304129,1158.535619,-3350.750011,5454.295034,-47176.776490,-3590.740692,9396.740424,9285.875772,0.034000,0.962000,0.224000,192.000000,0.000000,0.000000,0.000000,0.000000,0.000000,0.000000,0.000000,0.000000,0.000000,1647426083.309821,0.000000
24.000000,22800.388670,1161.910732,-3348.358375,5455.211455,-47175.681254,-3588.684331,9390.705453,9281.919513,0.034000,0.962000,0.224000,192.000000,0.000000,0.000000,0.000000,0.000000,0.000000,0.000000,0.000000,0.000000,0.000000,1647426083.309838,0.000000
25.000000,22797.080612,1160.793145,-3352.113468,5453.043336,-47175.301275,-3594.965171,9376.221523,9270.341309,0.028000,0.958000,0.222000,192.000000,0.000000,224.000000,29.000000,240.000000,6.000000,240.000000,0.000000,0.000000,0.000000,1647426083.316858,0.000000
26.000000,22799.159324,1159.317930,-3354.460401,5448.818856,-47177.067063,-3601.782453,9366.073831,9251.565844,0.028000,0.958000,0.222000,192.000000,0.000000,0.000000,0.000000,0.000000,0.000000,0.000000,0.000000,0.000000,0.000000,1647426083.316874,0.000000
27.000000,22803.607321,1163.810630,-3349.677128,5454.496199,-47173.446080,-3591.858279,9377.383814,9270.274254,0.028000,0.958000,0.222000,192.000000,0.000000,0.000000,0.000000,0.000000,0.000000,0.000000,0.000000,0.000000,0.000000,1647426083.324415,0.000000
28.000000,22800.031042,1159.340281,-3350.995880,5460.844095,-47171.948513,-3590.204250,9377.584979,9271.928283,0.028000,0.958000,0.222000,192.000000,0.000000,0.000000,0.000000,0.000000,0.000000,0.000000,0.000000,0.000000,0.000000,1647426083.324431,0.000000
29.000000,22812.503316,1168.415090,-3345.251482,5462.162848,-47165.041824,-3592.372369,9374.232218,9263.993414,0.028000,0.958000,0.222000,192.000000,0.000000,0.000000,0.000000,0.000000,0.000000,0.000000,0.000000,0.000000,0.000000,1647426083.331458,0.000000
30.000000,22812.749185,1168.795069,-3346.681994,5457.893665,-47168.372234,-3597.312104,9361.782296,9256.460876,0.028000,0.958000,0.222000,192.000000,0.000000,0.000000,0.000000,0.000000,0.000000,0.000000,0.000000,0.000000,0.000000,1647426083.331474,0.000000
31.000000,22810.491659,1163.475354,-3345.810276,5456.820781,-47169.534525,-3590.271305,9369.493648,9261.601777,0.028000,0.958000,0.222000,192.000000,0.000000,0.000000,0.000000,0.000000,0.000000,0.000000,0.000000,0.000000,0.000000,1647426083.339453,0.000000
32.000000,22805.395461,1156.769831,-3351.957005,5449.087077,-47179.726920,-3599.927258,9365.649148,9243.765085,0.028000,0.958000,0.222000,192.000000,0.000000,0.000000,0.000000,0.000000,0.000000,0.000000,0.000000,0.000000,0.000000,1647426083.346667,0.000000
33.000000,22806.960083,1160.748441,-3350.839418,5450.897569,-47184.890173,-3603.302372,9359.770639,9235.696105,0.028000,0.958000,0.222000,192.000000,0.000000,0.000000,0.000000,0.000000,0.000000,0.000000,0.000000,0.000000,0.000000,1647426083.346684,0.000000
34.000000,22805.998958,1158.177991,-3354.102773,5448.550635,-47179.995141,-3604.397607,9355.233235,9245.553225,0.028000,0.958000,0.222000,192.000000,0.000000,0.000000,0.000000,0.000000,0.000000,0.000000,0.000000,0.000000,0.000000,1647426083.354051,0.000000
35.000000,22805.797792,1152.545351,-3358.975453,5443.186217,-47181.068025,-3610.946668,9335.116665,9240.993469,0.024000,0.952000,0.226000,192.000000,0.000000,192.000000,29.000000,192.000000,7.000000,16.000000,0.000000,0.000000,0.000000,1647426083.354068,0.000000
36.000000,22811.139859,1156.434555,-3358.327253,5444.527321,-47183.280847,-3612.511291,9343.520921,9230.935184,0.024000,0.952000,0.226000,192.000000,0.000000,0.000000,0.000000,0.000000,0.000000,0.000000,0.000000,0.000000,0.000000,1647426083.362032,0.000000
37.000000,22816.683092,1163.631816,-3352.359337,5448.550635,-47182.006798,-3603.212965,9365.760906,9243.586271,0.024000,0.952000,0.226000,192.000000,0.000000,0.000000,0.000000,0.000000,0.000000,0.000000,0.000000,0.000000,0.000000,1647426083.362048,0.000000
38.000000,22812.078632,1165.375252,-3351.711136,5447.410696,-47186.410092,-3601.849509,9361.447020,9250.247091,0.024000,0.952000,0.226000,192.000000,0.000000,0.000000,0.000000,0.000000,0.000000,0.000000,0.000000,0.000000,0.000000,1647426083.370029,0.000000
39.000000,22819.097080,1169.085642,-3346.480828,5457.111354,-47175.189516,-3595.568668,9372.779354,9258.628995,0.024000,0.952000,0.226000,192.000000,0.000000,0.000000,0.000000,0.000000,0.000000,0.000000,0.000000,0.000000,0.000000,1647426083.370045,0.000000
40.000000,22818.448880,1164.592941,-3347.196084,5456.507856,-47169.802746,-3593.981694,9392.068910,9275.102231,0.024000,0.952000,0.226000,192.000000,0.000000,0.000000,0.000000,0.000000,0.000000,0.000000,0.000000,0.000000,0.000000,1647426083.376666,0.000000
41.000000,22813.039757,1161.910732,-3349.990052,5451.098734,-47176.955304,-3603.347075,9384.402261,9258.539588,0.024000,0.952000,0.226000,192.000000,0.000000,0.000000,0.000000,0.000000,0.000000,0.000000,0.000000,0.000000,0.000000,1647426083.376683,0.000000
42.000000,22813.531496,1170.560857,-3345.519703,5457.848961,-47176.910600,-3599.435520,9383.374081,9264.552208,0.024000,0.952000,0.226000,192.000000,0.000000,0.000000,0.000000,0.000000,0.000000,0.000000,0.000000,0.000000,0.000000,1647426083.384686,0.000000
43.000000,22810.335196,1169.063290,-3345.966738,5449.534112,-47179.101071,-3605.246974,9377.987311,9259.523065,0.024000,0.952000,0.226000,192.000000,0.000000,0.000000,0.000000,0.000000,0.000000,0.000000,0.000000,0.000000,0.000000,1647426083.384703,0.000000
44.000000,22808.949388,1164.548238,-3347.933691,5445.622557,-47175.725958,-3612.310125,9377.450869,9258.159609,0.024000,0.952000,0.226000,192.000000,0.000000,0.000000,0.000000,0.000000,0.000000,0.000000,0.000000,0.000000,0.000000,1647426083.392696,0.000000
45.000000,22803.316749,1165.978750,-3347.374898,5455.680842,-47172.730824,-3610.521985,9383.374081,9271.190676,0.026000,0.956000,0.220000,192.000000,0.000000,208.000000,29.000000,224.000000,6.000000,224.000000,0.000000,0.000000,0.000000,1647426083.392712,0.000000
46.000000,22804.680205,1161.307235,-3349.118334,5449.332946,-47176.262400,-3616.467549,9364.799781,9249.308318,0.026000,0.956000,0.220000,192.000000,0.000000,0.000000,0.000000,0.000000,0.000000,0.000000,0.000000,0.000000,0.000000,1647426083.399765,0.000000
47.000000,22802.825010,1149.773735,-3357.433183,5438.648813,-47186.812423,-3625.050619,9350.651127,9231.650440,0.026000,0.956000,0.220000,192.000000,0.000000,0.000000,0.000000,0.000000,0.000000,0.000000,0.000000,0.000000,0.000000,1647426083.406224,0.000000
48.000000,22802.266217,1148.164409,-3361.054165,5436.637156,-47187.035941,-3623.262480,9351.411086,9234.153835,0.026000,0.956000,0.220000,192.000000,0.000000,0.000000,0.000000,0.000000,0.000000,0.000000,0.000000,0.000000,0.000000,1647426083.406240,0.000000
49.000000,22812.190391,1164.123555,-3356.114430,5448.662394,-47180.732749,-3613.941802,9356.999023,9242.401629,0.026000,0.956000,0.220000,192.000000,0.000000,0.000000,0.000000,0.000000,0.000000,0.000000,0.000000,0.000000,0.000000,1647426083.414062,0.000000
50.000000,22823.053339,1167.476316,-3353.521628,5449.042374,-47180.106900,-3604.956401,9370.924159,9254.940957,0.026000,0.956000,0.220000,192.000000,0.000000,0.000000,0.000000,0.000000,0.000000,0.000000,0.000000,0.000000,0.000000,1647426083.414077,0.000000
51.000000,22821.488717,1160.815497,-3356.539113,5440.973394,-47184.510193,-3603.391779,9367.750212,9260.998280,0.026000,0.956000,0.220000,192.000000,0.000000,0.000000,0.000000,0.000000,0.000000,0.000000,0.000000,0.000000,0.000000,1647426083.422067,0.000000
52.000000,22821.332255,1163.140078,-3354.236883,5444.974356,-47183.973752,-3601.737750,9365.671499,9256.617338,0.026000,0.956000,0.220000,192.000000,0.000000,0.000000,0.000000,0.000000,0.000000,0.000000,0.000000,0.000000,0.000000,1647426083.422083,0.000000
53.000000,22814.000882,1153.148848,-3360.137744,5433.619670,-47185.650132,-3612.421884,9341.218691,9230.331687,0.026000,0.956000,0.220000,192.000000,0.000000,0.000000,0.000000,0.000000,0.000000,0.000000,0.000000,0.000000,0.000000,1647426083.429444,0.000000
54.000000,22813.777365,1153.662938,-3352.582854,5436.681859,-47183.772586,-3607.280982,9332.434455,9229.012934,0.026000,0.956000,0.220000,192.000000,0.000000,0.000000,0.000000,0.000000,0.000000,0.000000,0.000000,0.000000,0.000000,1647426083.429459,0.000000
55.000000,22819.052377,1159.228523,-3345.363241,5444.035583,-47170.495650,-3597.401511,9344.035011,9242.669850,0.032000,0.968000,0.220000,192.000000,1.000000,0.000000,30.000000,64.000000,6.000000,224.000000,0.000000,0.000000,0.000000,1647426083.436695,0.000000
56.000000,22823.880353,1164.838811,-3340.602319,5447.388345,-47170.294484,-3593.802881,9354.495627,9241.395800,0.032000,0.968000,0.220000,192.000000,0.000000,0.000000,0.000000,0.000000,0.000000,0.000000,0.000000,0.000000,0.000000,1647426083.436710,0.000000
57.000000,22827.568391,1168.280979,-3333.472113,5457.312519,-47164.326568,-3578.313122,9393.566477,9277.270350,0.032000,0.968000,0.220000,192.000000,0.000000,0.000000,0.000000,0.000000,0.000000,0.000000,0.000000,0.000000,0.000000,1647426083.444997,0.000000
58.000000,22822.494545,1161.933084,-3338.925938,5456.284339,-47167.344054,-3580.481241,9390.146660,9279.259655,0.032000,0.968000,0.220000,192.000000,0.000000,0.000000,0.000000,0.000000,0.000000,0.000000,0.000000,0.000000,0.000000,1647426083.445013,0.000000
59.000000,22826.115528,1166.314026,-3341.250520,5453.691537,-47166.606446,-3583.185802,9384.804593,9282.433603,0.032000,0.968000,0.220000,192.000000,0.000000,0.000000,0.000000,0.000000,0.000000,0.000000,0.000000,0.000000,0.000000,1647426083.451717,0.000000
60.000000,22830.295304,1164.123555,-3343.016308,5451.836342,-47166.338225,-3585.756252,9380.289540,9268.486115,0.032000,0.968000,0.220000,192.000000,0.000000,0.000000,0.000000,0.000000,0.000000,0.000000,0.000000,0.000000,0.000000,1647426083.451726,0.000000
61.000000,22826.964894,1152.902979,-3351.711136,5433.642022,-47179.928086,-3590.450119,9379.864857,9262.987585,0.032000,0.968000,0.220000,192.000000,0.000000,0.000000,0.000000,0.000000,0.000000,0.000000,0.000000,0.000000,0.000000,1647426083.458529,0.000000
62.000000,22836.598496,1162.648340,-3347.151380,5454.473848,-47177.536449,-3593.311142,9378.143773,9259.970100,0.032000,0.968000,0.220000,192.000000,0.000000,0.000000,0.000000,0.000000,0.000000,0.000000,0.000000,0.000000,0.000000,1647426083.466459,0.000000
63.000000,22834.564487,1165.419956,-3340.535264,5458.743031,-47173.602542,-3586.717378,9377.562628,9263.501676,0.032000,0.968000,0.220000,192.000000,0.000000,0.000000,0.000000,0.000000,0.000000,0.000000,0.000000,0.000000,0.000000,1647426083.466475,0.000000
64.000000,22839.995961,1167.632779,-3335.036735,5460.128839,-47166.293522,-3579.095433,9386.816250,9275.437507,0.032000,0.968000,0.220000,192.000000,0.000000,0.000000,0.000000,0.000000,0.000000,0.000000,0.000000,0.000000,0.000000,1647426083.474680,0.000000
65.000000,22836.866717,1159.630854,-3340.445857,5453.244502,-47164.617141,-3581.218848,9395.354616,9278.410289,0.024000,0.962000,0.228000,192.000000,0.000000,192.000000,30.000000,16.000000,7.000000,32.000000,0.000000,0.000000,0.000000,1647426083.474698,0.000000
66.000000,22834.609191,1163.587113,-3341.563444,5450.830513,-47170.629760,-3586.695026,9386.771546,9272.218856,0.024000,0.962000,0.228000,192.000000,0.000000,0.000000,0.000000,0.000000,0.000000,0.000000,0.000000,0.000000,0.000000,1647426083.481667,0.000000
67.000000,22839.370112,1171.387872,-3337.137799,5459.123011,-47163.432498,-3584.973941,9382.122383,9267.189713,0.024000,0.962000,0.228000,192.000000,0.000000,0.000000,0.000000,0.000000,0.000000,0.000000,0.000000,0.000000,0.000000,1647426083.481684,0.000000
68.000000,22841.493528,1173.712453,-3336.199026,5459.592397,-47163.477202,-3585.800956,9379.708395,9269.782516,0.024000,0.962000,0.228000,192.000000,0.000000,0.000000,0.000000,0.000000,0.000000,0.000000,0.000000,0.000000,0.000000,1647426083.489051,0.000000
69.000000,22839.750092,1168.146869,-3339.775305,5453.803295,-47166.472336,-3593.311142,9370.052441,9255.008013,0.024000,0.962000,0.228000,192.000000,0.000000,0.000000,0.000000,0.000000,0.000000,0.000000,0.000000,0.000000,0.000000,1647426083.489068,0.000000
70.000000,22834.698598,1159.697909,-3348.112505,5444.616728,-47175.971827,-3606.655134,9353.959185,9234.667925,0.024000,0.962000,0.228000,192.000000,0.000000,0.000000,0.000000,0.000000,0.000000,0.000000,0.000000,0.000000,0.000000,1647426083.497072,0.000000
71.000000,22836.330275,1167.409261,-3345.542055,5444.303804,-47181.291542,-3606.677485,9354.160351,9226.442483,0.024000,0.962000,0.228000,192.000000,0.000000,0.000000,0.000000,0.000000,0.000000,0.000000,0.000000,0.000000,0.000000,1647426083.497087,0.000000
72.000000,22831.703464,1161.843677,-3348.403078,5445.488446,-47179.145775,-3604.755235,9345.577281,9235.383181,0.024000,0.962000,0.228000,192.000000,0.000000,0.000000,0.000000,0.000000,0.000000,0.000000,0.000000,0.000000,0.000000,1647426083.505219,0.000000
73.000000,22831.569354,1158.535619,-3348.403078,5439.587586,-47180.665693,-3602.564764,9344.683211,9253.264577,0.024000,0.962000,0.228000,192.000000,0.000000,0.000000,0.000000,0.000000,0.000000,0.000000,0.000000,0.000000,0.000000,1647426083.505235,0.000000
74.000000,22836.151461,1155.719299,-3351.286453,5431.496254,-47180.218658,-3608.197404,9347.231310,9247.609585,0.024000,0.962000,0.228000,192.000000,0.000000,0.000000,0.000000,0.000000,0.000000,0.000000,0.000000,0.000000,0.000000,1647426083.511829,0.000000
75.000000,22845.226269,1162.201305,-3347.151380,5444.549673,-47174.295446,-3604.464663,9370.499476,9262.227626,0.026000,0.954000,0.230000,192.000000,0.000000,208.000000,29.000000,208.000000,7.000000,48.000000,0.000000,0.000000,0.000000,1647426083.511846,0.000000
76.000000,22837.224345,1159.563799,-3347.553712,5435.676031,-47179.525754,-3593.646418,9382.614122,9262.205274,0.026000,0.954000,0.230000,192.000000,0.000000,0.000000,0.000000,0.000000,0.000000,0.000000,0.000000,0.000000,0.000000,1647426083.518895,0.000000
77.000000,22831.547002,1156.434555,-3338.814180,5447.969490,-47174.988350,-3582.850526,9390.884267,9265.401574,0.026000,0.954000,0.230000,192.000000,0.000000,0.000000,0.000000,0.000000,0.000000,0.000000,0.000000,0.000000,0.000000,1647426083.526824,0.000000
78.000000,22834.497432,1158.356805,-3337.562482,5454.809124,-47163.521905,-3584.750424,9384.022282,9263.322862,0.026000,0.954000,0.230000,192.000000,0.000000,0.000000,0.000000,0.000000,0.000000,0.000000,0.000000,0.000000,0.000000,1647426083.526842,0.000000
79.000000,22839.526575,1154.489953,-3338.165979,5448.595339,-47165.220638,-3581.956456,9378.881380,9269.693109,0.026000,0.954000,0.230000,192.000000,0.000000,0.000000,0.000000,0.000000,0.000000,0.000000,0.000000,0.000000,0.000000,1647426083.534847,0.000000
80.000000,22835.860888,1147.627967,-3345.184427,5433.776132,-47176.038882,-3592.573535,9379.551933,9266.094478,0.026000,0.954000,0.230000,192.000000,0.000000,0.000000,0.000000,0.000000,0.000000,0.000000,0.000000,0.000000,0.000000,1647426083.534863,0.000000
81.000000,22830.116490,1149.572569,-3344.022136,5436.212472,-47177.737615,-3581.889401,9394.617009,9283.305321,0.026000,0.954000,0.230000,192.000000,0.000000,0.000000,0.000000,0.000000,0.000000,0.000000,0.000000,0.000000,0.000000,1647426083.541481,0.000000
82.000000,22825.400272,1148.477334,-3347.888988,5433.664374,-47181.380949,-3583.141098,9384.402261,9276.130411,0.026000,0.954000,0.230000,192.000000,0.000000,0.000000,0.000000,0.000000,0.000000,0.000000,0.000000,0.000000,0.000000,1647426083.541497,0.000000
83.000000,22824.282685,1142.822342,-3353.655738,5429.082266,-47181.045673,-3585.599790,9377.227351,9270.564827,0.026000,0.954000,0.230000,192.000000,0.000000,0.000000,0.000000,0.000000,0.000000,0.000000,0.000000,0.000000,0.000000,1647426083.549429,0.000000
84.000000,22827.836612,1145.437496,-3355.153305,5428.143493,-47178.855202,-3588.729035,9373.159334,9268.888446,0.026000,0.954000,0.230000,192.000000,0.000000,0.000000,0.000000,0.000000,0.000000,0.000000,0.000000,0.000000,0.000000,1647426083.549445,0.000000
85.000000,22832.239906,1155.227560,-3348.760706,5430.713943,-47179.011664,-3587.499689,9377.339110,9260.238321,0.028000,0.956000,0.230000,192.000000,0.000000,224.000000,29.000000,224.000000,7.000000,48.000000,0.000000,0.000000,0.000000,1647426083.557516,0.000000
86.000000,22828.909496,1155.875761,-3351.845247,5416.811158,-47186.365388,-3592.148851,9369.359537,9260.528894,0.028000,0.956000,0.230000,192.000000,0.000000,0.000000,0.000000,0.000000,0.000000,0.000000,0.000000,0.000000,0.000000,1647426083.557533,0.000000
87.000000,22831.167022,1162.737747,-3347.732526,5440.056973,-47176.798842,-3595.166337,9352.394563,9244.480341,0.028000,0.956000,0.230000,192.000000,0.000000,0.000000,0.000000,0.000000,0.000000,0.000000,0.000000,0.000000,0.000000,1647426083.564141,0.000000
88.000000,22824.059167,1154.646415,-3352.895779,5436.078362,-47173.893115,-3600.575459,9343.766790,9243.988603,0.028000,0.956000,0.230000,192.000000,0.000000,0.000000,0.000000,0.000000,0.000000,0.000000,0.000000,0.000000,0.000000,1647426083.564157,0.000000
89.000000,22837.112586,1167.051633,-3342.569273,5443.052106,-47165.131231,-3594.294619,9361.067040,9270.765992,0.028000,0.956000,0.230000,192.000000,0.000000,0.000000,0.000000,0.000000,0.000000,0.000000,0.000000,0.000000,0.000000,1647426083.571945,0.000000
90.000000,22839.258354,1164.257665,-3344.022136,5435.228996,-47168.171068,-3596.149814,9378.926084,9264.574559,0.028000,0.956000,0.230000,192.000000,0.000000,0.000000,0.000000,0.000000,0.000000,0.000000,0.000000,0.000000,0.000000,1647426083.571961,0.000000
91.000000,22838.632505,1161.195476,-3339.775305,5445.890778,-47165.779432,-3594.942819,9375.618026,9246.603757,0.028000,0.956000,0.230000,192.000000,0.000000,0.000000,0.000000,0.000000,0.000000,0.000000,0.000000,0.000000,0.000000,1647426083.579146,0.000000
92.000000,22838.856022,1162.380119,-3339.060049,5443.409734,-47165.622969,-3592.640590,9362.654014,9243.854492,0.028000,0.956000,0.230000,192.000000,0.000000,0.000000,0.000000,0.000000,0.000000,0.000000,0.000000,0.000000,0.000000,1647426083.579162,0.000000
93.000000,22832.329313,1158.960302,-3344.536226,5435.631327,-47172.440251,-3601.067197,9349.533540,9240.680544,0.028000,0.956000,0.230000,192.000000,0.000000,0.000000,0.000000,0.000000,0.000000,0.000000,0.000000,0.000000,0.000000,1647426083.587307,0.000000
94.000000,22835.369150,1163.296540,-3342.010479,5437.978260,-47173.222562,-3598.005008,9358.250720,9254.538626,0.028000,0.956000,0.230000,192.000000,0.000000,0.000000,0.000000,0.000000,0.000000,0.000000,0.000000,0.000000,0.000000,1647426083.593741,0.000000
95.000000,22841.091197,1170.717319,-3341.742258,5449.891740,-47164.505382,-3587.589096,9381.675348,9281.293664,0.028000,0.950000,0.234000,192.000000,0.000000,224.000000,29.000000,176.000000,7.000000,80.000000,0.000000,0.000000,0.000000,1647426083.593757,0.000000
96.000000,22840.934734,1166.090508,-3346.078497,5446.270757,-47170.294484,-3592.260610,9377.808497,9274.476382,0.028000,0.950000,0.234000,192.000000,0.000000,0.000000,0.000000,0.000000,0.000000,0.000000,0.000000,0.000000,0.000000,1647426083.601754,0.000000
97.000000,22833.201031,1168.683311,-3346.078497,5447.075420,-47173.267266,-3595.121633,9375.215694,9265.915664,0.028000,0.950000,0.234000,192.000000,0.000000,0.000000,0.000000,0.000000,0.000000,0.000000,0.000000,0.000000,0.000000,1647426083.601770,0.000000
98.000000,22825.869659,1166.895171,-3347.151380,5441.085153,-47174.004874,-3599.256706,9374.545142,9252.974004,0.028000,0.950000,0.234000,192.000000,0.000000,0.000000,0.000000,0.000000,0.000000,0.000000,0.000000,0.000000,0.000000,1647426083.609807,0.000000
99.000000,22828.127185,1164.838811,-3349.721831,5436.123065,-47172.484955,-3602.989447,9369.426593,9253.532798,0.028000,0.950000,0.234000,192.000000,0.000000,0.000000,0.000000,0.000000,0.000000,0.000000,0.000000,0.000000,0.000000,1647426083.609823,0.000000
100.000000,22835.078577,1167.096337,-3341.339927,5450.249368,-47164.684196,-3589.131366,9370.074793,9258.092553,0.028000,0.950000,0.234000,192.000000,0.000000,0.000000,0.000000,0.000000,0.000000,0.000000,0.000000,0.000000,0.000000,1647426083.616893,0.000000
101.000000,22835.436205,1168.750366,-3338.434200,5447.768324,-47170.406243,-3586.940895,9376.467392,9251.655251,0.028000,0.950000,0.234000,192.000000,0.000000,0.000000,0.000000,0.000000,0.000000,0.000000,0.000000,0.000000,0.000000,1647426083.616909,0.000000
102.000000,22837.201993,1176.506421,-3338.277738,5454.563255,-47167.455812,-3588.997255,9373.181686,9248.727172,0.028000,0.950000,0.234000,192.000000,0.000000,0.000000,0.000000,0.000000,0.000000,0.000000,0.000000,0.000000,0.000000,1647426083.624440,0.000000
103.000000,22837.805490,1174.114784,-3340.825837,5451.098734,-47168.551048,-3592.618238,9371.885284,9249.487132,0.028000,0.950000,0.234000,192.000000,0.000000,0.000000,0.000000,0.000000,0.000000,0.000000,0.000000,0.000000,0.000000,1647426083.624456,0.000000
104.000000,22842.387598,1168.571552,-3342.077534,5447.008365,-47165.712376,-3593.758177,9371.885284,9239.339440,0.028000,0.950000,0.234000,192.000000,0.000000,0.000000,0.000000,0.000000,0.000000,0.000000,0.000000,0.000000,0.000000,1647426083.632413,0.000000
105.000000,22841.202955,1161.821325,-3346.860808,5444.683784,-47167.187591,-3595.233392,9363.503380,9250.336498,0.024000,0.958000,0.244000,192.000000,0.000000,192.000000,29.000000,240.000000,7.000000,160.000000,0.000000,0.000000,0.000000,1647426083.632429,0.000000
106.000000,22839.928906,1162.916561,-3348.581892,5447.924787,-47176.508269,-3602.073026,9339.028220,9228.700009,0.024000,0.958000,0.244000,192.000000,0.000000,0.000000,0.000000,0.000000,0.000000,0.000000,0.000000,0.000000,0.000000,1647426083.640375,0.000000
107.000000,22848.467272,1168.102165,-3346.324366,5452.261025,-47173.602542,-3594.562840,9359.725935,9246.827274,0.024000,0.958000,0.244000,192.000000,0.000000,0.000000,0.000000,0.000000,0.000000,0.000000,0.000000,0.000000,0.000000,1647426083.640392,0.000000
108.000000,22842.722874,1162.693043,-3350.548846,5444.214397,-47177.670560,-3595.635724,9380.937741,9250.939995,0.024000,0.958000,0.244000,192.000000,0.000000,0.000000,0.000000,0.000000,0.000000,0.000000,0.000000,0.000000,0.000000,1647426083.646554,0.000000
109.000000,22839.370112,1158.557970,-3352.694613,5441.174560,-47177.692911,-3598.139119,9374.679252,9260.752411,0.024000,0.958000,0.244000,192.000000,0.000000,0.000000,0.000000,0.000000,0.000000,0.000000,0.000000,0.000000,0.000000,1647426083.654040,0.000000
110.000000,22842.432301,1165.844639,-3348.179561,5439.319365,-47182.431481,-3596.708607,9376.579151,9270.453068,0.024000,0.958000,0.244000,192.000000,0.000000,0.000000,0.000000,0.000000,0.000000,0.000000,0.000000,0.000000,0.000000,1647426083.654056,0.000000
111.000000,22841.538232,1165.352901,-3349.587721,5445.421391,-47180.531583,-3599.323761,9369.136020,9254.136295,0.024000,0.958000,0.244000,192.000000,0.000000,0.000000,0.000000,0.000000,0.000000,0.000000,0.000000,0.000000,0.000000,1647426083.662091,0.000000
112.000000,22842.141729,1169.242104,-3348.201912,5438.492350,-47180.486879,-3602.855337,9379.261360,9256.550283,0.024000,0.958000,0.244000,192.000000,0.000000,0.000000,0.000000,0.000000,0.000000,0.000000,0.000000,0.000000,0.000000,1647426083.662107,0.000000
113.000000,22848.489624,1172.036072,-3340.088229,5447.835380,-47169.020435,-3590.271305,9389.610218,9279.907856,0.024000,0.958000,0.244000,192.000000,0.000000,0.000000,0.000000,0.000000,0.000000,0.000000,0.000000,0.000000,0.000000,1647426083.669944,0.000000
114.000000,22856.849177,1172.080776,-3331.058124,5455.032641,-47163.186629,-3582.559953,9398.103881,9286.591028,0.024000,0.958000,0.244000,192.000000,0.000000,0.000000,0.000000,0.000000,0.000000,0.000000,0.000000,0.000000,0.000000,1647426083.669960,0.000000
115.000000,22862.168892,1170.024415,-3330.611090,5450.383478,-47164.863010,-3588.170241,9394.348788,9274.454030,0.024000,0.958000,0.244000,192.000000,0.000000,0.000000,0.000000,0.000000,0.000000,0.000000,0.000000,0.000000,0.000000,1647426083.676505,0.000000
116.000000,22868.203863,1174.740633,-3325.581947,5464.755650,-47158.135135,-3580.660055,9391.085433,9267.815562,0.022000,0.956000,0.248000,192.000000,0.000000,176.000000,29.000000,224.000000,7.000000,192.000000,0.000000,0.000000,0.000000,1647426083.676517,0.000000
117.000000,22857.497377,1175.478241,-3324.531415,5463.191028,-47158.202190,-3584.303389,9383.999930,9259.187789,0.022000,0.956000,0.248000,192.000000,0.000000,0.000000,0.000000,0.000000,0.000000,0.000000,0.000000,0.000000,0.000000,1647426083.684735,0.000000
118.000000,22853.004676,1168.035110,-3334.187369,5456.105525,-47159.029205,-3597.334456,9368.979558,9246.603757,0.022000,0.956000,0.248000,192.000000,0.000000,0.000000,0.000000,0.000000,0.000000,0.000000,0.000000,0.000000,0.000000,1647426083.684752,0.000000
119.000000,22850.881261,1164.436479,-3337.048392,5454.317385,-47160.817344,-3597.803843,9368.756040,9252.124638,0.022000,0.956000,0.248000,192.000000,0.000000,0.000000,0.000000,0.000000,0.000000,0.000000,0.000000,0.000000,0.000000,1647426083.692757,0.000000
120.000000,22851.082426,1172.974846,-3328.755895,5458.340699,-47160.549123,-3587.924372,9377.205000,9258.070202,0.022000,0.956000,0.248000,192.000000,0.000000,0.000000,0.000000,0.000000,0.000000,0.000000,0.000000,0.000000,0.000000,1647426083.692774,0.000000
121.000000,22859.106703,1178.003988,-3321.156302,5457.245464,-47159.252722,-3580.213020,9387.352692,9264.865132,0.022000,0.956000,0.248000,192.000000,0.000000,0.000000,0.000000,0.000000,0.000000,0.000000,0.000000,0.000000,0.000000,1647426083.699331,0.000000
122.000000,22857.005639,1166.068156,-3328.957060,5452.216321,-47159.185667,-3586.695026,9375.953302,9262.227626,0.022000,0.956000,0.248000,192.000000,0.000000,0.000000,0.000000,0.000000,0.000000,0.000000,0.000000,0.000000,0.000000,1647426083.699347,0.000000
123.000000,22857.989115,1168.526848,-3325.358430,5452.685708,-47160.146792,-3579.564819,9378.836677,9266.943844,0.022000,0.956000,0.248000,192.000000,0.000000,0.000000,0.000000,0.000000,0.000000,0.000000,0.000000,0.000000,0.000000,1647426083.706372,0.000000
124.000000,22852.468235,1164.391776,-3328.308860,5446.293109,-47159.744461,-3577.351997,9380.423651,9261.869998,0.022000,0.956000,0.248000,192.000000,0.000000,0.000000,0.000000,0.000000,0.000000,0.000000,0.000000,0.000000,0.000000,1647426083.714330,0.000000
125.000000,22849.227232,1164.838811,-3334.187369,5438.022964,-47167.433461,-3583.118747,9373.114630,9250.828236,0.022000,0.956000,0.248000,192.000000,0.000000,0.000000,0.000000,0.000000,0.000000,0.000000,0.000000,0.000000,0.000000,1647426083.714346,0.000000
126.000000,22854.055208,1174.092433,-3329.493502,5443.677955,-47166.561743,-3576.659093,9379.216657,9259.992452,0.022000,0.954000,0.250000,192.000000,0.000000,176.000000,29.000000,208.000000,7.000000,208.000000,0.000000,0.000000,0.000000,1647426083.722081,0.000000
127.000000,22849.204880,1169.532677,-3325.514892,5452.864522,-47163.030167,-3575.943837,9378.769622,9256.997318,0.022000,0.954000,0.250000,192.000000,0.000000,0.000000,0.000000,0.000000,0.000000,0.000000,0.000000,0.000000,0.000000,1647426083.722098,0.000000
128.000000,22849.070769,1165.509363,-3324.732581,5450.852865,-47158.492763,-3573.842773,9372.086450,9242.893367,0.022000,0.954000,0.250000,192.000000,0.000000,0.000000,0.000000,0.000000,0.000000,0.000000,0.000000,0.000000,0.000000,1647426083.728958,0.000000
129.000000,22855.932755,1169.957360,-3320.329287,5459.726508,-47154.201228,-3569.707700,9378.032014,9263.747545,0.022000,0.954000,0.250000,192.000000,0.000000,0.000000,0.000000,0.000000,0.000000,0.000000,0.000000,0.000000,0.000000,1647426083.728975,0.000000
130.000000,22853.004676,1165.598770,-3323.793807,5453.937406,-47158.001024,-3570.177087,9390.906619,9285.607551,0.022000,0.954000,0.250000,192.000000,0.000000,0.000000,0.000000,0.000000,0.000000,0.000000,0.000000,0.000000,0.000000,1647426083.736887,0.000000
131.000000,22854.301078,1170.985540,-3325.067857,5452.886874,-47162.337263,-3574.736842,9385.296331,9271.145972,0.022000,0.954000,0.250000,192.000000,0.000000,0.000000,0.000000,0.000000,0.000000,0.000000,0.000000,0.000000,0.000000,1647426083.736903,0.000000
132.000000,22847.819072,1166.939875,-3335.349659,5438.246481,-47170.428594,-3589.444290,9376.422689,9248.302489,0.022000,0.954000,0.250000,192.000000,0.000000,0.000000,0.000000,0.000000,0.000000,0.000000,0.000000,0.000000,0.000000,1647426083.745028,0.000000
133.000000,22846.321505,1161.463697,-3336.914281,5434.804313,-47174.340150,-3587.231468,9370.991215,9244.525045,0.022000,0.954000,0.250000,192.000000,0.000000,0.000000,0.000000,0.000000,0.000000,0.000000,0.000000,0.000000,0.000000,1647426083.745043,0.000000
134.000000,22852.244717,1166.805764,-3339.574139,5437.307708,-47169.467469,-3587.656151,9373.226389,9268.754335,0.022000,0.954000,0.250000,192.000000,0.000000,0.000000,0.000000,0.000000,0.000000,0.000000,0.000000,0.000000,0.000000,1647426083.752068,0.000000
135.000000,22856.871528,1165.598770,-3337.249558,5443.186217,-47164.013644,-3584.281037,9379.775450,9281.360719,0.022000,0.954000,0.250000,192.000000,0.000000,0.000000,0.000000,0.000000,0.000000,0.000000,0.000000,0.000000,0.000000,1647426083.752084,0.000000
136.000000,22857.318563,1164.168258,-3338.478904,5439.609938,-47169.556876,-3586.806784,9373.114630,9253.756315,0.014000,0.952000,0.242000,192.000000,0.000000,112.000000,29.000000,192.000000,7.000000,144.000000,0.000000,0.000000,0.000000,1647426083.759556,0.000000
137.000000,22855.217499,1165.598770,-3334.746162,5438.604109,-47171.434423,-3588.550221,9372.041747,9243.407457,0.014000,0.952000,0.242000,192.000000,0.000000,0.000000,0.000000,0.000000,0.000000,0.000000,0.000000,0.000000,0.000000,1647426083.759573,0.000000
138.000000,22857.519729,1171.834907,-3327.303031,5446.382516,-47163.633664,-3571.875819,9401.456642,9294.481193,0.014000,0.952000,0.242000,192.000000,0.000000,0.000000,0.000000,0.000000,0.000000,0.000000,0.000000,0.000000,0.000000,1647426083.766495,0.000000
139.000000,22861.386581,1172.751328,-3329.225281,5445.041412,-47159.498591,-3573.954531,9404.138852,9304.293609,0.014000,0.952000,0.242000,192.000000,0.000000,0.000000,0.000000,0.000000,0.000000,0.000000,0.000000,0.000000,0.000000,1647426083.774621,0.000000
140.000000,22861.967726,1173.153659,-3327.191273,5445.846074,-47159.655054,-3578.380177,9384.983407,9283.953522,0.014000,0.952000,0.242000,192.000000,0.000000,0.000000,0.000000,0.000000,0.000000,0.000000,0.000000,0.000000,0.000000,1647426083.774637,0.000000
141.000000,22863.465293,1171.052596,-3332.734505,5443.119162,-47163.141926,-3585.935066,9365.246816,9265.625091,0.014000,0.952000,0.242000,192.000000,0.000000,0.000000,0.000000,0.000000,0.000000,0.000000,0.000000,0.000000,0.000000,1647426083.781744,0.000000
142.000000,22866.885110,1178.696892,-3330.007592,5451.679880,-47161.532600,-3584.281037,9370.097145,9268.217894,0.014000,0.952000,0.242000,192.000000,0.000000,0.000000,0.000000,0.000000,0.000000,0.000000,0.000000,0.000000,0.000000,1647426083.781760,0.000000
143.000000,22871.064886,1181.692026,-3315.836586,5458.608920,-47147.205132,-3574.468622,9380.535410,9272.978815,0.014000,0.952000,0.242000,192.000000,0.000000,0.000000,0.000000,0.000000,0.000000,0.000000,0.000000,0.000000,0.000000,1647426083.788992,0.000000
144.000000,22870.953127,1180.641494,-3315.814235,5454.675013,-47144.791144,-3569.774755,9388.939665,9273.202333,0.014000,0.952000,0.242000,192.000000,0.000000,0.000000,0.000000,0.000000,0.000000,0.000000,0.000000,0.000000,0.000000,1647426083.789008,0.000000
145.000000,22875.222310,1183.301351,-3311.880328,5462.073441,-47141.773658,-3564.633854,9385.832773,9270.721289,0.014000,0.952000,0.242000,192.000000,0.000000,0.000000,0.000000,0.000000,0.000000,0.000000,0.000000,0.000000,0.000000,1647426083.797257,0.000000
146.000000,22871.511921,1174.718282,-3324.218491,5451.389307,-47152.524847,-3575.474450,9370.879456,9254.851550,0.018000,0.952000,0.244000,192.000000,0.000000,144.000000,29.000000,192.000000,7.000000,160.000000,0.000000,0.000000,0.000000,1647426083.797273,0.000000
147.000000,22873.836502,1182.519040,-3321.513930,5456.373746,-47152.346033,-3568.992444,9374.567494,9255.946786,0.018000,0.952000,0.244000,192.000000,0.000000,0.000000,0.000000,0.000000,0.000000,0.000000,0.000000,0.000000,0.000000,1647426083.804264,0.000000
148.000000,22872.473046,1181.714378,-3316.574194,5455.703194,-47147.830981,-3560.342319,9386.346863,9271.727118,0.018000,0.952000,0.244000,192.000000,0.000000,0.000000,0.000000,0.000000,0.000000,0.000000,0.000000,0.000000,0.000000,1647426083.804281,0.000000
149.000000,22868.673249,1173.220715,-3320.888081,5450.584644,-47149.328548,-3568.970092,9372.891113,9257.690222,0.018000,0.952000,0.244000,192.000000,0.000000,0.000000,0.000000,0.000000,0.000000,0.000000,0.000000,0.000000,0.000000,1647426083.811866,0.000000
150.000000,22854.882223,1159.608502,-3340.647023,5435.519568,-47164.728900,-3586.538564,9352.238101,9237.841873,0.018000,0.952000,0.244000,192.000000,0.000000,0.000000,0.000000,0.000000,0.000000,0.000000,0.000000,0.000000,0.000000,1647426083.811883,0.000000
151.000000,22868.203863,1175.813517,-3317.468264,5452.462191,-47152.301330,-3566.801973,9366.297348,9260.037155,0.018000,0.952000,0.244000,192.000000,0.000000,0.000000,0.000000,0.000000,0.000000,0.000000,0.000000,0.000000,0.000000,1647426083.819819,0.000000
152.000000,22864.560528,1171.633741,-3320.686915,5448.193007,-47152.211923,-3571.227619,9375.170991,9253.890425,0.018000,0.952000,0.244000,192.000000,0.000000,0.000000,0.000000,0.000000,0.000000,0.000000,0.000000,0.000000,0.000000,1647426083.819835,0.000000
153.000000,22866.527482,1169.979712,-3323.458531,5446.337813,-47153.709490,-3573.060462,9384.849296,9254.024536,0.018000,0.952000,0.244000,192.000000,0.000000,0.000000,0.000000,0.000000,0.000000,0.000000,0.000000,0.000000,0.000000,1647426083.826806,0.000000
154.000000,22865.454598,1169.264456,-3330.968717,5445.197874,-47156.682272,-3576.837906,9378.009662,9258.293719,0.018000,0.952000,0.244000,192.000000,0.000000,0.000000,0.000000,0.000000,0.000000,0.000000,0.000000,0.000000,0.000000,1647426083.826822,0.000000
155.000000,22869.835540,1176.037035,-3326.185444,5449.377650,-47150.602597,-3572.166392,9380.557761,9264.261635,0.018000,0.952000,0.244000,192.000000,0.000000,0.000000,0.000000,0.000000,0.000000,0.000000,0.000000,0.000000,0.000000,1647426083.833895,0.000000
156.000000,22858.994944,1166.336377,-3335.014383,5438.872330,-47164.259513,-3581.844697,9378.032014,9258.874864,0.018000,0.962000,0.240000,192.000000,0.000000,144.000000,30.000000,16.000000,7.000000,128.000000,0.000000,0.000000,0.000000,1647426083.841519,0.000000
157.000000,22856.536252,1161.687215,-3336.266081,5435.363106,-47169.668635,-3581.285904,9377.696738,9263.926359,0.018000,0.962000,0.240000,192.000000,0.000000,0.000000,0.000000,0.000000,0.000000,0.000000,0.000000,0.000000,0.000000,1647426083.841535,0.000000
158.000000,22866.885110,1159.966130,-3337.204854,5432.367972,-47164.997120,-3584.459851,9367.258473,9263.702841,0.018000,0.962000,0.240000,192.000000,0.000000,0.000000,0.000000,0.000000,0.000000,0.000000,0.000000,0.000000,0.000000,1647426083.849491,0.000000
159.000000,22868.136807,1161.888380,-3333.405058,5434.469036,-47164.907714,-3574.379215,9381.183610,9276.890370,0.018000,0.962000,0.240000,192.000000,0.000000,0.000000,0.000000,0.000000,0.000000,0.000000,0.000000,0.000000,0.000000,1647426083.849508,0.000000
160.000000,22870.729610,1168.280979,-3331.438104,5439.386420,-47169.020435,-3567.561933,9397.723901,9283.305321,0.018000,0.962000,0.240000,192.000000,0.000000,0.000000,0.000000,0.000000,0.000000,0.000000,0.000000,0.000000,0.000000,1647426083.857532,0.000000
161.000000,22862.615927,1165.822287,-3337.115447,5432.278565,-47172.596714,-3572.389909,9393.544125,9285.540496,0.018000,0.962000,0.240000,192.000000,0.000000,0.000000,0.000000,0.000000,0.000000,0.000000,0.000000,0.000000,0.000000,1647426083.857548,0.000000
162.000000,22845.740360,1154.646415,-3344.312709,5423.986068,-47182.051502,-3583.230505,9374.142811,9274.074051,0.018000,0.962000,0.240000,192.000000,0.000000,0.000000,0.000000,0.000000,0.000000,0.000000,0.000000,0.000000,0.000000,1647426083.864070,0.000000
163.000000,22850.769502,1161.106069,-3338.925938,5427.696458,-47174.630722,-3582.783470,9374.008700,9270.207199,0.018000,0.962000,0.240000,192.000000,0.000000,0.000000,0.000000,0.000000,0.000000,0.000000,0.000000,0.000000,0.000000,1647426083.864086,0.000000
164.000000,22851.775331,1155.451078,-3343.105715,5419.426312,-47178.966961,-3588.505517,9381.675348,9264.127524,0.018000,0.962000,0.240000,192.000000,0.000000,0.000000,0.000000,0.000000,0.000000,0.000000,0.000000,0.000000,0.000000,1647426083.871958,0.000000
165.000000,22846.187394,1151.628930,-3348.112505,5415.090074,-47185.158394,-3593.512308,9372.064098,9256.326766,0.018000,0.962000,0.240000,192.000000,0.000000,0.000000,0.000000,0.000000,0.000000,0.000000,0.000000,0.000000,0.000000,1647426083.871975,0.000000
166.000000,22842.208784,1155.831058,-3349.230093,5415.067722,-47186.857127,-3589.757215,9370.722994,9251.141161,0.022000,0.966000,0.246000,192.000000,0.000000,176.000000,30.000000,48.000000,7.000000,176.000000,0.000000,0.000000,0.000000,1647426083.880090,0.000000
167.000000,22860.023124,1162.715395,-3336.109619,5421.102693,-47178.698740,-3582.582305,9382.167087,9271.950635,0.022000,0.966000,0.246000,192.000000,0.000000,0.000000,0.000000,0.000000,0.000000,0.000000,0.000000,0.000000,0.000000,1647426083.880106,0.000000
