%OpenBCI Raw EEG Data
%Number of channels = 8
%Sample Rate = 256 Hz
%Board = OpenBCI_GUI$BoardCytonSerial
%Channels = Fp1, Fp2, F3, F4, Fz, Pz, O1, O2
%Data recorded at AIMS Lab (http://aimsl.uiu.ac.bd) by Rana Depto (mail@ranadepto.com)
%Brainwaves were obtained via the Ultracortex Mark IV Headset using the OpenBCI Cyton Board
%Recording Application = ConcentrateToday (https://concentrate.today)
%Data type = RAW data with noise
%Day No = 4
%Subject ID = 3
%Session ID = 7
%Record starting timestamp (UTC+6) = 2022-03-12T16:55:14.339910
%Record ending timestamp (UTC+6)   = 2022-03-12T16:55:40.196943
%Recorded durations = ~25 seconds
Sample Index, EXG Channel 0, EXG Channel 1, EXG Channel 2, EXG Channel 3, EXG Channel 4, EXG Channel 5, EXG Channel 6, EXG Channel 7, Accel Channel 0, Accel Channel 1, Accel Channel 2, Other, Other, Other, Other, Other, Other, Other, Analog Channel 0, Analog Channel 1, Analog Channel 2, Timestamp, Timestamp (Formatted)
219.000000,-11660.614510,-11614.726378,-12887.367652,20952.815825,-27356.411798,40848.125916,31212.825324,5366.296216,0.030000,0.980000,0.080000,192.000000,0.000000,0.000000,0.000000,0.000000,0.000000,0.000000,0.000000,0.000000,0.000000,1647082514.343224,0.000000
220.000000,-11658.312280,-11609.049035,-12879.566894,20960.795398,-27348.275763,40847.544771,31210.210170,5382.210658,0.030000,0.980000,0.080000,192.000000,0.000000,0.000000,0.000000,0.000000,0.000000,0.000000,0.000000,0.000000,0.000000,1647082514.343233,0.000000
221.000000,-11658.692260,-11607.350303,-12880.505667,20960.303659,-27350.868565,40847.924751,31206.298614,5388.402091,0.030000,0.980000,0.080000,192.000000,0.000000,0.000000,0.000000,0.000000,0.000000,0.000000,0.000000,0.000000,0.000000,1647082514.350231,0.000000
222.000000,-11649.684507,-11600.108337,-12872.280225,20969.311412,-27343.179565,40847.388309,31208.980824,5385.094033,0.030000,0.980000,0.080000,192.000000,0.000000,0.000000,0.000000,0.000000,0.000000,0.000000,0.000000,0.000000,0.000000,1647082514.350237,0.000000
223.000000,-11650.891501,-11602.969361,-12878.896341,20965.288098,-27345.213574,40848.885876,31212.758268,5372.711166,0.030000,0.980000,0.080000,192.000000,0.000000,0.000000,0.000000,0.000000,0.000000,0.000000,0.000000,0.000000,0.000000,1647082514.357790,0.000000
224.000000,-11642.174320,-11596.666169,-12877.756402,20965.332802,-27348.633391,40841.867428,31212.601806,5385.183440,0.028000,0.978000,0.088000,192.000000,0.000000,224.000000,30.000000,144.000000,2.000000,192.000000,0.000000,0.000000,0.000000,1647082514.357795,0.000000
225.000000,-11649.528044,-11602.902305,-12879.164562,20958.828444,-27356.009466,40833.485524,31204.421068,5374.946341,0.028000,0.978000,0.088000,192.000000,0.000000,0.000000,0.000000,0.000000,0.000000,0.000000,0.000000,0.000000,0.000000,1647082514.365760,0.000000
226.000000,-11654.356021,-11608.646704,-12879.611597,20954.268688,-27355.607135,40843.879085,31220.871952,5380.489574,0.028000,0.978000,0.088000,192.000000,0.000000,0.000000,0.000000,0.000000,0.000000,0.000000,0.000000,0.000000,0.000000,1647082514.365765,0.000000
227.000000,-11655.250091,-11609.764291,-12880.170391,20952.614659,-27355.383617,40849.891704,31239.423900,5383.462356,0.028000,0.978000,0.088000,192.000000,0.000000,0.000000,0.000000,0.000000,0.000000,0.000000,0.000000,0.000000,0.000000,1647082514.373706,0.000000
228.000000,-11648.701030,-11600.510669,-12879.276321,20956.012125,-27353.260202,40844.594341,31233.366577,5364.776297,0.028000,0.978000,0.088000,192.000000,0.000000,0.000000,0.000000,0.000000,0.000000,0.000000,0.000000,0.000000,0.000000,1647082514.373711,0.000000
229.000000,-11657.977004,-11611.038340,-12887.769984,20946.579688,-27361.820920,40834.603111,31226.683405,5356.215579,0.028000,0.978000,0.088000,192.000000,0.000000,0.000000,0.000000,0.000000,0.000000,0.000000,0.000000,0.000000,0.000000,1647082514.379883,0.000000
230.000000,-11662.603815,-11620.269611,-12891.636836,20942.936354,-27364.659591,40832.792620,31226.638702,5371.973559,0.028000,0.978000,0.088000,192.000000,0.000000,0.000000,0.000000,0.000000,0.000000,0.000000,0.000000,0.000000,0.000000,1647082514.379887,0.000000
231.000000,-11653.484303,-11611.708893,-12881.444440,20951.139444,-27353.707236,40843.722623,31230.326740,5367.503210,0.028000,0.978000,0.088000,192.000000,0.000000,0.000000,0.000000,0.000000,0.000000,0.000000,0.000000,0.000000,0.000000,1647082514.387445,0.000000
232.000000,-11645.392972,-11603.595210,-12877.085850,20958.135540,-27346.308809,40845.756632,31237.300484,5380.131946,0.028000,0.978000,0.088000,192.000000,0.000000,0.000000,0.000000,0.000000,0.000000,0.000000,0.000000,0.000000,0.000000,1647082514.395391,0.000000
233.000000,-11646.152931,-11601.047111,-12876.124725,20959.253127,-27339.692693,40851.299864,31241.234391,5360.283597,0.028000,0.978000,0.088000,192.000000,0.000000,0.000000,0.000000,0.000000,0.000000,0.000000,0.000000,0.000000,0.000000,1647082514.395396,0.000000
234.000000,-11653.551358,-11610.501899,-12882.807896,20949.261898,-27346.331161,40846.315425,31232.338397,5354.986233,0.032000,0.988000,0.094000,192.000000,1.000000,0.000000,30.000000,224.000000,2.000000,240.000000,0.000000,0.000000,0.000000,1647082514.403411,0.000000
235.000000,-11645.258861,-11601.784718,-12880.080984,20951.698238,-27345.101815,40836.123030,31214.009966,5341.239910,0.032000,0.988000,0.094000,192.000000,0.000000,0.000000,0.000000,0.000000,0.000000,0.000000,0.000000,0.000000,0.000000,1647082514.403422,0.000000
236.000000,-11648.656326,-11603.036416,-12879.119859,20950.848872,-27341.279667,40829.015175,31203.906978,5343.989175,0.032000,0.988000,0.094000,192.000000,0.000000,0.000000,0.000000,0.000000,0.000000,0.000000,0.000000,0.000000,0.000000,1647082514.409991,0.000000
237.000000,-11655.965347,-11609.496070,-12883.925484,20948.211366,-27344.207745,40831.809143,31201.984728,5347.900730,0.032000,0.988000,0.094000,192.000000,0.000000,0.000000,0.000000,0.000000,0.000000,0.000000,0.000000,0.000000,0.000000,1647082514.409996,0.000000
238.000000,-11650.153893,-11598.186087,-12875.856504,20957.979078,-27338.351588,40831.831495,31208.422030,5356.863780,0.032000,0.988000,0.094000,192.000000,0.000000,0.000000,0.000000,0.000000,0.000000,0.000000,0.000000,0.000000,0.000000,1647082514.418099,0.000000
239.000000,-11654.244262,-11597.448480,-12873.800143,20958.515520,-27337.613980,40835.877161,31221.095469,5348.124248,0.032000,0.988000,0.094000,192.000000,0.000000,0.000000,0.000000,0.000000,0.000000,0.000000,0.000000,0.000000,0.000000,1647082514.418105,0.000000
240.000000,-11653.484303,-11597.962570,-12873.688385,20955.118055,-27340.363245,40830.691556,31213.227655,5333.640317,0.032000,0.988000,0.094000,192.000000,0.000000,0.000000,0.000000,0.000000,0.000000,0.000000,0.000000,0.000000,0.000000,1647082514.425971,0.000000
241.000000,-11650.958556,-11593.201648,-12868.502780,20955.073351,-27334.931771,40831.853847,31213.562931,5345.598500,0.032000,0.988000,0.094000,192.000000,0.000000,0.000000,0.000000,0.000000,0.000000,0.000000,0.000000,0.000000,0.000000,1647082514.425975,0.000000
242.000000,-11651.785571,-11593.805145,-12866.558178,20953.084046,-27331.333140,40833.262006,31212.177123,5357.064945,0.032000,0.988000,0.094000,192.000000,0.000000,0.000000,0.000000,0.000000,0.000000,0.000000,0.000000,0.000000,0.000000,1647082514.433151,0.000000
243.000000,-11652.299661,-11599.370730,-12868.055745,20944.791549,-27334.037701,40833.932559,31217.742707,5348.459524,0.032000,0.988000,0.094000,192.000000,0.000000,0.000000,0.000000,0.000000,0.000000,0.000000,0.000000,0.000000,0.000000,1647082514.433155,0.000000
244.000000,-11655.630071,-11603.997541,-12874.627158,20934.621505,-27342.710178,40832.256178,31230.438498,5337.976556,0.038000,0.986000,0.092000,192.000000,1.000000,48.000000,30.000000,208.000000,2.000000,224.000000,0.000000,0.000000,0.000000,1647082514.440740,0.000000
245.000000,-11666.403611,-11612.982942,-12885.445402,20926.574877,-27350.801510,40836.346547,31243.022530,5330.913404,0.038000,0.986000,0.092000,192.000000,0.000000,0.000000,0.000000,0.000000,0.000000,0.000000,0.000000,0.000000,0.000000,1647082514.440744,0.000000
246.000000,-11677.579484,-11621.163681,-12890.519248,20923.177412,-27348.745149,40851.635140,31251.829118,5326.174835,0.038000,0.986000,0.092000,192.000000,0.000000,0.000000,0.000000,0.000000,0.000000,0.000000,0.000000,0.000000,0.000000,1647082514.447641,0.000000
247.000000,-11681.826315,-11627.645687,-12898.521173,20912.672092,-27358.043475,40855.747861,31248.610467,5311.914422,0.038000,0.986000,0.092000,192.000000,0.000000,0.000000,0.000000,0.000000,0.000000,0.000000,0.000000,0.000000,0.000000,1647082514.455638,0.000000
248.000000,-11669.443449,-11615.799262,-12891.189801,20917.678883,-27353.886050,40842.470925,31230.840830,5320.519843,0.038000,0.986000,0.092000,192.000000,0.000000,0.000000,0.000000,0.000000,0.000000,0.000000,0.000000,0.000000,0.000000,1647082514.455642,0.000000
249.000000,-11667.208274,-11612.379445,-12889.334606,20920.808127,-27351.002675,40832.479695,31211.663033,5312.473215,0.038000,0.986000,0.092000,192.000000,0.000000,0.000000,0.000000,0.000000,0.000000,0.000000,0.000000,0.000000,0.000000,1647082514.462231,0.000000
250.000000,-11659.094591,-11601.091814,-12882.427917,20930.799357,-27342.509013,40839.319329,31219.977882,5315.870680,0.038000,0.986000,0.092000,192.000000,0.000000,0.000000,0.000000,0.000000,0.000000,0.000000,0.000000,0.000000,0.000000,1647082514.462235,0.000000
251.000000,-11646.622318,-11589.267741,-12867.251082,20943.517499,-27327.958027,40829.596320,31221.073117,5336.747210,0.038000,0.986000,0.092000,192.000000,0.000000,0.000000,0.000000,0.000000,0.000000,0.000000,0.000000,0.000000,0.000000,1647082514.470280,0.000000
252.000000,-11654.221911,-11597.627294,-12866.602882,20939.829462,-27326.885143,40826.332966,31240.809708,5339.116495,0.038000,0.986000,0.092000,192.000000,0.000000,0.000000,0.000000,0.000000,0.000000,0.000000,0.000000,0.000000,0.000000,1647082514.470285,0.000000
253.000000,-11664.302547,-11606.500936,-12874.582455,20932.274572,-27334.417681,40840.861600,31271.990391,5317.122378,0.038000,0.986000,0.092000,192.000000,0.000000,0.000000,0.000000,0.000000,0.000000,0.000000,0.000000,0.000000,0.000000,1647082514.478290,0.000000
254.000000,-11679.591141,-11622.817710,-12892.173277,20911.040415,-27357.417626,40832.367937,31257.148833,5294.055378,0.042000,0.986000,0.090000,192.000000,1.000000,80.000000,30.000000,208.000000,2.000000,208.000000,0.000000,0.000000,0.000000,1647082514.478294,0.000000
255.000000,-11684.173248,-11623.778835,-12894.475507,20906.793583,-27361.306830,40830.959777,31248.386949,5313.255526,0.042000,0.986000,0.090000,192.000000,0.000000,0.000000,0.000000,0.000000,0.000000,0.000000,0.000000,0.000000,0.000000,1647082514.485355,0.000000
0.000000,-11683.055661,-11617.676809,-12887.993501,20909.229923,-27355.473024,40839.565198,31258.825214,5327.068904,0.042000,0.986000,0.090000,192.000000,0.000000,0.000000,0.000000,0.000000,0.000000,0.000000,0.000000,0.000000,0.000000,1647082514.485392,0.000000
1.000000,-11681.893370,-11614.815785,-12890.273379,20904.379595,-27357.104702,40836.637120,31259.026379,5326.152483,0.042000,0.986000,0.090000,192.000000,0.000000,0.000000,0.000000,0.000000,0.000000,0.000000,0.000000,0.000000,0.000000,1647082514.492855,0.000000
2.000000,-11681.625149,-11612.111224,-12889.021681,20903.284359,-27352.544946,40842.426222,31268.011781,5323.917308,0.042000,0.986000,0.090000,192.000000,0.000000,0.000000,0.000000,0.000000,0.000000,0.000000,0.000000,0.000000,0.000000,1647082514.492860,0.000000
3.000000,-11685.447298,-11618.369713,-12892.285036,20895.036566,-27365.263088,40841.062765,31260.211022,5306.818224,0.042000,0.986000,0.090000,192.000000,0.000000,0.000000,0.000000,0.000000,0.000000,0.000000,0.000000,0.000000,0.000000,1647082514.500969,0.000000
4.000000,-11681.669853,-11610.323085,-12888.060556,20900.266874,-27367.788836,40835.430126,31252.969057,5313.523747,0.042000,0.986000,0.090000,192.000000,0.000000,0.000000,0.000000,0.000000,0.000000,0.000000,0.000000,0.000000,0.000000,1647082514.500973,0.000000
5.000000,-11683.457992,-11606.009198,-12887.546466,20903.820801,-27366.291269,40841.398041,31256.746502,5307.533480,0.042000,0.986000,0.090000,192.000000,0.000000,0.000000,0.000000,0.000000,0.000000,0.000000,0.000000,0.000000,0.000000,1647082514.507969,0.000000
6.000000,-11682.005129,-11601.136518,-12884.573684,20908.581723,-27361.060960,40830.579797,31252.119690,5300.112700,0.042000,0.986000,0.090000,192.000000,0.000000,0.000000,0.000000,0.000000,0.000000,0.000000,0.000000,0.000000,0.000000,1647082514.515021,0.000000
7.000000,-11677.199504,-11595.101547,-12877.443478,20913.722624,-27359.138710,40825.550655,31251.762063,5293.563639,0.042000,0.986000,0.090000,192.000000,0.000000,0.000000,0.000000,0.000000,0.000000,0.000000,0.000000,0.000000,0.000000,1647082514.515024,0.000000
8.000000,-11681.267522,-11598.297846,-12877.689347,20912.314464,-27362.312658,40818.331041,31244.542449,5283.684168,0.052000,0.982000,0.096000,192.000000,1.000000,160.000000,30.000000,176.000000,3.000000,0.000000,0.000000,0.000000,0.000000,1647082514.522507,0.000000
9.000000,-11697.673702,-11614.748730,-12890.631007,20899.372804,-27369.688734,40823.404887,31246.308237,5255.588026,0.052000,0.982000,0.096000,192.000000,0.000000,0.000000,0.000000,0.000000,0.000000,0.000000,0.000000,0.000000,0.000000,1647082514.522511,0.000000
10.000000,-11700.422967,-11614.704027,-12893.514382,20901.585627,-27371.543929,40827.048221,31248.543411,5287.394558,0.052000,0.982000,0.096000,192.000000,0.000000,0.000000,0.000000,0.000000,0.000000,0.000000,0.000000,0.000000,0.000000,1647082514.530554,0.000000
11.000000,-11691.459917,-11606.947971,-12880.684481,20912.202705,-27362.379713,40826.265910,31247.381121,5292.535459,0.052000,0.982000,0.096000,192.000000,0.000000,0.000000,0.000000,0.000000,0.000000,0.000000,0.000000,0.000000,0.000000,1647082514.530558,0.000000
12.000000,-11691.906952,-11610.188974,-12880.125687,20909.632255,-27361.709161,40823.963681,31251.382083,5287.483965,0.052000,0.982000,0.096000,192.000000,0.000000,0.000000,0.000000,0.000000,0.000000,0.000000,0.000000,0.000000,0.000000,1647082514.538547,0.000000
13.000000,-11695.885562,-11611.820652,-12888.440536,20899.126935,-27371.342763,40812.474884,31235.266475,5273.044738,0.052000,0.982000,0.096000,192.000000,0.000000,0.000000,0.000000,0.000000,0.000000,0.000000,0.000000,0.000000,0.000000,1647082514.538552,0.000000
14.000000,-11697.718405,-11613.362922,-12887.099431,20897.674072,-27370.605155,40813.480713,31243.111937,5274.765822,0.052000,0.982000,0.096000,192.000000,0.000000,0.000000,0.000000,0.000000,0.000000,0.000000,0.000000,0.000000,0.000000,1647082514.545167,0.000000
15.000000,-11695.662045,-11611.261858,-12883.836077,20898.523438,-27369.554623,40810.776152,31257.171185,5285.874639,0.052000,0.982000,0.096000,192.000000,0.000000,0.000000,0.000000,0.000000,0.000000,0.000000,0.000000,0.000000,0.000000,1647082514.545170,0.000000
16.000000,-11698.701882,-11614.972247,-12890.765117,20890.588569,-27372.549757,40802.371896,31251.739711,5295.463538,0.052000,0.982000,0.096000,192.000000,0.000000,0.000000,0.000000,0.000000,0.000000,0.000000,0.000000,0.000000,0.000000,1647082514.553197,0.000000
17.000000,-11688.643597,-11604.601038,-12884.149001,20896.668243,-27365.732475,40803.690649,31256.970019,5288.668607,0.052000,0.982000,0.096000,192.000000,0.000000,0.000000,0.000000,0.000000,0.000000,0.000000,0.000000,0.000000,0.000000,1647082514.553200,0.000000
18.000000,-11686.631940,-11600.197744,-12882.204399,20897.338795,-27369.308754,40805.121160,31259.965153,5292.624866,0.048000,0.982000,0.100000,192.000000,1.000000,128.000000,30.000000,176.000000,3.000000,32.000000,0.000000,0.000000,0.000000,1647082514.561148,0.000000
19.000000,-11691.862248,-11604.466928,-12884.372519,20897.137630,-27371.633336,40817.928710,31288.262461,5302.929020,0.048000,0.982000,0.100000,192.000000,0.000000,0.000000,0.000000,0.000000,0.000000,0.000000,0.000000,0.000000,0.000000,1647082514.561151,0.000000
20.000000,-11694.969141,-11603.595210,-12887.501763,20898.344624,-27377.780065,40816.922881,31294.409191,5295.418834,0.048000,0.982000,0.100000,192.000000,0.000000,0.000000,0.000000,0.000000,0.000000,0.000000,0.000000,0.000000,0.000000,1647082514.567403,0.000000
21.000000,-11704.781557,-11609.317256,-12891.860353,20892.756688,-27407.865513,40808.272756,31290.184711,5278.543267,0.048000,0.982000,0.100000,192.000000,0.000000,0.000000,0.000000,0.000000,0.000000,0.000000,0.000000,0.000000,0.000000,1647082514.574798,0.000000
22.000000,-11703.351045,-11608.534945,-12894.788432,20894.768345,-27575.481245,40793.453550,31286.876653,5272.441241,0.048000,0.982000,0.100000,192.000000,0.000000,0.000000,0.000000,0.000000,0.000000,0.000000,0.000000,0.000000,0.000000,1647082514.574807,0.000000
23.000000,-11702.412272,-11608.736111,-12889.178144,20895.327138,-27724.545029,40798.974430,31299.192464,5282.745395,0.048000,0.982000,0.100000,192.000000,0.000000,0.000000,0.000000,0.000000,0.000000,0.000000,0.000000,0.000000,0.000000,1647082514.582842,0.000000
24.000000,-11711.844708,-11617.699160,-12897.113013,20886.498199,-27785.609995,40807.713963,31303.975738,5267.881485,0.048000,0.982000,0.100000,192.000000,0.000000,0.000000,0.000000,0.000000,0.000000,0.000000,0.000000,0.000000,0.000000,1647082514.582847,0.000000
25.000000,-11712.023522,-11616.402759,-12901.136327,20883.436010,-27807.917036,40804.338849,31301.047659,5264.729889,0.048000,0.982000,0.100000,192.000000,0.000000,0.000000,0.000000,0.000000,0.000000,0.000000,0.000000,0.000000,0.000000,1647082514.590844,0.000000
26.000000,-11708.246077,-11611.015989,-12893.894362,20883.324252,-27813.303806,40799.265003,31298.387801,5276.643369,0.048000,0.982000,0.100000,192.000000,0.000000,0.000000,0.000000,0.000000,0.000000,0.000000,0.000000,0.000000,0.000000,1647082514.590848,0.000000
27.000000,-11716.829147,-11614.793434,-12900.108147,20877.333984,-27825.954893,40798.169768,31293.626880,5255.744488,0.048000,0.982000,0.100000,192.000000,0.000000,0.000000,0.000000,0.000000,0.000000,0.000000,0.000000,0.000000,0.000000,1647082514.597510,0.000000
28.000000,-11710.011865,-11604.511631,-12895.593094,20880.195007,-27828.324178,40791.888927,31293.559825,5258.560808,0.054000,0.986000,0.102000,192.000000,1.000000,176.000000,30.000000,208.000000,3.000000,48.000000,0.000000,0.000000,0.000000,1647082514.597515,0.000000
29.000000,-11732.520072,-11627.332762,-12911.261667,20858.044429,-27847.189051,40796.359276,31291.838740,5266.763898,0.054000,0.986000,0.102000,192.000000,0.000000,0.000000,0.000000,0.000000,0.000000,0.000000,0.000000,0.000000,0.000000,1647082514.605497,0.000000
30.000000,-11743.405371,-11637.972193,-12921.789339,20845.840376,-27859.571917,40797.029829,31284.149740,5242.221682,0.054000,0.986000,0.102000,192.000000,0.000000,0.000000,0.000000,0.000000,0.000000,0.000000,0.000000,0.000000,0.000000,1647082514.605501,0.000000
31.000000,-11739.762037,-11635.558204,-12922.571650,20846.332114,-27859.638972,40787.932669,31269.844624,5254.537494,0.054000,0.986000,0.102000,192.000000,0.000000,0.000000,0.000000,0.000000,0.000000,0.000000,0.000000,0.000000,0.000000,1647082514.613474,0.000000
32.000000,-11734.576432,-11629.590288,-12922.415188,20848.969620,-27859.683676,40786.144529,31259.875746,5267.479154,0.054000,0.986000,0.102000,192.000000,0.000000,0.000000,0.000000,0.000000,0.000000,0.000000,0.000000,0.000000,0.000000,1647082514.613477,0.000000
33.000000,-11727.647391,-11622.728303,-12917.363693,20851.875347,-27858.789606,40789.318477,31269.844624,5275.838706,0.054000,0.986000,0.102000,192.000000,0.000000,0.000000,0.000000,0.000000,0.000000,0.000000,0.000000,0.000000,0.000000,1647082514.620670,0.000000
34.000000,-11726.798025,-11622.281268,-12914.703836,20850.221318,-27862.790568,40797.946250,31281.244013,5275.190505,0.054000,0.986000,0.102000,192.000000,0.000000,0.000000,0.000000,0.000000,0.000000,0.000000,0.000000,0.000000,0.000000,1647082514.620674,0.000000
35.000000,-11717.902031,-11606.880916,-12902.410376,20866.515740,-27850.653571,40792.559480,31284.037982,5275.883409,0.054000,0.986000,0.102000,192.000000,0.000000,0.000000,0.000000,0.000000,0.000000,0.000000,0.000000,0.000000,0.000000,1647082514.627104,0.000000
36.000000,-11719.623115,-11610.188974,-12902.298618,20875.389382,-27844.395083,40779.327247,31285.557900,5280.219648,0.054000,0.986000,0.102000,192.000000,0.000000,0.000000,0.000000,0.000000,0.000000,0.000000,0.000000,0.000000,0.000000,1647082514.627107,0.000000
37.000000,-11712.850536,-11604.556335,-12894.743728,20880.351470,-27839.544754,40771.504137,31273.353848,5280.711386,0.054000,0.986000,0.102000,192.000000,0.000000,0.000000,0.000000,0.000000,0.000000,0.000000,0.000000,0.000000,0.000000,1647082514.635188,0.000000
38.000000,-11712.247039,-11600.801241,-12891.703891,20881.267891,-27843.210440,40771.593543,31276.304278,5282.276008,0.056000,0.994000,0.100000,192.000000,1.000000,192.000000,31.000000,16.000000,3.000000,32.000000,0.000000,0.000000,0.000000,1647082514.643062,0.000000
39.000000,-11716.918554,-11602.812898,-12894.028472,20882.586644,-27840.796452,40779.439006,31295.303261,5289.629732,0.056000,0.994000,0.100000,192.000000,0.000000,0.000000,0.000000,0.000000,0.000000,0.000000,0.000000,0.000000,0.000000,1647082514.643065,0.000000
40.000000,-11707.866097,-11586.183201,-12886.786507,20893.829571,-27830.648760,40788.379704,31304.914511,5291.663741,0.056000,0.994000,0.100000,192.000000,0.000000,0.000000,0.000000,0.000000,0.000000,0.000000,0.000000,0.000000,0.000000,1647082514.650195,0.000000
41.000000,-11705.005074,-11582.718680,-12886.987673,20894.008385,-27830.849925,40785.026942,31303.372240,5301.409102,0.056000,0.994000,0.100000,192.000000,0.000000,0.000000,0.000000,0.000000,0.000000,0.000000,0.000000,0.000000,0.000000,1647082514.650199,0.000000
42.000000,-11710.682417,-11587.613712,-12896.487164,20882.653699,-27841.891687,40776.063892,31285.915528,5286.142860,0.056000,0.994000,0.100000,192.000000,0.000000,0.000000,0.000000,0.000000,0.000000,0.000000,0.000000,0.000000,0.000000,1647082514.657642,0.000000
43.000000,-11707.307304,-11584.216247,-12891.882705,20879.278586,-27843.769234,40767.369064,31282.674525,5272.910627,0.056000,0.994000,0.100000,192.000000,0.000000,0.000000,0.000000,0.000000,0.000000,0.000000,0.000000,0.000000,0.000000,1647082514.657651,0.000000
44.000000,-11720.070150,-11593.045186,-12900.666940,20870.069667,-27853.782815,40764.038654,31285.043810,5287.685131,0.056000,0.994000,0.100000,192.000000,0.000000,0.000000,0.000000,0.000000,0.000000,0.000000,0.000000,0.000000,0.000000,1647082514.665774,0.000000
45.000000,-11728.005019,-11597.157907,-12905.941952,20862.134798,-27860.644801,40761.512907,31281.422827,5266.898008,0.056000,0.994000,0.100000,192.000000,0.000000,0.000000,0.000000,0.000000,0.000000,0.000000,0.000000,0.000000,0.000000,1647082514.665778,0.000000
46.000000,-11741.796046,-11607.216192,-12912.625124,20849.215490,-27872.223004,40749.398261,31270.515176,5248.122543,0.056000,0.994000,0.100000,192.000000,0.000000,0.000000,0.000000,0.000000,0.000000,0.000000,0.000000,0.000000,0.000000,1647082514.673773,0.000000
47.000000,-11740.119665,-11602.052939,-12914.770891,20849.014324,-27877.229795,40733.215598,31251.315028,5249.530703,0.056000,0.994000,0.100000,192.000000,0.000000,0.000000,0.000000,0.000000,0.000000,0.000000,0.000000,0.000000,0.000000,1647082514.673777,0.000000
48.000000,-11728.317944,-11588.239561,-12904.042054,20861.687763,-27867.350324,40720.184531,31249.236315,5251.452953,0.066000,0.984000,0.100000,192.000000,2.000000,16.000000,30.000000,192.000000,3.000000,32.000000,0.000000,0.000000,0.000000,1647082514.680370,0.000000
49.000000,-11720.472481,-11582.584570,-12892.597961,20870.673164,-27857.001466,40719.469275,31270.403417,5281.493697,0.066000,0.984000,0.100000,192.000000,0.000000,0.000000,0.000000,0.000000,0.000000,0.000000,0.000000,0.000000,0.000000,1647082514.680374,0.000000
50.000000,-11722.506490,-11586.853753,-12887.278245,20872.304842,-27850.251240,40723.224368,31284.082685,5287.238096,0.066000,0.984000,0.100000,192.000000,0.000000,0.000000,0.000000,0.000000,0.000000,0.000000,0.000000,0.000000,0.000000,1647082514.688454,0.000000
51.000000,-11735.090522,-11599.929523,-12893.782603,20860.279603,-27857.247336,40726.979462,31292.956328,5286.031101,0.066000,0.984000,0.100000,192.000000,0.000000,0.000000,0.000000,0.000000,0.000000,0.000000,0.000000,0.000000,0.000000,1647082514.688458,0.000000
52.000000,-11733.548252,-11591.078233,-12894.408452,20861.844225,-27859.504862,40727.538255,31296.443200,5291.686093,0.066000,0.984000,0.100000,192.000000,0.000000,0.000000,0.000000,0.000000,0.000000,0.000000,0.000000,0.000000,0.000000,1647082514.695457,0.000000
53.000000,-11727.043894,-11582.472811,-12888.060556,20865.107580,-27859.482510,40716.474142,31298.119581,5290.367340,0.066000,0.984000,0.100000,192.000000,0.000000,0.000000,0.000000,0.000000,0.000000,0.000000,0.000000,0.000000,0.000000,1647082514.702445,0.000000
54.000000,-11739.091484,-11592.866372,-12894.207286,20855.138702,-27863.304658,40725.079563,31319.733717,5283.639465,0.066000,0.984000,0.100000,192.000000,0.000000,0.000000,0.000000,0.000000,0.000000,0.000000,0.000000,0.000000,0.000000,1647082514.702448,0.000000
55.000000,-11740.276127,-11593.313407,-12892.687368,20849.595469,-27872.111246,40720.586863,31324.405232,5275.972816,0.066000,0.984000,0.100000,192.000000,0.000000,0.000000,0.000000,0.000000,0.000000,0.000000,0.000000,0.000000,0.000000,1647082514.710042,0.000000
56.000000,-11739.784389,-11590.295922,-12887.300597,20850.914222,-27873.072371,40716.496493,31329.903761,5273.156497,0.066000,0.984000,0.100000,192.000000,0.000000,0.000000,0.000000,0.000000,0.000000,0.000000,0.000000,0.000000,0.000000,1647082514.710045,0.000000
57.000000,-11734.643487,-11585.043262,-12884.149001,20855.585737,-27867.529138,40728.655842,31351.428491,5293.630695,0.066000,0.984000,0.100000,192.000000,0.000000,0.000000,0.000000,0.000000,0.000000,0.000000,0.000000,0.000000,0.000000,1647082514.718030,0.000000
58.000000,-11742.779522,-11593.447518,-12892.262684,20844.700437,-27877.810940,40726.890055,31359.497471,5284.980569,0.060000,0.990000,0.098000,192.000000,1.000000,224.000000,30.000000,240.000000,3.000000,16.000000,0.000000,0.000000,0.000000,1647082514.718034,0.000000
59.000000,-11754.849464,-11607.327951,-12909.227658,20831.289390,-27891.870188,40723.894921,31363.945468,5281.001959,0.060000,0.990000,0.098000,192.000000,0.000000,0.000000,0.000000,0.000000,0.000000,0.000000,0.000000,0.000000,0.000000,1647082514.725976,0.000000
60.000000,-11751.295537,-11603.215230,-12906.791318,20839.514832,-27884.002374,40734.534351,31375.747189,5281.918380,0.060000,0.990000,0.098000,192.000000,0.000000,0.000000,0.000000,0.000000,0.000000,0.000000,0.000000,0.000000,0.000000,1647082514.725979,0.000000
61.000000,-11747.160464,-11597.783756,-12899.102318,20845.661562,-27877.721534,40739.138811,31384.062038,5293.317770,0.060000,0.990000,0.098000,192.000000,0.000000,0.000000,0.000000,0.000000,0.000000,0.000000,0.000000,0.000000,0.000000,1647082514.732737,0.000000
62.000000,-11744.969993,-11594.274532,-12897.962379,20848.276716,-27875.911042,40734.802572,31383.749114,5284.153555,0.060000,0.990000,0.098000,192.000000,0.000000,0.000000,0.000000,0.000000,0.000000,0.000000,0.000000,0.000000,0.000000,1647082514.732741,0.000000
63.000000,-11743.852406,-11596.554410,-12896.934199,20847.203833,-27874.257013,40727.873531,31385.738419,5263.791116,0.060000,0.990000,0.098000,192.000000,0.000000,0.000000,0.000000,0.000000,0.000000,0.000000,0.000000,0.000000,0.000000,1647082514.740713,0.000000
64.000000,-11743.919461,-11594.609808,-12896.442461,20848.880213,-27871.507749,40718.016412,31388.063000,5253.464610,0.060000,0.990000,0.098000,192.000000,0.000000,0.000000,0.000000,0.000000,0.000000,0.000000,0.000000,0.000000,0.000000,1647082514.740718,0.000000
65.000000,-11745.260566,-11594.118070,-12897.962379,20845.080417,-27872.312411,40708.874549,31384.710239,5275.682244,0.060000,0.990000,0.098000,192.000000,0.000000,0.000000,0.000000,0.000000,0.000000,0.000000,0.000000,0.000000,0.000000,1647082514.748720,0.000000
66.000000,-11752.323717,-11599.929523,-12900.666940,20838.553707,-27871.440693,40707.309926,31381.536291,5302.213764,0.060000,0.990000,0.098000,192.000000,0.000000,0.000000,0.000000,0.000000,0.000000,0.000000,0.000000,0.000000,0.000000,1647082514.748724,0.000000
67.000000,-11744.522958,-11589.290093,-12897.090661,20840.341847,-27870.837196,40710.729743,31392.376887,5318.552890,0.060000,0.990000,0.098000,192.000000,0.000000,0.000000,0.000000,0.000000,0.000000,0.000000,0.000000,0.000000,0.000000,1647082514.755781,0.000000
68.000000,-11738.957374,-11582.651625,-12892.955588,20840.699475,-27870.144292,40706.281746,31407.531370,5324.274936,0.060000,0.990000,0.098000,192.000000,0.000000,0.000000,0.000000,0.000000,0.000000,0.000000,0.000000,0.000000,0.000000,1647082514.762277,0.000000
69.000000,-11745.864063,-11587.747823,-12902.678597,20831.579963,-27879.979060,40697.765732,31402.032840,5296.759939,0.060000,0.980000,0.100000,192.000000,1.000000,224.000000,30.000000,160.000000,3.000000,32.000000,0.000000,0.000000,0.000000,1647082514.762280,0.000000
70.000000,-11748.658031,-11590.810012,-12903.706778,20828.428367,-27879.755542,40696.134054,31395.349669,5300.917363,0.060000,0.980000,0.100000,192.000000,0.000000,0.000000,0.000000,0.000000,0.000000,0.000000,0.000000,0.000000,0.000000,1647082514.770199,0.000000
71.000000,-11752.994269,-11594.140422,-12908.601810,20825.299123,-27883.935318,40693.585955,31396.511960,5320.519843,0.060000,0.980000,0.100000,192.000000,0.000000,0.000000,0.000000,0.000000,0.000000,0.000000,0.000000,0.000000,0.000000,1647082514.770202,0.000000
72.000000,-11750.021487,-11589.088927,-12906.411339,20830.842356,-27881.297813,40693.608307,31408.604253,5330.265204,0.060000,0.980000,0.100000,192.000000,0.000000,0.000000,0.000000,0.000000,0.000000,0.000000,0.000000,0.000000,0.000000,1647082514.778394,0.000000
73.000000,-11759.900959,-11599.303675,-12908.735920,20827.981332,-27887.221025,40706.952299,31422.596445,5313.233174,0.060000,0.980000,0.100000,192.000000,0.000000,0.000000,0.000000,0.000000,0.000000,0.000000,0.000000,0.000000,0.000000,1647082514.778412,0.000000
74.000000,-11776.195380,-11615.978076,-12924.270382,20816.045501,-27899.693298,40714.864816,31421.009472,5296.335256,0.060000,0.980000,0.100000,192.000000,0.000000,0.000000,0.000000,0.000000,0.000000,0.000000,0.000000,0.000000,0.000000,1647082514.784860,0.000000
75.000000,-11782.319758,-11621.029570,-12932.317010,20808.088280,-27912.299682,40709.187473,31406.503189,5288.422738,0.060000,0.980000,0.100000,192.000000,0.000000,0.000000,0.000000,0.000000,0.000000,0.000000,0.000000,0.000000,0.000000,1647082514.784864,0.000000
76.000000,-11775.547180,-11613.586439,-12925.656191,20812.960960,-27913.976063,40699.196243,31401.764620,5295.664703,0.060000,0.980000,0.100000,192.000000,0.000000,0.000000,0.000000,0.000000,0.000000,0.000000,0.000000,0.000000,0.000000,1647082514.792974,0.000000
77.000000,-11771.300348,-11609.473718,-12922.303429,20817.565419,-27914.356043,40699.039781,31410.973538,5307.041741,0.060000,0.980000,0.100000,192.000000,0.000000,0.000000,0.000000,0.000000,0.000000,0.000000,0.000000,0.000000,0.000000,1647082514.792977,0.000000
78.000000,-11771.345052,-11608.490242,-12925.320914,20813.586809,-27917.686453,40695.865833,31418.528428,5308.673419,0.060000,0.980000,0.100000,192.000000,0.000000,0.000000,0.000000,0.000000,0.000000,0.000000,0.000000,0.000000,0.000000,1647082514.801028,0.000000
79.000000,-11768.282863,-11608.981980,-12913.854470,20813.966789,-27906.197656,40700.045609,31433.347634,5316.585936,0.064000,0.990000,0.096000,192.000000,2.000000,0.000000,30.000000,240.000000,3.000000,0.000000,0.000000,0.000000,0.000000,1647082514.801032,0.000000
80.000000,-11773.110839,-11616.760387,-12915.843775,20807.551838,-27907.136429,40706.505264,31450.379664,5315.803625,0.064000,0.990000,0.096000,192.000000,0.000000,0.000000,0.000000,0.000000,0.000000,0.000000,0.000000,0.000000,0.000000,1647082514.808207,0.000000
81.000000,-11775.994215,-11623.018875,-12918.213060,20803.550876,-27908.231665,40703.443075,31464.483615,5315.311887,0.064000,0.990000,0.096000,192.000000,0.000000,0.000000,0.000000,0.000000,0.000000,0.000000,0.000000,0.000000,0.000000,1647082514.808213,0.000000
82.000000,-11780.844543,-11630.752579,-12922.437539,20797.605312,-27909.148086,40712.987270,31484.823702,5316.943564,0.064000,0.990000,0.096000,192.000000,0.000000,0.000000,0.000000,0.000000,0.000000,0.000000,0.000000,0.000000,0.000000,1647082514.814566,0.000000
83.000000,-11783.035014,-11629.992620,-12926.751426,20792.173838,-27912.523200,40708.807493,31487.416504,5307.220555,0.064000,0.990000,0.096000,192.000000,0.000000,0.000000,0.000000,0.000000,0.000000,0.000000,0.000000,0.000000,0.000000,1647082514.822596,0.000000
84.000000,-11781.090412,-11627.399817,-12921.521118,20794.744288,-27908.522237,40706.505264,31495.865464,5315.758922,0.064000,0.990000,0.096000,192.000000,0.000000,0.000000,0.000000,0.000000,0.000000,0.000000,0.000000,0.000000,0.000000,1647082514.822600,0.000000
85.000000,-11783.526752,-11631.937222,-12919.576516,20798.052346,-27902.733136,40722.777334,31524.319234,5318.597593,0.064000,0.990000,0.096000,192.000000,0.000000,0.000000,0.000000,0.000000,0.000000,0.000000,0.000000,0.000000,0.000000,1647082514.830748,0.000000
86.000000,-11791.238104,-11642.196672,-12923.644534,20794.029032,-27910.131563,40732.723860,31541.284208,5344.100934,0.064000,0.990000,0.096000,192.000000,0.000000,0.000000,0.000000,0.000000,0.000000,0.000000,0.000000,0.000000,0.000000,1647082514.830769,0.000000
87.000000,-11805.431462,-11657.328803,-12936.921470,20783.054326,-27929.108194,40729.952244,31539.160793,5310.618020,0.064000,0.990000,0.096000,192.000000,0.000000,0.000000,0.000000,0.000000,0.000000,0.000000,0.000000,0.000000,0.000000,1647082514.838098,0.000000
88.000000,-11810.885288,-11662.939091,-12942.799979,20782.517884,-27933.176211,40724.900749,31534.891610,5337.998907,0.064000,0.990000,0.096000,192.000000,0.000000,0.000000,0.000000,0.000000,0.000000,0.000000,0.000000,0.000000,0.000000,1647082514.838114,0.000000
89.000000,-11815.623857,-11672.952673,-12943.291717,20781.601463,-27933.690302,40726.107744,31528.230790,5334.109704,0.058000,1.008000,0.090000,192.000000,1.000000,208.000000,31.000000,128.000000,2.000000,208.000000,0.000000,0.000000,0.000000,1647082514.845671,0.000000
90.000000,-11811.935820,-11670.762202,-12930.931202,20788.865780,-27925.286046,40715.133037,31506.035507,5325.839558,0.058000,1.008000,0.090000,192.000000,0.000000,0.000000,0.000000,0.000000,0.000000,0.000000,0.000000,0.000000,0.000000,1647082514.845687,0.000000
91.000000,-11830.107788,-11691.415214,-12931.177071,20783.993099,-27922.670892,40725.303081,31547.118014,5347.498399,0.058000,1.008000,0.090000,192.000000,0.000000,0.000000,0.000000,0.000000,0.000000,0.000000,0.000000,0.000000,0.000000,1647082514.853553,0.000000
92.000000,-11863.925977,-11735.805778,-12954.534644,20758.243890,-27945.134395,40726.755944,31561.624296,5324.811378,0.058000,1.008000,0.090000,192.000000,0.000000,0.000000,0.000000,0.000000,0.000000,0.000000,0.000000,0.000000,0.000000,1647082514.853569,0.000000
93.000000,-11885.115431,-11755.318851,-12962.067182,20753.460616,-27946.363741,40735.853104,31566.139348,5348.079544,0.058000,1.008000,0.090000,192.000000,0.000000,0.000000,0.000000,0.000000,0.000000,0.000000,0.000000,0.000000,0.000000,1647082514.861638,0.000000
94.000000,-11895.866620,-11766.785296,-12962.380107,20752.186567,-27944.620305,40724.900749,31561.132558,5344.078582,0.058000,1.008000,0.090000,192.000000,0.000000,0.000000,0.000000,0.000000,0.000000,0.000000,0.000000,0.000000,0.000000,1647082514.861653,0.000000
95.000000,-11911.266972,-11780.531619,-12964.414115,20749.370247,-27942.206316,40718.843427,31556.259877,5367.570265,0.058000,1.008000,0.090000,192.000000,0.000000,0.000000,0.000000,0.000000,0.000000,0.000000,0.000000,0.000000,0.000000,1647082514.868131,0.000000
96.000000,-11925.102702,-11794.859087,-12966.202255,20746.777445,-27943.279200,40723.671403,31558.852680,5374.432251,0.058000,1.008000,0.090000,192.000000,0.000000,0.000000,0.000000,0.000000,0.000000,0.000000,0.000000,0.000000,0.000000,1647082514.868148,0.000000
97.000000,-11943.855815,-11815.668561,-12977.892217,20733.992247,-27957.494909,40724.744287,31560.976095,5359.635396,0.058000,1.008000,0.090000,192.000000,0.000000,0.000000,0.000000,0.000000,0.000000,0.000000,0.000000,0.000000,0.000000,1647082514.875265,0.000000
98.000000,-11956.641013,-11827.604392,-12984.798906,20726.951447,-27968.223747,40720.430400,31559.165604,5356.349690,0.058000,1.008000,0.090000,192.000000,0.000000,0.000000,0.000000,0.000000,0.000000,0.000000,0.000000,0.000000,0.000000,1647082514.875281,0.000000
99.000000,-11967.034574,-11837.394457,-12987.279950,20723.553982,-27963.328715,40727.270034,31565.222927,5358.249588,0.062000,0.994000,0.090000,192.000000,1.000000,240.000000,31.000000,16.000000,2.000000,208.000000,0.000000,0.000000,0.000000,1647082514.883319,0.000000
100.000000,-11975.751755,-11844.569367,-12993.381976,20719.374206,-27958.232517,40723.961976,31562.183090,5350.135905,0.062000,0.994000,0.090000,192.000000,0.000000,0.000000,0.000000,0.000000,0.000000,0.000000,0.000000,0.000000,0.000000,1647082514.891193,0.000000
101.000000,-11976.109383,-11840.970736,-12992.823183,20725.118604,-27951.884622,40726.979462,31566.720494,5346.090239,0.062000,0.994000,0.090000,192.000000,0.000000,0.000000,0.000000,0.000000,0.000000,0.000000,0.000000,0.000000,0.000000,1647082514.891209,0.000000
102.000000,-11984.580694,-11848.927957,-12993.918418,20718.793061,-27955.706770,40735.517828,31568.262764,5339.943509,0.062000,0.994000,0.090000,192.000000,0.000000,0.000000,0.000000,0.000000,0.000000,0.000000,0.000000,0.000000,0.000000,1647082514.897901,0.000000
103.000000,-11988.738118,-11849.866730,-13002.389729,20711.104061,-27969.520148,40727.873531,31556.639857,5343.855064,0.062000,0.994000,0.090000,192.000000,0.000000,0.000000,0.000000,0.000000,0.000000,0.000000,0.000000,0.000000,0.000000,1647082514.897918,0.000000
104.000000,-11983.910141,-11842.557710,-13004.289628,20716.021444,-27964.088674,40733.573226,31567.927488,5347.230178,0.062000,0.994000,0.090000,192.000000,0.000000,0.000000,0.000000,0.000000,0.000000,0.000000,0.000000,0.000000,0.000000,1647082514.905891,0.000000
105.000000,-11980.311511,-11841.775398,-13004.624904,20717.407252,-27959.841843,40744.883209,31579.438636,5347.408992,0.062000,0.994000,0.090000,192.000000,0.000000,0.000000,0.000000,0.000000,0.000000,0.000000,0.000000,0.000000,0.000000,1647082514.905907,0.000000
106.000000,-11969.962653,-11836.835663,-13000.780404,20716.513183,-27960.847671,40737.194209,31569.626220,5341.910463,0.062000,0.994000,0.090000,192.000000,0.000000,0.000000,0.000000,0.000000,0.000000,0.000000,0.000000,0.000000,0.000000,1647082514.913769,0.000000
107.000000,-11967.950996,-11833.639363,-13002.814412,20711.975779,-27963.641639,40742.893904,31573.940107,5339.675288,0.062000,0.994000,0.090000,192.000000,0.000000,0.000000,0.000000,0.000000,0.000000,0.000000,0.000000,0.000000,0.000000,1647082514.913803,0.000000
108.000000,-11966.632243,-11832.208852,-13007.977665,20706.007863,-27969.587203,40742.178648,31574.633011,5350.985271,0.062000,0.994000,0.090000,192.000000,0.000000,0.000000,0.000000,0.000000,0.000000,0.000000,0.000000,0.000000,0.000000,1647082514.920548,0.000000
109.000000,-11967.347499,-11838.467340,-13012.649180,20694.809639,-27975.421009,40733.796744,31568.106302,5338.110666,0.066000,0.998000,0.098000,192.000000,2.000000,16.000000,31.000000,48.000000,3.000000,16.000000,0.000000,0.000000,0.000000,1647082514.920565,0.000000
110.000000,-11954.562301,-11823.916355,-13009.050549,20699.905837,-27971.285936,40730.265168,31566.027590,5334.310869,0.066000,0.998000,0.098000,192.000000,0.000000,0.000000,0.000000,0.000000,0.000000,0.000000,0.000000,0.000000,0.000000,1647082514.928255,0.000000
111.000000,-11943.900519,-11811.399378,-13003.775537,20706.164325,-27962.658162,40741.396337,31570.766159,5330.086390,0.066000,0.998000,0.098000,192.000000,0.000000,0.000000,0.000000,0.000000,0.000000,0.000000,0.000000,0.000000,0.000000,1647082514.928288,0.000000
112.000000,-11943.967574,-11810.907639,-13013.096215,20700.330520,-27971.196529,40741.217523,31573.090741,5344.771486,0.066000,0.998000,0.098000,192.000000,0.000000,0.000000,0.000000,0.000000,0.000000,0.000000,0.000000,0.000000,0.000000,1647082514.936193,0.000000
113.000000,-11947.387391,-11814.349808,-13012.224497,20694.563770,-27975.018677,40743.273883,31583.305488,5361.691756,0.066000,0.998000,0.098000,192.000000,0.000000,0.000000,0.000000,0.000000,0.000000,0.000000,0.000000,0.000000,0.000000,1647082514.936204,0.000000
114.000000,-11941.061847,-11812.584020,-13015.890183,20690.361642,-27980.852482,40744.413822,31583.059619,5346.447867,0.066000,0.998000,0.098000,192.000000,0.000000,0.000000,0.000000,0.000000,0.000000,0.000000,0.000000,0.000000,0.000000,1647082514.943659,0.000000
115.000000,-11916.743149,-11788.667654,-13000.713348,20705.851401,-27967.642601,40743.318587,31590.972136,5363.166972,0.066000,0.998000,0.098000,192.000000,0.000000,0.000000,0.000000,0.000000,0.000000,0.000000,0.000000,0.000000,0.000000,1647082514.949938,0.000000
116.000000,-11923.515728,-11792.534505,-13001.383901,20699.481153,-27967.039104,40745.620816,31598.482323,5365.335091,0.066000,0.998000,0.098000,192.000000,0.000000,0.000000,0.000000,0.000000,0.000000,0.000000,0.000000,0.000000,0.000000,1647082514.949952,0.000000
117.000000,-11926.734379,-11790.969883,-13005.496622,20692.999148,-27973.655221,40736.188380,31602.438581,5356.416745,0.066000,0.998000,0.098000,192.000000,0.000000,0.000000,0.000000,0.000000,0.000000,0.000000,0.000000,0.000000,0.000000,1647082514.958115,0.000000
118.000000,-11933.059923,-11797.250724,-13012.537421,20681.756220,-27981.947718,40729.728726,31606.171323,5350.985271,0.066000,0.998000,0.098000,192.000000,0.000000,0.000000,0.000000,0.000000,0.000000,0.000000,0.000000,0.000000,0.000000,1647082514.958131,0.000000
119.000000,-11940.056019,-11803.553915,-13026.283744,20673.061391,-27992.743610,40721.592691,31594.481360,5336.411933,0.068000,0.982000,0.102000,192.000000,2.000000,32.000000,30.000000,176.000000,3.000000,48.000000,0.000000,0.000000,0.000000,1647082514.966156,0.000000
120.000000,-11934.870414,-11795.507287,-13023.400369,20675.989470,-27987.669764,40726.353613,31592.469703,5340.837579,0.068000,0.982000,0.102000,192.000000,0.000000,0.000000,0.000000,0.000000,0.000000,0.000000,0.000000,0.000000,0.000000,1647082514.966173,0.000000
121.000000,-11920.721760,-11773.691985,-13014.660837,20687.455915,-27979.824302,40720.385697,31586.390029,5351.365251,0.068000,0.982000,0.102000,192.000000,0.000000,0.000000,0.000000,0.000000,0.000000,0.000000,0.000000,0.000000,0.000000,1647082514.974181,0.000000
122.000000,-11914.955010,-11767.902883,-13005.027235,20694.787287,-27972.582337,40726.063040,31594.369602,5350.962919,0.068000,0.982000,0.102000,192.000000,0.000000,0.000000,0.000000,0.000000,0.000000,0.000000,0.000000,0.000000,0.000000,1647082514.974198,0.000000
123.000000,-11902.438033,-11758.358688,-12999.685168,20700.665796,-27969.855424,40723.671403,31597.275328,5355.433268,0.068000,0.982000,0.102000,192.000000,0.000000,0.000000,0.000000,0.000000,0.000000,0.000000,0.000000,0.000000,0.000000,1647082514.982138,0.000000
124.000000,-11900.068748,-11750.580281,-12998.053491,20703.593874,-27962.836976,40722.665575,31600.292814,5362.027033,0.068000,0.982000,0.102000,192.000000,0.000000,0.000000,0.000000,0.000000,0.000000,0.000000,0.000000,0.000000,0.000000,1647082514.982155,0.000000
125.000000,-11905.232001,-11753.597767,-12997.002959,20698.229456,-27963.731046,40734.914331,31606.931282,5352.885169,0.068000,0.982000,0.102000,192.000000,0.000000,0.000000,0.000000,0.000000,0.000000,0.000000,0.000000,0.000000,0.000000,1647082514.989235,0.000000
126.000000,-11923.113397,-11771.970901,-13015.286686,20675.385973,-27983.422933,40731.047479,31607.177151,5334.221463,0.068000,0.982000,0.102000,192.000000,0.000000,0.000000,0.000000,0.000000,0.000000,0.000000,0.000000,0.000000,0.000000,1647082514.989251,0.000000
127.000000,-11915.960838,-11768.372270,-13018.818261,20673.888406,-27991.290747,40718.709316,31596.962404,5343.050402,0.068000,0.982000,0.102000,192.000000,0.000000,0.000000,0.000000,0.000000,0.000000,0.000000,0.000000,0.000000,0.000000,1647082514.998241,0.000000
128.000000,-11912.541021,-11766.539427,-13015.599610,20675.676546,-27987.043916,40716.854121,31603.556169,5347.498399,0.068000,0.982000,0.102000,192.000000,0.000000,0.000000,0.000000,0.000000,0.000000,0.000000,0.000000,0.000000,0.000000,1647082514.998257,0.000000
129.000000,-11912.675132,-11761.554988,-13018.304171,20673.597833,-27988.295613,40714.395429,31599.979889,5344.995003,0.066000,0.980000,0.096000,192.000000,2.000000,16.000000,30.000000,160.000000,3.000000,0.000000,0.000000,0.000000,0.000000,1647082515.004204,0.000000
130.000000,-11906.260181,-11757.531674,-13013.185622,20672.748467,-27984.741686,40708.874549,31600.024593,5361.579998,0.066000,0.980000,0.096000,192.000000,0.000000,0.000000,0.000000,0.000000,0.000000,0.000000,0.000000,0.000000,0.000000,1647082515.010533,0.000000
131.000000,-11912.071635,-11767.589959,-13020.919325,20661.907871,-27989.368497,40718.776371,31617.771878,5348.280710,0.066000,0.980000,0.096000,192.000000,0.000000,0.000000,0.000000,0.000000,0.000000,0.000000,0.000000,0.000000,0.000000,1647082515.010549,0.000000
132.000000,-11901.543963,-11755.698831,-13020.941677,20666.042944,-27989.010869,40712.495531,31618.665948,5345.710259,0.066000,0.980000,0.096000,192.000000,0.000000,0.000000,0.000000,0.000000,0.000000,0.000000,0.000000,0.000000,0.000000,1647082515.018442,0.000000
133.000000,-11895.196068,-11748.456865,-13013.900878,20671.742639,-27982.417105,40711.377944,31618.911817,5348.794800,0.066000,0.980000,0.096000,192.000000,0.000000,0.000000,0.000000,0.000000,0.000000,0.000000,0.000000,0.000000,0.000000,1647082515.018459,0.000000
134.000000,-11878.923998,-11731.290726,-13001.719177,20685.779534,-27966.256793,40706.415857,31608.138276,5354.628605,0.066000,0.980000,0.096000,192.000000,0.000000,0.000000,0.000000,0.000000,0.000000,0.000000,0.000000,0.000000,0.000000,1647082515.025558,0.000000
135.000000,-11878.588722,-11730.664877,-12996.354758,20687.590025,-27955.147976,40722.375002,31631.652311,5359.478934,0.066000,0.980000,0.096000,192.000000,0.000000,0.000000,0.000000,0.000000,0.000000,0.000000,0.000000,0.000000,0.000000,1647082515.025574,0.000000
136.000000,-11883.483754,-11734.487025,-12996.690034,20685.064278,-27954.388017,40730.488685,31655.836899,5353.555721,0.066000,0.980000,0.096000,192.000000,0.000000,0.000000,0.000000,0.000000,0.000000,0.000000,0.000000,0.000000,0.000000,1647082515.033030,0.000000
137.000000,-11887.596475,-11740.969031,-13006.413043,20676.548264,-27966.368552,40723.224368,31654.071111,5342.804532,0.066000,0.980000,0.096000,192.000000,0.000000,0.000000,0.000000,0.000000,0.000000,0.000000,0.000000,0.000000,0.000000,1647082515.033046,0.000000
138.000000,-11884.556637,-11739.471464,-13008.178831,20673.463723,-27974.593994,40714.306022,31646.069186,5326.711276,0.066000,0.980000,0.096000,192.000000,0.000000,0.000000,0.000000,0.000000,0.000000,0.000000,0.000000,0.000000,0.000000,1647082515.040987,0.000000
139.000000,-11893.519687,-11748.680383,-13013.699712,20665.461798,-27976.136264,40716.183569,31628.701881,5329.840521,0.062000,0.984000,0.088000,192.000000,1.000000,240.000000,30.000000,192.000000,2.000000,192.000000,0.000000,0.000000,0.000000,1647082515.041005,0.000000
140.000000,-11884.780155,-11740.969031,-13014.437320,20669.529816,-27974.973974,40718.642261,31629.685358,5351.521713,0.062000,0.984000,0.088000,192.000000,0.000000,0.000000,0.000000,0.000000,0.000000,0.000000,0.000000,0.000000,0.000000,1647082515.048994,0.000000
141.000000,-11871.682033,-11729.212013,-13005.228401,20677.419982,-27966.368552,40713.613118,31659.212012,5363.278730,0.062000,0.984000,0.088000,192.000000,0.000000,0.000000,0.000000,0.000000,0.000000,0.000000,0.000000,0.000000,0.000000,1647082515.049011,0.000000
142.000000,-11876.688823,-11733.123569,-13014.213802,20670.692107,-27976.784465,40706.281746,31668.420931,5352.348727,0.062000,0.984000,0.088000,192.000000,0.000000,0.000000,0.000000,0.000000,0.000000,0.000000,0.000000,0.000000,0.000000,1647082515.055387,0.000000
143.000000,-11867.457553,-11722.908821,-13006.837726,20678.515217,-27971.174177,40699.151540,31672.868928,5347.073716,0.062000,0.984000,0.088000,192.000000,0.000000,0.000000,0.000000,0.000000,0.000000,0.000000,0.000000,0.000000,0.000000,1647082515.055403,0.000000
144.000000,-11877.672300,-11734.263508,-13016.583087,20671.116790,-27974.035200,40700.403237,31667.415102,5334.266166,0.062000,0.984000,0.088000,192.000000,0.000000,0.000000,0.000000,0.000000,0.000000,0.000000,0.000000,0.000000,0.000000,1647082515.062472,0.000000
145.000000,-11864.104791,-11718.661990,-13004.647255,20681.823275,-27966.480311,40702.213729,31659.591992,5358.853085,0.062000,0.984000,0.088000,192.000000,0.000000,0.000000,0.000000,0.000000,0.000000,0.000000,0.000000,0.000000,0.000000,1647082515.070712,0.000000
146.000000,-11866.541131,-11716.426816,-13000.042796,20684.192560,-27964.356895,40716.205921,31671.058437,5361.870570,0.062000,0.984000,0.088000,192.000000,0.000000,0.000000,0.000000,0.000000,0.000000,0.000000,0.000000,0.000000,0.000000,1647082515.070729,0.000000
147.000000,-11862.003727,-11713.476385,-13003.261447,20682.873807,-27974.303421,40706.080580,31639.207201,5353.890998,0.062000,0.984000,0.088000,192.000000,0.000000,0.000000,0.000000,0.000000,0.000000,0.000000,0.000000,0.000000,0.000000,1647082515.078731,0.000000
148.000000,-11860.148532,-11712.001170,-13000.556886,20686.047755,-27970.056590,40702.146673,31627.137259,5371.682986,0.062000,0.984000,0.088000,192.000000,0.000000,0.000000,0.000000,0.000000,0.000000,0.000000,0.000000,0.000000,0.000000,1647082515.078747,0.000000
149.000000,-11869.245692,-11722.171214,-13006.278933,20677.397630,-27971.464750,40715.669479,31653.735835,5363.971634,0.056000,0.978000,0.080000,192.000000,1.000000,192.000000,30.000000,144.000000,2.000000,128.000000,0.000000,0.000000,0.000000,1647082515.085288,0.000000
150.000000,-11866.474076,-11721.523013,-13003.775537,20673.530778,-27970.593032,40718.418743,31651.679474,5354.650957,0.056000,0.978000,0.080000,192.000000,0.000000,0.000000,0.000000,0.000000,0.000000,0.000000,0.000000,0.000000,0.000000,1647082515.085322,0.000000
151.000000,-11870.810315,-11725.523976,-13012.045683,20667.093476,-27977.142093,40721.615043,31644.616323,5342.268091,0.056000,0.978000,0.080000,192.000000,0.000000,0.000000,0.000000,0.000000,0.000000,0.000000,0.000000,0.000000,0.000000,1647082515.093317,0.000000
152.000000,-11869.893893,-11722.931173,-13017.432453,20665.148874,-27984.696982,40703.487778,31587.060581,5330.399314,0.056000,0.978000,0.080000,192.000000,0.000000,0.000000,0.000000,0.000000,0.000000,0.000000,0.000000,0.000000,0.000000,1647082515.093333,0.000000
153.000000,-11859.612091,-11712.939943,-13009.229363,20680.705688,-27972.582337,40706.549967,31604.204369,5355.254454,0.056000,0.978000,0.080000,192.000000,0.000000,0.000000,0.000000,0.000000,0.000000,0.000000,0.000000,0.000000,0.000000,1647082515.101325,0.000000
154.000000,-11848.838550,-11701.831126,-13000.445128,20694.831991,-27958.947773,40704.851235,31640.794175,5371.884152,0.056000,0.978000,0.080000,192.000000,0.000000,0.000000,0.000000,0.000000,0.000000,0.000000,0.000000,0.000000,0.000000,1647082515.101342,0.000000
155.000000,-11848.413867,-11698.992455,-12997.025311,20700.308168,-27950.051779,40707.980479,31646.002131,5360.082431,0.056000,0.978000,0.080000,192.000000,0.000000,0.000000,0.000000,0.000000,0.000000,0.000000,0.000000,0.000000,0.000000,1647082515.108175,0.000000
156.000000,-11852.727753,-11702.792251,-13001.540363,20695.815467,-27951.057607,40709.187473,31653.512317,5348.794800,0.056000,0.978000,0.080000,192.000000,0.000000,0.000000,0.000000,0.000000,0.000000,0.000000,0.000000,0.000000,0.000000,1647082515.108191,0.000000
157.000000,-11858.650966,-11709.833051,-13003.149689,20684.326671,-27962.546404,40701.610232,31642.157631,5338.736515,0.056000,0.978000,0.080000,192.000000,0.000000,0.000000,0.000000,0.000000,0.000000,0.000000,0.000000,0.000000,0.000000,1647082515.115863,0.000000
158.000000,-11856.348736,-11709.430720,-13001.428604,20677.822313,-27968.335506,40688.757979,31642.135279,5352.147562,0.056000,0.978000,0.080000,192.000000,0.000000,0.000000,0.000000,0.000000,0.000000,0.000000,0.000000,0.000000,0.000000,1647082515.115879,0.000000
159.000000,-11854.694707,-11703.172231,-12999.819279,20681.510351,-27960.937078,40691.887223,31650.830108,5360.305948,0.056000,0.978000,0.080000,192.000000,0.000000,0.000000,0.000000,0.000000,0.000000,0.000000,0.000000,0.000000,0.000000,1647082515.122873,0.000000
160.000000,-11849.643213,-11693.024539,-12990.297436,20691.590988,-27947.391921,40700.850272,31659.703751,5367.793783,0.058000,0.962000,0.076000,192.000000,1.000000,208.000000,30.000000,16.000000,2.000000,96.000000,0.000000,0.000000,0.000000,1647082515.122889,0.000000
161.000000,-11858.874483,-11700.042987,-13001.070976,20683.924339,-27954.991514,40717.256453,31662.587126,5351.320547,0.058000,0.962000,0.076000,192.000000,0.000000,0.000000,0.000000,0.000000,0.000000,0.000000,0.000000,0.000000,0.000000,1647082515.131018,0.000000
162.000000,-11859.299166,-11704.289818,-13005.161346,20675.162455,-27963.418122,40718.329336,31655.322809,5347.856027,0.058000,0.962000,0.076000,192.000000,0.000000,0.000000,0.000000,0.000000,0.000000,0.000000,0.000000,0.000000,0.000000,1647082515.137646,0.000000
163.000000,-11849.754971,-11698.254847,-12996.310055,20675.631842,-27957.360799,40709.209825,31651.500660,5352.371079,0.058000,0.962000,0.076000,192.000000,0.000000,0.000000,0.000000,0.000000,0.000000,0.000000,0.000000,0.000000,0.000000,1647082515.137662,0.000000
164.000000,-11840.009611,-11694.253885,-12986.184715,20680.348060,-27943.458014,40718.619909,31668.152710,5345.956128,0.058000,0.962000,0.076000,192.000000,0.000000,0.000000,0.000000,0.000000,0.000000,0.000000,0.000000,0.000000,0.000000,1647082515.145556,0.000000
165.000000,-11848.883253,-11706.592048,-12995.550096,20668.836912,-27952.733988,40716.295328,31660.039027,5327.270070,0.058000,0.962000,0.076000,192.000000,0.000000,0.000000,0.000000,0.000000,0.000000,0.000000,0.000000,0.000000,0.000000,1647082515.145572,0.000000
166.000000,-11856.460495,-11717.298534,-13000.579238,20658.018667,-27963.887508,40721.123305,31663.615306,5332.343916,0.058000,0.962000,0.076000,192.000000,0.000000,0.000000,0.000000,0.000000,0.000000,0.000000,0.000000,0.000000,0.000000,1647082515.153644,0.000000
167.000000,-11853.621823,-11716.158595,-13005.250753,20656.923432,-27969.117817,40704.627717,31649.198431,5341.642242,0.058000,0.962000,0.076000,192.000000,0.000000,0.000000,0.000000,0.000000,0.000000,0.000000,0.000000,0.000000,0.000000,1647082515.153659,0.000000
168.000000,-11856.147570,-11718.147900,-13001.987398,20658.465702,-27958.925421,40707.019354,31651.858288,5340.904634,0.058000,0.962000,0.076000,192.000000,0.000000,0.000000,0.000000,0.000000,0.000000,0.000000,0.000000,0.000000,0.000000,1647082515.160699,0.000000
169.000000,-11846.290451,-11703.194583,-12993.024348,20669.239243,-27942.943924,40712.316717,31667.012771,5337.104838,0.058000,0.962000,0.076000,192.000000,0.000000,0.000000,0.000000,0.000000,0.000000,0.000000,0.000000,0.000000,0.000000,1647082515.160715,0.000000
170.000000,-11840.031962,-11692.063414,-12992.219686,20672.055563,-27935.858421,40708.136941,31678.814492,5334.199111,0.048000,0.978000,0.074000,192.000000,1.000000,128.000000,30.000000,144.000000,2.000000,80.000000,0.000000,0.000000,0.000000,1647082515.168137,0.000000
171.000000,-11849.620861,-11710.682417,-12994.164287,20662.913699,-27940.798156,40719.201054,31683.463655,5318.910518,0.048000,0.978000,0.074000,192.000000,0.000000,0.000000,0.000000,0.000000,0.000000,0.000000,0.000000,0.000000,0.000000,1647082515.168172,0.000000
172.000000,-11867.010518,-11731.983630,-13001.942694,20652.922470,-27952.331656,40726.398316,31681.340239,5342.804532,0.048000,0.978000,0.074000,192.000000,0.000000,0.000000,0.000000,0.000000,0.000000,0.000000,0.000000,0.000000,0.000000,1647082515.176274,0.000000
173.000000,-11861.735506,-11726.172176,-13000.825107,20653.391856,-27956.019694,40732.410935,31699.042821,5352.259320,0.048000,0.978000,0.074000,192.000000,0.000000,0.000000,0.000000,0.000000,0.000000,0.000000,0.000000,0.000000,0.000000,1647082515.176290,0.000000
174.000000,-11849.173826,-11710.324789,-12997.561753,20659.627993,-27953.471595,40727.761773,31705.346013,5349.688870,0.048000,0.978000,0.074000,192.000000,0.000000,0.000000,0.000000,0.000000,0.000000,0.000000,0.000000,0.000000,0.000000,1647082515.184256,0.000000
175.000000,-11854.493541,-11719.041970,-13003.104985,20659.315069,-27951.616401,40736.009566,31711.515094,5346.492570,0.048000,0.978000,0.074000,192.000000,0.000000,0.000000,0.000000,0.000000,0.000000,0.000000,0.000000,0.000000,0.000000,1647082515.184272,0.000000
176.000000,-11859.545035,-11730.888394,-13008.402349,20651.581365,-27964.870985,40734.444944,31699.802780,5331.472198,0.048000,0.978000,0.074000,192.000000,0.000000,0.000000,0.000000,0.000000,0.000000,0.000000,0.000000,0.000000,0.000000,1647082515.190287,0.000000
177.000000,-11851.118428,-11722.573545,-12998.187601,20656.230528,-27959.148939,40738.490610,31723.182705,5348.370117,0.048000,0.978000,0.074000,192.000000,0.000000,0.000000,0.000000,0.000000,0.000000,0.000000,0.000000,0.000000,0.000000,1647082515.197748,0.000000
178.000000,-11837.193291,-11703.842783,-12990.118622,20670.043906,-27947.771901,40735.584883,31743.500441,5362.943454,0.048000,0.978000,0.074000,192.000000,0.000000,0.000000,0.000000,0.000000,0.000000,0.000000,0.000000,0.000000,0.000000,1647082515.197764,0.000000
179.000000,-11836.835663,-11706.592048,-12988.285779,20667.562862,-27944.128566,40731.740383,31754.139871,5359.814210,0.048000,0.978000,0.074000,192.000000,0.000000,0.000000,0.000000,0.000000,0.000000,0.000000,0.000000,0.000000,0.000000,1647082515.205853,0.000000
180.000000,-11850.202006,-11721.992400,-12999.506354,20652.833063,-27958.880718,40728.901712,31745.243877,5352.840466,0.048000,0.982000,0.076000,192.000000,1.000000,128.000000,30.000000,176.000000,2.000000,96.000000,0.000000,0.000000,0.000000,1647082515.205870,0.000000
181.000000,-11859.410925,-11729.904917,-13007.240058,20648.563880,-27968.044933,40733.014433,31752.888173,5350.024146,0.048000,0.982000,0.076000,192.000000,0.000000,0.000000,0.000000,0.000000,0.000000,0.000000,0.000000,0.000000,0.000000,1647082515.213887,0.000000
182.000000,-11863.210721,-11732.743589,-13011.263372,20645.389932,-27971.777674,40745.062023,31760.286601,5341.932814,0.048000,0.982000,0.076000,192.000000,0.000000,0.000000,0.000000,0.000000,0.000000,0.000000,0.000000,0.000000,0.000000,1647082515.213903,0.000000
183.000000,-11876.040623,-11740.589051,-13022.886279,20635.778682,-27978.974936,40750.001758,31746.093243,5323.537329,0.048000,0.982000,0.076000,192.000000,0.000000,0.000000,0.000000,0.000000,0.000000,0.000000,0.000000,0.000000,0.000000,1647082515.220418,0.000000
184.000000,-11869.759783,-11731.894223,-13014.347913,20641.165452,-27969.453093,40757.646055,31755.883307,5331.181625,0.048000,0.982000,0.076000,192.000000,0.000000,0.000000,0.000000,0.000000,0.000000,0.000000,0.000000,0.000000,0.000000,1647082515.220434,0.000000
185.000000,-11862.182541,-11724.316981,-13006.971837,20649.860281,-27962.859328,40757.713110,31760.174842,5339.563529,0.048000,0.982000,0.076000,192.000000,0.000000,0.000000,0.000000,0.000000,0.000000,0.000000,0.000000,0.000000,0.000000,1647082515.228527,0.000000
186.000000,-11861.333175,-11723.802891,-13002.702654,20654.442388,-27967.620250,40761.736424,31761.627705,5343.899768,0.048000,0.982000,0.076000,192.000000,0.000000,0.000000,0.000000,0.000000,0.000000,0.000000,0.000000,0.000000,0.000000,1647082515.228543,0.000000
187.000000,-11871.547922,-11730.329601,-13007.865907,20645.524042,-27979.556081,40765.290352,31777.229223,5342.491608,0.048000,0.982000,0.076000,192.000000,0.000000,0.000000,0.000000,0.000000,0.000000,0.000000,0.000000,0.000000,0.000000,1647082515.236561,0.000000
188.000000,-11875.750050,-11728.675572,-13014.392616,20638.796167,-27989.390849,40756.014378,31794.261252,5340.748172,0.048000,0.982000,0.076000,192.000000,0.000000,0.000000,0.000000,0.000000,0.000000,0.000000,0.000000,0.000000,0.000000,1647082515.236577,0.000000
189.000000,-11880.935655,-11737.169234,-13017.298343,20633.297638,-27990.508436,40754.360349,31790.774380,5331.181625,0.048000,0.982000,0.076000,192.000000,0.000000,0.000000,0.000000,0.000000,0.000000,0.000000,0.000000,0.000000,0.000000,1647082515.243586,0.000000
190.000000,-11899.152326,-11757.576377,-13033.838634,20616.645588,-28004.455925,40764.619799,31775.955173,5317.167081,0.058000,0.992000,0.082000,192.000000,1.000000,208.000000,31.000000,0.000000,2.000000,144.000000,0.000000,0.000000,0.000000,1647082515.243602,0.000000
191.000000,-11889.652835,-11748.233348,-13032.005791,20617.204382,-28010.222675,40753.131003,31726.781336,5301.610267,0.058000,0.992000,0.082000,192.000000,0.000000,0.000000,0.000000,0.000000,0.000000,0.000000,0.000000,0.000000,0.000000,1647082515.250163,0.000000
192.000000,-11888.199972,-11745.126455,-13027.669552,20619.528964,-28009.507419,40748.727709,31730.201153,5330.041686,0.058000,0.992000,0.082000,192.000000,0.000000,0.000000,0.000000,0.000000,0.000000,0.000000,0.000000,0.000000,0.000000,1647082515.258214,0.000000
193.000000,-11872.620806,-11727.178005,-13016.136052,20634.415225,-27997.929215,40750.761718,31753.715188,5356.103820,0.058000,0.992000,0.082000,192.000000,0.000000,0.000000,0.000000,0.000000,0.000000,0.000000,0.000000,0.000000,0.000000,1647082515.258249,0.000000
194.000000,-11858.896835,-11712.761129,-12998.411119,20649.413246,-27981.165407,40743.005662,31752.396435,5352.013451,0.058000,0.992000,0.082000,192.000000,0.000000,0.000000,0.000000,0.000000,0.000000,0.000000,0.000000,0.000000,0.000000,1647082515.266173,0.000000
195.000000,-11870.162114,-11726.395694,-13007.284761,20638.013856,-27989.547311,40752.572209,31762.767644,5335.942547,0.058000,0.992000,0.082000,192.000000,0.000000,0.000000,0.000000,0.000000,0.000000,0.000000,0.000000,0.000000,0.000000,1647082515.266189,0.000000
196.000000,-11871.592626,-11724.875775,-13011.173965,20636.136310,-27993.190645,40756.640226,31764.153452,5355.209751,0.058000,0.992000,0.082000,192.000000,0.000000,0.000000,0.000000,0.000000,0.000000,0.000000,0.000000,0.000000,0.000000,1647082515.272656,0.000000
197.000000,-11875.235960,-11729.212013,-13012.582125,20632.291810,-27994.375288,40763.122232,31774.189386,5355.656785,0.058000,0.992000,0.082000,192.000000,0.000000,0.000000,0.000000,0.000000,0.000000,0.000000,0.000000,0.000000,0.000000,1647082515.272673,0.000000
198.000000,-11869.357451,-11722.260621,-13012.269200,20630.280153,-27996.945738,40747.855991,31761.672409,5344.413858,0.058000,0.992000,0.082000,192.000000,0.000000,0.000000,0.000000,0.000000,0.000000,0.000000,0.000000,0.000000,0.000000,1647082515.280662,0.000000
199.000000,-11862.584873,-11713.834013,-13003.484965,20633.029417,-27988.787352,40742.849200,31763.415845,5350.985271,0.058000,0.992000,0.082000,192.000000,0.000000,0.000000,0.000000,0.000000,0.000000,0.000000,0.000000,0.000000,0.000000,1647082515.280678,0.000000
200.000000,-11865.110620,-11717.611458,-13003.976703,20628.693179,-28003.405393,40743.229180,31753.826946,5332.813303,0.062000,0.976000,0.078000,192.000000,1.000000,240.000000,30.000000,128.000000,2.000000,112.000000,0.000000,0.000000,0.000000,1647082515.288830,0.000000
201.000000,-11865.177675,-11715.085711,-12998.612284,20632.090644,-28012.435497,40749.487668,31748.663694,5346.984309,0.062000,0.976000,0.078000,192.000000,0.000000,0.000000,0.000000,0.000000,0.000000,0.000000,0.000000,0.000000,0.000000,1647082515.288847,0.000000
202.000000,-11872.017309,-11717.432644,-13002.702654,20630.458967,-28021.219733,40763.345750,31744.550973,5357.556684,0.062000,0.976000,0.078000,192.000000,0.000000,0.000000,0.000000,0.000000,0.000000,0.000000,0.000000,0.000000,0.000000,1647082515.295930,0.000000
203.000000,-11873.291358,-11716.493871,-13009.654046,20628.201440,-28027.388814,40763.122232,31736.057310,5357.869608,0.062000,0.976000,0.078000,192.000000,0.000000,0.000000,0.000000,0.000000,0.000000,0.000000,0.000000,0.000000,0.000000,1647082515.295946,0.000000
204.000000,-11876.018271,-11717.253830,-13007.307113,20632.649438,-28017.822268,40775.929782,31742.807536,5365.871533,0.062000,0.976000,0.078000,192.000000,0.000000,0.000000,0.000000,0.000000,0.000000,0.000000,0.000000,0.000000,0.000000,1647082515.303407,0.000000
205.000000,-11876.666472,-11721.366551,-13009.162308,20633.610563,-28019.789221,40781.294201,31736.772565,5363.077565,0.062000,0.976000,0.078000,192.000000,0.000000,0.000000,0.000000,0.000000,0.000000,0.000000,0.000000,0.000000,0.000000,1647082515.303423,0.000000
206.000000,-11865.959986,-11715.800967,-13005.697787,20637.767987,-28020.459774,40773.135814,31722.065118,5357.936663,0.062000,0.976000,0.078000,192.000000,0.000000,0.000000,0.000000,0.000000,0.000000,0.000000,0.000000,0.000000,0.000000,1647082515.310486,0.000000
207.000000,-11868.821009,-11720.338371,-13011.777462,20632.694141,-28028.439346,40757.042558,31692.896091,5357.176704,0.062000,0.976000,0.078000,192.000000,0.000000,0.000000,0.000000,0.000000,0.000000,0.000000,0.000000,0.000000,0.000000,1647082515.318988,0.000000
208.000000,-11877.672300,-11726.932135,-13017.007770,20631.263629,-28027.165297,40773.828718,31692.069077,5364.373966,0.062000,0.976000,0.078000,192.000000,0.000000,0.000000,0.000000,0.000000,0.000000,0.000000,0.000000,0.000000,0.000000,1647082515.319004,0.000000
209.000000,-11878.186390,-11722.238269,-13022.841575,20631.487147,-28030.294541,40770.453605,31663.861175,5361.222370,0.062000,0.976000,0.078000,192.000000,0.000000,0.000000,0.000000,0.000000,0.000000,0.000000,0.000000,0.000000,0.000000,1647082515.325549,0.000000
210.000000,-11867.077573,-11712.090577,-13013.565602,20638.840871,-28024.170163,40758.785994,31674.835882,5384.490536,0.070000,0.982000,0.082000,192.000000,2.000000,48.000000,30.000000,176.000000,2.000000,144.000000,0.000000,0.000000,0.000000,1647082515.325566,0.000000
211.000000,-11875.079498,-11723.914650,-13019.377055,20631.285981,-28027.992311,40771.839413,31707.871760,5385.451661,0.070000,0.982000,0.082000,192.000000,0.000000,0.000000,0.000000,0.000000,0.000000,0.000000,0.000000,0.000000,0.000000,1647082515.333053,0.000000
212.000000,-11875.392422,-11721.031275,-13026.976648,20626.502708,-28037.380044,40761.356445,31693.879568,5376.957998,0.070000,0.982000,0.082000,192.000000,0.000000,0.000000,0.000000,0.000000,0.000000,0.000000,0.000000,0.000000,0.000000,1647082515.333071,0.000000
213.000000,-11863.054259,-11711.263563,-13019.265296,20635.219888,-28027.746442,40762.317570,31698.081696,5375.013396,0.070000,0.982000,0.082000,192.000000,0.000000,0.000000,0.000000,0.000000,0.000000,0.000000,0.000000,0.000000,0.000000,1647082515.341020,0.000000
214.000000,-11857.756896,-11710.391845,-13016.672494,20632.068292,-28029.467527,40757.020206,31679.753265,5371.638283,0.070000,0.982000,0.082000,192.000000,0.000000,0.000000,0.000000,0.000000,0.000000,0.000000,0.000000,0.000000,0.000000,1647082515.341055,0.000000
215.000000,-11858.248634,-11716.426816,-13021.723988,20623.976961,-28035.480146,40744.838505,31652.439434,5365.245684,0.070000,0.982000,0.082000,192.000000,0.000000,0.000000,0.000000,0.000000,0.000000,0.000000,0.000000,0.000000,0.000000,1647082515.348209,0.000000
216.000000,-11855.164093,-11713.454034,-13025.546137,20624.289885,-28037.737672,40739.809363,31676.534614,5368.129059,0.070000,0.982000,0.082000,192.000000,0.000000,0.000000,0.000000,0.000000,0.000000,0.000000,0.000000,0.000000,0.000000,1647082515.348225,0.000000
217.000000,-11855.208797,-11712.448205,-13026.954296,20624.491051,-28043.705588,40725.638357,31684.111856,5366.877361,0.070000,0.982000,0.082000,192.000000,0.000000,0.000000,0.000000,0.000000,0.000000,0.000000,0.000000,0.000000,0.000000,1647082515.355668,0.000000
218.000000,-11863.076611,-11722.059455,-13033.123378,20619.260743,-28049.561745,40714.194264,31679.373286,5340.926986,0.070000,0.982000,0.082000,192.000000,0.000000,0.000000,0.000000,0.000000,0.000000,0.000000,0.000000,0.000000,0.000000,1647082515.355684,0.000000
219.000000,-11860.729678,-11722.037103,-13029.167119,20621.294751,-28045.270210,40713.210787,31684.737704,5344.167989,0.070000,0.982000,0.082000,192.000000,0.000000,0.000000,0.000000,0.000000,0.000000,0.000000,0.000000,0.000000,0.000000,1647082515.363507,0.000000
220.000000,-11850.090247,-11710.660065,-13013.699712,20633.968190,-28031.680349,40721.480932,31685.899995,5365.066870,0.066000,0.980000,0.080000,192.000000,2.000000,16.000000,30.000000,160.000000,2.000000,128.000000,0.000000,0.000000,0.000000,1647082515.363524,0.000000
221.000000,-11865.021213,-11722.618249,-13021.075788,20625.787452,-28036.709492,40736.277787,31700.629795,5377.337978,0.066000,0.980000,0.080000,192.000000,0.000000,0.000000,0.000000,0.000000,0.000000,0.000000,0.000000,0.000000,0.000000,1647082515.370823,0.000000
222.000000,-11874.207780,-11728.742627,-13038.599555,20613.426937,-28053.585059,40742.223351,31706.038917,5362.094088,0.066000,0.980000,0.080000,192.000000,0.000000,0.000000,0.000000,0.000000,0.000000,0.000000,0.000000,0.000000,0.000000,1647082515.370839,0.000000
223.000000,-11863.277777,-11719.176080,-13037.101988,20617.159679,-28048.913544,40734.176723,31695.198321,5378.813193,0.066000,0.980000,0.080000,192.000000,0.000000,0.000000,0.000000,0.000000,0.000000,0.000000,0.000000,0.000000,0.000000,1647082515.377856,0.000000
224.000000,-11848.592681,-11708.938981,-13029.211823,20623.418167,-28039.995198,40715.915348,31686.749361,5387.575077,0.066000,0.980000,0.080000,192.000000,0.000000,0.000000,0.000000,0.000000,0.000000,0.000000,0.000000,0.000000,0.000000,1647082515.385405,0.000000
225.000000,-11847.519797,-11710.749472,-13021.835747,20627.486185,-28030.138079,40723.537293,31703.066135,5387.396263,0.066000,0.980000,0.080000,192.000000,0.000000,0.000000,0.000000,0.000000,0.000000,0.000000,0.000000,0.000000,0.000000,1647082515.385421,0.000000
226.000000,-11854.627652,-11713.565792,-13027.714256,20623.038187,-28035.256628,40726.711241,31720.880475,5378.790841,0.066000,0.980000,0.080000,192.000000,0.000000,0.000000,0.000000,0.000000,0.000000,0.000000,0.000000,0.000000,0.000000,1647082515.393311,0.000000
227.000000,-11850.649041,-11703.887487,-13023.825052,20625.206307,-28037.670617,40712.160255,31730.178801,5379.751966,0.066000,0.980000,0.080000,192.000000,0.000000,0.000000,0.000000,0.000000,0.000000,0.000000,0.000000,0.000000,0.000000,1647082515.393327,0.000000
228.000000,-11849.352640,-11702.814603,-13020.315828,20630.078987,-28030.383948,40719.759848,31757.246763,5394.191193,0.066000,0.980000,0.080000,192.000000,0.000000,0.000000,0.000000,0.000000,0.000000,0.000000,0.000000,0.000000,0.000000,1647082515.401447,0.000000
229.000000,-11839.651983,-11698.143089,-13013.275029,20638.237374,-28024.460736,40715.937700,31770.456644,5401.611972,0.066000,0.980000,0.080000,192.000000,0.000000,0.000000,0.000000,0.000000,0.000000,0.000000,0.000000,0.000000,0.000000,1647082515.401463,0.000000
230.000000,-11842.445951,-11706.435586,-13015.241982,20632.984714,-28024.103108,40711.757924,31778.346810,5391.754853,0.058000,0.988000,0.072000,192.000000,1.000000,208.000000,30.000000,224.000000,2.000000,64.000000,0.000000,0.000000,0.000000,1647082515.407952,0.000000
231.000000,-11856.795771,-11724.048760,-13020.494642,20624.535754,-28031.300370,40731.047479,31814.646043,5392.179536,0.058000,0.988000,0.072000,192.000000,0.000000,0.000000,0.000000,0.000000,0.000000,0.000000,0.000000,0.000000,0.000000,1647082515.407969,0.000000
232.000000,-11859.790904,-11728.675572,-13028.071884,20620.065405,-28040.799861,40733.372060,31826.336005,5393.073606,0.058000,0.988000,0.072000,192.000000,0.000000,0.000000,0.000000,0.000000,0.000000,0.000000,0.000000,0.000000,0.000000,1647082515.415944,0.000000
233.000000,-11844.636422,-11715.376284,-13015.934886,20627.150908,-28032.417957,40723.045555,31827.163020,5401.276696,0.058000,0.988000,0.072000,192.000000,0.000000,0.000000,0.000000,0.000000,0.000000,0.000000,0.000000,0.000000,0.000000,1647082515.415960,0.000000
234.000000,-11834.689895,-11705.608571,-13003.708482,20635.935144,-28019.297483,40727.068869,31838.249485,5412.318458,0.058000,0.988000,0.072000,192.000000,0.000000,0.000000,0.000000,0.000000,0.000000,0.000000,0.000000,0.000000,0.000000,1647082515.423956,0.000000
235.000000,-11836.567442,-11707.799042,-13010.793985,20634.661095,-28021.465602,40741.932779,31858.097834,5411.156167,0.058000,0.988000,0.072000,192.000000,0.000000,0.000000,0.000000,0.000000,0.000000,0.000000,0.000000,0.000000,0.000000,1647082515.423990,0.000000
236.000000,-11837.573271,-11704.960371,-13019.466462,20633.208231,-28030.249838,40731.047479,31851.437015,5406.663466,0.058000,0.988000,0.072000,192.000000,0.000000,0.000000,0.000000,0.000000,0.000000,0.000000,0.000000,0.000000,0.000000,1647082515.431018,0.000000
237.000000,-11848.190349,-11713.498737,-13025.456730,20626.703873,-28036.843602,40726.599482,31854.968590,5405.925859,0.058000,0.988000,0.072000,192.000000,0.000000,0.000000,0.000000,0.000000,0.000000,0.000000,0.000000,0.000000,0.000000,1647082515.431034,0.000000
238.000000,-11846.558672,-11712.381150,-13028.340105,20623.328760,-28039.056425,40715.311851,31865.228041,5405.188251,0.058000,0.988000,0.072000,192.000000,0.000000,0.000000,0.000000,0.000000,0.000000,0.000000,0.000000,0.000000,0.000000,1647082515.437560,0.000000
239.000000,-11842.580061,-11707.821394,-13019.175889,20625.429824,-28032.708530,40708.941604,31874.682829,5397.745120,0.058000,0.988000,0.072000,192.000000,0.000000,0.000000,0.000000,0.000000,0.000000,0.000000,0.000000,0.000000,0.000000,1647082515.445494,0.000000
240.000000,-11840.702515,-11703.239286,-13017.521860,20624.356940,-28032.306198,40709.656860,31881.120131,5403.020132,0.058000,0.980000,0.068000,192.000000,1.000000,208.000000,30.000000,160.000000,2.000000,32.000000,0.000000,0.000000,0.000000,1647082515.445511,0.000000
241.000000,-11832.633535,-11696.645522,-13016.225459,20623.641684,-28035.837774,40697.408104,31893.659460,5401.030827,0.058000,0.980000,0.068000,192.000000,0.000000,0.000000,0.000000,0.000000,0.000000,0.000000,0.000000,0.000000,0.000000,1647082515.453479,0.000000
242.000000,-11836.299221,-11698.835993,-13016.180756,20623.395815,-28030.853335,40696.782255,31922.783783,5411.782016,0.058000,0.980000,0.068000,192.000000,0.000000,0.000000,0.000000,0.000000,0.000000,0.000000,0.000000,0.000000,0.000000,1647082515.453493,0.000000
243.000000,-11851.923090,-11717.834975,-13027.356628,20608.375443,-28042.073910,40709.589804,31925.913027,5405.188251,0.058000,0.980000,0.068000,192.000000,0.000000,0.000000,0.000000,0.000000,0.000000,0.000000,0.000000,0.000000,0.000000,1647082515.460691,0.000000
244.000000,-11834.444026,-11700.467670,-13022.998038,20618.321969,-28043.951457,40690.300249,31913.396050,5409.859766,0.058000,0.980000,0.068000,192.000000,0.000000,0.000000,0.000000,0.000000,0.000000,0.000000,0.000000,0.000000,0.000000,1647082515.460707,0.000000
245.000000,-11819.691875,-11683.256827,-13011.777462,20631.464795,-28031.345073,40678.699694,31925.108364,5426.578871,0.058000,0.980000,0.068000,192.000000,0.000000,0.000000,0.000000,0.000000,0.000000,0.000000,0.000000,0.000000,0.000000,1647082515.468231,0.000000
246.000000,-11823.268154,-11690.722309,-13013.587953,20628.380254,-28033.647303,40672.217688,31929.735175,5422.913185,0.058000,0.980000,0.068000,192.000000,0.000000,0.000000,0.000000,0.000000,0.000000,0.000000,0.000000,0.000000,0.000000,1647082515.468247,0.000000
247.000000,-11828.967849,-11698.098385,-13008.737625,20630.481318,-28028.662864,40679.124377,31937.602989,5422.443798,0.058000,0.980000,0.068000,192.000000,0.000000,0.000000,0.000000,0.000000,0.000000,0.000000,0.000000,0.000000,0.000000,1647082515.476173,0.000000
248.000000,-11828.252593,-11694.589161,-13008.067072,20630.973057,-28024.974826,40674.005827,31939.748757,5418.576946,0.058000,0.980000,0.068000,192.000000,0.000000,0.000000,0.000000,0.000000,0.000000,0.000000,0.000000,0.000000,0.000000,1647082515.476189,0.000000
249.000000,-11819.602468,-11684.754394,-13003.216744,20637.879746,-28016.995253,40673.804661,31948.980027,5415.492405,0.058000,0.980000,0.068000,192.000000,0.000000,0.000000,0.000000,0.000000,0.000000,0.000000,0.000000,0.000000,0.000000,1647082515.483262,0.000000
250.000000,-11818.216660,-11684.530876,-13005.831898,20637.432711,-28018.381061,40672.530612,31963.285144,5440.794580,0.058000,0.980000,0.068000,192.000000,0.000000,0.000000,0.000000,0.000000,0.000000,0.000000,0.000000,0.000000,0.000000,1647082515.483277,0.000000
251.000000,-11812.606372,-11677.668891,-13001.607418,20642.506557,-28018.001082,40671.480080,31971.242365,5461.849923,0.050000,0.980000,0.080000,192.000000,1.000000,144.000000,30.000000,160.000000,2.000000,128.000000,0.000000,0.000000,0.000000,1647082515.490872,0.000000
252.000000,-11809.544183,-11674.673757,-12999.148726,20642.864185,-28014.402451,40663.098176,31970.616516,5459.145362,0.050000,0.980000,0.080000,192.000000,0.000000,0.000000,0.000000,0.000000,0.000000,0.000000,0.000000,0.000000,0.000000,1647082515.490888,0.000000
253.000000,-11806.504346,-11674.830219,-12996.421814,20644.048827,-28012.770774,40658.560772,31978.372571,5459.771211,0.050000,0.980000,0.080000,192.000000,0.000000,0.000000,0.000000,0.000000,0.000000,0.000000,0.000000,0.000000,0.000000,1647082515.497876,0.000000
254.000000,-11807.286657,-11676.596007,-12994.566619,20646.708685,-28007.093430,40665.243943,31997.460961,5451.836342,0.050000,0.980000,0.080000,192.000000,0.000000,0.000000,0.000000,0.000000,0.000000,0.000000,0.000000,0.000000,0.000000,1647082515.505643,0.000000
255.000000,-11810.371198,-11677.937112,-13000.802755,20644.093531,-28009.686233,40665.646275,31999.472618,5447.477752,0.050000,0.980000,0.080000,192.000000,0.000000,0.000000,0.000000,0.000000,0.000000,0.000000,0.000000,0.000000,0.000000,1647082515.505660,0.000000
0.000000,-11807.621933,-11676.037213,-13005.697787,20643.490034,-28016.279997,40664.908667,31992.476522,5468.331929,0.050000,0.980000,0.080000,192.000000,0.000000,0.000000,0.000000,0.000000,0.000000,0.000000,0.000000,0.000000,0.000000,1647082515.513046,0.000000
1.000000,-11793.674444,-11665.576597,-12997.494697,20648.720342,-28012.301387,40646.490830,31981.054781,5477.093813,0.050000,0.980000,0.080000,192.000000,0.000000,0.000000,0.000000,0.000000,0.000000,0.000000,0.000000,0.000000,0.000000,1647082515.513080,0.000000
2.000000,-11784.532581,-11655.183036,-12981.759069,20661.013801,-27990.597843,40651.117641,31992.901205,5498.305619,0.050000,0.980000,0.080000,192.000000,0.000000,0.000000,0.000000,0.000000,0.000000,0.000000,0.000000,0.000000,0.000000,1647082515.520509,0.000000
3.000000,-11797.809517,-11668.571731,-12989.135145,20652.810711,-27991.424858,40664.774557,32019.388022,5502.083063,0.050000,0.980000,0.080000,192.000000,0.000000,0.000000,0.000000,0.000000,0.000000,0.000000,0.000000,0.000000,0.000000,1647082515.520525,0.000000
4.000000,-11796.803689,-11670.114001,-12998.634636,20647.714513,-27997.728049,40660.728891,32016.951682,5483.732281,0.050000,0.980000,0.080000,192.000000,0.000000,0.000000,0.000000,0.000000,0.000000,0.000000,0.000000,0.000000,0.000000,1647082515.528552,0.000000
5.000000,-11780.576322,-11655.719478,-12981.401441,20663.137217,-27984.205244,40661.041815,32025.870028,5496.808052,0.054000,0.982000,0.076000,192.000000,1.000000,176.000000,30.000000,176.000000,2.000000,96.000000,0.000000,0.000000,0.000000,1647082515.528568,0.000000
6.000000,-11781.515095,-11657.239396,-12975.232360,20661.796112,-27983.624099,40647.519010,32040.800994,5497.433901,0.054000,0.982000,0.076000,192.000000,0.000000,0.000000,0.000000,0.000000,0.000000,0.000000,0.000000,0.000000,0.000000,1647082515.536543,0.000000
7.000000,-11789.897000,-11667.655309,-12977.802810,20652.475435,-27987.379192,40646.893161,32065.097340,5494.058787,0.054000,0.982000,0.076000,192.000000,0.000000,0.000000,0.000000,0.000000,0.000000,0.000000,0.000000,0.000000,0.000000,1647082515.536559,0.000000
8.000000,-11783.571456,-11664.526065,-12970.292624,20655.649383,-27981.455980,40649.910647,32089.125465,5489.655493,0.054000,0.982000,0.076000,192.000000,0.000000,0.000000,0.000000,0.000000,0.000000,0.000000,0.000000,0.000000,0.000000,1647082515.543186,0.000000
9.000000,-11780.688081,-11663.453181,-12967.900988,20655.962307,-27973.744628,40654.738623,32111.276044,5489.007293,0.054000,0.982000,0.076000,192.000000,0.000000,0.000000,0.000000,0.000000,0.000000,0.000000,0.000000,0.000000,0.000000,1647082515.543203,0.000000
10.000000,-11781.023357,-11667.856475,-12971.454915,20649.972039,-27965.183910,40660.706539,32135.147707,5484.983979,0.054000,0.982000,0.076000,192.000000,0.000000,0.000000,0.000000,0.000000,0.000000,0.000000,0.000000,0.000000,0.000000,1647082515.551070,0.000000
11.000000,-11780.352805,-11665.464838,-12972.281930,20649.077970,-27952.823395,40669.647237,32151.911515,5496.763348,0.054000,0.982000,0.076000,192.000000,0.000000,0.000000,0.000000,0.000000,0.000000,0.000000,0.000000,0.000000,0.000000,1647082515.551087,0.000000
12.000000,-11786.030148,-11668.035289,-12977.042851,20644.249993,-27951.102311,40678.967914,32155.174870,5495.243430,0.054000,0.982000,0.076000,192.000000,0.000000,0.000000,0.000000,0.000000,0.000000,0.000000,0.000000,0.000000,0.000000,1647082515.558167,0.000000
13.000000,-11793.160354,-11671.611568,-12980.350909,20640.472548,-27952.465767,40694.658839,32173.771521,5496.182203,0.054000,0.982000,0.076000,192.000000,0.000000,0.000000,0.000000,0.000000,0.000000,0.000000,0.000000,0.000000,0.000000,1647082515.566295,0.000000
14.000000,-11790.791069,-11669.555207,-12979.032156,20637.008028,-27957.696075,40691.149615,32172.966859,5478.457269,0.054000,0.982000,0.076000,192.000000,0.000000,0.000000,0.000000,0.000000,0.000000,0.000000,0.000000,0.000000,0.000000,1647082515.566310,0.000000
15.000000,-11785.001968,-11668.750545,-12978.607473,20636.717455,-27956.824357,40680.085502,32157.879431,5490.951895,0.056000,0.984000,0.078000,192.000000,1.000000,192.000000,30.000000,192.000000,2.000000,112.000000,0.000000,0.000000,0.000000,1647082515.572614,0.000000
16.000000,-11780.084584,-11666.537722,-12979.658005,20639.980810,-27955.706770,40673.871717,32143.998998,5500.630200,0.056000,0.984000,0.078000,192.000000,0.000000,0.000000,0.000000,0.000000,0.000000,0.000000,0.000000,0.000000,0.000000,1647082515.572631,0.000000
17.000000,-11776.597712,-11662.067373,-12974.248883,20649.726170,-27946.788424,40678.677342,32145.004826,5496.629238,0.056000,0.984000,0.078000,192.000000,0.000000,0.000000,0.000000,0.000000,0.000000,0.000000,0.000000,0.000000,0.000000,1647082515.580713,0.000000
18.000000,-11779.682252,-11661.486228,-12977.713403,20654.397685,-27940.731101,40678.811452,32142.590838,5490.616618,0.056000,0.984000,0.078000,192.000000,0.000000,0.000000,0.000000,0.000000,0.000000,0.000000,0.000000,0.000000,0.000000,1647082515.580729,0.000000
19.000000,-11773.982558,-11654.244262,-12973.600682,20659.762104,-27935.456089,40686.388694,32146.770614,5502.127767,0.056000,0.984000,0.078000,192.000000,0.000000,0.000000,0.000000,0.000000,0.000000,0.000000,0.000000,0.000000,0.000000,1647082515.588629,0.000000
20.000000,-11762.158485,-11644.834178,-12966.649290,20666.579386,-27932.393900,40691.619002,32158.818204,5502.798319,0.056000,0.984000,0.078000,192.000000,0.000000,0.000000,0.000000,0.000000,0.000000,0.000000,0.000000,0.000000,0.000000,1647082515.588645,0.000000
21.000000,-11762.784334,-11644.655364,-12970.650252,20666.445275,-27939.658217,40677.515051,32155.152518,5498.059749,0.056000,0.984000,0.078000,192.000000,0.000000,0.000000,0.000000,0.000000,0.000000,0.000000,0.000000,0.000000,0.000000,1647082515.595426,0.000000
22.000000,-11774.049613,-11653.529007,-12974.382994,20661.930223,-27939.747624,40690.300249,32177.638373,5502.038360,0.056000,0.984000,0.078000,192.000000,0.000000,0.000000,0.000000,0.000000,0.000000,0.000000,0.000000,0.000000,0.000000,1647082515.595460,0.000000
23.000000,-11778.676424,-11654.356021,-12976.506409,20657.839854,-27940.373473,40683.058284,32178.554795,5499.199688,0.056000,0.984000,0.078000,192.000000,0.000000,0.000000,0.000000,0.000000,0.000000,0.000000,0.000000,0.000000,0.000000,1647082515.603430,0.000000
24.000000,-11791.193401,-11668.705841,-12986.475287,20644.451159,-27954.209203,40685.695790,32180.901728,5500.563145,0.056000,0.984000,0.078000,192.000000,0.000000,0.000000,0.000000,0.000000,0.000000,0.000000,0.000000,0.000000,0.000000,1647082515.603446,0.000000
25.000000,-11791.640436,-11671.969196,-12990.319787,20635.644571,-27965.653296,40680.756054,32191.518806,5500.361979,0.052000,0.978000,0.082000,192.000000,1.000000,160.000000,30.000000,144.000000,2.000000,144.000000,0.000000,0.000000,0.000000,1647082515.611493,0.000000
26.000000,-11788.913523,-11672.237417,-12989.895104,20633.007065,-27965.183910,40690.635525,32207.835580,5500.831366,0.052000,0.978000,0.082000,192.000000,0.000000,0.000000,0.000000,0.000000,0.000000,0.000000,0.000000,0.000000,0.000000,1647082515.611509,0.000000
27.000000,-11789.874648,-11671.991548,-12995.795965,20629.006103,-27964.647468,40694.480025,32214.027013,5497.791528,0.052000,0.978000,0.082000,192.000000,0.000000,0.000000,0.000000,0.000000,0.000000,0.000000,0.000000,0.000000,0.000000,1647082515.618474,0.000000
28.000000,-11787.952398,-11669.577559,-12992.264389,20629.631952,-27960.311229,40693.161272,32212.350632,5511.917831,0.052000,0.978000,0.082000,192.000000,0.000000,0.000000,0.000000,0.000000,0.000000,0.000000,0.000000,0.000000,0.000000,1647082515.618490,0.000000
29.000000,-11795.775508,-11675.165495,-12997.628808,20623.820498,-27968.894299,40694.122397,32196.525597,5503.424168,0.052000,0.978000,0.082000,192.000000,0.000000,0.000000,0.000000,0.000000,0.000000,0.000000,0.000000,0.000000,0.000000,1647082515.624925,0.000000
30.000000,-11790.813421,-11668.549379,-12997.025311,20627.285019,-27971.643564,40680.107853,32192.122304,5506.106377,0.052000,0.978000,0.082000,192.000000,0.000000,0.000000,0.000000,0.000000,0.000000,0.000000,0.000000,0.000000,0.000000,1647082515.633062,0.000000
31.000000,-11786.544238,-11666.872998,-12994.320750,20631.956533,-27971.174177,40666.853269,32180.812321,5508.542718,0.052000,0.978000,0.082000,192.000000,0.000000,0.000000,0.000000,0.000000,0.000000,0.000000,0.000000,0.000000,0.000000,1647082515.633077,0.000000
32.000000,-11768.953415,-11648.991603,-12975.947616,20650.821406,-27954.030389,40663.165231,32179.270050,5519.115093,0.052000,0.978000,0.082000,192.000000,0.000000,0.000000,0.000000,0.000000,0.000000,0.000000,0.000000,0.000000,0.000000,1647082515.641131,0.000000
33.000000,-11766.986462,-11645.795303,-12968.079802,20658.800979,-27940.328770,40677.895031,32196.592652,5522.110226,0.052000,0.978000,0.082000,192.000000,0.000000,0.000000,0.000000,0.000000,0.000000,0.000000,0.000000,0.000000,0.000000,1647082515.641147,0.000000
34.000000,-11773.960206,-11650.645632,-12974.986491,20656.901080,-27943.301552,40677.470348,32198.894882,5525.552395,0.052000,0.978000,0.082000,192.000000,0.000000,0.000000,0.000000,0.000000,0.000000,0.000000,0.000000,0.000000,0.000000,1647082515.648157,0.000000
35.000000,-11783.057366,-11657.597024,-12986.519991,20648.921507,-27954.231555,40679.705522,32189.507149,5511.202575,0.050000,0.976000,0.078000,192.000000,1.000000,144.000000,30.000000,128.000000,2.000000,112.000000,0.000000,0.000000,0.000000,1647082515.648173,0.000000
36.000000,-11784.599636,-11658.245225,-12992.197334,20647.021609,-27964.580412,40672.821185,32164.964934,5501.099587,0.050000,0.976000,0.078000,192.000000,0.000000,0.000000,0.000000,0.000000,0.000000,0.000000,0.000000,0.000000,0.000000,1647082515.655518,0.000000
37.000000,-11776.307139,-11650.355059,-12985.737680,20652.944821,-27960.937078,40662.360568,32142.814355,5512.767197,0.050000,0.976000,0.078000,192.000000,0.000000,0.000000,0.000000,0.000000,0.000000,0.000000,0.000000,0.000000,0.000000,1647082515.655530,0.000000
38.000000,-11758.515150,-11633.613602,-12968.392726,20666.937013,-27944.195622,40644.926208,32116.729869,5513.013066,0.050000,0.976000,0.078000,192.000000,0.000000,0.000000,0.000000,0.000000,0.000000,0.000000,0.000000,0.000000,0.000000,1647082515.663490,0.000000
39.000000,-11748.546272,-11624.538794,-12956.993336,20679.789267,-27935.031406,40637.952463,32105.129314,5510.017933,0.050000,0.976000,0.078000,192.000000,0.000000,0.000000,0.000000,0.000000,0.000000,0.000000,0.000000,0.000000,0.000000,1647082515.663506,0.000000
40.000000,-11754.134208,-11630.484358,-12965.062316,20672.368487,-27946.542555,40638.511257,32103.676451,5534.113113,0.050000,0.976000,0.078000,192.000000,0.000000,0.000000,0.000000,0.000000,0.000000,0.000000,0.000000,0.000000,0.000000,1647082515.670753,0.000000
41.000000,-11756.011755,-11631.221966,-12967.744525,20667.942842,-27951.951677,40634.376184,32097.552073,5533.151988,0.050000,0.976000,0.078000,192.000000,0.000000,0.000000,0.000000,0.000000,0.000000,0.000000,0.000000,0.000000,0.000000,1647082515.670769,0.000000
42.000000,-11758.939834,-11633.568899,-12972.036060,20665.886482,-27952.912802,40630.196408,32096.389782,5526.938203,0.050000,0.976000,0.078000,192.000000,0.000000,0.000000,0.000000,0.000000,0.000000,0.000000,0.000000,0.000000,0.000000,1647082515.678290,0.000000
43.000000,-11749.574453,-11627.623335,-12968.526836,20670.267423,-27947.123700,40628.117696,32110.985471,5538.292889,0.050000,0.976000,0.078000,192.000000,0.000000,0.000000,0.000000,0.000000,0.000000,0.000000,0.000000,0.000000,0.000000,1647082515.678325,0.000000
44.000000,-11746.981650,-11627.802149,-12968.392726,20669.596871,-27948.174232,40616.673603,32100.144875,5538.069372,0.050000,0.976000,0.078000,192.000000,0.000000,0.000000,0.000000,0.000000,0.000000,0.000000,0.000000,0.000000,0.000000,1647082515.685340,0.000000
45.000000,-11753.709525,-11633.345381,-12973.041889,20662.153740,-27952.801043,40621.590986,32105.621052,5542.807942,0.052000,0.974000,0.076000,192.000000,1.000000,160.000000,30.000000,112.000000,2.000000,96.000000,0.000000,0.000000,0.000000,1647082515.694840,0.000000
46.000000,-11752.703697,-11629.880861,-12973.265406,20664.768894,-27950.834090,40627.067164,32122.876599,5550.675756,0.052000,0.974000,0.076000,192.000000,0.000000,0.000000,0.000000,0.000000,0.000000,0.000000,0.000000,0.000000,0.000000,1647082515.694856,0.000000
47.000000,-11746.400505,-11623.331800,-12973.421868,20668.725153,-27946.900183,40622.306242,32124.932960,5550.496942,0.052000,0.974000,0.076000,192.000000,0.000000,0.000000,0.000000,0.000000,0.000000,0.000000,0.000000,0.000000,0.000000,1647082515.700994,0.000000
48.000000,-11740.231423,-11619.375541,-12967.141028,20671.876749,-27941.401653,40613.186731,32127.369300,5544.394916,0.052000,0.974000,0.076000,192.000000,0.000000,0.000000,0.000000,0.000000,0.000000,0.000000,0.000000,0.000000,0.000000,1647082515.701009,0.000000
49.000000,-11737.728028,-11616.626277,-12958.781476,20678.403458,-27931.276313,40617.612376,32138.321655,5542.316203,0.052000,0.974000,0.076000,192.000000,0.000000,0.000000,0.000000,0.000000,0.000000,0.000000,0.000000,0.000000,0.000000,1647082515.707978,0.000000
50.000000,-11742.108970,-11618.816748,-12961.866017,20677.978775,-27933.153860,40619.333460,32144.513088,5540.237491,0.052000,0.974000,0.076000,192.000000,0.000000,0.000000,0.000000,0.000000,0.000000,0.000000,0.000000,0.000000,0.000000,1647082515.707994,0.000000
51.000000,-11747.696906,-11626.081064,-12965.554054,20671.809694,-27938.294761,40624.586120,32158.639390,5536.013011,0.052000,0.974000,0.076000,192.000000,0.000000,0.000000,0.000000,0.000000,0.000000,0.000000,0.000000,0.000000,0.000000,1647082515.716039,0.000000
52.000000,-11750.960261,-11629.925565,-12967.722174,20670.468589,-27937.914781,40633.862094,32171.245774,5544.529026,0.052000,0.974000,0.076000,192.000000,0.000000,0.000000,0.000000,0.000000,0.000000,0.000000,0.000000,0.000000,0.000000,1647082515.716055,0.000000
53.000000,-11754.715354,-11632.943050,-12973.645386,20667.920490,-27938.317113,40637.371318,32173.056265,5538.114075,0.052000,0.974000,0.076000,192.000000,0.000000,0.000000,0.000000,0.000000,0.000000,0.000000,0.000000,0.000000,0.000000,1647082515.723954,0.000000
54.000000,-11740.142016,-11618.593230,-12962.469514,20677.017650,-27934.338502,40630.017594,32178.130111,5535.588328,0.052000,0.974000,0.076000,192.000000,0.000000,0.000000,0.000000,0.000000,0.000000,0.000000,0.000000,0.000000,0.000000,1647082515.723970,0.000000
55.000000,-11735.984592,-11614.145233,-12959.854360,20682.158551,-27929.823450,40621.009841,32185.908519,5545.311337,0.050000,0.980000,0.082000,192.000000,1.000000,144.000000,30.000000,160.000000,2.000000,144.000000,0.000000,0.000000,0.000000,1647082515.730525,0.000000
56.000000,-11745.081752,-11623.041227,-12966.582235,20676.436505,-27930.248133,40624.988452,32204.527522,5546.451276,0.050000,0.980000,0.082000,192.000000,0.000000,0.000000,0.000000,0.000000,0.000000,0.000000,0.000000,0.000000,0.000000,1647082515.730541,0.000000
57.000000,-11754.290671,-11631.713704,-12975.545284,20665.305336,-27937.825374,40627.268330,32222.833600,5538.449352,0.050000,0.980000,0.082000,192.000000,0.000000,0.000000,0.000000,0.000000,0.000000,0.000000,0.000000,0.000000,0.000000,1647082515.738541,0.000000
58.000000,-11751.675517,-11627.064541,-12971.991357,20663.561900,-27937.087767,40619.244053,32225.716975,5539.008145,0.050000,0.980000,0.082000,192.000000,0.000000,0.000000,0.000000,0.000000,0.000000,0.000000,0.000000,0.000000,0.000000,1647082515.738558,0.000000
59.000000,-11747.272223,-11621.387198,-12965.129371,20667.160531,-27933.444432,40612.918510,32231.126098,5541.578596,0.050000,0.980000,0.082000,192.000000,0.000000,0.000000,0.000000,0.000000,0.000000,0.000000,0.000000,0.000000,0.000000,1647082515.745643,0.000000
60.000000,-11741.773694,-11615.709855,-12966.604586,20672.815522,-27932.595066,40608.582271,32231.506077,5539.566939,0.050000,0.980000,0.082000,192.000000,0.000000,0.000000,0.000000,0.000000,0.000000,0.000000,0.000000,0.000000,0.000000,1647082515.753672,0.000000
61.000000,-11738.465636,-11611.105396,-12961.508389,20679.453990,-27922.737947,40611.845626,32256.517679,5559.236474,0.050000,0.980000,0.082000,192.000000,0.000000,0.000000,0.000000,0.000000,0.000000,0.000000,0.000000,0.000000,0.000000,1647082515.753688,0.000000
62.000000,-11742.511301,-11618.503823,-12963.207121,20672.659060,-27923.207333,40619.624033,32278.578851,5549.155837,0.050000,0.980000,0.082000,192.000000,0.000000,0.000000,0.000000,0.000000,0.000000,0.000000,0.000000,0.000000,0.000000,1647082515.760272,0.000000
63.000000,-11741.349011,-11618.906155,-12961.173113,20672.033211,-27921.553304,40617.724135,32283.093903,5540.528064,0.050000,0.980000,0.082000,192.000000,0.000000,0.000000,0.000000,0.000000,0.000000,0.000000,0.000000,0.000000,0.000000,1647082515.760288,0.000000
64.000000,-11747.428685,-11623.667076,-12967.275139,20669.663926,-27927.252999,40623.222664,32297.399020,5536.214177,0.050000,0.980000,0.082000,192.000000,0.000000,0.000000,0.000000,0.000000,0.000000,0.000000,0.000000,0.000000,0.000000,1647082515.768441,0.000000
65.000000,-11741.147845,-11618.347361,-12969.510313,20668.971022,-27931.633941,40625.480190,32288.681840,5537.935261,0.056000,0.982000,0.078000,192.000000,1.000000,192.000000,30.000000,176.000000,2.000000,112.000000,0.000000,0.000000,0.000000,1647082515.768474,0.000000
66.000000,-11725.658086,-11604.198707,-12954.065258,20678.179941,-27921.776822,40626.642481,32306.004442,5557.358927,0.056000,0.982000,0.078000,192.000000,0.000000,0.000000,0.000000,0.000000,0.000000,0.000000,0.000000,0.000000,0.000000,1647082515.776232,0.000000
67.000000,-11728.340295,-11603.662265,-12948.410266,20682.292662,-27913.864304,40622.015670,32330.077270,5562.633939,0.056000,0.982000,0.078000,192.000000,0.000000,0.000000,0.000000,0.000000,0.000000,0.000000,0.000000,0.000000,0.000000,1647082515.776248,0.000000
68.000000,-11728.563813,-11604.221058,-12946.622127,20685.846589,-27910.377432,40615.868940,32337.967436,5555.906064,0.056000,0.982000,0.078000,192.000000,0.000000,0.000000,0.000000,0.000000,0.000000,0.000000,0.000000,0.000000,0.000000,1647082515.783321,0.000000
69.000000,-11732.005981,-11605.226887,-12953.864092,20680.571578,-27920.323958,40617.455914,32347.489279,5547.792381,0.056000,0.982000,0.078000,192.000000,0.000000,0.000000,0.000000,0.000000,0.000000,0.000000,0.000000,0.000000,0.000000,1647082515.783337,0.000000
70.000000,-11739.382057,-11611.708893,-12962.849493,20670.021554,-27932.952694,40609.610451,32344.784718,5550.251073,0.056000,0.982000,0.078000,192.000000,0.000000,0.000000,0.000000,0.000000,0.000000,0.000000,0.000000,0.000000,0.000000,1647082515.790839,0.000000
71.000000,-11734.755246,-11604.824555,-12959.563787,20674.290737,-27926.917723,40612.627937,32355.267686,5552.240378,0.056000,0.982000,0.078000,192.000000,0.000000,0.000000,0.000000,0.000000,0.000000,0.000000,0.000000,0.000000,0.000000,1647082515.790855,0.000000
72.000000,-11725.143996,-11597.359073,-12951.427752,20678.559921,-27919.496944,40613.790228,32360.319181,5556.442506,0.056000,0.982000,0.078000,192.000000,0.000000,0.000000,0.000000,0.000000,0.000000,0.000000,0.000000,0.000000,0.000000,1647082515.798915,0.000000
73.000000,-11720.494833,-11593.671035,-12947.404438,20679.766915,-27917.597046,40605.475379,32360.766215,5551.033384,0.056000,0.982000,0.078000,192.000000,0.000000,0.000000,0.000000,0.000000,0.000000,0.000000,0.000000,0.000000,0.000000,1647082515.798931,0.000000
74.000000,-11721.835938,-11592.933427,-12949.103171,20677.509389,-27917.999377,40609.006954,32373.886689,5547.613567,0.056000,0.982000,0.078000,192.000000,0.000000,0.000000,0.000000,0.000000,0.000000,0.000000,0.000000,0.000000,0.000000,1647082515.805702,0.000000
75.000000,-11726.060417,-11597.403776,-12954.668755,20671.161493,-27925.688377,40608.381105,32384.190844,5556.956596,0.056000,0.988000,0.082000,192.000000,1.000000,192.000000,30.000000,224.000000,2.000000,144.000000,0.000000,0.000000,0.000000,1647082515.812422,0.000000
76.000000,-11737.303345,-11607.976151,-12958.960290,20668.479284,-27928.705863,40613.790228,32393.489169,5548.507637,0.056000,0.988000,0.082000,192.000000,0.000000,0.000000,0.000000,0.000000,0.000000,0.000000,0.000000,0.000000,0.000000,1647082515.812434,0.000000
77.000000,-11751.228482,-11624.181166,-12974.830028,20654.889423,-27942.161613,40619.176998,32397.601890,5544.551378,0.056000,0.988000,0.082000,192.000000,0.000000,0.000000,0.000000,0.000000,0.000000,0.000000,0.000000,0.000000,0.000000,1647082515.820476,0.000000
78.000000,-11751.519054,-11627.198652,-12974.606511,20652.251917,-27941.468709,40624.809638,32398.160684,5533.979003,0.056000,0.988000,0.082000,192.000000,0.000000,0.000000,0.000000,0.000000,0.000000,0.000000,0.000000,0.000000,0.000000,1647082515.820492,0.000000
79.000000,-11734.129397,-11611.910058,-12966.515179,20662.086685,-27935.210220,40610.862149,32395.009088,5539.388125,0.056000,0.988000,0.082000,192.000000,0.000000,0.000000,0.000000,0.000000,0.000000,0.000000,0.000000,0.000000,0.000000,1647082515.828537,0.000000
80.000000,-11737.236290,-11613.944067,-12969.465610,20659.404476,-27935.679607,40618.059411,32407.347251,5538.114075,0.056000,0.988000,0.082000,192.000000,0.000000,0.000000,0.000000,0.000000,0.000000,0.000000,0.000000,0.000000,0.000000,1647082515.828553,0.000000
81.000000,-11733.078865,-11608.222021,-12966.962214,20662.354906,-27935.009055,40619.176998,32423.060527,5556.621320,0.056000,0.988000,0.082000,192.000000,0.000000,0.000000,0.000000,0.000000,0.000000,0.000000,0.000000,0.000000,0.000000,1647082515.835694,0.000000
82.000000,-11722.864118,-11596.465003,-12955.853397,20673.374316,-27921.441546,40619.042888,32444.808775,5571.217009,0.056000,0.988000,0.082000,192.000000,0.000000,0.000000,0.000000,0.000000,0.000000,0.000000,0.000000,0.000000,0.000000,1647082515.835710,0.000000
83.000000,-11731.626002,-11608.937276,-12961.597796,20666.087647,-27923.229685,40621.680393,32472.256717,5565.338500,0.056000,0.988000,0.082000,192.000000,0.000000,0.000000,0.000000,0.000000,0.000000,0.000000,0.000000,0.000000,0.000000,1647082515.843139,0.000000
84.000000,-11742.131322,-11624.628201,-12977.691052,20650.731999,-27940.753453,40620.361640,32483.969031,5545.266634,0.056000,0.988000,0.082000,192.000000,0.000000,0.000000,0.000000,0.000000,0.000000,0.000000,0.000000,0.000000,0.000000,1647082515.843155,0.000000
85.000000,-11740.946679,-11624.494091,-12979.255674,20649.323839,-27947.861308,40621.076896,32494.876682,5559.370584,0.056000,0.988000,0.084000,192.000000,1.000000,192.000000,30.000000,224.000000,2.000000,160.000000,0.000000,0.000000,0.000000,1647082515.851068,0.000000
86.000000,-11728.653220,-11608.110262,-12957.552130,20663.248976,-27932.326845,40622.261539,32495.837807,5556.263692,0.056000,0.988000,0.084000,192.000000,0.000000,0.000000,0.000000,0.000000,0.000000,0.000000,0.000000,0.000000,0.000000,1647082515.851101,0.000000
87.000000,-11726.328638,-11603.684617,-12951.740676,20666.400572,-27924.168458,40633.035080,32511.014642,5557.962425,0.056000,0.988000,0.084000,192.000000,0.000000,0.000000,0.000000,0.000000,0.000000,0.000000,0.000000,0.000000,0.000000,1647082515.859180,0.000000
88.000000,-11723.132339,-11599.795413,-12950.958365,20667.741676,-27924.637845,40631.693975,32520.447078,5562.566884,0.056000,0.988000,0.084000,192.000000,0.000000,0.000000,0.000000,0.000000,0.000000,0.000000,0.000000,0.000000,0.000000,1647082515.859196,0.000000
89.000000,-11728.541461,-11604.556335,-12956.501598,20663.472493,-27928.392938,40636.901931,32539.200191,5560.398765,0.056000,0.988000,0.084000,192.000000,0.000000,0.000000,0.000000,0.000000,0.000000,0.000000,0.000000,0.000000,0.000000,1647082515.865430,0.000000
90.000000,-11725.412217,-11597.336721,-12956.434543,20664.925356,-27932.572714,40631.291644,32540.094261,5575.597951,0.056000,0.988000,0.084000,192.000000,0.000000,0.000000,0.000000,0.000000,0.000000,0.000000,0.000000,0.000000,0.000000,1647082515.865446,0.000000
91.000000,-11721.500662,-11594.162773,-12953.037078,20668.546339,-27929.912857,40623.915568,32537.054424,5570.300587,0.056000,0.988000,0.084000,192.000000,0.000000,0.000000,0.000000,0.000000,0.000000,0.000000,0.000000,0.000000,0.000000,1647082515.872656,0.000000
92.000000,-11726.865080,-11600.443614,-12954.579348,20667.004069,-27930.538706,40632.431583,32539.222543,5552.374488,0.056000,0.988000,0.084000,192.000000,0.000000,0.000000,0.000000,0.000000,0.000000,0.000000,0.000000,0.000000,0.000000,1647082515.880702,0.000000
93.000000,-11730.351952,-11605.293942,-12956.568653,20666.869958,-27931.231610,40647.250789,32541.748290,5545.892483,0.056000,0.988000,0.084000,192.000000,0.000000,0.000000,0.000000,0.000000,0.000000,0.000000,0.000000,0.000000,0.000000,1647082515.880718,0.000000
94.000000,-11720.025446,-11595.727396,-12951.740676,20672.435543,-27931.812755,40642.087536,32544.676369,5560.599930,0.056000,0.988000,0.084000,192.000000,0.000000,0.000000,0.000000,0.000000,0.000000,0.000000,0.000000,0.000000,0.000000,1647082515.888814,0.000000
95.000000,-11721.411255,-11599.348378,-12951.159531,20670.178016,-27931.388072,40639.874713,32558.914430,5557.850666,0.056000,0.988000,0.084000,192.000000,0.000000,0.000000,0.000000,0.000000,0.000000,0.000000,0.000000,0.000000,0.000000,1647082515.888829,0.000000
96.000000,-11715.309228,-11599.147212,-12945.996278,20668.836912,-27926.694206,40640.791135,32574.270078,5543.858474,0.044000,0.984000,0.078000,192.000000,1.000000,96.000000,30.000000,192.000000,2.000000,112.000000,0.000000,0.000000,0.000000,1647082515.895412,0.000000
97.000000,-11716.046836,-11599.415433,-12944.744580,20671.228548,-27920.815697,40648.547190,32582.875500,5543.523198,0.044000,0.984000,0.078000,192.000000,0.000000,0.000000,0.000000,0.000000,0.000000,0.000000,0.000000,0.000000,0.000000,1647082515.895429,0.000000
98.000000,-11711.665894,-11594.900381,-12944.610470,20674.648365,-27918.647578,40651.050586,32584.082494,5542.472666,0.044000,0.984000,0.078000,192.000000,0.000000,0.000000,0.000000,0.000000,0.000000,0.000000,0.000000,0.000000,0.000000,1647082515.903451,0.000000
99.000000,-11710.213031,-11594.386291,-12943.626993,20673.441371,-27918.111136,40648.189562,32592.643212,5555.257863,0.044000,0.984000,0.078000,192.000000,0.000000,0.000000,0.000000,0.000000,0.000000,0.000000,0.000000,0.000000,0.000000,1647082515.903467,0.000000
100.000000,-11720.695999,-11605.852736,-12953.394705,20664.254804,-27926.448336,40651.922304,32593.783151,5546.674794,0.044000,0.984000,0.078000,192.000000,0.000000,0.000000,0.000000,0.000000,0.000000,0.000000,0.000000,0.000000,0.000000,1647082515.911438,0.000000
101.000000,-11718.483176,-11602.656436,-12952.768857,20667.987545,-27924.213162,40647.183734,32595.951271,5539.544587,0.044000,0.984000,0.078000,192.000000,0.000000,0.000000,0.000000,0.000000,0.000000,0.000000,0.000000,0.000000,0.000000,1647082515.911453,0.000000
102.000000,-11718.684342,-11605.606867,-12948.052639,20667.629918,-27918.178191,40659.454842,32600.801599,5517.394008,0.044000,0.984000,0.078000,192.000000,0.000000,0.000000,0.000000,0.000000,0.000000,0.000000,0.000000,0.000000,0.000000,1647082515.918082,0.000000
103.000000,-11719.958391,-11610.524250,-12950.399572,20661.952574,-27921.955636,40668.373188,32605.629576,5540.192788,0.044000,0.984000,0.078000,192.000000,0.000000,0.000000,0.000000,0.000000,0.000000,0.000000,0.000000,0.000000,0.000000,1647082515.918099,0.000000
104.000000,-11721.299496,-11611.731245,-12954.221720,20658.398647,-27928.839973,40662.740548,32609.764649,5551.882750,0.044000,0.984000,0.078000,192.000000,0.000000,0.000000,0.000000,0.000000,0.000000,0.000000,0.000000,0.000000,0.000000,1647082515.926082,0.000000
105.000000,-11720.204260,-11609.272553,-12955.272252,20657.795150,-27933.131508,40657.487888,32607.931806,5545.624262,0.044000,0.984000,0.078000,192.000000,0.000000,0.000000,0.000000,0.000000,0.000000,0.000000,0.000000,0.000000,0.000000,1647082515.926099,0.000000
106.000000,-11723.624077,-11610.703064,-12956.658060,20657.214005,-27930.270485,40667.590877,32606.948329,5547.568863,0.048000,0.990000,0.078000,192.000000,1.000000,128.000000,30.000000,240.000000,2.000000,112.000000,0.000000,0.000000,0.000000,1647082515.933118,0.000000
107.000000,-11719.421949,-11604.444576,-12954.981679,20661.863168,-27928.303531,40662.293513,32613.676204,5548.082953,0.048000,0.990000,0.078000,192.000000,0.000000,0.000000,0.000000,0.000000,0.000000,0.000000,0.000000,0.000000,0.000000,1647082515.941578,0.000000
108.000000,-11734.017638,-11619.017913,-12964.168246,20653.302449,-27930.851630,40666.875621,32630.596474,5541.712706,0.048000,0.990000,0.078000,192.000000,0.000000,0.000000,0.000000,0.000000,0.000000,0.000000,0.000000,0.000000,0.000000,1647082515.941594,0.000000
109.000000,-11736.141054,-11621.834233,-12966.425772,20647.379237,-27938.250057,40665.892144,32631.222323,5566.724308,0.048000,0.990000,0.078000,192.000000,0.000000,0.000000,0.000000,0.000000,0.000000,0.000000,0.000000,0.000000,0.000000,1647082515.947694,0.000000
110.000000,-11734.464673,-11623.287096,-12960.077877,20649.525005,-27939.367645,40679.660819,32641.168850,5573.027500,0.048000,0.990000,0.078000,192.000000,0.000000,0.000000,0.000000,0.000000,0.000000,0.000000,0.000000,0.000000,0.000000,1647082515.947710,0.000000
111.000000,-11734.688191,-11626.908079,-12962.804790,20648.183900,-27940.552287,40689.249717,32650.400120,5568.467744,0.048000,0.990000,0.078000,192.000000,0.000000,0.000000,0.000000,0.000000,0.000000,0.000000,0.000000,0.000000,0.000000,1647082515.955652,0.000000
112.000000,-11723.109987,-11617.453291,-12952.791208,20655.761141,-27929.532877,40681.873641,32660.458405,5578.391919,0.048000,0.990000,0.078000,192.000000,0.000000,0.000000,0.000000,0.000000,0.000000,0.000000,0.000000,0.000000,0.000000,1647082515.955669,0.000000
113.000000,-11728.876737,-11623.175338,-12956.658060,20653.145987,-27930.672816,40685.159348,32664.191146,5567.797192,0.048000,0.990000,0.078000,192.000000,0.000000,0.000000,0.000000,0.000000,0.000000,0.000000,0.000000,0.000000,0.000000,1647082515.963567,0.000000
114.000000,-11726.552156,-11619.487300,-12959.250863,20653.190691,-27939.524107,40680.510185,32654.646952,5556.107230,0.048000,0.990000,0.078000,192.000000,0.000000,0.000000,0.000000,0.000000,0.000000,0.000000,0.000000,0.000000,0.000000,1647082515.963582,0.000000
115.000000,-11721.835938,-11615.799262,-12956.211025,20657.124598,-27937.333636,40684.958182,32659.050245,5570.188829,0.048000,0.990000,0.078000,192.000000,0.000000,0.000000,0.000000,0.000000,0.000000,0.000000,0.000000,0.000000,0.000000,1647082515.970738,0.000000
116.000000,-11716.918554,-11608.825518,-12954.624051,20661.214967,-27934.651427,40679.683170,32659.229059,5570.412346,0.048000,0.986000,0.078000,192.000000,1.000000,128.000000,30.000000,208.000000,2.000000,112.000000,0.000000,0.000000,0.000000,1647082515.970755,0.000000
117.000000,-11716.248002,-11606.903268,-12958.557958,20664.143045,-27932.885639,40675.928077,32662.112434,5569.183000,0.048000,0.986000,0.078000,192.000000,0.000000,0.000000,0.000000,0.000000,0.000000,0.000000,0.000000,0.000000,0.000000,1647082515.978444,0.000000
118.000000,-11715.286877,-11607.059730,-12961.910720,20666.065295,-27932.393900,40675.503394,32665.375789,5572.088727,0.048000,0.986000,0.078000,192.000000,0.000000,0.000000,0.000000,0.000000,0.000000,0.000000,0.000000,0.000000,0.000000,1647082515.978460,0.000000
119.000000,-11710.391845,-11607.417358,-12957.283909,20666.624089,-27928.549400,40670.541307,32662.961800,5574.010977,0.048000,0.986000,0.078000,192.000000,0.000000,0.000000,0.000000,0.000000,0.000000,0.000000,0.000000,0.000000,0.000000,1647082515.986291,0.000000
120.000000,-11715.197470,-11613.899364,-12956.009860,20657.549281,-27931.231610,40667.747339,32662.693580,5558.945901,0.048000,0.986000,0.078000,192.000000,0.000000,0.000000,0.000000,0.000000,0.000000,0.000000,0.000000,0.000000,0.000000,1647082515.986307,0.000000
121.000000,-11707.597877,-11600.957704,-12948.834950,20663.316031,-27925.911895,40663.165231,32658.536155,5556.151933,0.048000,0.986000,0.078000,192.000000,0.000000,0.000000,0.000000,0.000000,0.000000,0.000000,0.000000,0.000000,0.000000,1647082515.993417,0.000000
122.000000,-11703.283990,-11593.022834,-12948.432618,20670.669755,-27916.702976,40659.588952,32655.541021,5576.626131,0.048000,0.986000,0.078000,192.000000,0.000000,0.000000,0.000000,0.000000,0.000000,0.000000,0.000000,0.000000,0.000000,1647082516.000460,0.000000
123.000000,-11708.111967,-11598.744881,-12947.091514,20670.937976,-27910.936226,40674.497566,32673.511824,5585.209201,0.048000,0.986000,0.078000,192.000000,0.000000,0.000000,0.000000,0.000000,0.000000,0.000000,0.000000,0.000000,0.000000,1647082516.000477,0.000000
124.000000,-11707.687283,-11597.292018,-12952.254766,20667.160531,-27922.603836,40665.847440,32662.112434,5564.667948,0.048000,0.986000,0.078000,192.000000,0.000000,0.000000,0.000000,0.000000,0.000000,0.000000,0.000000,0.000000,0.000000,1647082516.007975,0.000000
125.000000,-11709.274257,-11597.224962,-12954.087610,20664.947708,-27926.627150,40661.064167,32652.300018,5561.024614,0.048000,0.986000,0.078000,192.000000,0.000000,0.000000,0.000000,0.000000,0.000000,0.000000,0.000000,0.000000,0.000000,1647082516.007992,0.000000
126.000000,-11695.460879,-11586.272608,-12944.901043,20674.648365,-27917.529990,40658.560772,32633.748070,5584.963332,0.058000,0.990000,0.078000,192.000000,1.000000,208.000000,30.000000,240.000000,2.000000,112.000000,0.000000,0.000000,0.000000,1647082516.015837,0.000000
127.000000,-11683.770917,-11581.042299,-12923.912755,20691.523932,-27897.189903,40661.824126,32653.842289,5602.218879,0.058000,0.990000,0.078000,192.000000,0.000000,0.000000,0.000000,0.000000,0.000000,0.000000,0.000000,0.000000,0.000000,1647082516.015849,0.000000
128.000000,-11679.859362,-11577.734241,-12920.895269,20698.564732,-27891.356098,40669.177850,32682.698391,5586.729120,0.058000,0.990000,0.078000,192.000000,0.000000,0.000000,0.000000,0.000000,0.000000,0.000000,0.000000,0.000000,0.000000,1647082516.022963,0.000000
129.000000,-11678.317091,-11576.057860,-12927.041999,20694.943749,-27897.681641,40664.618095,32676.663420,5586.371492,0.058000,0.990000,0.078000,192.000000,0.000000,0.000000,0.000000,0.000000,0.000000,0.000000,0.000000,0.000000,0.000000,1647082516.022995,0.000000
130.000000,-11686.855458,-11585.378538,-12932.696990,20689.445220,-27900.900293,40672.821185,32684.598289,5601.324809,0.058000,0.990000,0.078000,192.000000,0.000000,0.000000,0.000000,0.000000,0.000000,0.000000,0.000000,0.000000,0.000000,1647082516.030513,0.000000
131.000000,-11696.801984,-11591.145288,-12943.671697,20682.583235,-27905.236531,40680.018446,32689.761542,5592.205297,0.058000,0.990000,0.078000,192.000000,0.000000,0.000000,0.000000,0.000000,0.000000,0.000000,0.000000,0.000000,0.000000,1647082516.030529,0.000000
132.000000,-11702.300513,-11597.515535,-12946.599775,20673.016688,-27911.450316,40678.677342,32690.253280,5570.814678,0.058000,0.990000,0.078000,192.000000,0.000000,0.000000,0.000000,0.000000,0.000000,0.000000,0.000000,0.000000,0.000000,1647082516.038697,0.000000
133.000000,-11703.418100,-11596.733224,-12947.739714,20669.954499,-27914.154877,40676.732740,32694.678926,5565.450259,0.058000,0.990000,0.078000,192.000000,0.000000,0.000000,0.000000,0.000000,0.000000,0.000000,0.000000,0.000000,0.000000,1647082516.038713,0.000000
134.000000,-11700.132394,-11597.448480,-12946.733886,20664.947708,-27917.105307,40669.736644,32691.460275,5553.447372,0.058000,0.990000,0.078000,192.000000,0.000000,0.000000,0.000000,0.000000,0.000000,0.000000,0.000000,0.000000,0.000000,1647082516.046678,0.000000
135.000000,-11702.904010,-11603.125823,-12946.488016,20660.030324,-27919.876924,40658.739586,32684.799455,5553.447372,0.058000,0.990000,0.078000,192.000000,0.000000,0.000000,0.000000,0.000000,0.000000,0.000000,0.000000,0.000000,0.000000,1647082516.046694,0.000000
136.000000,-11702.792251,-11603.818727,-12944.699877,20661.080856,-27921.888581,40652.659911,32687.481664,5570.948788,0.056000,0.976000,0.074000,192.000000,1.000000,192.000000,30.000000,128.000000,2.000000,80.000000,0.000000,0.000000,0.000000,1647082516.052772,0.000000
137.000000,-11693.292760,-11593.000483,-12933.658115,20673.709592,-27908.186961,40653.665740,32694.366001,5588.539611,0.056000,0.976000,0.074000,192.000000,0.000000,0.000000,0.000000,0.000000,0.000000,0.000000,0.000000,0.000000,0.000000,1647082516.060172,0.000000
138.000000,-11683.390937,-11582.293997,-12924.829176,20683.276139,-27896.876979,40662.829955,32704.647804,5594.842803,0.056000,0.976000,0.074000,192.000000,0.000000,0.000000,0.000000,0.000000,0.000000,0.000000,0.000000,0.000000,0.000000,1647082516.060188,0.000000
139.000000,-11697.517240,-11594.833326,-12936.429731,20671.362659,-27910.444487,40662.494679,32701.227987,5586.058567,0.056000,0.976000,0.074000,192.000000,0.000000,0.000000,0.000000,0.000000,0.000000,0.000000,0.000000,0.000000,0.000000,1647082516.068447,0.000000
140.000000,-11708.581353,-11604.154003,-12946.890348,20658.845682,-27923.833182,40659.834821,32699.819827,5572.893390,0.056000,0.976000,0.074000,192.000000,0.000000,0.000000,0.000000,0.000000,0.000000,0.000000,0.000000,0.000000,0.000000,1647082516.068463,0.000000
141.000000,-11702.211106,-11599.951875,-12948.723191,20659.695048,-27925.330749,40659.566600,32691.572033,5564.176209,0.056000,0.976000,0.074000,192.000000,0.000000,0.000000,0.000000,0.000000,0.000000,0.000000,0.000000,0.000000,0.000000,1647082516.076444,0.000000
142.000000,-11692.242228,-11589.826535,-12946.353906,20668.032249,-27921.329787,40641.193466,32674.294135,5604.163480,0.056000,0.976000,0.074000,192.000000,0.000000,0.000000,0.000000,0.000000,0.000000,0.000000,0.000000,0.000000,0.000000,1647082516.076461,0.000000
143.000000,-11694.745623,-11594.498050,-12942.799979,20666.937013,-27917.753508,40647.943693,32675.389370,5597.636771,0.056000,0.976000,0.074000,192.000000,0.000000,0.000000,0.000000,0.000000,0.000000,0.000000,0.000000,0.000000,0.000000,1647082516.082852,0.000000
144.000000,-11691.057586,-11590.318273,-12944.185787,20667.071124,-27923.252037,40641.305225,32652.165908,5581.364701,0.056000,0.976000,0.074000,192.000000,0.000000,0.000000,0.000000,0.000000,0.000000,0.000000,0.000000,0.000000,0.000000,1647082516.082868,0.000000
145.000000,-11695.393824,-11596.956741,-12944.275194,20665.417095,-27924.906066,40644.613283,32681.983135,5596.273315,0.056000,0.976000,0.074000,192.000000,0.000000,0.000000,0.000000,0.000000,0.000000,0.000000,0.000000,0.000000,0.000000,1647082516.090966,0.000000
146.000000,-11693.158650,-11594.430994,-12941.481226,20667.451104,-27919.586351,40660.080690,32718.617644,5630.136207,0.056000,0.980000,0.082000,192.000000,1.000000,192.000000,30.000000,160.000000,2.000000,144.000000,0.000000,0.000000,0.000000,1647082516.090982,0.000000
147.000000,-11689.470612,-11592.844020,-12939.558976,20664.813598,-27916.904142,40649.910647,32714.594330,5613.305344,0.056000,0.980000,0.082000,192.000000,0.000000,0.000000,0.000000,0.000000,0.000000,0.000000,0.000000,0.000000,0.000000,1647082516.098978,0.000000
148.000000,-11689.112984,-11595.503878,-12943.649345,20661.058505,-27917.306473,40643.585103,32712.940301,5604.096425,0.056000,0.980000,0.082000,192.000000,0.000000,0.000000,0.000000,0.000000,0.000000,0.000000,0.000000,0.000000,0.000000,1647082516.098993,0.000000
149.000000,-11689.604722,-11592.866372,-12947.136217,20658.219833,-27922.223857,40646.289664,32727.491287,5606.219841,0.056000,0.980000,0.082000,192.000000,0.000000,0.000000,0.000000,0.000000,0.000000,0.000000,0.000000,0.000000,0.000000,1647082516.105888,0.000000
150.000000,-11691.616379,-11587.725471,-12948.522025,20656.610508,-27928.817621,40648.346025,32734.845011,5597.837937,0.056000,0.980000,0.082000,192.000000,0.000000,0.000000,0.000000,0.000000,0.000000,0.000000,0.000000,0.000000,0.000000,1647082516.105923,0.000000
151.000000,-11688.509487,-11588.239561,-12943.470531,20658.085723,-27922.112098,40646.669644,32733.883886,5589.478384,0.056000,0.980000,0.082000,192.000000,0.000000,0.000000,0.000000,0.000000,0.000000,0.000000,0.000000,0.000000,0.000000,1647082516.112518,0.000000
152.000000,-11701.607609,-11610.256029,-12946.912700,20649.927336,-27924.168458,40658.404310,32746.691435,5585.231553,0.056000,0.980000,0.082000,192.000000,0.000000,0.000000,0.000000,0.000000,0.000000,0.000000,0.000000,0.000000,0.000000,1647082516.112535,0.000000
153.000000,-11700.333560,-11609.965457,-12944.476359,20648.787397,-27924.749604,40657.398481,32744.880944,5590.037178,0.056000,0.980000,0.082000,192.000000,0.000000,0.000000,0.000000,0.000000,0.000000,0.000000,0.000000,0.000000,0.000000,1647082516.120552,0.000000
154.000000,-11689.157687,-11595.883858,-12942.241185,20651.201385,-27924.839011,40647.407251,32735.046176,5584.113966,0.056000,0.980000,0.082000,192.000000,0.000000,0.000000,0.000000,0.000000,0.000000,0.000000,0.000000,0.000000,0.000000,1647082516.128696,0.000000
155.000000,-11683.189772,-11590.318273,-12938.553147,20654.196519,-27921.642711,40641.148763,32741.952865,5585.075091,0.056000,0.980000,0.082000,192.000000,0.000000,0.000000,0.000000,0.000000,0.000000,0.000000,0.000000,0.000000,0.000000,1647082516.128712,0.000000
156.000000,-11688.733004,-11596.442651,-12936.072104,20655.716438,-27913.149048,40650.469440,32754.916877,5599.871945,0.050000,0.982000,0.084000,192.000000,1.000000,144.000000,30.000000,176.000000,2.000000,160.000000,0.000000,0.000000,0.000000,1647082516.135214,0.000000
