%OpenBCI Raw EEG Data
%Number of channels = 8
%Sample Rate = 256 Hz
%Board = OpenBCI_GUI$BoardCytonSerial
%Channels = Fp1, Fp2, F3, F4, Fz, Pz, O1, O2
%Data recorded at AIMS Lab (http://aimsl.uiu.ac.bd) by Rana Depto (mail@ranadepto.com)
%Brainwaves were obtained via the Ultracortex Mark IV Headset using the OpenBCI Cyton Board
%Recording Application = ConcentrateToday (https://concentrate.today)
%Data type = RAW data with noise
%Day No = 5
%Subject ID = 6
%Session ID = 7
%Record starting timestamp (UTC+6) = 2022-03-20T15:45:35.951134
%Record ending timestamp (UTC+6)   = 2022-03-20T15:46:01.768774
%Recorded durations = ~25 seconds
Sample Index, EXG Channel 0, EXG Channel 1, EXG Channel 2, EXG Channel 3, EXG Channel 4, EXG Channel 5, EXG Channel 6, EXG Channel 7, Accel Channel 0, Accel Channel 1, Accel Channel 2, Other, Other, Other, Other, Other, Other, Other, Analog Channel 0, Analog Channel 1, Analog Channel 2, Timestamp, Timestamp (Formatted)
219.000000,1346.089106,-9823.167005,12733.073560,-9369.024261,-187500.022352,30045.170193,10351.182264,17004.782498,0.136000,0.972000,0.162000,192.000000,0.000000,0.000000,0.000000,0.000000,0.000000,0.000000,0.000000,0.000000,0.000000,1647769535.952114,0.000000
220.000000,1351.744098,-9817.199089,12730.413703,-9363.413973,-187500.022352,30046.399539,10347.985965,17020.473423,0.136000,0.972000,0.162000,192.000000,0.000000,0.000000,0.000000,0.000000,0.000000,0.000000,0.000000,0.000000,0.000000,1647769535.952123,0.000000
221.000000,1356.326205,-9811.991133,12734.079389,-9358.764810,-187500.022352,30049.439377,10349.148255,17015.511336,0.136000,0.972000,0.162000,192.000000,0.000000,0.000000,0.000000,0.000000,0.000000,0.000000,0.000000,0.000000,0.000000,1647769535.958693,0.000000
222.000000,1354.359252,-9813.712217,12736.538081,-9359.927101,-187500.022352,30051.495737,10362.358136,17007.241190,0.136000,0.972000,0.162000,192.000000,0.000000,0.000000,0.000000,0.000000,0.000000,0.000000,0.000000,0.000000,0.000000,1647769535.958699,0.000000
223.000000,1351.297063,-9818.339028,12732.850043,-9366.409107,-187500.022352,30046.958333,10348.365944,17012.762071,0.132000,0.964000,0.162000,192.000000,4.000000,32.000000,30.000000,32.000000,5.000000,16.000000,0.000000,0.000000,0.000000,1647769535.966655,0.000000
224.000000,1355.722708,-9818.204918,12734.705238,-9371.192380,-187500.022352,30048.142975,10340.341668,17016.114833,0.132000,0.964000,0.162000,192.000000,0.000000,0.000000,0.000000,0.000000,0.000000,0.000000,0.000000,0.000000,0.000000,1647769535.966661,0.000000
225.000000,1352.839333,-9818.584897,12735.375790,-9363.883360,-187500.022352,30045.527821,10335.066656,17002.949655,0.132000,0.964000,0.162000,192.000000,0.000000,0.000000,0.000000,0.000000,0.000000,0.000000,0.000000,0.000000,0.000000,1647769535.974668,0.000000
226.000000,1354.850990,-9807.543136,12741.321354,-9344.079714,-187500.022352,30052.345103,10339.671116,16999.149859,0.132000,0.964000,0.162000,192.000000,0.000000,0.000000,0.000000,0.000000,0.000000,0.000000,0.000000,0.000000,0.000000,1647769535.974673,0.000000
227.000000,1353.688699,-9808.303095,12738.214462,-9353.936834,-187500.022352,30052.322752,10345.080238,17005.408347,0.132000,0.964000,0.162000,192.000000,0.000000,0.000000,0.000000,0.000000,0.000000,0.000000,0.000000,0.000000,0.000000,1647769535.981824,0.000000
228.000000,1354.091031,-9812.326409,12737.342744,-9359.815342,-187500.022352,30050.534612,10339.447598,17009.968103,0.132000,0.964000,0.162000,192.000000,0.000000,0.000000,0.000000,0.000000,0.000000,0.000000,0.000000,0.000000,0.000000,1647769535.981828,0.000000
229.000000,1351.073545,-9812.281705,12737.230985,-9361.156447,-187500.022352,30047.852403,10332.652668,17011.532725,0.132000,0.964000,0.162000,192.000000,0.000000,0.000000,0.000000,0.000000,0.000000,0.000000,0.000000,0.000000,0.000000,1647769535.989327,0.000000
230.000000,1352.772278,-9809.264220,12735.532252,-9363.078697,-187500.022352,30045.170193,10345.504921,17012.560906,0.132000,0.964000,0.162000,192.000000,0.000000,0.000000,0.000000,0.000000,0.000000,0.000000,0.000000,0.000000,0.000000,1647769535.989356,0.000000
231.000000,1359.701319,-9801.843441,12738.616793,-9359.055383,-187500.022352,30047.338313,10353.886825,17009.230496,0.132000,0.964000,0.162000,192.000000,0.000000,0.000000,0.000000,0.000000,0.000000,0.000000,0.000000,0.000000,0.000000,1647769535.996337,0.000000
232.000000,1357.890827,-9808.571316,12739.130883,-9365.872665,-187500.022352,30046.935981,10339.827578,16991.706728,0.132000,0.964000,0.162000,192.000000,0.000000,0.000000,0.000000,0.000000,0.000000,0.000000,0.000000,0.000000,0.000000,1647769535.996342,0.000000
233.000000,1344.993871,-9821.378865,12731.285421,-9377.473221,-187500.022352,30043.069129,10339.827578,16989.248036,0.126000,0.962000,0.160000,192.000000,3.000000,240.000000,30.000000,16.000000,5.000000,0.000000,0.000000,0.000000,0.000000,1647769536.004398,0.000000
234.000000,1348.748964,-9820.954182,12732.626525,-9373.673424,-187500.022352,30048.612362,10352.188093,17013.566734,0.126000,0.962000,0.160000,192.000000,0.000000,0.000000,0.000000,0.000000,0.000000,0.000000,0.000000,0.000000,0.000000,1647769536.011668,0.000000
235.000000,1357.935531,-9814.159252,12738.840310,-9365.917369,-187500.022352,30049.640542,10347.024840,17011.666836,0.126000,0.962000,0.160000,192.000000,0.000000,0.000000,0.000000,0.000000,0.000000,0.000000,0.000000,0.000000,0.000000,1647769536.011674,0.000000
236.000000,1360.461278,-9808.973647,12744.741171,-9359.703584,-187500.022352,30051.786310,10343.940299,17005.073071,0.126000,0.962000,0.160000,192.000000,0.000000,0.000000,0.000000,0.000000,0.000000,0.000000,0.000000,0.000000,0.000000,1647769536.018961,0.000000
237.000000,1355.990929,-9809.979476,12743.958860,-9362.989290,-187500.022352,30051.763958,10341.123979,17008.358778,0.126000,0.962000,0.160000,192.000000,0.000000,0.000000,0.000000,0.000000,0.000000,0.000000,0.000000,0.000000,0.000000,1647769536.018966,0.000000
238.000000,1353.934569,-9813.980438,12739.734380,-9370.745345,-187500.022352,30043.002074,10323.846081,16997.518182,0.126000,0.962000,0.160000,192.000000,0.000000,0.000000,0.000000,0.000000,0.000000,0.000000,0.000000,0.000000,0.000000,1647769536.026959,0.000000
239.000000,1347.631377,-9821.624735,12731.173662,-9376.981482,-187500.022352,30033.279065,10320.314505,16988.644539,0.126000,0.962000,0.160000,192.000000,0.000000,0.000000,0.000000,0.000000,0.000000,0.000000,0.000000,0.000000,0.000000,1647769536.026963,0.000000
240.000000,1349.218351,-9818.584897,12733.118264,-9369.113668,-187500.022352,30041.660969,10345.147293,16997.875809,0.126000,0.962000,0.160000,192.000000,0.000000,0.000000,0.000000,0.000000,0.000000,0.000000,0.000000,0.000000,0.000000,1647769536.034958,0.000000
241.000000,1348.056060,-9821.423569,12729.899613,-9378.143773,-187500.022352,30044.119661,10354.624433,16995.685338,0.126000,0.962000,0.160000,192.000000,0.000000,0.000000,0.000000,0.000000,0.000000,0.000000,0.000000,0.000000,0.000000,1647769536.034962,0.000000
242.000000,1355.678005,-9815.925040,12729.966668,-9381.116555,-187500.022352,30040.811603,10350.377601,16992.287873,0.126000,0.962000,0.160000,192.000000,0.000000,0.000000,0.000000,0.000000,0.000000,0.000000,0.000000,0.000000,0.000000,1647769536.041600,0.000000
243.000000,1363.858743,-9808.437205,12740.583747,-9366.185590,-187500.022352,30041.348045,10339.179377,16989.180981,0.124000,0.964000,0.158000,192.000000,3.000000,224.000000,30.000000,32.000000,4.000000,240.000000,0.000000,0.000000,0.000000,1647769536.041603,0.000000
244.000000,1366.608008,-9808.571316,12746.775180,-9356.820209,-187500.022352,30041.750376,10331.155101,16981.871960,0.124000,0.964000,0.158000,192.000000,0.000000,0.000000,0.000000,0.000000,0.000000,0.000000,0.000000,0.000000,0.000000,1647769536.050223,0.000000
245.000000,1366.295083,-9808.258391,12747.266918,-9360.061212,-187500.022352,30049.260563,10351.182264,17001.362682,0.124000,0.964000,0.158000,192.000000,0.000000,0.000000,0.000000,0.000000,0.000000,0.000000,0.000000,0.000000,0.000000,1647769536.050226,0.000000
246.000000,1369.089051,-9805.106795,12746.372848,-9358.697755,-187500.022352,30050.780481,10346.376639,17002.927304,0.124000,0.964000,0.158000,192.000000,0.000000,0.000000,0.000000,0.000000,0.000000,0.000000,0.000000,0.000000,0.000000,1647769536.057604,0.000000
247.000000,1366.831525,-9807.006694,12741.030781,-9362.631662,-187500.022352,30043.046778,10334.530215,16987.035213,0.124000,0.964000,0.158000,192.000000,0.000000,0.000000,0.000000,0.000000,0.000000,0.000000,0.000000,0.000000,0.000000,1647769536.057607,0.000000
248.000000,1365.155144,-9808.772482,12738.907366,-9361.804648,-187500.022352,30039.716368,10328.919927,16981.581388,0.124000,0.964000,0.158000,192.000000,0.000000,0.000000,0.000000,0.000000,0.000000,0.000000,0.000000,0.000000,0.000000,1647769536.064738,0.000000
249.000000,1367.032691,-9803.363359,12742.304831,-9358.384831,-187500.022352,30039.336388,10315.352418,16992.891370,0.124000,0.964000,0.158000,192.000000,0.000000,0.000000,0.000000,0.000000,0.000000,0.000000,0.000000,0.000000,0.000000,1647769536.071265,0.000000
250.000000,1367.479726,-9800.278819,12746.261090,-9355.702621,-187500.022352,30039.828126,10325.433055,16995.551228,0.124000,0.964000,0.158000,192.000000,0.000000,0.000000,0.000000,0.000000,0.000000,0.000000,0.000000,0.000000,0.000000,1647769536.071268,0.000000
251.000000,1371.972426,-9798.378920,12751.491398,-9354.115648,-187500.022352,30043.605571,10361.464067,16990.879713,0.124000,0.964000,0.158000,192.000000,0.000000,0.000000,0.000000,0.000000,0.000000,0.000000,0.000000,0.000000,0.000000,1647769536.079261,0.000000
252.000000,1378.275618,-9795.517897,12752.296061,-9354.115648,-187500.022352,30041.370397,10354.602081,16981.760202,0.124000,0.964000,0.158000,192.000000,0.000000,0.000000,0.000000,0.000000,0.000000,0.000000,0.000000,0.000000,0.000000,1647769536.079265,0.000000
253.000000,1375.258133,-9798.691845,12750.038534,-9358.474238,-187500.022352,30036.251847,10328.048209,16982.073126,0.128000,0.964000,0.156000,192.000000,4.000000,0.000000,30.000000,32.000000,4.000000,224.000000,0.000000,0.000000,0.000000,1647769536.087307,0.000000
254.000000,1373.581752,-9800.032949,12748.585671,-9360.150619,-187500.022352,30034.888391,10318.571069,16995.886504,0.128000,0.964000,0.156000,192.000000,0.000000,0.000000,0.000000,0.000000,0.000000,0.000000,0.000000,0.000000,0.000000,1647769536.087310,0.000000
255.000000,1373.872325,-9798.647141,12744.607061,-9360.418840,-187500.022352,30036.363606,10340.766351,17004.290760,0.128000,0.964000,0.156000,192.000000,0.000000,0.000000,0.000000,0.000000,0.000000,0.000000,0.000000,0.000000,0.000000,1647769536.093836,0.000000
0.000000,1373.492345,-9798.937714,12742.438941,-9360.083563,-187500.022352,30038.799946,10352.948052,17001.586199,0.128000,0.964000,0.156000,192.000000,0.000000,0.000000,0.000000,0.000000,0.000000,0.000000,0.000000,0.000000,0.000000,1647769536.093840,0.000000
1.000000,1376.286313,-9794.288551,12746.149331,-9353.534502,-187500.022352,30040.543382,10348.433000,16999.686301,0.128000,0.964000,0.156000,192.000000,0.000000,0.000000,0.000000,0.000000,0.000000,0.000000,0.000000,0.000000,0.000000,1647769536.101925,0.000000
2.000000,1380.421386,-9788.767670,12752.206654,-9347.991270,-187500.022352,30048.254734,10345.996660,17006.011844,0.128000,0.964000,0.156000,192.000000,0.000000,0.000000,0.000000,0.000000,0.000000,0.000000,0.000000,0.000000,0.000000,1647769536.101930,0.000000
3.000000,1382.813022,-9789.080595,12750.217348,-9349.824113,-187500.022352,30046.623057,10341.660421,17008.895219,0.128000,0.964000,0.156000,192.000000,0.000000,0.000000,0.000000,0.000000,0.000000,0.000000,0.000000,0.000000,0.000000,1647769536.109883,0.000000
4.000000,1383.483575,-9787.583028,12749.636203,-9351.433438,-187500.022352,30038.241153,10324.516633,16993.003129,0.128000,0.964000,0.156000,192.000000,0.000000,0.000000,0.000000,0.000000,0.000000,0.000000,0.000000,0.000000,0.000000,1647769536.109887,0.000000
5.000000,1378.074453,-9791.651045,12746.149331,-9361.625834,-187500.022352,30027.199391,10309.540964,16986.588178,0.128000,0.964000,0.156000,192.000000,0.000000,0.000000,0.000000,0.000000,0.000000,0.000000,0.000000,0.000000,0.000000,1647769536.117067,0.000000
6.000000,1384.087072,-9791.673397,12747.423380,-9358.317776,-187500.022352,30032.720272,10307.752825,16990.589141,0.128000,0.964000,0.156000,192.000000,0.000000,0.000000,0.000000,0.000000,0.000000,0.000000,0.000000,0.000000,0.000000,1647769536.117071,0.000000
7.000000,1380.041406,-9796.121394,12745.635241,-9374.478087,-187500.022352,30035.491888,10331.557433,16979.905007,0.128000,0.964000,0.156000,192.000000,0.000000,0.000000,0.000000,0.000000,0.000000,0.000000,0.000000,0.000000,0.000000,1647769536.123464,0.000000
8.000000,1378.230915,-9790.868734,12750.083238,-9351.232273,-187500.022352,30038.755243,10351.025802,16976.239321,0.120000,0.958000,0.156000,192.000000,3.000000,192.000000,29.000000,240.000000,4.000000,224.000000,0.000000,0.000000,0.000000,1647769536.131499,0.000000
9.000000,1379.951999,-9786.353682,12752.877206,-9345.174950,-187500.022352,30041.638618,10356.747849,16974.004146,0.120000,0.958000,0.156000,192.000000,0.000000,0.000000,0.000000,0.000000,0.000000,0.000000,0.000000,0.000000,0.000000,1647769536.131503,0.000000
10.000000,1379.370854,-9787.203048,12752.988965,-9352.260453,-187500.022352,30039.492850,10353.663308,16981.335519,0.120000,0.958000,0.156000,192.000000,0.000000,0.000000,0.000000,0.000000,0.000000,0.000000,0.000000,0.000000,0.000000,1647769536.139466,0.000000
11.000000,1389.116214,-9780.653987,12758.129866,-9349.287671,-187500.022352,30042.957371,10346.957785,17007.062376,0.120000,0.958000,0.156000,192.000000,0.000000,0.000000,0.000000,0.000000,0.000000,0.000000,0.000000,0.000000,0.000000,1647769536.139491,0.000000
12.000000,1389.920877,-9778.150592,12759.448619,-9349.846464,-187500.022352,30046.891278,10339.335840,17016.271295,0.120000,0.958000,0.156000,192.000000,0.000000,0.000000,0.000000,0.000000,0.000000,0.000000,0.000000,0.000000,0.000000,1647769536.146759,0.000000
13.000000,1390.077339,-9777.278874,12760.521503,-9351.791066,-187500.022352,30048.075920,10347.963613,17014.125528,0.120000,0.958000,0.156000,192.000000,0.000000,0.000000,0.000000,0.000000,0.000000,0.000000,0.000000,0.000000,0.000000,1647769536.146764,0.000000
14.000000,1387.395130,-9780.028138,12760.789723,-9354.853255,-187500.022352,30046.108967,10333.412627,17003.776670,0.120000,0.958000,0.156000,192.000000,0.000000,0.000000,0.000000,0.000000,0.000000,0.000000,0.000000,0.000000,0.000000,1647769536.154191,0.000000
15.000000,1383.215354,-9784.118507,12754.285366,-9359.502418,-187500.022352,30037.995283,10324.471930,16987.862228,0.120000,0.958000,0.156000,192.000000,0.000000,0.000000,0.000000,0.000000,0.000000,0.000000,0.000000,0.000000,0.000000,1647769536.154195,0.000000
16.000000,1389.563249,-9778.239999,12756.229968,-9352.729839,-187500.022352,30036.922400,10334.485511,16984.129487,0.120000,0.958000,0.156000,192.000000,0.000000,0.000000,0.000000,0.000000,0.000000,0.000000,0.000000,0.000000,0.000000,1647769536.162187,0.000000
17.000000,1391.261982,-9775.535438,12759.828598,-9349.108857,-187500.022352,30035.983626,10323.130825,16975.904045,0.120000,0.958000,0.156000,192.000000,0.000000,0.000000,0.000000,0.000000,0.000000,0.000000,0.000000,0.000000,0.000000,1647769536.162192,0.000000
18.000000,1387.618648,-9779.245827,12755.514712,-9353.780371,-187500.022352,30042.935019,10349.505883,17001.876772,0.120000,0.960000,0.160000,192.000000,3.000000,192.000000,30.000000,0.000000,5.000000,0.000000,0.000000,0.000000,0.000000,1647769536.170175,0.000000
19.000000,1386.232839,-9781.749222,12749.502093,-9358.630700,-187500.022352,30043.784385,10370.740041,17021.278086,0.120000,0.960000,0.160000,192.000000,0.000000,0.000000,0.000000,0.000000,0.000000,0.000000,0.000000,0.000000,0.000000,1647769536.170179,0.000000
20.000000,1385.785804,-9780.274007,12747.624546,-9367.839619,-187500.022352,30032.988493,10336.921851,16996.400594,0.120000,0.960000,0.160000,192.000000,0.000000,0.000000,0.000000,0.000000,0.000000,0.000000,0.000000,0.000000,0.000000,1647769536.176784,0.000000
21.000000,1385.674046,-9785.906647,12748.876244,-9379.015491,-187500.022352,30025.724176,10320.806244,16975.769934,0.120000,0.960000,0.160000,192.000000,0.000000,0.000000,0.000000,0.000000,0.000000,0.000000,0.000000,0.000000,0.000000,1647769536.176787,0.000000
22.000000,1381.963656,-9789.259409,12751.849026,-9369.627758,-187500.022352,30031.647388,10341.615718,16975.904045,0.120000,0.960000,0.160000,192.000000,0.000000,0.000000,0.000000,0.000000,0.000000,0.000000,0.000000,0.000000,0.000000,1647769536.183870,0.000000
23.000000,1376.688644,-9791.449880,12749.256223,-9358.340127,-187500.022352,30031.066243,10350.399953,16988.063394,0.120000,0.960000,0.160000,192.000000,0.000000,0.000000,0.000000,0.000000,0.000000,0.000000,0.000000,0.000000,0.000000,1647769536.191797,0.000000
24.000000,1377.515659,-9791.829859,12742.975383,-9364.308043,-187500.022352,30031.155650,10350.846988,17006.414176,0.120000,0.960000,0.160000,192.000000,0.000000,0.000000,0.000000,0.000000,0.000000,0.000000,0.000000,0.000000,0.000000,1647769536.191801,0.000000
25.000000,1382.433043,-9780.810449,12745.590537,-9357.244892,-187500.022352,30038.710539,10349.885863,17021.166327,0.120000,0.960000,0.160000,192.000000,0.000000,0.000000,0.000000,0.000000,0.000000,0.000000,0.000000,0.000000,0.000000,1647769536.199041,0.000000
26.000000,1380.734310,-9780.497525,12746.775180,-9355.680270,-187500.022352,30040.833955,10334.127883,17013.209106,0.120000,0.960000,0.160000,192.000000,0.000000,0.000000,0.000000,0.000000,0.000000,0.000000,0.000000,0.000000,0.000000,1647769536.199045,0.000000
27.000000,1380.957828,-9783.246789,12749.099761,-9358.384831,-187500.022352,30039.582257,10340.386372,17006.727100,0.120000,0.960000,0.160000,192.000000,0.000000,0.000000,0.000000,0.000000,0.000000,0.000000,0.000000,0.000000,0.000000,1647769536.206415,0.000000
28.000000,1383.617685,-9782.553885,12748.071581,-9358.898921,-187500.022352,30038.218801,10346.220177,17001.697958,0.128000,0.966000,0.154000,192.000000,4.000000,0.000000,30.000000,48.000000,4.000000,208.000000,0.000000,0.000000,0.000000,1647769536.206435,0.000000
29.000000,1387.819813,-9781.056318,12746.283441,-9357.334299,-187500.022352,30039.783423,10341.168683,17003.396690,0.128000,0.966000,0.154000,192.000000,0.000000,0.000000,0.000000,0.000000,0.000000,0.000000,0.000000,0.000000,0.000000,1647769536.214465,0.000000
30.000000,1384.198831,-9785.861943,12739.175587,-9364.151581,-187500.022352,30032.116775,10338.262956,16997.898161,0.128000,0.966000,0.154000,192.000000,0.000000,0.000000,0.000000,0.000000,0.000000,0.000000,0.000000,0.000000,0.000000,1647769536.214469,0.000000
31.000000,1386.277543,-9783.224438,12739.510863,-9363.324566,-187500.022352,30031.155650,10346.041363,16993.941902,0.128000,0.966000,0.154000,192.000000,0.000000,0.000000,0.000000,0.000000,0.000000,0.000000,0.000000,0.000000,0.000000,1647769536.222440,0.000000
32.000000,1386.322246,-9782.755051,12742.528348,-9362.095220,-187500.022352,30028.965179,10327.131787,16980.352042,0.128000,0.966000,0.154000,192.000000,0.000000,0.000000,0.000000,0.000000,0.000000,0.000000,0.000000,0.000000,0.000000,1647769536.222445,0.000000
33.000000,1382.209525,-9785.616074,12743.042438,-9365.984424,-187500.022352,30030.082766,10322.057941,16985.671757,0.128000,0.966000,0.154000,192.000000,0.000000,0.000000,0.000000,0.000000,0.000000,0.000000,0.000000,0.000000,0.000000,1647769536.229023,0.000000
34.000000,1384.310589,-9787.963007,12742.818921,-9368.085488,-187500.022352,30038.017635,10342.666250,17012.449147,0.128000,0.966000,0.154000,192.000000,0.000000,0.000000,0.000000,0.000000,0.000000,0.000000,0.000000,0.000000,0.000000,1647769536.229027,0.000000
35.000000,1382.187174,-9791.494583,12741.299002,-9371.080622,-187500.022352,30041.638618,10358.379526,17024.832013,0.128000,0.966000,0.154000,192.000000,0.000000,0.000000,0.000000,0.000000,0.000000,0.000000,0.000000,0.000000,0.000000,1647769536.237081,0.000000
36.000000,1379.840240,-9793.483888,12744.316488,-9372.734651,-187500.022352,30041.951542,10366.314395,17014.907839,0.128000,0.966000,0.154000,192.000000,0.000000,0.000000,0.000000,0.000000,0.000000,0.000000,0.000000,0.000000,0.000000,1647769536.237089,0.000000
37.000000,1383.997665,-9790.958141,12749.055058,-9370.387718,-187500.022352,30041.169231,10352.121037,17004.156650,0.128000,0.966000,0.154000,192.000000,0.000000,0.000000,0.000000,0.000000,0.000000,0.000000,0.000000,0.000000,0.000000,1647769536.244192,0.000000
38.000000,1388.691531,-9787.471269,12752.117247,-9366.185590,-187500.022352,30044.656103,10357.641918,17003.106118,0.134000,0.968000,0.152000,192.000000,4.000000,48.000000,30.000000,64.000000,4.000000,192.000000,0.000000,0.000000,0.000000,1647769536.244198,0.000000
39.000000,1382.522450,-9792.947446,12748.518616,-9368.599578,-187500.022352,30049.215859,10382.184134,17030.934039,0.134000,0.968000,0.152000,192.000000,0.000000,0.000000,0.000000,0.000000,0.000000,0.000000,0.000000,0.000000,0.000000,1647769536.252304,0.000000
40.000000,1383.528278,-9790.734624,12747.602194,-9366.297348,-187500.022352,30048.634714,10375.791535,17032.297496,0.134000,0.968000,0.152000,192.000000,0.000000,0.000000,0.000000,0.000000,0.000000,0.000000,0.000000,0.000000,0.000000,1647769536.258699,0.000000
41.000000,1389.607953,-9784.878467,12753.525407,-9360.463543,-187500.022352,30046.913629,10352.121037,17013.924362,0.134000,0.968000,0.152000,192.000000,0.000000,0.000000,0.000000,0.000000,0.000000,0.000000,0.000000,0.000000,0.000000,1647769536.258706,0.000000
42.000000,1388.356255,-9785.906647,12759.761543,-9360.999985,-187500.022352,30049.685246,10346.108418,16997.540533,0.134000,0.968000,0.152000,192.000000,0.000000,0.000000,0.000000,0.000000,0.000000,0.000000,0.000000,0.000000,0.000000,1647769536.266847,0.000000
43.000000,1388.020979,-9788.097118,12761.795552,-9361.625834,-187500.022352,30057.016618,10369.823619,17010.549249,0.134000,0.968000,0.152000,192.000000,0.000000,0.000000,0.000000,0.000000,0.000000,0.000000,0.000000,0.000000,0.000000,1647769536.266854,0.000000
44.000000,1388.356255,-9788.074766,12757.794590,-9366.856142,-187500.022352,30054.848499,10360.190017,17010.884525,0.134000,0.968000,0.152000,192.000000,0.000000,0.000000,0.000000,0.000000,0.000000,0.000000,0.000000,0.000000,0.000000,1647769536.274750,0.000000
45.000000,1388.691531,-9786.308978,12758.800418,-9363.726898,-187500.022352,30048.835879,10341.414552,16990.633844,0.134000,0.968000,0.152000,192.000000,0.000000,0.000000,0.000000,0.000000,0.000000,0.000000,0.000000,0.000000,0.000000,1647769536.274756,0.000000
46.000000,1385.897563,-9794.355606,12758.286328,-9363.123401,-187500.022352,30050.936943,10348.701221,16992.712556,0.134000,0.968000,0.152000,192.000000,0.000000,0.000000,0.000000,0.000000,0.000000,0.000000,0.000000,0.000000,0.000000,1647769536.282000,0.000000
47.000000,1383.260057,-9801.508165,12753.234834,-9367.929026,-187500.022352,30049.864060,10353.238625,17005.564810,0.134000,0.968000,0.152000,192.000000,0.000000,0.000000,0.000000,0.000000,0.000000,0.000000,0.000000,0.000000,0.000000,1647769536.282003,0.000000
48.000000,1379.773185,-9801.485813,12750.105590,-9370.164200,-187500.022352,30053.194470,10356.479628,17021.702769,0.132000,0.956000,0.156000,192.000000,4.000000,32.000000,29.000000,224.000000,4.000000,224.000000,0.000000,0.000000,0.000000,1647769536.289340,0.000000
49.000000,1375.258133,-9804.413891,12746.216386,-9373.874590,-187500.022352,30051.451034,10349.796456,17019.132318,0.132000,0.956000,0.156000,192.000000,0.000000,0.000000,0.000000,0.000000,0.000000,0.000000,0.000000,0.000000,0.000000,1647769536.289348,0.000000
50.000000,1368.664368,-9810.314752,12740.136712,-9383.754061,-187500.022352,30041.549211,10344.208520,16997.361719,0.132000,0.956000,0.156000,192.000000,0.000000,0.000000,0.000000,0.000000,0.000000,0.000000,0.000000,0.000000,0.000000,1647769536.297394,0.000000
51.000000,1367.815002,-9809.823014,12741.433113,-9397.098052,-187500.022352,30039.492850,10343.917947,17001.921475,0.132000,0.956000,0.156000,192.000000,0.000000,0.000000,0.000000,0.000000,0.000000,0.000000,0.000000,0.000000,0.000000,1647769536.297398,0.000000
52.000000,1374.542877,-9801.284647,12750.954956,-9379.104898,-187500.022352,30041.258638,10328.539947,17005.296589,0.132000,0.956000,0.156000,192.000000,0.000000,0.000000,0.000000,0.000000,0.000000,0.000000,0.000000,0.000000,0.000000,1647769536.306862,0.000000
53.000000,1378.745005,-9798.535383,12752.027840,-9370.030090,-187500.022352,30038.375263,10322.728494,16996.512353,0.132000,0.956000,0.156000,192.000000,0.000000,0.000000,0.000000,0.000000,0.000000,0.000000,0.000000,0.000000,0.000000,1647769536.306886,0.000000
54.000000,1381.404863,-9797.976589,12755.134732,-9372.153505,-187500.022352,30046.131318,10347.270709,17008.112908,0.132000,0.956000,0.156000,192.000000,0.000000,0.000000,0.000000,0.000000,0.000000,0.000000,0.000000,0.000000,0.000000,1647769536.313186,0.000000
55.000000,1380.644903,-9797.887182,12756.453485,-9373.919293,-187500.022352,30047.472423,10348.254186,17012.158574,0.132000,0.956000,0.156000,192.000000,0.000000,0.000000,0.000000,0.000000,0.000000,0.000000,0.000000,0.000000,0.000000,1647769536.319494,0.000000
56.000000,1381.717787,-9796.903705,12755.380601,-9376.132116,-187500.022352,30049.707597,10367.431982,17008.649350,0.132000,0.956000,0.156000,192.000000,0.000000,0.000000,0.000000,0.000000,0.000000,0.000000,0.000000,0.000000,0.000000,1647769536.319499,0.000000
57.000000,1381.583677,-9797.909534,12753.525407,-9378.434346,-187500.022352,30045.863097,10359.675927,16991.863190,0.132000,0.956000,0.156000,192.000000,0.000000,0.000000,0.000000,0.000000,0.000000,0.000000,0.000000,0.000000,0.000000,1647769536.327014,0.000000
58.000000,1381.181345,-9799.585915,12751.983136,-9379.395471,-187500.022352,30038.688187,10331.669191,16972.417172,0.130000,0.960000,0.154000,192.000000,4.000000,16.000000,30.000000,0.000000,4.000000,208.000000,0.000000,0.000000,0.000000,1647769536.327018,0.000000
59.000000,1379.907296,-9801.150537,12750.329107,-9381.630645,-187500.022352,30032.340292,10323.108473,16962.582405,0.130000,0.960000,0.154000,192.000000,0.000000,0.000000,0.000000,0.000000,0.000000,0.000000,0.000000,0.000000,0.000000,1647769536.334230,0.000000
60.000000,1380.823717,-9799.384749,12752.474875,-9379.507229,-187500.022352,30041.325693,10350.109380,16991.974949,0.130000,0.960000,0.154000,192.000000,0.000000,0.000000,0.000000,0.000000,0.000000,0.000000,0.000000,0.000000,0.000000,1647769536.334233,0.000000
61.000000,1381.181345,-9799.541211,12751.938433,-9378.680215,-187500.022352,30047.606533,10355.987889,17012.315036,0.130000,0.960000,0.154000,192.000000,0.000000,0.000000,0.000000,0.000000,0.000000,0.000000,0.000000,0.000000,0.000000,1647769536.341645,0.000000
62.000000,1377.560363,-9803.855098,12748.026877,-9384.581075,-187500.022352,30045.997208,10347.427171,17000.602722,0.130000,0.960000,0.154000,192.000000,0.000000,0.000000,0.000000,0.000000,0.000000,0.000000,0.000000,0.000000,0.000000,1647769536.341650,0.000000
63.000000,1380.466089,-9801.776386,12743.154197,-9387.419747,-187500.022352,30036.475365,10323.130825,16994.053661,0.130000,0.960000,0.154000,192.000000,0.000000,0.000000,0.000000,0.000000,0.000000,0.000000,0.000000,0.000000,0.000000,1647769536.349516,0.000000
64.000000,1380.756662,-9801.396406,12743.400066,-9382.927046,-187500.022352,30035.603647,10323.488453,16990.276216,0.130000,0.960000,0.154000,192.000000,0.000000,0.000000,0.000000,0.000000,0.000000,0.000000,0.000000,0.000000,0.000000,1647769536.349520,0.000000
65.000000,1382.745967,-9798.311865,12744.405895,-9378.590808,-187500.022352,30032.116775,10320.739188,16983.078955,0.130000,0.960000,0.154000,192.000000,0.000000,0.000000,0.000000,0.000000,0.000000,0.000000,0.000000,0.000000,0.000000,1647769536.357663,0.000000
66.000000,1384.176479,-9797.306037,12745.702296,-9375.103936,-187500.022352,30034.374301,10337.324183,16985.291777,0.130000,0.960000,0.154000,192.000000,0.000000,0.000000,0.000000,0.000000,0.000000,0.000000,0.000000,0.000000,0.000000,1647769536.357667,0.000000
67.000000,1385.718749,-9798.043644,12746.998697,-9375.148639,-187500.022352,30038.174097,10354.847950,16991.773783,0.130000,0.960000,0.154000,192.000000,0.000000,0.000000,0.000000,0.000000,0.000000,0.000000,0.000000,0.000000,0.000000,1647769536.364323,0.000000
68.000000,1381.158993,-9803.810394,12743.489473,-9382.077680,-187500.022352,30037.034158,10357.664270,16998.144030,0.128000,0.962000,0.156000,192.000000,4.000000,0.000000,30.000000,16.000000,4.000000,224.000000,0.000000,0.000000,0.000000,1647769536.364353,0.000000
69.000000,1377.627418,-9807.587839,12738.236813,-9395.488727,-187500.022352,30037.995283,10357.887788,17019.333484,0.128000,0.962000,0.156000,192.000000,0.000000,0.000000,0.000000,0.000000,0.000000,0.000000,0.000000,0.000000,0.000000,1647769536.371238,0.000000
70.000000,1375.481650,-9809.353627,12733.162967,-9384.983407,-187500.022352,30038.241153,10364.749773,17004.491926,0.128000,0.962000,0.156000,192.000000,0.000000,0.000000,0.000000,0.000000,0.000000,0.000000,0.000000,0.000000,0.000000,1647769536.379219,0.000000
71.000000,1368.709072,-9815.030970,12725.339857,-9392.471241,-187500.022352,30029.568676,10346.823674,16980.530856,0.128000,0.962000,0.156000,192.000000,0.000000,0.000000,0.000000,0.000000,0.000000,0.000000,0.000000,0.000000,0.000000,1647769536.379224,0.000000
72.000000,1375.883982,-9808.303095,12727.150348,-9390.839564,-187500.022352,30026.238266,10344.096761,16986.163495,0.128000,0.962000,0.156000,192.000000,0.000000,0.000000,0.000000,0.000000,0.000000,0.000000,0.000000,0.000000,0.000000,1647769536.387239,0.000000
73.000000,1383.394168,-9797.820127,12735.219328,-9383.955226,-187500.022352,30035.201315,10347.047192,16995.439469,0.128000,0.962000,0.156000,192.000000,0.000000,0.000000,0.000000,0.000000,0.000000,0.000000,0.000000,0.000000,0.000000,1647769536.387242,0.000000
74.000000,1377.828583,-9801.418758,12730.033723,-9387.978540,-187500.022352,30033.279065,10338.307659,16997.965216,0.128000,0.962000,0.156000,192.000000,0.000000,0.000000,0.000000,0.000000,0.000000,0.000000,0.000000,0.000000,0.000000,1647769536.393978,0.000000
75.000000,1378.454432,-9801.776386,12725.384560,-9391.577171,-187500.022352,30033.457879,10339.760523,16992.712556,0.128000,0.962000,0.156000,192.000000,0.000000,0.000000,0.000000,0.000000,0.000000,0.000000,0.000000,0.000000,0.000000,1647769536.393982,0.000000
76.000000,1373.179421,-9811.097063,12717.829671,-9403.647113,-187500.022352,30032.273237,10341.302793,16985.559998,0.128000,0.962000,0.156000,192.000000,0.000000,0.000000,0.000000,0.000000,0.000000,0.000000,0.000000,0.000000,0.000000,1647769536.401799,0.000000
77.000000,1370.541915,-9811.253525,12720.109549,-9388.246761,-187500.022352,30035.246019,10334.239642,16976.239321,0.128000,0.962000,0.156000,192.000000,0.000000,0.000000,0.000000,0.000000,0.000000,0.000000,0.000000,0.000000,0.000000,1647769536.401803,0.000000
78.000000,1373.492345,-9810.225345,12723.417607,-9389.431404,-187500.022352,30041.549211,10346.309584,16988.398670,0.128000,0.962000,0.160000,192.000000,4.000000,0.000000,30.000000,16.000000,5.000000,0.000000,0.000000,0.000000,0.000000,1647769536.409937,0.000000
79.000000,1373.514697,-9811.678208,12729.094950,-9389.364349,-187500.022352,30051.227516,10361.285253,17007.420004,0.128000,0.962000,0.160000,192.000000,0.000000,0.000000,0.000000,0.000000,0.000000,0.000000,0.000000,0.000000,0.000000,1647769536.409942,0.000000
80.000000,1364.641054,-9821.691790,12725.093988,-9398.997950,-187500.022352,30044.700807,10350.735229,16999.328673,0.128000,0.962000,0.160000,192.000000,0.000000,0.000000,0.000000,0.000000,0.000000,0.000000,0.000000,0.000000,0.000000,1647769536.416920,0.000000
81.000000,1366.608008,-9822.161176,12720.958915,-9404.384721,-187500.022352,30041.057472,10344.096761,16991.036176,0.128000,0.962000,0.160000,192.000000,0.000000,0.000000,0.000000,0.000000,0.000000,0.000000,0.000000,0.000000,0.000000,1647769536.416924,0.000000
82.000000,1360.841258,-9827.503243,12714.901592,-9400.786090,-187500.022352,30039.269333,10341.906290,16996.400594,0.128000,0.962000,0.160000,192.000000,0.000000,0.000000,0.000000,0.000000,0.000000,0.000000,0.000000,0.000000,0.000000,1647769536.424438,0.000000
83.000000,1356.728537,-9834.901671,12709.738339,-9397.835660,-187500.022352,30037.235324,10353.842122,17010.661007,0.128000,0.962000,0.160000,192.000000,0.000000,0.000000,0.000000,0.000000,0.000000,0.000000,0.000000,0.000000,0.000000,1647769536.424442,0.000000
84.000000,1352.660519,-9839.483778,12703.748072,-9407.536317,-187500.022352,30032.049719,10359.005375,16999.127507,0.128000,0.962000,0.160000,192.000000,0.000000,0.000000,0.000000,0.000000,0.000000,0.000000,0.000000,0.000000,0.000000,1647769536.431472,0.000000
85.000000,1353.353423,-9835.080485,12704.798604,-9405.301142,-187500.022352,30032.206182,10348.701221,16992.913722,0.128000,0.962000,0.160000,192.000000,0.000000,0.000000,0.000000,0.000000,0.000000,0.000000,0.000000,0.000000,0.000000,1647769536.439643,0.000000
86.000000,1354.202790,-9833.068828,12710.766519,-9401.791918,-187500.022352,30036.005978,10339.939337,16998.769879,0.128000,0.962000,0.160000,192.000000,0.000000,0.000000,0.000000,0.000000,0.000000,0.000000,0.000000,0.000000,0.000000,1647769536.439647,0.000000
87.000000,1355.610949,-9831.839482,12709.626580,-9402.797747,-187500.022352,30034.597818,10349.327069,16999.574542,0.128000,0.962000,0.160000,192.000000,0.000000,0.000000,0.000000,0.000000,0.000000,0.000000,0.000000,0.000000,0.000000,1647769536.446591,0.000000
88.000000,1355.812115,-9831.571261,12706.854964,-9404.742349,-187500.022352,30035.357778,10344.186168,17004.290760,0.128000,0.960000,0.162000,192.000000,4.000000,0.000000,30.000000,0.000000,5.000000,16.000000,0.000000,0.000000,0.000000,1647769536.446595,0.000000
89.000000,1352.571112,-9835.505168,12699.724758,-9410.486747,-187500.022352,30025.858286,10323.287287,16996.579408,0.128000,0.960000,0.162000,192.000000,0.000000,0.000000,0.000000,0.000000,0.000000,0.000000,0.000000,0.000000,0.000000,1647769536.454139,0.000000
90.000000,1353.196961,-9835.907499,12698.808336,-9413.258363,-187500.022352,30025.344196,10333.479683,16994.590103,0.128000,0.960000,0.162000,192.000000,0.000000,0.000000,0.000000,0.000000,0.000000,0.000000,0.000000,0.000000,0.000000,1647769536.454145,0.000000
91.000000,1355.610949,-9837.270956,12703.345740,-9408.340980,-187500.022352,30034.195487,10373.310491,17008.403481,0.128000,0.960000,0.162000,192.000000,0.000000,0.000000,0.000000,0.000000,0.000000,0.000000,0.000000,0.000000,0.000000,1647769536.462322,0.000000
92.000000,1351.811153,-9841.160159,12697.511935,-9419.583907,-187500.022352,30025.545362,10355.630261,16995.215952,0.128000,0.960000,0.162000,192.000000,0.000000,0.000000,0.000000,0.000000,0.000000,0.000000,0.000000,0.000000,0.000000,1647769536.462335,0.000000
93.000000,1347.676080,-9844.647031,12692.572199,-9426.557651,-187500.022352,30017.431678,10349.997622,16981.357870,0.128000,0.960000,0.162000,192.000000,0.000000,0.000000,0.000000,0.000000,0.000000,0.000000,0.000000,0.000000,0.000000,1647769536.469523,0.000000
94.000000,1348.637205,-9841.942470,12695.746147,-9416.074683,-187500.022352,30021.857324,10363.788648,17000.088632,0.128000,0.960000,0.162000,192.000000,0.000000,0.000000,0.000000,0.000000,0.000000,0.000000,0.000000,0.000000,0.000000,1647769536.469536,0.000000
95.000000,1348.368984,-9843.909424,12692.639255,-9425.931803,-187500.022352,30022.594931,10361.285253,17006.570638,0.128000,0.960000,0.162000,192.000000,0.000000,0.000000,0.000000,0.000000,0.000000,0.000000,0.000000,0.000000,0.000000,1647769536.476862,0.000000
96.000000,1348.883074,-9844.088238,12693.756842,-9420.030942,-187500.022352,30019.532742,10356.323165,17001.742661,0.128000,0.960000,0.162000,192.000000,0.000000,0.000000,0.000000,0.000000,0.000000,0.000000,0.000000,0.000000,0.000000,1647769536.476870,0.000000
97.000000,1349.330109,-9846.435171,12695.924961,-9420.835605,-187500.022352,30016.537609,10342.353325,16996.400594,0.128000,0.960000,0.162000,192.000000,0.000000,0.000000,0.000000,0.000000,0.000000,0.000000,0.000000,0.000000,0.000000,1647769536.484818,0.000000
98.000000,1345.865589,-9845.764619,12694.919133,-9419.315686,-187500.022352,30013.989510,10318.883993,16978.787420,0.130000,0.960000,0.158000,192.000000,4.000000,16.000000,30.000000,0.000000,4.000000,240.000000,0.000000,0.000000,0.000000,1647769536.484826,0.000000
99.000000,1344.077449,-9844.535273,12697.757804,-9418.153395,-187500.022352,30013.006033,10342.554491,16975.881693,0.130000,0.960000,0.158000,192.000000,0.000000,0.000000,0.000000,0.000000,0.000000,0.000000,0.000000,0.000000,0.000000,1647769536.491972,0.000000
100.000000,1348.793667,-9840.802531,12706.139708,-9414.822986,-187500.022352,30023.757222,10361.017032,16994.254827,0.130000,0.960000,0.158000,192.000000,0.000000,0.000000,0.000000,0.000000,0.000000,0.000000,0.000000,0.000000,0.000000,1647769536.491984,0.000000
101.000000,1343.161028,-9845.719915,12704.038644,-9420.343866,-187500.022352,30024.114850,10353.238625,16996.467650,0.130000,0.960000,0.158000,192.000000,0.000000,0.000000,0.000000,0.000000,0.000000,0.000000,0.000000,0.000000,0.000000,1647769536.499096,0.000000
102.000000,1340.612929,-9848.335069,12698.785984,-9429.619840,-187500.022352,30012.581350,10347.091895,16983.771859,0.130000,0.960000,0.158000,192.000000,0.000000,0.000000,0.000000,0.000000,0.000000,0.000000,0.000000,0.000000,0.000000,1647769536.506525,0.000000
103.000000,1344.166856,-9843.440037,12698.875391,-9426.490596,-187500.022352,30015.867056,10352.523369,17001.049757,0.130000,0.960000,0.158000,192.000000,0.000000,0.000000,0.000000,0.000000,0.000000,0.000000,0.000000,0.000000,0.000000,1647769536.506538,0.000000
104.000000,1340.747039,-9848.536235,12697.757804,-9425.328305,-187500.022352,30013.765992,10329.322258,16990.790306,0.130000,0.960000,0.158000,192.000000,0.000000,0.000000,0.000000,0.000000,0.000000,0.000000,0.000000,0.000000,0.000000,1647769536.514520,0.000000
105.000000,1345.038574,-9845.854026,12702.474022,-9423.763683,-187500.022352,30017.297568,10337.994735,16991.550266,0.130000,0.960000,0.158000,192.000000,0.000000,0.000000,0.000000,0.000000,0.000000,0.000000,0.000000,0.000000,0.000000,1647769536.514532,0.000000
106.000000,1345.910292,-9843.171816,12701.512897,-9423.875442,-187500.022352,30021.343234,10358.826561,16990.253865,0.130000,0.960000,0.158000,192.000000,0.000000,0.000000,0.000000,0.000000,0.000000,0.000000,0.000000,0.000000,0.000000,1647769536.522621,0.000000
107.000000,1349.888903,-9840.221386,12706.027950,-9417.281677,-187500.022352,30032.206182,10365.263863,17003.955484,0.130000,0.960000,0.158000,192.000000,0.000000,0.000000,0.000000,0.000000,0.000000,0.000000,0.000000,0.000000,0.000000,1647769536.522635,0.000000
108.000000,1343.876284,-9849.564415,12700.551772,-9433.196119,-187500.022352,30028.518144,10363.006337,17010.772766,0.130000,0.960000,0.158000,192.000000,0.000000,0.000000,0.000000,0.000000,0.000000,0.000000,0.000000,0.000000,0.000000,1647769536.529157,0.000000
109.000000,1334.443847,-9857.141657,12689.197086,-9436.995916,-187500.022352,30017.677548,10345.415514,17006.369472,0.132000,0.960000,0.160000,192.000000,4.000000,32.000000,30.000000,0.000000,5.000000,0.000000,0.000000,0.000000,0.000000,1647769536.529169,0.000000
110.000000,1341.037612,-9849.899691,12690.962874,-9433.285526,-187500.022352,30021.253827,10344.856721,17005.855382,0.132000,0.960000,0.160000,192.000000,0.000000,0.000000,0.000000,0.000000,0.000000,0.000000,0.000000,0.000000,0.000000,1647769536.537197,0.000000
111.000000,1351.185304,-9836.578052,12697.757804,-9422.959020,-187500.022352,30030.775670,10361.441715,16991.639673,0.132000,0.960000,0.160000,192.000000,0.000000,0.000000,0.000000,0.000000,0.000000,0.000000,0.000000,0.000000,0.000000,1647769536.537209,0.000000
112.000000,1348.391336,-9836.399238,12699.009502,-9413.951267,-187500.022352,30032.049719,10355.719668,16997.071147,0.132000,0.960000,0.160000,192.000000,0.000000,0.000000,0.000000,0.000000,0.000000,0.000000,0.000000,0.000000,0.000000,1647769536.545198,0.000000
113.000000,1354.493362,-9833.694677,12702.183450,-9413.705398,-187500.022352,30033.234362,10344.409686,17017.165365,0.132000,0.960000,0.160000,192.000000,0.000000,0.000000,0.000000,0.000000,0.000000,0.000000,0.000000,0.000000,0.000000,1647769536.545210,0.000000
114.000000,1361.087127,-9827.615002,12703.010464,-9408.497442,-187500.022352,30038.039987,10348.433000,17011.398615,0.132000,0.960000,0.160000,192.000000,0.000000,0.000000,0.000000,0.000000,0.000000,0.000000,0.000000,0.000000,0.000000,1647769536.551816,0.000000
115.000000,1357.868476,-9830.140749,12696.662569,-9411.067892,-187500.022352,30038.509373,10352.121037,17008.179964,0.132000,0.960000,0.160000,192.000000,0.000000,0.000000,0.000000,0.000000,0.000000,0.000000,0.000000,0.000000,0.000000,1647769536.551829,0.000000
116.000000,1357.332034,-9830.967764,12695.813202,-9412.073721,-187500.022352,30034.351949,10346.667212,17005.318940,0.132000,0.960000,0.160000,192.000000,0.000000,0.000000,0.000000,0.000000,0.000000,0.000000,0.000000,0.000000,0.000000,1647769536.558849,0.000000
117.000000,1351.073545,-9839.953165,12693.421566,-9424.747160,-187500.022352,30023.444298,10333.300869,16993.092536,0.132000,0.960000,0.160000,192.000000,0.000000,0.000000,0.000000,0.000000,0.000000,0.000000,0.000000,0.000000,0.000000,1647769536.566840,0.000000
118.000000,1351.520580,-9841.763656,12692.192220,-9421.841433,-187500.022352,30016.962292,10328.741113,16984.889446,0.132000,0.960000,0.160000,192.000000,0.000000,0.000000,0.000000,0.000000,0.000000,0.000000,0.000000,0.000000,0.000000,1647769536.566852,0.000000
119.000000,1355.476839,-9835.728685,12698.070729,-9415.582945,-187500.022352,30018.750431,10342.800360,16987.795173,0.130000,0.966000,0.162000,192.000000,4.000000,16.000000,30.000000,48.000000,5.000000,16.000000,0.000000,0.000000,0.000000,1647769536.574883,0.000000
120.000000,1354.873342,-9834.789912,12698.987150,-9418.935706,-187500.022352,30022.729042,10362.782820,16988.957463,0.130000,0.966000,0.162000,192.000000,0.000000,0.000000,0.000000,0.000000,0.000000,0.000000,0.000000,0.000000,0.000000,1647769536.574895,0.000000
121.000000,1349.777144,-9841.160159,12690.314673,-9430.826835,-187500.022352,30020.225647,10352.478665,16978.832123,0.130000,0.966000,0.162000,192.000000,0.000000,0.000000,0.000000,0.000000,0.000000,0.000000,0.000000,0.000000,0.000000,1647769536.581439,0.000000
122.000000,1341.529350,-9847.664517,12684.234999,-9428.010515,-187500.022352,30014.101269,10326.975325,16965.488132,0.130000,0.966000,0.162000,192.000000,0.000000,0.000000,0.000000,0.000000,0.000000,0.000000,0.000000,0.000000,0.000000,1647769536.581451,0.000000
123.000000,1344.300967,-9845.317584,12684.793792,-9430.111579,-187500.022352,30012.961330,10327.735284,16974.205312,0.130000,0.966000,0.162000,192.000000,0.000000,0.000000,0.000000,0.000000,0.000000,0.000000,0.000000,0.000000,0.000000,1647769536.589470,0.000000
124.000000,1343.004566,-9845.876377,12683.251522,-9430.804483,-187500.022352,30015.062394,10345.549625,16987.817524,0.130000,0.966000,0.162000,192.000000,0.000000,0.000000,0.000000,0.000000,0.000000,0.000000,0.000000,0.000000,0.000000,1647769536.589483,0.000000
125.000000,1342.892807,-9846.926909,12685.911380,-9434.201948,-187500.022352,30015.107097,10356.256110,16990.030347,0.130000,0.966000,0.162000,192.000000,0.000000,0.000000,0.000000,0.000000,0.000000,0.000000,0.000000,0.000000,0.000000,1647769536.597500,0.000000
126.000000,1346.334976,-9845.228177,12689.822935,-9440.683954,-187500.022352,30013.229551,10345.683735,16978.899178,0.130000,0.966000,0.162000,192.000000,0.000000,0.000000,0.000000,0.000000,0.000000,0.000000,0.000000,0.000000,0.000000,1647769536.597512,0.000000
127.000000,1346.826714,-9844.177645,12690.001749,-9431.810311,-187500.022352,30009.697975,10323.175528,16971.009013,0.130000,0.966000,0.162000,192.000000,0.000000,0.000000,0.000000,0.000000,0.000000,0.000000,0.000000,0.000000,0.000000,1647769536.604563,0.000000
128.000000,1350.782973,-9841.271918,12691.365205,-9430.312744,-187500.022352,30012.983681,10328.227023,16979.703841,0.130000,0.966000,0.162000,192.000000,0.000000,0.000000,0.000000,0.000000,0.000000,0.000000,0.000000,0.000000,0.000000,1647769536.604575,0.000000
129.000000,1353.733403,-9837.315659,12696.841383,-9427.027038,-187500.022352,30023.377242,10353.976232,16993.338405,0.130000,0.966000,0.156000,192.000000,4.000000,16.000000,30.000000,48.000000,4.000000,224.000000,0.000000,0.000000,0.000000,1647769536.612161,0.000000
130.000000,1354.649824,-9835.527520,12702.742243,-9419.427445,-187500.022352,30024.047795,10346.376639,16983.257769,0.130000,0.966000,0.156000,192.000000,0.000000,0.000000,0.000000,0.000000,0.000000,0.000000,0.000000,0.000000,0.000000,1647769536.612174,0.000000
131.000000,1353.778106,-9836.756866,12705.312694,-9419.718018,-187500.022352,30025.277141,10347.538930,16979.972062,0.130000,0.966000,0.156000,192.000000,0.000000,0.000000,0.000000,0.000000,0.000000,0.000000,0.000000,0.000000,0.000000,1647769536.619204,0.000000
132.000000,1348.771316,-9842.545967,12706.586743,-9426.423541,-187500.022352,30028.026405,10350.042325,16978.854475,0.130000,0.966000,0.156000,192.000000,0.000000,0.000000,0.000000,0.000000,0.000000,0.000000,0.000000,0.000000,0.000000,1647769536.627164,0.000000
133.000000,1344.815057,-9847.083372,12700.574124,-9432.905547,-187500.022352,30019.823315,10335.759561,16961.643632,0.130000,0.966000,0.156000,192.000000,0.000000,0.000000,0.000000,0.000000,0.000000,0.000000,0.000000,0.000000,0.000000,1647769536.627176,0.000000
134.000000,1348.860723,-9842.031877,12696.774327,-9427.585832,-187500.022352,30024.003091,10352.791590,16988.309263,0.130000,0.966000,0.156000,192.000000,0.000000,0.000000,0.000000,0.000000,0.000000,0.000000,0.000000,0.000000,0.000000,1647769536.635752,0.000000
135.000000,1349.710089,-9839.617889,12695.500278,-9430.938593,-187500.022352,30033.770804,10368.951901,17010.482193,0.130000,0.966000,0.156000,192.000000,0.000000,0.000000,0.000000,0.000000,0.000000,0.000000,0.000000,0.000000,0.000000,1647769536.635764,0.000000
136.000000,1347.497266,-9841.316621,12693.645083,-9425.864747,-187500.022352,30029.769841,10353.059811,17006.078900,0.130000,0.966000,0.156000,192.000000,0.000000,0.000000,0.000000,0.000000,0.000000,0.000000,0.000000,0.000000,0.000000,1647769536.641917,0.000000
137.000000,1349.352461,-9839.126151,12692.169868,-9421.081474,-187500.022352,30032.653216,10365.129753,17016.226592,0.130000,0.966000,0.156000,192.000000,0.000000,0.000000,0.000000,0.000000,0.000000,0.000000,0.000000,0.000000,0.000000,1647769536.641929,0.000000
138.000000,1347.497266,-9841.271918,12688.392423,-9427.496425,-187500.022352,30030.194525,10362.402840,17007.509411,0.130000,0.966000,0.156000,192.000000,0.000000,0.000000,0.000000,0.000000,0.000000,0.000000,0.000000,0.000000,0.000000,1647769536.649773,0.000000
139.000000,1347.765487,-9843.708258,12686.827801,-9433.330230,-187500.022352,30023.466649,10348.254186,17001.474440,0.130000,0.962000,0.160000,192.000000,4.000000,16.000000,30.000000,16.000000,5.000000,0.000000,0.000000,0.000000,0.000000,1647769536.649786,0.000000
140.000000,1347.564321,-9844.468217,12687.386595,-9436.615936,-187500.022352,30016.537609,10342.353325,16995.886504,0.130000,0.962000,0.160000,192.000000,0.000000,0.000000,0.000000,0.000000,0.000000,0.000000,0.000000,0.000000,0.000000,1647769536.657762,0.000000
141.000000,1350.268883,-9840.534310,12691.320502,-9438.806407,-187500.022352,30016.515257,10339.604061,17000.379205,0.130000,0.962000,0.160000,192.000000,0.000000,0.000000,0.000000,0.000000,0.000000,0.000000,0.000000,0.000000,0.000000,1647769536.657774,0.000000
142.000000,1353.465182,-9836.443941,12698.048377,-9423.406055,-187500.022352,30015.889408,10333.524386,16990.633844,0.130000,0.962000,0.160000,192.000000,0.000000,0.000000,0.000000,0.000000,0.000000,0.000000,0.000000,0.000000,0.000000,1647769536.664398,0.000000
143.000000,1356.326205,-9833.068828,12696.416699,-9422.355523,-187500.022352,30010.726155,10338.397066,16987.258731,0.130000,0.962000,0.160000,192.000000,0.000000,0.000000,0.000000,0.000000,0.000000,0.000000,0.000000,0.000000,0.000000,1647769536.664410,0.000000
144.000000,1358.539028,-9830.811302,12696.640217,-9414.755930,-187500.022352,30014.056565,10327.802340,16990.924417,0.130000,0.962000,0.160000,192.000000,0.000000,0.000000,0.000000,0.000000,0.000000,0.000000,0.000000,0.000000,0.000000,1647769536.672421,0.000000
145.000000,1356.370909,-9834.834616,12694.248580,-9414.577116,-187500.022352,30011.061431,10337.659459,16987.906931,0.130000,0.962000,0.160000,192.000000,0.000000,0.000000,0.000000,0.000000,0.000000,0.000000,0.000000,0.000000,0.000000,1647769536.672433,0.000000
146.000000,1352.369947,-9840.310793,12689.666473,-9418.376913,-187500.022352,30007.082821,10354.244453,16982.743678,0.130000,0.962000,0.160000,192.000000,0.000000,0.000000,0.000000,0.000000,0.000000,0.000000,0.000000,0.000000,0.000000,1647769536.679411,0.000000
147.000000,1353.241665,-9835.058133,12693.265103,-9414.733579,-187500.022352,30006.680489,10342.688601,16978.340385,0.130000,0.962000,0.160000,192.000000,0.000000,0.000000,0.000000,0.000000,0.000000,0.000000,0.000000,0.000000,0.000000,1647769536.687402,0.000000
148.000000,1354.046327,-9834.119360,12696.081423,-9415.292372,-187440.410249,30006.971062,10335.267822,16980.240283,0.130000,0.962000,0.160000,192.000000,0.000000,0.000000,0.000000,0.000000,0.000000,0.000000,0.000000,0.000000,0.000000,1647769536.687414,0.000000
149.000000,1360.349519,-9833.202938,12692.773365,-9418.220451,-187390.521156,30003.819466,10334.329049,16976.574597,0.130000,0.966000,0.154000,192.000000,4.000000,16.000000,30.000000,48.000000,4.000000,208.000000,0.000000,0.000000,0.000000,1647769536.694088,0.000000
150.000000,1364.082261,-9831.191281,12695.612037,-9418.734541,-187370.471641,30011.329652,10335.312526,16981.089649,0.130000,0.966000,0.154000,192.000000,0.000000,0.000000,0.000000,0.000000,0.000000,0.000000,0.000000,0.000000,0.000000,1647769536.694100,0.000000
151.000000,1358.315511,-9835.639278,12692.169868,-9421.439102,-187314.614631,30009.072126,10345.259052,16978.116867,0.130000,0.966000,0.154000,192.000000,0.000000,0.000000,0.000000,0.000000,0.000000,0.000000,0.000000,0.000000,0.000000,1647769536.702088,0.000000
152.000000,1364.730461,-9830.833653,12694.807374,-9415.202965,-187271.766337,30000.801981,10325.745979,16962.604757,0.130000,0.966000,0.154000,192.000000,0.000000,0.000000,0.000000,0.000000,0.000000,0.000000,0.000000,0.000000,0.000000,1647769536.702100,0.000000
153.000000,1364.909275,-9830.073694,12694.516801,-9418.265154,-187229.543892,29996.957481,10301.673150,16945.706838,0.130000,0.966000,0.154000,192.000000,0.000000,0.000000,0.000000,0.000000,0.000000,0.000000,0.000000,0.000000,0.000000,1647769536.710115,0.000000
154.000000,1355.700356,-9835.773389,12690.158211,-9419.583907,-187169.797679,29997.583329,10304.623581,16942.890518,0.130000,0.966000,0.154000,192.000000,0.000000,0.000000,0.000000,0.000000,0.000000,0.000000,0.000000,0.000000,0.000000,1647769536.710127,0.000000
155.000000,1359.634263,-9831.213633,12694.561505,-9416.141738,-187141.679185,30007.418097,10353.484494,16972.998318,0.130000,0.966000,0.154000,192.000000,0.000000,0.000000,0.000000,0.000000,0.000000,0.000000,0.000000,0.000000,0.000000,1647769536.716682,0.000000
156.000000,1365.333958,-9826.698581,12699.948275,-9420.567384,-187133.207873,30023.444298,10382.966445,17016.137185,0.130000,0.966000,0.154000,192.000000,0.000000,0.000000,0.000000,0.000000,0.000000,0.000000,0.000000,0.000000,0.000000,1647769536.716694,0.000000
157.000000,1370.340749,-9818.920174,12708.061958,-9399.065006,-187110.409094,30032.116775,10373.310491,17032.118682,0.130000,0.966000,0.154000,192.000000,0.000000,0.000000,0.000000,0.000000,0.000000,0.000000,0.000000,0.000000,0.000000,1647769536.724693,0.000000
158.000000,1364.663406,-9824.552813,12712.308790,-9403.088320,-187058.687157,30033.435527,10364.190980,17027.424816,0.130000,0.966000,0.154000,192.000000,0.000000,0.000000,0.000000,0.000000,0.000000,0.000000,0.000000,0.000000,0.000000,1647769536.724706,0.000000
159.000000,1357.399089,-9831.280688,12709.157194,-9414.465358,-187012.061419,30021.097365,10345.929604,17002.323807,0.124000,0.968000,0.158000,192.000000,3.000000,224.000000,30.000000,64.000000,4.000000,240.000000,0.000000,0.000000,0.000000,1647769536.732714,0.000000
160.000000,1355.923874,-9831.727723,12706.899668,-9418.399265,-187011.659087,30009.519161,10329.121092,16964.616414,0.124000,0.968000,0.158000,192.000000,0.000000,0.000000,0.000000,0.000000,0.000000,0.000000,0.000000,0.000000,0.000000,1647769536.732727,0.000000
161.000000,1361.176534,-9826.318601,12712.353493,-9408.788015,-187027.350012,30008.356870,10315.419473,16954.267556,0.124000,0.968000,0.158000,192.000000,0.000000,0.000000,0.000000,0.000000,0.000000,0.000000,0.000000,0.000000,0.000000,1647769536.739811,0.000000
162.000000,1366.853877,-9821.937659,12720.623639,-9408.340980,-187011.815549,30017.342271,10324.471930,17006.302417,0.124000,0.968000,0.158000,192.000000,0.000000,0.000000,0.000000,0.000000,0.000000,0.000000,0.000000,0.000000,0.000000,1647769536.739824,0.000000
163.000000,1363.903447,-9823.614040,12719.595458,-9403.915334,-186982.132433,30015.911760,10309.205688,17016.517164,0.124000,0.968000,0.158000,192.000000,0.000000,0.000000,0.000000,0.000000,0.000000,0.000000,0.000000,0.000000,0.000000,1647769536.746371,0.000000
164.000000,1361.981197,-9823.010543,12718.254354,-9399.422634,-186958.931322,30018.973949,10344.029706,17018.864097,0.124000,0.968000,0.158000,192.000000,0.000000,0.000000,0.000000,0.000000,0.000000,0.000000,0.000000,0.000000,0.000000,1647769536.754373,0.000000
165.000000,1364.283426,-9822.094121,12718.321409,-9402.730692,-186970.218953,30023.958388,10378.004358,17023.490909,0.124000,0.968000,0.158000,192.000000,0.000000,0.000000,0.000000,0.000000,0.000000,0.000000,0.000000,0.000000,0.000000,1647769536.754385,0.000000
166.000000,1359.075470,-9833.247642,12716.667380,-9411.671390,-186990.782558,30021.767917,10359.832389,17003.374339,0.124000,0.968000,0.158000,192.000000,0.000000,0.000000,0.000000,0.000000,0.000000,0.000000,0.000000,0.000000,0.000000,1647769536.762383,0.000000
167.000000,1359.746022,-9833.851139,12718.276706,-9416.432311,-187014.207186,30016.291739,10341.258090,16993.494868,0.124000,0.968000,0.158000,192.000000,0.000000,0.000000,0.000000,0.000000,0.000000,0.000000,0.000000,0.000000,0.000000,1647769536.762395,0.000000
168.000000,1366.630359,-9827.078560,12723.372903,-9405.815232,-187031.105105,30027.288798,10349.863511,16997.629940,0.124000,0.968000,0.158000,192.000000,0.000000,0.000000,0.000000,0.000000,0.000000,0.000000,0.000000,0.000000,0.000000,1647769536.770340,0.000000
169.000000,1363.568170,-9826.855043,12717.986133,-9409.749140,-187040.872817,30030.038062,10345.281404,17000.043929,0.126000,0.966000,0.158000,192.000000,3.000000,240.000000,30.000000,48.000000,4.000000,240.000000,0.000000,0.000000,0.000000,1647769536.770351,0.000000
170.000000,1366.272732,-9824.128130,12720.400121,-9408.497442,-187080.390701,30030.038062,10339.380543,16998.255789,0.126000,0.966000,0.158000,192.000000,0.000000,0.000000,0.000000,0.000000,0.000000,0.000000,0.000000,0.000000,0.000000,1647769536.776917,0.000000
171.000000,1364.417537,-9820.887127,12719.617810,-9400.964904,-187105.826987,30025.634769,10328.428188,16987.728117,0.126000,0.966000,0.158000,192.000000,0.000000,0.000000,0.000000,0.000000,0.000000,0.000000,0.000000,0.000000,0.000000,1647769536.776930,0.000000
172.000000,1362.383528,-9821.267107,12716.130938,-9398.103881,-187122.121408,30023.533705,10322.504976,16984.822391,0.126000,0.966000,0.158000,192.000000,0.000000,0.000000,0.000000,0.000000,0.000000,0.000000,0.000000,0.000000,0.000000,1647769536.784891,0.000000
173.000000,1368.060871,-9817.489662,12721.920040,-9392.627703,-187149.949330,30027.087632,10333.837311,16992.042004,0.126000,0.966000,0.158000,192.000000,0.000000,0.000000,0.000000,0.000000,0.000000,0.000000,0.000000,0.000000,0.000000,1647769536.784904,0.000000
174.000000,1370.340749,-9815.589764,12721.048322,-9395.131099,-187189.847194,30023.891333,10328.383485,16981.693146,0.126000,0.966000,0.158000,192.000000,0.000000,0.000000,0.000000,0.000000,0.000000,0.000000,0.000000,0.000000,0.000000,1647769536.792047,0.000000
175.000000,1377.023921,-9809.152461,12722.881165,-9395.220506,-187238.797514,30024.159554,10327.198842,16984.241245,0.126000,0.966000,0.158000,192.000000,0.000000,0.000000,0.000000,0.000000,0.000000,0.000000,0.000000,0.000000,0.000000,1647769536.792059,0.000000
176.000000,1377.225086,-9812.974609,12723.797586,-9405.435253,-187283.433948,30025.277141,10334.261994,16992.734908,0.126000,0.966000,0.158000,192.000000,0.000000,0.000000,0.000000,0.000000,0.000000,0.000000,0.000000,0.000000,0.000000,1647769536.799562,0.000000
177.000000,1378.119156,-9810.739435,12729.072598,-9389.498459,-187302.947021,30024.919513,10337.212424,16990.410327,0.126000,0.966000,0.158000,192.000000,0.000000,0.000000,0.000000,0.000000,0.000000,0.000000,0.000000,0.000000,0.000000,1647769536.799574,0.000000
178.000000,1382.164822,-9807.587839,12731.732456,-9388.783203,-187335.647623,30025.143030,10333.457331,16992.444336,0.126000,0.966000,0.158000,192.000000,0.000000,0.000000,0.000000,0.000000,0.000000,0.000000,0.000000,0.000000,0.000000,1647769536.806584,0.000000
179.000000,1382.455395,-9808.347798,12734.101741,-9392.314779,-187369.666978,30023.354891,10326.818863,16987.683414,0.128000,0.968000,0.160000,192.000000,4.000000,0.000000,30.000000,64.000000,5.000000,0.000000,0.000000,0.000000,0.000000,1647769536.814588,0.000000
180.000000,1388.132738,-9804.525650,12739.622621,-9383.530543,-187414.392819,30030.216876,10347.695392,16984.420059,0.128000,0.968000,0.160000,192.000000,0.000000,0.000000,0.000000,0.000000,0.000000,0.000000,0.000000,0.000000,0.000000,1647769536.814601,0.000000
181.000000,1382.835374,-9809.755958,12734.660534,-9393.544125,-187452.569598,30023.891333,10337.301831,16964.348193,0.128000,0.968000,0.160000,192.000000,0.000000,0.000000,0.000000,0.000000,0.000000,0.000000,0.000000,0.000000,0.000000,1647769536.821770,0.000000
182.000000,1380.354331,-9806.246734,12729.765502,-9394.438195,-187467.478212,30020.851495,10331.758598,16991.103231,0.128000,0.968000,0.160000,192.000000,0.000000,0.000000,0.000000,0.000000,0.000000,0.000000,0.000000,0.000000,0.000000,1647769536.821782,0.000000
183.000000,1387.752758,-9798.870659,12733.855871,-9388.894962,-187493.875622,30033.502583,10354.020936,17038.734798,0.128000,0.968000,0.160000,192.000000,0.000000,0.000000,0.000000,0.000000,0.000000,0.000000,0.000000,0.000000,0.000000,1647769536.829209,0.000000
184.000000,1382.276581,-9803.631580,12729.944316,-9395.980465,-187492.892145,30025.791231,10343.917947,17018.439414,0.128000,0.968000,0.160000,192.000000,0.000000,0.000000,0.000000,0.000000,0.000000,0.000000,0.000000,0.000000,0.000000,1647769536.829221,0.000000
185.000000,1386.165784,-9797.417795,12731.844214,-9382.591770,-187500.022352,30021.834972,10328.092912,17004.022539,0.128000,0.968000,0.160000,192.000000,0.000000,0.000000,0.000000,0.000000,0.000000,0.000000,0.000000,0.000000,0.000000,1647769536.837168,0.000000
186.000000,1388.244496,-9798.378920,12733.587650,-9386.615084,-187500.022352,30033.055548,10344.253223,17017.388882,0.128000,0.968000,0.160000,192.000000,0.000000,0.000000,0.000000,0.000000,0.000000,0.000000,0.000000,0.000000,0.000000,1647769536.837180,0.000000
187.000000,1387.953924,-9797.261333,12737.275688,-9385.564552,-187500.022352,30036.788289,10342.465084,17015.578391,0.128000,0.968000,0.160000,192.000000,0.000000,0.000000,0.000000,0.000000,0.000000,0.000000,0.000000,0.000000,0.000000,1647769536.845147,0.000000
188.000000,1387.663351,-9798.043644,12740.136712,-9387.978540,-187500.022352,30032.005016,10322.884956,17005.385996,0.128000,0.968000,0.160000,192.000000,0.000000,0.000000,0.000000,0.000000,0.000000,0.000000,0.000000,0.000000,0.000000,1647769536.845159,0.000000
189.000000,1386.635171,-9801.776386,12736.873357,-9394.617009,-187500.022352,30024.405423,10304.489470,16997.406423,0.124000,0.964000,0.152000,192.000000,3.000000,224.000000,30.000000,32.000000,4.000000,192.000000,0.000000,0.000000,0.000000,1647769536.853213,0.000000
190.000000,1390.949057,-9799.608266,12737.566261,-9396.695721,-187500.022352,30026.350025,10332.317392,16996.154725,0.124000,0.964000,0.152000,192.000000,0.000000,0.000000,0.000000,0.000000,0.000000,0.000000,0.000000,0.000000,0.000000,1647769536.853226,0.000000
191.000000,1397.207546,-9793.975627,12742.528348,-9377.942607,-187500.022352,30028.808716,10335.558395,16986.141144,0.124000,0.964000,0.152000,192.000000,0.000000,0.000000,0.000000,0.000000,0.000000,0.000000,0.000000,0.000000,0.000000,1647769536.859846,0.000000
192.000000,1393.810081,-9794.489717,12742.751866,-9381.071851,-187500.022352,30029.099289,10336.251299,16983.481286,0.124000,0.964000,0.152000,192.000000,0.000000,0.000000,0.000000,0.000000,0.000000,0.000000,0.000000,0.000000,0.000000,1647769536.859858,0.000000
193.000000,1393.385398,-9793.439185,12743.154197,-9382.502363,-187500.022352,30029.211048,10333.949069,16986.677585,0.124000,0.964000,0.152000,192.000000,0.000000,0.000000,0.000000,0.000000,0.000000,0.000000,0.000000,0.000000,0.000000,1647769536.866934,0.000000
194.000000,1390.233802,-9796.099042,12741.410761,-9385.475145,-187500.022352,30026.506487,10326.684752,16988.041042,0.124000,0.964000,0.152000,192.000000,0.000000,0.000000,0.000000,0.000000,0.000000,0.000000,0.000000,0.000000,0.000000,1647769536.876370,0.000000
195.000000,1383.975313,-9802.156365,12731.643049,-9399.377930,-187500.022352,30022.505524,10332.742075,16984.844742,0.124000,0.964000,0.152000,192.000000,0.000000,0.000000,0.000000,0.000000,0.000000,0.000000,0.000000,0.000000,0.000000,1647769536.876383,0.000000
196.000000,1388.669180,-9799.943542,12732.805339,-9405.748177,-187500.022352,30028.451088,10348.544758,17000.870943,0.124000,0.964000,0.152000,192.000000,0.000000,0.000000,0.000000,0.000000,0.000000,0.000000,0.000000,0.000000,0.000000,1647769536.882579,0.000000
197.000000,1390.680837,-9794.445013,12742.729514,-9383.664654,-187500.022352,30040.856307,10359.452410,17016.293647,0.124000,0.964000,0.152000,192.000000,0.000000,0.000000,0.000000,0.000000,0.000000,0.000000,0.000000,0.000000,0.000000,1647769536.882592,0.000000
198.000000,1387.261020,-9795.406138,12739.220290,-9386.123346,-187500.022352,30035.178964,10332.742075,16998.658120,0.124000,0.964000,0.152000,192.000000,0.000000,0.000000,0.000000,0.000000,0.000000,0.000000,0.000000,0.000000,0.000000,1647769536.889514,0.000000
199.000000,1383.036540,-9801.284647,12736.068694,-9395.131099,-187500.022352,30032.876734,10332.742075,16995.618283,0.126000,0.962000,0.156000,192.000000,3.000000,240.000000,30.000000,16.000000,4.000000,224.000000,0.000000,0.000000,0.000000,1647769536.889527,0.000000
200.000000,1382.745967,-9801.306999,12733.632354,-9399.668503,-187500.022352,30036.721234,10353.506846,17003.217876,0.126000,0.962000,0.156000,192.000000,0.000000,0.000000,0.000000,0.000000,0.000000,0.000000,0.000000,0.000000,0.000000,1647769536.897458,0.000000
201.000000,1377.627418,-9802.759862,12736.716895,-9392.292427,-187500.022352,30044.253772,10358.491285,16998.479307,0.126000,0.962000,0.156000,192.000000,0.000000,0.000000,0.000000,0.000000,0.000000,0.000000,0.000000,0.000000,0.000000,1647769536.897470,0.000000
202.000000,1377.023921,-9803.005731,12736.783950,-9392.828869,-187500.022352,30044.544344,10359.094782,17000.446260,0.126000,0.962000,0.156000,192.000000,0.000000,0.000000,0.000000,0.000000,0.000000,0.000000,0.000000,0.000000,0.000000,1647769536.904564,0.000000
203.000000,1378.722653,-9801.597572,12737.946241,-9397.321570,-187500.022352,30052.412159,10365.017994,17017.634752,0.126000,0.962000,0.156000,192.000000,0.000000,0.000000,0.000000,0.000000,0.000000,0.000000,0.000000,0.000000,0.000000,1647769536.904577,0.000000
204.000000,1376.263961,-9803.542173,12735.040514,-9397.478032,-187500.022352,30048.522955,10354.803247,17010.862173,0.126000,0.962000,0.156000,192.000000,0.000000,0.000000,0.000000,0.000000,0.000000,0.000000,0.000000,0.000000,0.000000,1647769536.912090,0.000000
205.000000,1371.525392,-9803.855098,12732.917098,-9392.784165,-187500.022352,30033.837859,10331.400970,16983.771859,0.126000,0.962000,0.156000,192.000000,0.000000,0.000000,0.000000,0.000000,0.000000,0.000000,0.000000,0.000000,0.000000,1647769536.912102,0.000000
206.000000,1373.782918,-9802.335179,12733.095912,-9399.266171,-187500.022352,30031.557981,10340.542834,16975.658175,0.126000,0.962000,0.156000,192.000000,0.000000,0.000000,0.000000,0.000000,0.000000,0.000000,0.000000,0.000000,0.000000,1647769536.920120,0.000000
207.000000,1378.454432,-9797.171926,12737.610964,-9397.500384,-187500.022352,30037.302379,10364.258035,17006.861211,0.126000,0.962000,0.156000,192.000000,0.000000,0.000000,0.000000,0.000000,0.000000,0.000000,0.000000,0.000000,0.000000,1647769536.920132,0.000000
208.000000,1380.153165,-9794.154441,12738.482683,-9396.472203,-187500.022352,30041.973894,10358.491285,17032.990400,0.126000,0.962000,0.156000,192.000000,0.000000,0.000000,0.000000,0.000000,0.000000,0.000000,0.000000,0.000000,0.000000,1647769536.927124,0.000000
209.000000,1385.785804,-9793.908571,12736.001639,-9404.697645,-187500.022352,30040.744548,10350.221139,17030.375246,0.126000,0.962000,0.156000,192.000000,0.000000,0.000000,0.000000,0.000000,0.000000,0.000000,0.000000,0.000000,0.000000,1647769536.934410,0.000000
210.000000,1388.289200,-9791.271066,12735.711066,-9388.917314,-187500.022352,30042.219763,10342.308622,17016.584220,0.126000,0.966000,0.154000,192.000000,3.000000,240.000000,30.000000,48.000000,4.000000,208.000000,0.000000,0.000000,0.000000,1647769536.934422,0.000000
211.000000,1387.261020,-9792.612170,12732.715932,-9388.783203,-187500.022352,30046.243077,10355.518503,17021.591010,0.126000,0.966000,0.154000,192.000000,0.000000,0.000000,0.000000,0.000000,0.000000,0.000000,0.000000,0.000000,0.000000,1647769536.941719,0.000000
212.000000,1380.756662,-9798.155403,12728.871432,-9395.734596,-187500.022352,30044.074958,10357.306642,17018.595877,0.126000,0.966000,0.154000,192.000000,0.000000,0.000000,0.000000,0.000000,0.000000,0.000000,0.000000,0.000000,0.000000,1647769536.941731,0.000000
213.000000,1382.969485,-9795.696711,12729.340819,-9397.388625,-187500.022352,30040.610437,10353.059811,17014.840783,0.126000,0.966000,0.154000,192.000000,0.000000,0.000000,0.000000,0.000000,0.000000,0.000000,0.000000,0.000000,0.000000,1647769536.950312,0.000000
214.000000,1383.416520,-9797.931885,12725.719836,-9401.791918,-187500.022352,30035.782461,10337.234776,17010.370435,0.126000,0.966000,0.154000,192.000000,0.000000,0.000000,0.000000,0.000000,0.000000,0.000000,0.000000,0.000000,0.000000,1647769536.950325,0.000000
215.000000,1383.930610,-9797.753072,12724.602249,-9404.675294,-187500.022352,30028.562847,10315.955915,16986.208199,0.126000,0.966000,0.154000,192.000000,0.000000,0.000000,0.000000,0.000000,0.000000,0.000000,0.000000,0.000000,0.000000,1647769536.957048,0.000000
216.000000,1380.555496,-9800.323522,12725.608078,-9417.169919,-187500.022352,30025.500658,10305.987037,16972.730097,0.126000,0.966000,0.154000,192.000000,0.000000,0.000000,0.000000,0.000000,0.000000,0.000000,0.000000,0.000000,0.000000,1647769536.957061,0.000000
217.000000,1375.436947,-9804.525650,12726.144520,-9412.006666,-187500.022352,30027.802888,10329.076389,16988.935112,0.126000,0.966000,0.154000,192.000000,0.000000,0.000000,0.000000,0.000000,0.000000,0.000000,0.000000,0.000000,0.000000,1647769536.964270,0.000000
218.000000,1385.964618,-9796.210801,12736.068694,-9401.881325,-187500.022352,30032.943789,10329.054037,17007.911743,0.126000,0.966000,0.154000,192.000000,0.000000,0.000000,0.000000,0.000000,0.000000,0.000000,0.000000,0.000000,0.000000,1647769536.964278,0.000000
219.000000,1387.953924,-9797.216630,12735.554604,-9406.999875,-187500.022352,30031.647388,10337.704162,17014.617266,0.126000,0.966000,0.154000,192.000000,0.000000,0.000000,0.000000,0.000000,0.000000,0.000000,0.000000,0.000000,0.000000,1647769536.972398,0.000000
220.000000,1386.054025,-9795.249676,12731.866566,-9403.088320,-187500.022352,30034.754280,10368.728384,17032.319848,0.124000,0.970000,0.148000,192.000000,3.000000,224.000000,30.000000,80.000000,4.000000,160.000000,0.000000,0.000000,0.000000,1647769536.972410,0.000000
221.000000,1384.176479,-9796.859002,12733.051209,-9403.669465,-187500.022352,30033.457879,10368.728384,17015.220763,0.124000,0.970000,0.148000,192.000000,0.000000,0.000000,0.000000,0.000000,0.000000,0.000000,0.000000,0.000000,0.000000,1647769536.980366,0.000000
222.000000,1382.656560,-9801.217592,12729.162005,-9411.179651,-187500.022352,30018.415155,10341.660421,16983.078955,0.124000,0.970000,0.148000,192.000000,0.000000,0.000000,0.000000,0.000000,0.000000,0.000000,0.000000,0.000000,0.000000,1647769536.980379,0.000000
223.000000,1377.605066,-9806.470252,12723.104682,-9419.405093,-187500.022352,30015.531780,10347.918910,16985.112963,0.124000,0.970000,0.148000,192.000000,0.000000,0.000000,0.000000,0.000000,0.000000,0.000000,0.000000,0.000000,0.000000,1647769536.986647,0.000000
224.000000,1373.045310,-9809.107758,12720.355418,-9404.205907,-187500.022352,30024.830106,10355.652613,17014.058472,0.124000,0.970000,0.148000,192.000000,0.000000,0.000000,0.000000,0.000000,0.000000,0.000000,0.000000,0.000000,0.000000,1647769536.986660,0.000000
225.000000,1381.874249,-9803.832746,12724.557546,-9406.306971,-187500.022352,30025.858286,10354.311508,17009.968103,0.124000,0.970000,0.148000,192.000000,0.000000,0.000000,0.000000,0.000000,0.000000,0.000000,0.000000,0.000000,0.000000,1647769536.994052,0.000000
226.000000,1388.400959,-9796.859002,12733.878223,-9401.031959,-187500.022352,30033.189658,10363.922759,17010.437490,0.124000,0.970000,0.148000,192.000000,0.000000,0.000000,0.000000,0.000000,0.000000,0.000000,0.000000,0.000000,0.000000,1647769537.002068,0.000000
227.000000,1386.501060,-9798.043644,12733.006505,-9404.317666,-187500.022352,30032.742623,10358.334822,17002.413214,0.124000,0.970000,0.148000,192.000000,0.000000,0.000000,0.000000,0.000000,0.000000,0.000000,0.000000,0.000000,0.000000,1647769537.002076,0.000000
228.000000,1383.707092,-9800.368226,12728.446749,-9407.290448,-187500.022352,30030.619208,10366.984948,17008.694054,0.124000,0.970000,0.148000,192.000000,0.000000,0.000000,0.000000,0.000000,0.000000,0.000000,0.000000,0.000000,0.000000,1647769537.010099,0.000000
229.000000,1380.510793,-9800.256467,12726.032761,-9408.542145,-187500.022352,30033.301417,10365.710898,17018.864097,0.124000,0.970000,0.148000,192.000000,0.000000,0.000000,0.000000,0.000000,0.000000,0.000000,0.000000,0.000000,0.000000,1647769537.010112,0.000000
230.000000,1380.779014,-9798.736548,12723.305848,-9413.325419,-187500.022352,30027.221743,10335.938375,17000.401557,0.128000,0.968000,0.150000,192.000000,4.000000,0.000000,30.000000,64.000000,4.000000,176.000000,0.000000,0.000000,0.000000,1647769537.016717,0.000000
231.000000,1384.668217,-9794.355606,12728.156177,-9398.439157,-187500.022352,30031.915609,10329.478720,16997.272312,0.128000,0.968000,0.150000,192.000000,0.000000,0.000000,0.000000,0.000000,0.000000,0.000000,0.000000,0.000000,0.000000,1647769537.016729,0.000000
232.000000,1388.155089,-9789.371167,12730.681924,-9392.024206,-187500.022352,30038.576429,10360.949977,17028.363589,0.128000,0.968000,0.150000,192.000000,0.000000,0.000000,0.000000,0.000000,0.000000,0.000000,0.000000,0.000000,0.000000,1647769537.024663,0.000000
233.000000,1389.227973,-9787.538324,12731.844214,-9392.962979,-187500.022352,30039.828126,10361.218197,17039.919441,0.128000,0.968000,0.150000,192.000000,0.000000,0.000000,0.000000,0.000000,0.000000,0.000000,0.000000,0.000000,0.000000,1647769537.024675,0.000000
234.000000,1389.473842,-9789.929961,12731.799511,-9394.907581,-187500.022352,30035.022501,10351.137561,17019.400539,0.128000,0.968000,0.150000,192.000000,0.000000,0.000000,0.000000,0.000000,0.000000,0.000000,0.000000,0.000000,0.000000,1647769537.032706,0.000000
235.000000,1391.083168,-9791.874563,12732.894746,-9400.048482,-187500.022352,30023.779574,10329.322258,16985.045908,0.128000,0.968000,0.150000,192.000000,0.000000,0.000000,0.000000,0.000000,0.000000,0.000000,0.000000,0.000000,0.000000,1647769537.032719,0.000000
236.000000,1391.038464,-9794.445013,12734.437017,-9399.959075,-187500.022352,30020.963254,10331.289212,16971.813675,0.128000,0.968000,0.150000,192.000000,0.000000,0.000000,0.000000,0.000000,0.000000,0.000000,0.000000,0.000000,0.000000,1647769537.039311,0.000000
237.000000,1386.322246,-9798.870659,12736.605136,-9409.726788,-187500.022352,30032.362644,10371.410593,17000.781536,0.128000,0.968000,0.150000,192.000000,0.000000,0.000000,0.000000,0.000000,0.000000,0.000000,0.000000,0.000000,0.000000,1647769537.039323,0.000000
238.000000,1383.617685,-9800.994074,12736.739246,-9403.781224,-187500.022352,30035.357778,10371.947035,17001.697958,0.128000,0.968000,0.150000,192.000000,0.000000,0.000000,0.000000,0.000000,0.000000,0.000000,0.000000,0.000000,0.000000,1647769537.047198,0.000000
239.000000,1390.345560,-9794.445013,12734.146444,-9398.439157,-187500.022352,30033.770804,10362.916930,17008.828164,0.128000,0.968000,0.150000,192.000000,0.000000,0.000000,0.000000,0.000000,0.000000,0.000000,0.000000,0.000000,0.000000,1647769537.047206,0.000000
240.000000,1396.045255,-9788.991188,12734.124092,-9394.684064,-187500.022352,30032.496754,10335.625450,17004.827202,0.128000,0.966000,0.152000,192.000000,4.000000,0.000000,30.000000,48.000000,4.000000,192.000000,0.000000,0.000000,0.000000,1647769537.054296,0.000000
241.000000,1398.280430,-9789.058243,12736.135749,-9397.098052,-187500.022352,30027.288798,10328.450540,16993.874847,0.128000,0.966000,0.152000,192.000000,0.000000,0.000000,0.000000,0.000000,0.000000,0.000000,0.000000,0.000000,0.000000,1647769537.062398,0.000000
242.000000,1398.392188,-9789.795850,12738.549738,-9400.964904,-187500.022352,30029.680434,10363.922759,16997.898161,0.128000,0.966000,0.152000,192.000000,0.000000,0.000000,0.000000,0.000000,0.000000,0.000000,0.000000,0.000000,0.000000,1647769537.062411,0.000000
243.000000,1391.574906,-9794.690883,12733.341781,-9402.060139,-187500.022352,30028.764013,10349.662346,16990.589141,0.128000,0.966000,0.152000,192.000000,0.000000,0.000000,0.000000,0.000000,0.000000,0.000000,0.000000,0.000000,0.000000,1647769537.068925,0.000000
244.000000,1393.474805,-9791.606342,12735.509901,-9390.996026,-187500.022352,30030.663911,10343.023878,16997.182905,0.128000,0.966000,0.152000,192.000000,0.000000,0.000000,0.000000,0.000000,0.000000,0.000000,0.000000,0.000000,0.000000,1647769537.068937,0.000000
245.000000,1393.497156,-9791.986321,12743.243604,-9394.192325,-187500.022352,30033.793155,10345.795494,16999.395728,0.128000,0.966000,0.152000,192.000000,0.000000,0.000000,0.000000,0.000000,0.000000,0.000000,0.000000,0.000000,0.000000,1647769537.076948,0.000000
246.000000,1387.640999,-9800.882316,12740.896671,-9403.401244,-187500.022352,30027.467612,10348.276537,17004.380167,0.128000,0.966000,0.152000,192.000000,0.000000,0.000000,0.000000,0.000000,0.000000,0.000000,0.000000,0.000000,0.000000,1647769537.076961,0.000000
247.000000,1389.317380,-9798.848307,12742.863624,-9401.233125,-187500.022352,30031.803850,10352.702183,16997.004091,0.128000,0.966000,0.152000,192.000000,0.000000,0.000000,0.000000,0.000000,0.000000,0.000000,0.000000,0.000000,0.000000,1647769537.084965,0.000000
248.000000,1386.322246,-9801.686979,12737.655668,-9409.346808,-187500.022352,30023.064318,10329.791645,16975.009975,0.128000,0.966000,0.152000,192.000000,0.000000,0.000000,0.000000,0.000000,0.000000,0.000000,0.000000,0.000000,0.000000,1647769537.084978,0.000000
249.000000,1387.931572,-9800.435281,12737.029819,-9410.598506,-187500.022352,30022.796097,10331.378619,16981.559036,0.128000,0.966000,0.152000,192.000000,0.000000,0.000000,0.000000,0.000000,0.000000,0.000000,0.000000,0.000000,0.000000,1647769537.092067,0.000000
250.000000,1392.960714,-9793.908571,12739.577918,-9406.619895,-187500.022352,30041.258638,10371.410593,17011.868001,0.130000,0.964000,0.152000,192.000000,4.000000,16.000000,30.000000,32.000000,4.000000,192.000000,0.000000,0.000000,0.000000,1647769537.092080,0.000000
251.000000,1393.430101,-9797.909534,12740.784912,-9414.063026,-187500.022352,30046.935981,10372.103497,17017.366531,0.130000,0.964000,0.152000,192.000000,0.000000,0.000000,0.000000,0.000000,0.000000,0.000000,0.000000,0.000000,0.000000,1647769537.099635,0.000000
252.000000,1393.877136,-9798.982417,12743.131845,-9394.192325,-187500.022352,30045.013731,10342.979174,16986.297606,0.130000,0.964000,0.152000,192.000000,0.000000,0.000000,0.000000,0.000000,0.000000,0.000000,0.000000,0.000000,0.000000,1647769537.099647,0.000000
253.000000,1386.523412,-9805.330313,12736.694543,-9405.479956,-187500.022352,30030.999187,10325.567165,16967.298623,0.130000,0.964000,0.152000,192.000000,0.000000,0.000000,0.000000,0.000000,0.000000,0.000000,0.000000,0.000000,0.000000,1647769537.107436,0.000000
254.000000,1389.809118,-9801.552868,12740.896671,-9403.736520,-187500.022352,30029.747490,10331.691543,16991.639673,0.130000,0.964000,0.152000,192.000000,0.000000,0.000000,0.000000,0.000000,0.000000,0.000000,0.000000,0.000000,0.000000,1647769537.107443,0.000000
255.000000,1388.669180,-9804.257429,12743.690639,-9406.374026,-187500.022352,30031.155650,10335.133712,17002.748490,0.130000,0.964000,0.152000,192.000000,0.000000,0.000000,0.000000,0.000000,0.000000,0.000000,0.000000,0.000000,0.000000,1647769537.114708,0.000000
0.000000,1389.473842,-9804.190374,12750.239700,-9403.960038,-187500.022352,30032.340292,10352.679831,17010.996283,0.130000,0.964000,0.152000,192.000000,0.000000,0.000000,0.000000,0.000000,0.000000,0.000000,0.000000,0.000000,0.000000,1647769537.121822,0.000000
1.000000,1391.261982,-9800.055301,12750.217348,-9405.099977,-187500.022352,30024.785402,10343.225043,16988.979815,0.130000,0.964000,0.152000,192.000000,0.000000,0.000000,0.000000,0.000000,0.000000,0.000000,0.000000,0.000000,0.000000,1647769537.121835,0.000000
2.000000,1397.006380,-9791.829859,12750.127941,-9403.356541,-187500.022352,30024.047795,10336.318354,16981.603739,0.130000,0.964000,0.152000,192.000000,0.000000,0.000000,0.000000,0.000000,0.000000,0.000000,0.000000,0.000000,0.000000,1647769537.129291,0.000000
3.000000,1402.795482,-9788.901781,12754.195959,-9390.079604,-187500.022352,30030.775670,10346.108418,17000.423908,0.130000,0.964000,0.152000,192.000000,0.000000,0.000000,0.000000,0.000000,0.000000,0.000000,0.000000,0.000000,0.000000,1647769537.129304,0.000000
4.000000,1397.498119,-9797.015464,12754.061848,-9401.009607,-187500.022352,30037.972932,10371.477648,17021.523955,0.134000,0.970000,0.150000,192.000000,4.000000,48.000000,30.000000,80.000000,4.000000,176.000000,0.000000,0.000000,0.000000,1647769537.137285,0.000000
5.000000,1386.009322,-9808.526612,12744.830578,-9411.246706,-187500.022352,30033.502583,10354.982061,16998.456955,0.134000,0.970000,0.150000,192.000000,0.000000,0.000000,0.000000,0.000000,0.000000,0.000000,0.000000,0.000000,0.000000,1647769537.137297,0.000000
6.000000,1385.986970,-9809.018351,12736.895709,-9414.890041,-187500.022352,30018.973949,10329.098741,16976.619300,0.134000,0.970000,0.150000,192.000000,0.000000,0.000000,0.000000,0.000000,0.000000,0.000000,0.000000,0.000000,0.000000,1647769537.145165,0.000000
7.000000,1382.120118,-9811.231173,12732.335953,-9419.785073,-187500.022352,30013.296606,10320.739188,16982.788382,0.134000,0.970000,0.150000,192.000000,0.000000,0.000000,0.000000,0.000000,0.000000,0.000000,0.000000,0.000000,0.000000,1647769537.145178,0.000000
8.000000,1389.183270,-9805.084444,12736.113398,-9416.722884,-187500.022352,30014.660062,10336.899500,16989.829181,0.134000,0.970000,0.150000,192.000000,0.000000,0.000000,0.000000,0.000000,0.000000,0.000000,0.000000,0.000000,0.000000,1647769537.151881,0.000000
9.000000,1393.295991,-9804.659761,12739.309697,-9422.243765,-187500.022352,30020.136240,10350.399953,16983.436582,0.134000,0.970000,0.150000,192.000000,0.000000,0.000000,0.000000,0.000000,0.000000,0.000000,0.000000,0.000000,0.000000,1647769537.151893,0.000000
10.000000,1389.920877,-9805.643237,12736.113398,-9415.314724,-187500.022352,30019.286873,10353.193921,16979.145048,0.134000,0.970000,0.150000,192.000000,0.000000,0.000000,0.000000,0.000000,0.000000,0.000000,0.000000,0.000000,0.000000,1647769537.159796,0.000000
11.000000,1391.485499,-9800.167060,12739.577918,-9409.883250,-187500.022352,30021.343234,10341.950994,16978.698013,0.134000,0.970000,0.150000,192.000000,0.000000,0.000000,0.000000,0.000000,0.000000,0.000000,0.000000,0.000000,0.000000,1647769537.159809,0.000000
12.000000,1397.229898,-9793.148612,12740.360229,-9413.973619,-187500.022352,30018.795135,10340.609889,16992.489039,0.134000,0.970000,0.150000,192.000000,0.000000,0.000000,0.000000,0.000000,0.000000,0.000000,0.000000,0.000000,0.000000,1647769537.167921,0.000000
13.000000,1398.526299,-9790.958141,12736.873357,-9409.570326,-187500.022352,30018.303396,10320.761540,16989.650367,0.134000,0.970000,0.150000,192.000000,0.000000,0.000000,0.000000,0.000000,0.000000,0.000000,0.000000,0.000000,0.000000,1647769537.167933,0.000000
14.000000,1388.915049,-9796.702540,12729.899613,-9412.476052,-187500.022352,30013.631882,10311.574973,16981.424925,0.126000,0.968000,0.156000,192.000000,3.000000,240.000000,30.000000,64.000000,4.000000,224.000000,0.000000,0.000000,0.000000,1647769537.174024,0.000000
15.000000,1386.746929,-9801.508165,12728.267935,-9422.064951,-187500.022352,30015.352966,10329.344610,16989.002167,0.126000,0.968000,0.156000,192.000000,0.000000,0.000000,0.000000,0.000000,0.000000,0.000000,0.000000,0.000000,0.000000,1647769537.181558,0.000000
16.000000,1392.312514,-9796.635484,12733.140616,-9412.051369,-187500.022352,30019.823315,10346.108418,16990.857362,0.126000,0.968000,0.156000,192.000000,0.000000,0.000000,0.000000,0.000000,0.000000,0.000000,0.000000,0.000000,0.000000,1647769537.181571,0.000000
17.000000,1390.792595,-9796.791947,12732.715932,-9403.110671,-187500.022352,30025.590065,10356.814904,16993.181943,0.126000,0.968000,0.156000,192.000000,0.000000,0.000000,0.000000,0.000000,0.000000,0.000000,0.000000,0.000000,0.000000,1647769537.189492,0.000000
18.000000,1389.473842,-9800.725854,12727.038589,-9411.447872,-187500.022352,30022.192600,10349.818808,16985.671757,0.126000,0.968000,0.156000,192.000000,0.000000,0.000000,0.000000,0.000000,0.000000,0.000000,0.000000,0.000000,0.000000,1647769537.189504,0.000000
19.000000,1392.401921,-9798.736548,12729.027895,-9412.364294,-187500.022352,30019.577446,10339.000564,16978.653309,0.126000,0.968000,0.156000,192.000000,0.000000,0.000000,0.000000,0.000000,0.000000,0.000000,0.000000,0.000000,0.000000,1647769537.197518,0.000000
20.000000,1394.502985,-9791.516935,12733.766464,-9409.592677,-187500.022352,30025.120679,10347.136598,16996.355891,0.126000,0.968000,0.156000,192.000000,0.000000,0.000000,0.000000,0.000000,0.000000,0.000000,0.000000,0.000000,0.000000,1647769537.197530,0.000000
21.000000,1391.284334,-9792.992150,12731.061903,-9409.682084,-187500.022352,30026.998225,10340.229909,17009.386958,0.126000,0.968000,0.156000,192.000000,0.000000,0.000000,0.000000,0.000000,0.000000,0.000000,0.000000,0.000000,0.000000,1647769537.204140,0.000000
22.000000,1390.770243,-9794.243848,12727.306810,-9412.543108,-187500.022352,30021.991434,10324.628392,16996.110022,0.126000,0.968000,0.156000,192.000000,0.000000,0.000000,0.000000,0.000000,0.000000,0.000000,0.000000,0.000000,0.000000,1647769537.204153,0.000000
23.000000,1391.619610,-9799.384749,12723.171738,-9425.060084,-187500.022352,30015.151801,10324.024895,16979.837952,0.126000,0.968000,0.156000,192.000000,0.000000,0.000000,0.000000,0.000000,0.000000,0.000000,0.000000,0.000000,0.000000,1647769537.212090,0.000000
24.000000,1396.849918,-9794.020330,12725.161043,-9413.034846,-187500.022352,30011.374356,10312.089063,16965.443428,0.126000,0.964000,0.152000,192.000000,3.000000,240.000000,30.000000,32.000000,4.000000,192.000000,0.000000,0.000000,0.000000,1647769537.212103,0.000000
25.000000,1393.407749,-9795.540249,12725.518671,-9413.325419,-187500.022352,30014.347138,10322.661438,16980.195580,0.126000,0.964000,0.152000,192.000000,0.000000,0.000000,0.000000,0.000000,0.000000,0.000000,0.000000,0.000000,0.000000,1647769537.220196,0.000000
26.000000,1395.486462,-9791.896914,12726.636258,-9408.609201,-187500.022352,30027.959350,10344.499093,17017.165365,0.126000,0.964000,0.152000,192.000000,0.000000,0.000000,0.000000,0.000000,0.000000,0.000000,0.000000,0.000000,0.000000,1647769537.220208,0.000000
27.000000,1397.386360,-9790.824031,12726.099816,-9408.296276,-187500.022352,30030.373339,10340.788703,17009.521068,0.126000,0.964000,0.152000,192.000000,0.000000,0.000000,0.000000,0.000000,0.000000,0.000000,0.000000,0.000000,0.000000,1647769537.227214,0.000000
28.000000,1396.000552,-9794.132089,12725.295153,-9411.380817,-187500.022352,30034.687225,10357.664270,17005.967141,0.126000,0.964000,0.152000,192.000000,0.000000,0.000000,0.000000,0.000000,0.000000,0.000000,0.000000,0.000000,0.000000,1647769537.227226,0.000000
29.000000,1387.775110,-9801.843441,12720.310714,-9425.440064,-187500.022352,30031.245057,10359.050078,16999.574542,0.126000,0.964000,0.152000,192.000000,0.000000,0.000000,0.000000,0.000000,0.000000,0.000000,0.000000,0.000000,0.000000,1647769537.233792,0.000000
30.000000,1380.957828,-9809.443034,12712.621714,-9436.615936,-187500.022352,30020.873847,10341.168683,16979.703841,0.126000,0.964000,0.152000,192.000000,0.000000,0.000000,0.000000,0.000000,0.000000,0.000000,0.000000,0.000000,0.000000,1647769537.233804,0.000000
31.000000,1384.332941,-9809.934772,12713.627543,-9427.384666,-187500.022352,30017.252865,10323.577860,16973.937091,0.126000,0.964000,0.152000,192.000000,0.000000,0.000000,0.000000,0.000000,0.000000,0.000000,0.000000,0.000000,0.000000,1647769537.241771,0.000000
32.000000,1392.536031,-9805.285609,12717.673208,-9422.467282,-187500.022352,30019.912722,10318.168738,16972.014841,0.126000,0.964000,0.152000,192.000000,0.000000,0.000000,0.000000,0.000000,0.000000,0.000000,0.000000,0.000000,0.000000,1647769537.249754,0.000000
33.000000,1392.692494,-9804.279781,12716.801490,-9425.305954,-187500.022352,30022.594931,10334.530215,16986.051737,0.126000,0.964000,0.152000,192.000000,0.000000,0.000000,0.000000,0.000000,0.000000,0.000000,0.000000,0.000000,0.000000,1647769537.249767,0.000000
34.000000,1395.464110,-9800.234115,12718.343761,-9420.120349,-187500.022352,30025.388899,10346.421343,16994.076013,0.126000,0.962000,0.156000,192.000000,3.000000,240.000000,30.000000,16.000000,4.000000,224.000000,0.000000,0.000000,0.000000,1647769537.256847,0.000000
35.000000,1398.615706,-9796.501374,12720.288363,-9417.773416,-187500.022352,30028.942827,10344.588500,17004.670740,0.126000,0.962000,0.156000,192.000000,0.000000,0.000000,0.000000,0.000000,0.000000,0.000000,0.000000,0.000000,0.000000,1647769537.256859,0.000000
36.000000,1393.273639,-9800.837612,12714.789833,-9424.031904,-187500.022352,30026.640597,10332.920889,16992.042004,0.126000,0.962000,0.156000,192.000000,0.000000,0.000000,0.000000,0.000000,0.000000,0.000000,0.000000,0.000000,0.000000,1647769537.264338,0.000000
37.000000,1383.103595,-9812.304057,12704.083348,-9437.442951,-187475.167212,30014.011862,10317.632296,16968.751486,0.126000,0.962000,0.156000,192.000000,0.000000,0.000000,0.000000,0.000000,0.000000,0.000000,0.000000,0.000000,0.000000,1647769537.264351,0.000000
38.000000,1387.238668,-9808.973647,12702.943409,-9439.633422,-187457.822258,30010.055603,10308.915115,16965.063449,0.126000,0.962000,0.156000,192.000000,0.000000,0.000000,0.000000,0.000000,0.000000,0.000000,0.000000,0.000000,0.000000,1647769537.273775,0.000000
39.000000,1392.379569,-9800.815261,12708.039607,-9421.908489,-187437.124543,30022.103193,10325.835386,16984.598873,0.126000,0.962000,0.156000,192.000000,0.000000,0.000000,0.000000,0.000000,0.000000,0.000000,0.000000,0.000000,0.000000,1647769537.273788,0.000000
40.000000,1387.775110,-9805.352665,12703.345740,-9426.937631,-187403.999258,30020.762088,10336.854796,16989.516257,0.126000,0.962000,0.156000,192.000000,0.000000,0.000000,0.000000,0.000000,0.000000,0.000000,0.000000,0.000000,0.000000,1647769537.280403,0.000000
41.000000,1385.294066,-9807.297266,12701.445842,-9429.016343,-187357.351167,30020.449164,10338.709991,16978.005109,0.126000,0.962000,0.156000,192.000000,0.000000,0.000000,0.000000,0.000000,0.000000,0.000000,0.000000,0.000000,0.000000,1647769537.280416,0.000000
42.000000,1385.361121,-9805.531479,12699.903572,-9430.111579,-187317.632117,30018.683376,10332.026819,16959.497864,0.126000,0.962000,0.156000,192.000000,0.000000,0.000000,0.000000,0.000000,0.000000,0.000000,0.000000,0.000000,0.000000,1647769537.287059,0.000000
43.000000,1388.177441,-9801.374054,12700.663531,-9427.496425,-187285.624419,30023.623112,10326.975325,16971.187827,0.126000,0.962000,0.156000,192.000000,0.000000,0.000000,0.000000,0.000000,0.000000,0.000000,0.000000,0.000000,0.000000,1647769537.287072,0.000000
44.000000,1393.586563,-9796.479022,12703.122223,-9425.484768,-187282.718692,30025.947693,10334.306697,17005.631865,0.128000,0.962000,0.152000,192.000000,4.000000,0.000000,30.000000,16.000000,4.000000,192.000000,0.000000,0.000000,0.000000,1647769537.295041,0.000000
45.000000,1395.844089,-9794.132089,12709.917153,-9414.711227,-187277.689550,30033.569638,10348.924738,17019.512298,0.128000,0.962000,0.152000,192.000000,0.000000,0.000000,0.000000,0.000000,0.000000,0.000000,0.000000,0.000000,0.000000,1647769537.295055,0.000000
46.000000,1390.054988,-9798.244810,12705.826784,-9417.661657,-187213.718857,30029.412213,10350.444657,17003.776670,0.128000,0.962000,0.152000,192.000000,0.000000,0.000000,0.000000,0.000000,0.000000,0.000000,0.000000,0.000000,0.000000,1647769537.302060,0.000000
47.000000,1393.050121,-9793.215667,12700.171793,-9423.696628,-187180.370054,30027.668777,10343.046229,16994.567751,0.128000,0.962000,0.152000,192.000000,0.000000,0.000000,0.000000,0.000000,0.000000,0.000000,0.000000,0.000000,0.000000,1647769537.309150,0.000000
48.000000,1394.815909,-9788.387691,12702.876354,-9413.638343,-187161.348720,30027.244094,10324.047246,16966.561015,0.128000,0.962000,0.152000,192.000000,0.000000,0.000000,0.000000,0.000000,0.000000,0.000000,0.000000,0.000000,0.000000,1647769537.309163,0.000000
49.000000,1399.576831,-9788.141821,12701.669359,-9411.559631,-187147.892970,30029.658083,10331.602136,16973.691222,0.128000,0.962000,0.152000,192.000000,0.000000,0.000000,0.000000,0.000000,0.000000,0.000000,0.000000,0.000000,0.000000,1647769537.316692,0.000000
50.000000,1407.690514,-9785.727833,12709.291304,-9408.609201,-187136.918263,30047.494775,10357.194883,17022.172156,0.128000,0.962000,0.152000,192.000000,0.000000,0.000000,0.000000,0.000000,0.000000,0.000000,0.000000,0.000000,0.000000,1647769537.316705,0.000000
51.000000,1406.461168,-9788.231228,12714.208688,-9409.279753,-187077.954361,30049.998170,10353.283328,17027.536574,0.128000,0.962000,0.152000,192.000000,0.000000,0.000000,0.000000,0.000000,0.000000,0.000000,0.000000,0.000000,0.000000,1647769537.324737,0.000000
52.000000,1400.314438,-9792.790984,12711.884107,-9421.595564,-187037.229483,30040.163403,10332.585613,17010.057510,0.128000,0.962000,0.152000,192.000000,0.000000,0.000000,0.000000,0.000000,0.000000,0.000000,0.000000,0.000000,0.000000,1647769537.324750,0.000000
53.000000,1399.330962,-9790.824031,12714.879240,-9419.338038,-187002.606631,30043.896144,10359.094782,17012.247981,0.128000,0.962000,0.152000,192.000000,0.000000,0.000000,0.000000,0.000000,0.000000,0.000000,0.000000,0.000000,0.000000,1647769537.332664,0.000000
54.000000,1405.857671,-9784.833763,12720.176604,-9406.910468,-186984.054683,30045.505470,10369.376584,17010.213972,0.128000,0.962000,0.152000,192.000000,0.000000,0.000000,0.000000,0.000000,0.000000,0.000000,0.000000,0.000000,0.000000,1647769537.332676,0.000000
55.000000,1405.276526,-9783.403252,12722.232964,-9400.719035,-186967.849668,30046.421891,10362.067564,17001.988530,0.126000,0.958000,0.152000,192.000000,3.000000,240.000000,29.000000,240.000000,4.000000,192.000000,0.000000,0.000000,0.000000,1647769537.339290,0.000000
56.000000,1399.420369,-9788.812374,12720.891860,-9408.788015,-186911.635031,30039.492850,10354.803247,16991.371452,0.126000,0.958000,0.152000,192.000000,0.000000,0.000000,0.000000,0.000000,0.000000,0.000000,0.000000,0.000000,0.000000,1647769537.339303,0.000000
57.000000,1400.202680,-9787.963007,12718.500223,-9410.017360,-186863.690539,30032.429699,10340.498130,16982.028423,0.126000,0.958000,0.152000,192.000000,0.000000,0.000000,0.000000,0.000000,0.000000,0.000000,0.000000,0.000000,0.000000,1647769537.347321,0.000000
58.000000,1401.074398,-9789.415871,12715.147461,-9411.671390,-186827.637175,30029.099289,10330.104569,16983.816562,0.126000,0.958000,0.152000,192.000000,0.000000,0.000000,0.000000,0.000000,0.000000,0.000000,0.000000,0.000000,0.000000,1647769537.347333,0.000000
59.000000,1403.153110,-9790.220534,12711.124147,-9416.141738,-186816.260137,30024.964216,10324.896613,16988.666891,0.126000,0.958000,0.152000,192.000000,0.000000,0.000000,0.000000,0.000000,0.000000,0.000000,0.000000,0.000000,0.000000,1647769537.355301,0.000000
60.000000,1401.141453,-9790.958141,12708.777214,-9418.511023,-186794.109558,30028.920475,10339.157026,16986.901103,0.126000,0.958000,0.152000,192.000000,0.000000,0.000000,0.000000,0.000000,0.000000,0.000000,0.000000,0.000000,0.000000,1647769537.355313,0.000000
61.000000,1400.962639,-9791.405176,12710.565354,-9413.034846,-186757.452697,30036.967103,10358.938320,17000.289798,0.126000,0.958000,0.152000,192.000000,0.000000,0.000000,0.000000,0.000000,0.000000,0.000000,0.000000,0.000000,0.000000,1647769537.362517,0.000000
62.000000,1404.874194,-9788.767670,12714.767482,-9408.497442,-186726.383773,30045.527821,10351.562244,17018.729987,0.126000,0.958000,0.152000,192.000000,0.000000,0.000000,0.000000,0.000000,0.000000,0.000000,0.000000,0.000000,0.000000,1647769537.368961,0.000000
63.000000,1401.879060,-9792.455708,12710.788871,-9415.582945,-186677.701673,30038.621132,10345.795494,17008.090557,0.126000,0.958000,0.152000,192.000000,0.000000,0.000000,0.000000,0.000000,0.000000,0.000000,0.000000,0.000000,0.000000,1647769537.368973,0.000000
64.000000,1407.064665,-9789.326464,12712.174679,-9417.728712,-186648.242074,30041.616266,10354.758543,17008.716405,0.126000,0.958000,0.152000,192.000000,0.000000,0.000000,0.000000,0.000000,0.000000,0.000000,0.000000,0.000000,0.000000,1647769537.377047,0.000000
65.000000,1403.376627,-9793.752109,12709.380711,-9414.465358,-186610.177053,30035.357778,10343.582671,16997.071147,0.122000,0.960000,0.150000,192.000000,3.000000,208.000000,30.000000,0.000000,4.000000,176.000000,0.000000,0.000000,0.000000,1647769537.377060,0.000000
66.000000,1414.530148,-9782.173906,12715.773310,-9406.016398,-186572.044977,30033.793155,10335.446636,16994.634806,0.122000,0.960000,0.150000,192.000000,0.000000,0.000000,0.000000,0.000000,0.000000,0.000000,0.000000,0.000000,0.000000,1647769537.385038,0.000000
67.000000,1428.879968,-9764.761897,12725.541022,-9396.315741,-186560.332663,30043.493813,10341.727476,17011.197449,0.122000,0.960000,0.150000,192.000000,0.000000,0.000000,0.000000,0.000000,0.000000,0.000000,0.000000,0.000000,0.000000,1647769537.385051,0.000000
68.000000,1413.703133,-9773.456725,12722.478833,-9404.809404,-186505.816758,30051.942772,10351.428133,17021.613362,0.122000,0.960000,0.150000,192.000000,0.000000,0.000000,0.000000,0.000000,0.000000,0.000000,0.000000,0.000000,0.000000,1647769537.392091,0.000000
69.000000,1404.941249,-9782.039795,12716.712083,-9409.637381,-186475.396034,30051.875717,10347.650689,17019.333484,0.122000,0.960000,0.150000,192.000000,0.000000,0.000000,0.000000,0.000000,0.000000,0.000000,0.000000,0.000000,0.000000,1647769537.392099,0.000000
70.000000,1406.930555,-9786.085461,12719.573107,-9402.261305,-186455.748851,30048.947638,10346.108418,17005.855382,0.122000,0.960000,0.150000,192.000000,0.000000,0.000000,0.000000,0.000000,0.000000,0.000000,0.000000,0.000000,0.000000,1647769537.399596,0.000000
71.000000,1407.802273,-9788.633560,12716.086235,-9410.531451,-186437.196903,30044.901972,10349.394125,16987.772821,0.122000,0.960000,0.150000,192.000000,0.000000,0.000000,0.000000,0.000000,0.000000,0.000000,0.000000,0.000000,0.000000,1647769537.399608,0.000000
72.000000,1401.253212,-9791.315769,12714.588668,-9416.834643,-186396.829652,30042.711501,10325.924793,16968.192693,0.122000,0.960000,0.150000,192.000000,0.000000,0.000000,0.000000,0.000000,0.000000,0.000000,0.000000,0.000000,0.000000,1647769537.407609,0.000000
73.000000,1402.773130,-9788.275932,12717.919078,-9414.822986,-186352.774364,30046.690112,10331.602136,16988.532780,0.122000,0.960000,0.150000,192.000000,0.000000,0.000000,0.000000,0.000000,0.000000,0.000000,0.000000,0.000000,0.000000,1647769537.407621,0.000000
74.000000,1400.873232,-9789.594685,12717.337932,-9415.717055,-186313.189425,30051.227516,10343.314450,17021.032217,0.122000,0.960000,0.150000,192.000000,0.000000,0.000000,0.000000,0.000000,0.000000,0.000000,0.000000,0.000000,0.000000,1647769537.414793,0.000000
75.000000,1404.270697,-9785.191391,12720.556583,-9412.453701,-186292.581116,30056.144900,10359.966500,17028.475348,0.124000,0.960000,0.150000,192.000000,3.000000,224.000000,30.000000,0.000000,4.000000,176.000000,0.000000,0.000000,0.000000,1647769537.414805,0.000000
76.000000,1406.707037,-9784.610246,12717.270877,-9417.460491,-186267.971846,30048.008865,10360.100610,17013.812603,0.124000,0.960000,0.150000,192.000000,0.000000,0.000000,0.000000,0.000000,0.000000,0.000000,0.000000,0.000000,0.000000,1647769537.421176,0.000000
77.000000,1409.098674,-9783.537362,12718.589630,-9415.851166,-186238.512246,30036.408310,10340.744000,16982.833085,0.124000,0.960000,0.150000,192.000000,0.000000,0.000000,0.000000,0.000000,0.000000,0.000000,0.000000,0.000000,0.000000,1647769537.429200,0.000000
78.000000,1409.523357,-9784.185563,12721.405950,-9409.749140,-186193.361723,30034.955446,10319.979229,16977.021632,0.124000,0.960000,0.150000,192.000000,0.000000,0.000000,0.000000,0.000000,0.000000,0.000000,0.000000,0.000000,0.000000,1647769537.429212,0.000000
79.000000,1405.030656,-9786.063109,12719.193127,-9414.532413,-186146.490115,30035.357778,10329.188148,16995.730042,0.124000,0.960000,0.150000,192.000000,0.000000,0.000000,0.000000,0.000000,0.000000,0.000000,0.000000,0.000000,0.000000,1647769537.438696,0.000000
80.000000,1403.533090,-9786.577199,12715.415682,-9423.696628,-186114.549472,30036.765937,10351.450485,17004.313112,0.124000,0.960000,0.150000,192.000000,0.000000,0.000000,0.000000,0.000000,0.000000,0.000000,0.000000,0.000000,0.000000,1647769537.438708,0.000000
81.000000,1405.678857,-9782.419775,12714.074578,-9409.570326,-186089.180242,30037.615304,10347.583633,17005.631865,0.124000,0.960000,0.150000,192.000000,0.000000,0.000000,0.000000,0.000000,0.000000,0.000000,0.000000,0.000000,0.000000,1647769537.446045,0.000000
82.000000,1402.326095,-9783.716176,12709.514822,-9409.279753,-186036.385421,30031.356815,10333.300869,16992.489039,0.124000,0.960000,0.150000,192.000000,0.000000,0.000000,0.000000,0.000000,0.000000,0.000000,0.000000,0.000000,0.000000,1647769537.446061,0.000000
83.000000,1399.800348,-9783.403252,12707.056130,-9414.308895,-185998.722732,30025.992397,10322.415569,16988.555132,0.124000,0.960000,0.150000,192.000000,0.000000,0.000000,0.000000,0.000000,0.000000,0.000000,0.000000,0.000000,0.000000,1647769537.452343,0.000000
84.000000,1402.035523,-9781.212781,12706.810261,-9414.912392,-185970.559534,30032.653216,10350.221139,17003.106118,0.124000,0.960000,0.150000,192.000000,0.000000,0.000000,0.000000,0.000000,0.000000,0.000000,0.000000,0.000000,0.000000,1647769537.452360,0.000000
85.000000,1397.878098,-9786.845420,12699.881220,-9426.647058,-185937.478952,30031.647388,10357.150180,17001.943827,0.128000,0.960000,0.144000,192.000000,4.000000,0.000000,30.000000,0.000000,4.000000,128.000000,0.000000,0.000000,0.000000,1647769537.460129,0.000000
86.000000,1400.850880,-9782.710347,12698.853040,-9423.987201,-185904.621888,30036.564772,10347.717744,17003.262580,0.128000,0.960000,0.144000,192.000000,0.000000,0.000000,0.000000,0.000000,0.000000,0.000000,0.000000,0.000000,0.000000,1647769537.460146,0.000000
87.000000,1405.388284,-9778.798792,12703.971589,-9407.469262,-185855.872733,30042.108004,10353.082163,17005.006016,0.128000,0.960000,0.144000,192.000000,0.000000,0.000000,0.000000,0.000000,0.000000,0.000000,0.000000,0.000000,0.000000,1647769537.468138,0.000000
88.000000,1405.053008,-9783.000920,12703.345740,-9413.079549,-185806.721247,30039.157574,10356.099648,17001.094461,0.128000,0.960000,0.144000,192.000000,0.000000,0.000000,0.000000,0.000000,0.000000,0.000000,0.000000,0.000000,0.000000,1647769537.468154,0.000000
89.000000,1404.896546,-9783.000920,12703.859830,-9414.308895,-185781.933162,30042.398577,10363.475724,17008.202315,0.128000,0.960000,0.144000,192.000000,0.000000,0.000000,0.000000,0.000000,0.000000,0.000000,0.000000,0.000000,0.000000,1647769537.474590,0.000000
90.000000,1408.472825,-9777.033004,12708.888973,-9408.653904,-185756.429822,30041.884487,10356.770200,17011.331560,0.128000,0.960000,0.144000,192.000000,0.000000,0.000000,0.000000,0.000000,0.000000,0.000000,0.000000,0.000000,0.000000,1647769537.474607,0.000000
91.000000,1414.105465,-9773.233208,12714.812185,-9406.083453,-185718.677726,30041.213935,10354.535026,17015.488984,0.128000,0.960000,0.144000,192.000000,0.000000,0.000000,0.000000,0.000000,0.000000,0.000000,0.000000,0.000000,0.000000,1647769537.481740,0.000000
92.000000,1410.126854,-9778.798792,12712.822880,-9412.766625,-185666.665216,30035.603647,10348.254186,17004.715443,0.128000,0.960000,0.144000,192.000000,0.000000,0.000000,0.000000,0.000000,0.000000,0.000000,0.000000,0.000000,0.000000,1647769537.481756,0.000000
93.000000,1405.187119,-9785.392557,12709.000732,-9426.892928,-185621.559396,30029.702786,10335.916023,16995.685338,0.128000,0.960000,0.144000,192.000000,0.000000,0.000000,0.000000,0.000000,0.000000,0.000000,0.000000,0.000000,0.000000,1647769537.489541,0.000000
94.000000,1406.349409,-9784.610246,12712.129976,-9409.771491,-185581.639180,30033.323769,10327.623526,16985.850571,0.128000,0.960000,0.144000,192.000000,0.000000,0.000000,0.000000,0.000000,0.000000,0.000000,0.000000,0.000000,0.000000,1647769537.497817,0.000000
95.000000,1402.974296,-9785.459612,12709.179546,-9413.303067,-185545.384651,30035.469536,10321.342685,16993.606626,0.126000,0.956000,0.140000,192.000000,3.000000,240.000000,29.000000,224.000000,4.000000,96.000000,0.000000,0.000000,0.000000,1647769537.497833,0.000000
96.000000,1403.823662,-9784.386728,12707.257296,-9416.633477,-185507.811368,30033.189658,10312.647857,17003.039062,0.126000,0.956000,0.140000,192.000000,0.000000,0.000000,0.000000,0.000000,0.000000,0.000000,0.000000,0.000000,0.000000,1647769537.504361,0.000000
97.000000,1404.024828,-9785.191391,12705.424452,-9420.120349,-185455.463583,30030.887429,10330.953935,16997.585237,0.126000,0.956000,0.140000,192.000000,0.000000,0.000000,0.000000,0.000000,0.000000,0.000000,0.000000,0.000000,0.000000,1647769537.504378,0.000000
98.000000,1407.444645,-9784.029100,12705.715025,-9419.405093,-185409.553100,30030.350987,10354.110343,16985.716460,0.126000,0.956000,0.140000,192.000000,0.000000,0.000000,0.000000,0.000000,0.000000,0.000000,0.000000,0.000000,0.000000,1647769537.512351,0.000000
99.000000,1412.876119,-9780.408118,12707.994903,-9414.308895,-185400.701809,30030.820373,10356.189055,16989.896237,0.126000,0.956000,0.140000,192.000000,0.000000,0.000000,0.000000,0.000000,0.000000,0.000000,0.000000,0.000000,0.000000,1647769537.512367,0.000000
100.000000,1404.315401,-9788.298284,12705.044473,-9423.629573,-185368.202373,30027.624074,10322.661438,16995.998263,0.126000,0.956000,0.140000,192.000000,0.000000,0.000000,0.000000,0.000000,0.000000,0.000000,0.000000,0.000000,0.000000,1647769537.520348,0.000000
101.000000,1403.488386,-9790.645217,12705.424452,-9431.139759,-185315.005221,30031.334464,10329.411665,17013.052644,0.126000,0.956000,0.140000,192.000000,0.000000,0.000000,0.000000,0.000000,0.000000,0.000000,0.000000,0.000000,0.000000,1647769537.520364,0.000000
102.000000,1405.008305,-9788.767670,12706.497336,-9418.376913,-185254.588456,30038.598780,10363.341613,17019.713464,0.126000,0.956000,0.140000,192.000000,0.000000,0.000000,0.000000,0.000000,0.000000,0.000000,0.000000,0.000000,0.000000,1647769537.526916,0.000000
103.000000,1408.070494,-9789.438223,12711.168851,-9421.394398,-185212.187196,30037.637655,10356.814904,17011.420967,0.126000,0.956000,0.140000,192.000000,0.000000,0.000000,0.000000,0.000000,0.000000,0.000000,0.000000,0.000000,0.000000,1647769537.526933,0.000000
104.000000,1410.439779,-9786.621903,12715.438034,-9420.679143,-185183.107577,30034.106080,10336.608927,16991.706728,0.126000,0.956000,0.140000,192.000000,0.000000,0.000000,0.000000,0.000000,0.000000,0.000000,0.000000,0.000000,0.000000,1647769537.535050,0.000000
105.000000,1410.439779,-9788.097118,12714.767482,-9418.958058,-185166.790803,30034.798984,10330.551604,16974.451181,0.126000,0.972000,0.146000,192.000000,3.000000,240.000000,30.000000,96.000000,4.000000,144.000000,0.000000,0.000000,0.000000,1647769537.535066,0.000000
106.000000,1400.560308,-9797.574258,12709.000732,-9430.133930,-185087.218593,30027.892295,10324.471930,16985.001205,0.126000,0.972000,0.146000,192.000000,0.000000,0.000000,0.000000,0.000000,0.000000,0.000000,0.000000,0.000000,0.000000,1647769537.543037,0.000000
107.000000,1399.062741,-9795.093214,12707.212592,-9434.693686,-185028.008822,30025.746527,10333.412627,16994.903027,0.126000,0.972000,0.146000,192.000000,0.000000,0.000000,0.000000,0.000000,0.000000,0.000000,0.000000,0.000000,0.000000,1647769537.543054,0.000000
108.000000,1401.096749,-9792.366301,12709.224249,-9430.916242,-184976.353941,30025.344196,10358.088953,16996.154725,0.126000,0.972000,0.146000,192.000000,0.000000,0.000000,0.000000,0.000000,0.000000,0.000000,0.000000,0.000000,0.000000,1647769537.550089,0.000000
109.000000,1398.191023,-9792.053377,12711.146499,-9420.053294,-184935.629062,30027.936998,10359.586520,17004.670740,0.126000,0.972000,0.146000,192.000000,0.000000,0.000000,0.000000,0.000000,0.000000,0.000000,0.000000,0.000000,0.000000,1647769537.556641,0.000000
110.000000,1399.755645,-9790.555810,12711.392368,-9419.941535,-184905.789483,30027.892295,10345.124941,17005.006016,0.126000,0.972000,0.146000,192.000000,0.000000,0.000000,0.000000,0.000000,0.000000,0.000000,0.000000,0.000000,0.000000,1647769537.556658,0.000000
111.000000,1404.829491,-9784.789060,12716.287400,-9410.777320,-184882.789538,30026.640597,10353.417439,16990.946769,0.126000,0.972000,0.146000,192.000000,0.000000,0.000000,0.000000,0.000000,0.000000,0.000000,0.000000,0.000000,0.000000,1647769537.564662,0.000000
112.000000,1412.876119,-9776.474211,12723.954049,-9404.407073,-184862.896486,30027.691129,10357.016070,16980.642614,0.126000,0.972000,0.146000,192.000000,0.000000,0.000000,0.000000,0.000000,0.000000,0.000000,0.000000,0.000000,0.000000,1647769537.564678,0.000000
113.000000,1408.651639,-9778.083536,12720.266011,-9405.032921,-184825.323203,30027.646426,10351.606947,16998.971045,0.126000,0.972000,0.146000,192.000000,0.000000,0.000000,0.000000,0.000000,0.000000,0.000000,0.000000,0.000000,0.000000,1647769537.572617,0.000000
114.000000,1410.171558,-9778.128240,12722.031799,-9409.793843,-184812.090971,30031.870905,10345.661383,17015.466632,0.126000,0.972000,0.146000,192.000000,0.000000,0.000000,0.000000,0.000000,0.000000,0.000000,0.000000,0.000000,0.000000,1647769537.572633,0.000000
115.000000,1413.770189,-9773.657891,12725.652781,-9404.272962,-184816.449561,30034.843687,10334.440808,17022.373321,0.128000,0.970000,0.148000,192.000000,4.000000,0.000000,30.000000,80.000000,4.000000,160.000000,0.000000,0.000000,0.000000,1647769537.579850,0.000000
116.000000,1418.844035,-9766.326519,12731.508938,-9389.878439,-184801.473892,30043.672626,10336.139540,17024.317923,0.128000,0.970000,0.148000,192.000000,0.000000,0.000000,0.000000,0.000000,0.000000,0.000000,0.000000,0.000000,0.000000,1647769537.579866,0.000000
117.000000,1412.764360,-9773.434374,12723.708179,-9399.065006,-184766.471060,30035.558943,10336.318354,17013.276161,0.128000,0.970000,0.148000,192.000000,0.000000,0.000000,0.000000,0.000000,0.000000,0.000000,0.000000,0.000000,0.000000,1647769537.587296,0.000000
118.000000,1410.685648,-9774.462554,12720.601287,-9397.746253,-184766.985150,30035.178964,10351.495189,17017.075958,0.128000,0.970000,0.148000,192.000000,0.000000,0.000000,0.000000,0.000000,0.000000,0.000000,0.000000,0.000000,0.000000,1647769537.587312,0.000000
119.000000,1415.133645,-9769.075783,12724.132863,-9393.879401,-184802.770293,30034.843687,10335.468988,17004.558981,0.128000,0.970000,0.148000,192.000000,0.000000,0.000000,0.000000,0.000000,0.000000,0.000000,0.000000,0.000000,0.000000,1647769537.595232,0.000000
120.000000,1410.082151,-9771.646234,12727.060941,-9397.835660,-184826.396087,30033.614341,10325.589517,16988.599835,0.128000,0.970000,0.148000,192.000000,0.000000,0.000000,0.000000,0.000000,0.000000,0.000000,0.000000,0.000000,0.000000,1647769537.595248,0.000000
121.000000,1407.846976,-9774.194333,12726.122168,-9401.277828,-184839.382451,30041.102176,10343.135636,17003.039062,0.128000,0.970000,0.148000,192.000000,0.000000,0.000000,0.000000,0.000000,0.000000,0.000000,0.000000,0.000000,0.000000,1647769537.603097,0.000000
122.000000,1409.098674,-9776.228342,12728.446749,-9400.540221,-184848.300797,30046.064263,10358.692450,17017.277124,0.128000,0.970000,0.148000,192.000000,0.000000,0.000000,0.000000,0.000000,0.000000,0.000000,0.000000,0.000000,0.000000,1647769537.603113,0.000000
123.000000,1410.350372,-9776.027176,12730.748979,-9400.227296,-184878.632114,30046.287781,10347.494226,17004.380167,0.128000,0.970000,0.148000,192.000000,0.000000,0.000000,0.000000,0.000000,0.000000,0.000000,0.000000,0.000000,0.000000,1647769537.609451,0.000000
124.000000,1408.785750,-9778.642330,12728.089121,-9408.229221,-184914.774885,30041.839783,10329.478720,16998.032272,0.128000,0.970000,0.148000,192.000000,0.000000,0.000000,0.000000,0.000000,0.000000,0.000000,0.000000,0.000000,0.000000,1647769537.616931,0.000000
125.000000,1410.953869,-9776.138935,12728.759674,-9400.204945,-184953.085775,30046.958333,10334.172587,17006.749452,0.122000,0.964000,0.148000,192.000000,3.000000,208.000000,30.000000,32.000000,4.000000,160.000000,0.000000,0.000000,0.000000,1647769537.616947,0.000000
126.000000,1416.698267,-9771.221551,12734.168796,-9392.292427,-184982.277153,30047.137147,10352.232796,17007.688225,0.122000,0.964000,0.148000,192.000000,0.000000,0.000000,0.000000,0.000000,0.000000,0.000000,0.000000,0.000000,0.000000,1647769537.624767,0.000000
127.000000,1422.308555,-9768.964025,12738.281517,-9385.206924,-185025.103095,30049.752301,10352.769238,17006.972969,0.122000,0.964000,0.148000,192.000000,0.000000,0.000000,0.000000,0.000000,0.000000,0.000000,0.000000,0.000000,0.000000,1647769537.624782,0.000000
128.000000,1416.810026,-9770.171019,12733.408837,-9386.570381,-185062.832840,30049.126452,10337.279479,17011.912705,0.122000,0.964000,0.148000,192.000000,0.000000,0.000000,0.000000,0.000000,0.000000,0.000000,0.000000,0.000000,0.000000,1647769537.632975,0.000000
129.000000,1415.781846,-9770.752164,12733.587650,-9391.800689,-185090.906631,30050.646371,10333.502034,17017.210068,0.122000,0.964000,0.148000,192.000000,0.000000,0.000000,0.000000,0.000000,0.000000,0.000000,0.000000,0.000000,0.000000,1647769537.632991,0.000000
130.000000,1413.993706,-9776.854190,12733.185319,-9394.438195,-185117.661669,30044.633751,10326.036552,16991.930245,0.122000,0.964000,0.148000,192.000000,0.000000,0.000000,0.000000,0.000000,0.000000,0.000000,0.000000,0.000000,0.000000,1647769537.639441,0.000000
131.000000,1412.496139,-9779.379938,12734.772293,-9400.830793,-185132.279710,30047.427720,10334.887843,17019.624057,0.122000,0.964000,0.148000,192.000000,0.000000,0.000000,0.000000,0.000000,0.000000,0.000000,0.000000,0.000000,0.000000,1647769537.639457,0.000000
132.000000,1412.920822,-9778.396461,12735.979287,-9406.441081,-185141.645091,30050.400502,10350.042325,17032.521013,0.122000,0.964000,0.148000,192.000000,0.000000,0.000000,0.000000,0.000000,0.000000,0.000000,0.000000,0.000000,0.000000,1647769537.647544,0.000000
133.000000,1413.233747,-9778.351757,12737.208633,-9389.163183,-185157.179553,30058.737702,10369.957730,17042.244022,0.122000,0.964000,0.148000,192.000000,0.000000,0.000000,0.000000,0.000000,0.000000,0.000000,0.000000,0.000000,0.000000,1647769537.647561,0.000000
134.000000,1413.479616,-9780.542228,12733.073560,-9393.320607,-185188.382588,30060.056455,10378.741965,17045.417970,0.122000,0.964000,0.148000,192.000000,0.000000,0.000000,0.000000,0.000000,0.000000,0.000000,0.000000,0.000000,0.000000,1647769537.655325,0.000000
135.000000,1416.787674,-9774.216685,12732.939450,-9389.766680,-185242.227941,30056.971914,10362.402840,17033.728008,0.126000,0.958000,0.152000,192.000000,3.000000,240.000000,29.000000,240.000000,4.000000,192.000000,0.000000,0.000000,0.000000,1647769537.655342,0.000000
136.000000,1414.194872,-9775.557789,12729.273764,-9392.270075,-185261.785717,30052.210993,10350.690526,17023.088577,0.126000,0.958000,0.152000,192.000000,0.000000,0.000000,0.000000,0.000000,0.000000,0.000000,0.000000,0.000000,0.000000,1647769537.662024,0.000000
137.000000,1419.067552,-9771.132144,12729.452578,-9390.750157,-185284.629200,30049.484080,10354.691488,17020.540478,0.126000,0.958000,0.152000,192.000000,0.000000,0.000000,0.000000,0.000000,0.000000,0.000000,0.000000,0.000000,0.000000,1647769537.662041,0.000000
138.000000,1419.916918,-9771.042737,12723.708179,-9394.237029,-185302.600003,30044.365531,10357.753677,17006.861211,0.126000,0.958000,0.152000,192.000000,0.000000,0.000000,0.000000,0.000000,0.000000,0.000000,0.000000,0.000000,0.000000,1647769537.669191,0.000000
139.000000,1420.207491,-9771.020385,12721.361246,-9401.926029,-185344.487172,30041.549211,10350.601119,17007.062376,0.126000,0.958000,0.152000,192.000000,0.000000,0.000000,0.000000,0.000000,0.000000,0.000000,0.000000,0.000000,0.000000,1647769537.677139,0.000000
140.000000,1421.280375,-9769.388708,12725.205746,-9404.742349,-185380.898163,30046.511298,10352.635128,17023.245039,0.126000,0.958000,0.152000,192.000000,0.000000,0.000000,0.000000,0.000000,0.000000,0.000000,0.000000,0.000000,0.000000,1647769537.677155,0.000000
141.000000,1426.175407,-9762.638481,12738.035648,-9384.469317,-185406.021524,30055.161423,10359.407706,17031.671647,0.126000,0.958000,0.152000,192.000000,0.000000,0.000000,0.000000,0.000000,0.000000,0.000000,0.000000,0.000000,0.000000,1647769537.686651,0.000000
142.000000,1422.867349,-9766.952368,12735.822825,-9393.320607,-185413.107027,30048.299438,10345.080238,17010.526897,0.126000,0.958000,0.152000,192.000000,0.000000,0.000000,0.000000,0.000000,0.000000,0.000000,0.000000,0.000000,0.000000,1647769537.686668,0.000000
143.000000,1416.474750,-9769.522818,12728.111473,-9400.204945,-185426.696888,30039.381092,10333.524386,17006.414176,0.126000,0.958000,0.152000,192.000000,0.000000,0.000000,0.000000,0.000000,0.000000,0.000000,0.000000,0.000000,0.000000,1647769537.692873,0.000000
144.000000,1418.106427,-9766.840609,12728.223232,-9398.170936,-185474.551973,30039.649312,10331.937412,17004.380167,0.126000,0.958000,0.152000,192.000000,0.000000,0.000000,0.000000,0.000000,0.000000,0.000000,0.000000,0.000000,0.000000,1647769537.692889,0.000000
145.000000,1415.513625,-9768.986376,12725.563374,-9402.171898,-185502.111674,30037.145917,10315.955915,16990.812658,0.126000,0.970000,0.154000,192.000000,3.000000,240.000000,30.000000,80.000000,4.000000,208.000000,0.000000,0.000000,0.000000,1647769537.699757,0.000000
146.000000,1416.742971,-9768.785211,12728.446749,-9400.651980,-185512.639345,30035.357778,10315.799453,16977.513370,0.126000,0.970000,0.154000,192.000000,0.000000,0.000000,0.000000,0.000000,0.000000,0.000000,0.000000,0.000000,0.000000,1647769537.699768,0.000000
147.000000,1412.831415,-9775.356624,12729.497281,-9407.715131,-185515.947403,30038.799946,10344.230872,16979.703841,0.126000,0.970000,0.154000,192.000000,0.000000,0.000000,0.000000,0.000000,0.000000,0.000000,0.000000,0.000000,0.000000,1647769537.707640,0.000000
148.000000,1405.008305,-9786.264275,12724.043456,-9413.459529,-185527.167979,30045.773690,10361.888750,17015.399577,0.126000,0.970000,0.154000,192.000000,0.000000,0.000000,0.000000,0.000000,0.000000,0.000000,0.000000,0.000000,0.000000,1647769537.707656,0.000000
149.000000,1406.796444,-9788.767670,12720.735397,-9423.428407,-185566.238828,30048.254734,10356.859607,17029.145900,0.126000,0.970000,0.154000,192.000000,0.000000,0.000000,0.000000,0.000000,0.000000,0.000000,0.000000,0.000000,0.000000,1647769537.714947,0.000000
150.000000,1407.154072,-9789.818202,12717.293229,-9425.104788,-185604.214442,30041.415100,10336.228947,16999.596894,0.126000,0.970000,0.154000,192.000000,0.000000,0.000000,0.000000,0.000000,0.000000,0.000000,0.000000,0.000000,0.000000,1647769537.714964,0.000000
151.000000,1404.091883,-9791.896914,12716.555621,-9415.314724,-185603.096855,30043.471461,10336.407761,16995.059490,0.126000,0.970000,0.154000,192.000000,0.000000,0.000000,0.000000,0.000000,0.000000,0.000000,0.000000,0.000000,0.000000,1647769537.722478,0.000000
152.000000,1402.259040,-9797.529554,12716.667380,-9421.081474,-185607.298983,30042.085653,10334.507863,16987.571655,0.126000,0.970000,0.154000,192.000000,0.000000,0.000000,0.000000,0.000000,0.000000,0.000000,0.000000,0.000000,0.000000,1647769537.722494,0.000000
153.000000,1404.002476,-9796.568429,12718.164947,-9419.650962,-185622.073486,30043.940847,10339.939337,16999.373376,0.126000,0.970000,0.154000,192.000000,0.000000,0.000000,0.000000,0.000000,0.000000,0.000000,0.000000,0.000000,0.000000,1647769537.729546,0.000000
154.000000,1403.667200,-9796.456670,12719.595458,-9418.153395,-185635.015146,30049.774653,10334.574918,17022.842708,0.126000,0.970000,0.154000,192.000000,0.000000,0.000000,0.000000,0.000000,0.000000,0.000000,0.000000,0.000000,0.000000,1647769537.729562,0.000000
155.000000,1401.543784,-9798.311865,12721.048322,-9419.650962,-185656.629283,30045.125490,10308.266915,17025.681380,0.126000,0.970000,0.154000,192.000000,0.000000,0.000000,0.000000,0.000000,0.000000,0.000000,0.000000,0.000000,0.000000,1647769537.737533,0.000000
156.000000,1409.299840,-9792.656874,12728.111473,-9414.487709,-185681.618533,30050.780481,10335.468988,17034.979705,0.128000,0.960000,0.160000,192.000000,4.000000,0.000000,30.000000,0.000000,5.000000,0.000000,0.000000,0.000000,0.000000,1647769537.744620,0.000000
157.000000,1417.033543,-9787.761842,12735.889880,-9410.822023,-185689.866327,30059.005923,10390.208410,17040.478234,0.128000,0.960000,0.160000,192.000000,0.000000,0.000000,0.000000,0.000000,0.000000,0.000000,0.000000,0.000000,0.000000,1647769537.744636,0.000000
158.000000,1420.431008,-9783.626769,12740.762560,-9404.585887,-185718.208339,30061.263449,10373.534009,17035.717313,0.128000,0.960000,0.160000,192.000000,0.000000,0.000000,0.000000,0.000000,0.000000,0.000000,0.000000,0.000000,0.000000,1647769537.753501,0.000000
159.000000,1416.273584,-9786.353682,12737.454502,-9409.212698,-185724.198607,30055.004961,10367.141410,17021.389845,0.128000,0.960000,0.160000,192.000000,0.000000,0.000000,0.000000,0.000000,0.000000,0.000000,0.000000,0.000000,0.000000,1647769537.753517,0.000000
160.000000,1421.593299,-9782.665644,12738.549738,-9412.073721,-185760.251970,30049.998170,10355.853779,17010.839821,0.128000,0.960000,0.160000,192.000000,0.000000,0.000000,0.000000,0.000000,0.000000,0.000000,0.000000,0.000000,0.000000,1647769537.760107,0.000000
