%OpenBCI Raw EEG Data
%Number of channels = 8
%Sample Rate = 256 Hz
%Board = OpenBCI_GUI$BoardCytonSerial
%Channels = Fp1, Fp2, F3, F4, Fz, Pz, O1, O2
%Data recorded at AIMS Lab (http://aimsl.uiu.ac.bd) by Rana Depto (mail@ranadepto.com)
%Brainwaves were obtained via the Ultracortex Mark IV Headset using the OpenBCI Cyton Board
%Recording Application = ConcentrateToday (https://concentrate.today)
%Data type = RAW data with noise
%Day No = 5
%Subject ID = 1
%Session ID = 7
%Record starting timestamp (UTC+6) = 2022-03-12T15:11:55.791704
%Record ending timestamp (UTC+6)   = 2022-03-12T15:12:26.644509
%Recorded durations = ~30 seconds
Sample Index, EXG Channel 0, EXG Channel 1, EXG Channel 2, EXG Channel 3, EXG Channel 4, EXG Channel 5, EXG Channel 6, EXG Channel 7, Accel Channel 0, Accel Channel 1, Accel Channel 2, Other, Other, Other, Other, Other, Other, Other, Analog Channel 0, Analog Channel 1, Analog Channel 2, Timestamp, Timestamp (Formatted)
219.000000,37260.559173,36540.698891,18830.718855,20955.229813,11708.246077,27598.235321,42562.460013,28466.198262,-0.096000,0.980000,0.054000,192.000000,0.000000,0.000000,0.000000,0.000000,0.000000,0.000000,0.000000,0.000000,0.000000,1647076315.794123,0.000000
220.000000,37245.382338,36514.882626,18813.664474,20933.570973,11691.035234,27583.416114,42548.534876,28447.042817,-0.096000,0.980000,0.054000,192.000000,0.000000,0.000000,0.000000,0.000000,0.000000,0.000000,0.000000,0.000000,0.000000,1647076315.794132,0.000000
221.000000,37245.672911,36510.188760,18810.088195,20928.564182,11686.140202,27580.420981,42554.167516,28449.590915,-0.096000,0.980000,0.054000,192.000000,0.000000,0.000000,0.000000,0.000000,0.000000,0.000000,0.000000,0.000000,0.000000,1647076315.800974,0.000000
222.000000,37248.489231,36517.967167,18808.836497,20935.672037,11690.610551,27585.450123,42569.053777,28455.692942,-0.096000,0.980000,0.054000,192.000000,0.000000,0.000000,0.000000,0.000000,0.000000,0.000000,0.000000,0.000000,0.000000,1647076315.800979,0.000000
223.000000,37236.955731,36515.620233,18802.019215,20931.156985,11686.564885,27579.079876,42556.916780,28440.784328,-0.112000,0.982000,0.054000,192.000000,252.000000,128.000000,30.000000,176.000000,1.000000,176.000000,0.000000,0.000000,0.000000,1647076315.808701,0.000000
224.000000,37240.599065,36514.770867,18807.361282,20939.807110,11691.392862,27585.316013,42560.828335,28451.937849,-0.112000,0.982000,0.054000,192.000000,0.000000,0.000000,0.000000,0.000000,0.000000,0.000000,0.000000,0.000000,0.000000,1647076315.808706,0.000000
225.000000,37248.019844,36515.217902,18817.419567,20941.885822,11701.272333,27599.621129,42566.259809,28482.492683,-0.112000,0.982000,0.054000,192.000000,0.000000,0.000000,0.000000,0.000000,0.000000,0.000000,0.000000,0.000000,0.000000,1647076315.816670,0.000000
226.000000,37244.711786,36518.034222,18816.525497,20938.890688,11700.534725,27594.435524,42562.504716,28463.337238,-0.112000,0.982000,0.054000,192.000000,0.000000,0.000000,0.000000,0.000000,0.000000,0.000000,0.000000,0.000000,0.000000,1647076315.816674,0.000000
227.000000,37246.924609,36515.061440,18814.424433,20934.174470,11695.751452,27588.534664,42552.155859,28447.646314,-0.112000,0.982000,0.054000,192.000000,0.000000,0.000000,0.000000,0.000000,0.000000,0.000000,0.000000,0.000000,0.000000,1647076315.824559,0.000000
228.000000,37247.751623,36517.296614,18817.240753,20935.381464,11698.791289,27599.330556,42570.104309,28468.701657,-0.112000,0.982000,0.054000,192.000000,0.000000,0.000000,0.000000,0.000000,0.000000,0.000000,0.000000,0.000000,0.000000,1647076315.824563,0.000000
229.000000,37232.038347,36505.606652,18805.483735,20922.573915,11688.330673,27591.574501,42573.837051,28481.844483,-0.112000,0.982000,0.054000,192.000000,0.000000,0.000000,0.000000,0.000000,0.000000,0.000000,0.000000,0.000000,0.000000,1647076315.831152,0.000000
230.000000,37240.755527,36509.898187,18811.362244,20926.887802,11693.918609,27592.736792,42571.154841,28481.844483,-0.112000,0.982000,0.054000,192.000000,0.000000,0.000000,0.000000,0.000000,0.000000,0.000000,0.000000,0.000000,0.000000,1647076315.831156,0.000000
231.000000,37245.918780,36521.655204,18820.146480,20932.900421,11704.558039,27602.683318,42567.958542,28483.140884,-0.112000,0.982000,0.054000,192.000000,0.000000,0.000000,0.000000,0.000000,0.000000,0.000000,0.000000,0.000000,0.000000,1647076315.838375,0.000000
232.000000,37235.569922,36506.567777,18807.785965,20922.238639,11693.404519,27590.836893,42551.552361,28462.174948,-0.112000,0.982000,0.054000,192.000000,0.000000,0.000000,0.000000,0.000000,0.000000,0.000000,0.000000,0.000000,0.000000,1647076315.838380,0.000000
233.000000,37239.012091,36501.695097,18811.094023,20933.727435,11698.679530,27601.230455,42573.546478,28478.268204,-0.122000,0.978000,0.052000,192.000000,252.000000,48.000000,30.000000,144.000000,1.000000,160.000000,0.000000,0.000000,0.000000,1647076315.846239,0.000000
234.000000,37230.093745,36487.188815,18804.366148,20930.486432,11692.063414,27593.049716,42562.616475,28460.006828,-0.122000,0.978000,0.052000,192.000000,0.000000,0.000000,0.000000,0.000000,0.000000,0.000000,0.000000,0.000000,0.000000,1647076315.854184,0.000000
235.000000,37226.718632,36486.160634,18800.923979,20925.256124,11689.269446,27585.383068,42545.293873,28444.360607,-0.122000,0.978000,0.052000,192.000000,0.000000,0.000000,0.000000,0.000000,0.000000,0.000000,0.000000,0.000000,0.000000,1647076315.854196,0.000000
236.000000,37229.177323,36483.880756,18794.933712,20917.276551,11681.826315,27580.108056,42543.595140,28444.092386,-0.122000,0.978000,0.052000,192.000000,0.000000,0.000000,0.000000,0.000000,0.000000,0.000000,0.000000,0.000000,0.000000,1647076315.860865,0.000000
237.000000,37235.256998,36502.320946,18800.365186,20929.279438,11690.297626,27588.646422,42549.853629,28448.294514,-0.122000,0.978000,0.052000,192.000000,0.000000,0.000000,0.000000,0.000000,0.000000,0.000000,0.000000,0.000000,0.000000,1647076315.860870,0.000000
238.000000,37240.777879,36520.470562,18813.418605,20946.736151,11706.659103,27601.453972,42564.739891,28466.064151,-0.122000,0.978000,0.052000,192.000000,0.000000,0.000000,0.000000,0.000000,0.000000,0.000000,0.000000,0.000000,0.000000,1647076315.869006,0.000000
239.000000,37215.878036,36490.496873,18790.038680,20917.857697,11683.279179,27575.302431,42532.888655,28440.046721,-0.122000,0.978000,0.052000,192.000000,0.000000,0.000000,0.000000,0.000000,0.000000,0.000000,0.000000,0.000000,0.000000,1647076315.869011,0.000000
240.000000,37233.178286,36502.365649,18805.237866,20930.687598,11699.819469,27594.010841,42543.393975,28459.671552,-0.122000,0.978000,0.052000,192.000000,0.000000,0.000000,0.000000,0.000000,0.000000,0.000000,0.000000,0.000000,0.000000,1647076315.876793,0.000000
241.000000,37245.404690,36517.609539,18812.301017,20942.779892,11709.386016,27601.856303,42578.933248,28440.963142,-0.122000,0.978000,0.052000,192.000000,0.000000,0.000000,0.000000,0.000000,0.000000,0.000000,0.000000,0.000000,0.000000,1647076315.876797,0.000000
242.000000,37240.397899,36517.609539,18809.194125,20943.182223,11707.374359,27609.657062,42582.621286,28488.147675,-0.122000,0.978000,0.052000,192.000000,0.000000,0.000000,0.000000,0.000000,0.000000,0.000000,0.000000,0.000000,0.000000,1647076315.883914,0.000000
243.000000,37223.120001,36499.146998,18793.033814,20917.924752,11687.637769,27590.903949,42544.220989,28470.735666,-0.114000,0.976000,0.046000,192.000000,252.000000,112.000000,30.000000,128.000000,1.000000,112.000000,0.000000,0.000000,0.000000,1647076315.883918,0.000000
244.000000,37222.069469,36496.509492,18792.318558,20912.917961,11688.017748,27589.965175,42542.991643,28459.313924,-0.114000,0.976000,0.046000,192.000000,0.000000,0.000000,0.000000,0.000000,0.000000,0.000000,0.000000,0.000000,0.000000,1647076315.891583,0.000000
245.000000,37241.314321,36510.479332,18810.736395,20943.048113,11706.256772,27611.176981,42571.534821,28477.798817,-0.114000,0.976000,0.046000,192.000000,0.000000,0.000000,0.000000,0.000000,0.000000,0.000000,0.000000,0.000000,0.000000,1647076315.891587,0.000000
246.000000,37240.062623,36508.646489,18807.271875,20939.203613,11701.629961,27604.694975,42558.928437,28448.763901,-0.114000,0.976000,0.046000,192.000000,0.000000,0.000000,0.000000,0.000000,0.000000,0.000000,0.000000,0.000000,0.000000,1647076315.899543,0.000000
247.000000,37232.731251,36503.215015,18800.968683,20929.637066,11694.611513,27594.524931,42546.031481,28427.328578,-0.114000,0.976000,0.046000,192.000000,0.000000,0.000000,0.000000,0.000000,0.000000,0.000000,0.000000,0.000000,0.000000,1647076315.899547,0.000000
248.000000,37242.677777,36502.656222,18804.008520,20930.799357,11696.466708,27595.039021,42547.864324,28434.391729,-0.114000,0.976000,0.046000,192.000000,0.000000,0.000000,0.000000,0.000000,0.000000,0.000000,0.000000,0.000000,0.000000,1647076315.906417,0.000000
249.000000,37240.867286,36504.623175,18803.762651,20929.301790,11695.863211,27594.435524,42540.376489,28452.518994,-0.114000,0.976000,0.046000,192.000000,0.000000,0.000000,0.000000,0.000000,0.000000,0.000000,0.000000,0.000000,0.000000,1647076315.913120,0.000000
250.000000,37229.132620,36500.689268,18801.639235,20931.581668,11696.667873,27602.795077,42563.063510,28485.309003,-0.114000,0.976000,0.046000,192.000000,0.000000,0.000000,0.000000,0.000000,0.000000,0.000000,0.000000,0.000000,0.000000,1647076315.913124,0.000000
251.000000,37231.144277,36501.270414,18801.415718,20936.722569,11701.138222,27605.097306,42555.307455,28483.297346,-0.114000,0.976000,0.046000,192.000000,0.000000,0.000000,0.000000,0.000000,0.000000,0.000000,0.000000,0.000000,0.000000,1647076315.921286,0.000000
252.000000,37240.308492,36504.779637,18803.740299,20937.661342,11701.384092,27598.369431,42541.158800,28459.828014,-0.114000,0.976000,0.046000,192.000000,0.000000,0.000000,0.000000,0.000000,0.000000,0.000000,0.000000,0.000000,0.000000,1647076315.921291,0.000000
253.000000,37247.751623,36522.839847,18816.413738,20950.513595,11712.559964,27605.991376,42548.780745,28453.256601,-0.122000,0.972000,0.042000,192.000000,252.000000,48.000000,30.000000,96.000000,1.000000,80.000000,0.000000,0.000000,0.000000,1647076315.929151,0.000000
254.000000,37242.566018,36521.386984,18819.073596,20944.702142,11712.559964,27610.864056,42556.872077,28460.990305,-0.122000,0.972000,0.042000,192.000000,0.000000,0.000000,0.000000,0.000000,0.000000,0.000000,0.000000,0.000000,0.000000,1647076315.929154,0.000000
255.000000,37234.608797,36514.413239,18814.737357,20942.042284,11707.486118,27611.087574,42556.425042,28467.896994,-0.122000,0.972000,0.042000,192.000000,0.000000,0.000000,0.000000,0.000000,0.000000,0.000000,0.000000,0.000000,0.000000,1647076315.936235,0.000000
0.000000,37232.150105,36508.758248,18808.523573,20935.672037,11702.076996,27603.756202,42549.473649,28447.623962,-0.122000,0.972000,0.042000,192.000000,0.000000,0.000000,0.000000,0.000000,0.000000,0.000000,0.000000,0.000000,0.000000,1647076315.936239,0.000000
1.000000,37234.273521,36507.864178,18806.489564,20932.609848,11699.260676,27601.319862,42541.225855,28434.414081,-0.122000,0.972000,0.042000,192.000000,0.000000,0.000000,0.000000,0.000000,0.000000,0.000000,0.000000,0.000000,0.000000,1647076315.943888,0.000000
2.000000,37235.726385,36512.334527,18810.378767,20936.968438,11702.680493,27603.689146,42535.950844,28435.241095,-0.122000,0.972000,0.042000,192.000000,0.000000,0.000000,0.000000,0.000000,0.000000,0.000000,0.000000,0.000000,0.000000,1647076315.943893,0.000000
3.000000,37226.897446,36501.359821,18805.953122,20928.206554,11695.684397,27596.983623,42527.837161,28421.494773,-0.122000,0.972000,0.042000,192.000000,0.000000,0.000000,0.000000,0.000000,0.000000,0.000000,0.000000,0.000000,0.000000,1647076315.951743,0.000000
4.000000,37234.631149,36509.518207,18814.290323,20943.428092,11704.356874,27609.880580,42554.100460,28436.470441,-0.122000,0.972000,0.042000,192.000000,0.000000,0.000000,0.000000,0.000000,0.000000,0.000000,0.000000,0.000000,0.000000,1647076315.951747,0.000000
5.000000,37237.872152,36514.055611,18815.676131,20947.205537,11704.580391,27617.793097,42575.848708,28469.103988,-0.122000,0.972000,0.042000,192.000000,0.000000,0.000000,0.000000,0.000000,0.000000,0.000000,0.000000,0.000000,0.000000,1647076315.959720,0.000000
6.000000,37249.271542,36532.786373,18821.733453,20958.023782,11711.017693,27627.806679,42563.868173,28500.687003,-0.122000,0.972000,0.042000,192.000000,0.000000,0.000000,0.000000,0.000000,0.000000,0.000000,0.000000,0.000000,0.000000,1647076315.959724,0.000000
7.000000,37247.595161,36533.009891,18819.967666,20956.123883,11710.525955,27625.906780,42568.293818,28478.379962,-0.122000,0.974000,0.048000,192.000000,252.000000,48.000000,30.000000,112.000000,1.000000,128.000000,0.000000,0.000000,0.000000,1647076315.965971,0.000000
8.000000,37236.642806,36504.176140,18814.335026,20944.053941,11702.904010,27616.742565,42561.610646,28454.217726,-0.122000,0.974000,0.048000,192.000000,0.000000,0.000000,0.000000,0.000000,0.000000,0.000000,0.000000,0.000000,0.000000,1647076315.973480,0.000000
9.000000,37231.501905,36496.174216,18807.338930,20935.716741,11692.175173,27607.757164,42551.194734,28468.433436,-0.122000,0.974000,0.048000,192.000000,0.000000,0.000000,0.000000,0.000000,0.000000,0.000000,0.000000,0.000000,0.000000,1647076315.973484,0.000000
10.000000,37231.658367,36493.648469,18804.969645,20931.067578,11688.285969,27602.124524,42550.904161,28459.515090,-0.122000,0.974000,0.048000,192.000000,0.000000,0.000000,0.000000,0.000000,0.000000,0.000000,0.000000,0.000000,0.000000,1647076315.981441,0.000000
11.000000,37237.022786,36506.970108,18814.335026,20947.473758,11698.634827,27611.691071,42547.529047,28458.665724,-0.122000,0.974000,0.048000,192.000000,0.000000,0.000000,0.000000,0.000000,0.000000,0.000000,0.000000,0.000000,0.000000,1647076315.981444,0.000000
12.000000,37251.439661,36525.969091,18828.014294,20964.394029,11714.526917,27619.491830,42545.919722,28452.966029,-0.122000,0.974000,0.048000,192.000000,0.000000,0.000000,0.000000,0.000000,0.000000,0.000000,0.000000,0.000000,0.000000,1647076315.989449,0.000000
13.000000,37253.920705,36526.371423,18826.427320,20958.671982,11714.392807,27618.016615,42557.117946,28463.180776,-0.122000,0.974000,0.048000,192.000000,0.000000,0.000000,0.000000,0.000000,0.000000,0.000000,0.000000,0.000000,0.000000,1647076315.989487,0.000000
14.000000,37251.506716,36520.157638,18823.141613,20958.403761,11708.693112,27619.223609,42569.478460,28474.468407,-0.122000,0.974000,0.048000,192.000000,0.000000,0.000000,0.000000,0.000000,0.000000,0.000000,0.000000,0.000000,0.000000,1647076315.995970,0.000000
15.000000,37238.766222,36512.669803,18814.558544,20936.476700,11697.472536,27605.566693,42551.530010,28440.538459,-0.122000,0.974000,0.048000,192.000000,0.000000,0.000000,0.000000,0.000000,0.000000,0.000000,0.000000,0.000000,0.000000,1647076315.995974,0.000000
16.000000,37234.631149,36514.279129,18817.061939,20943.025761,11701.495850,27617.994263,42555.463917,28488.035916,-0.122000,0.974000,0.048000,192.000000,0.000000,0.000000,0.000000,0.000000,0.000000,0.000000,0.000000,0.000000,0.000000,1647076316.004014,0.000000
17.000000,37239.190905,36521.319928,18819.744148,20950.155967,11706.703807,27618.933036,42544.668024,28491.858064,-0.116000,0.978000,0.048000,192.000000,252.000000,96.000000,30.000000,144.000000,1.000000,128.000000,0.000000,0.000000,0.000000,1647076316.004019,0.000000
18.000000,37236.508696,36512.133361,18823.275724,20947.920793,11707.642580,27622.822240,42564.248152,28481.173930,-0.116000,0.978000,0.048000,192.000000,0.000000,0.000000,0.000000,0.000000,0.000000,0.000000,0.000000,0.000000,0.000000,1647076316.012054,0.000000
19.000000,37232.261864,36500.957489,18820.392349,20938.175432,11703.865135,27617.167248,42576.809833,28443.824165,-0.116000,0.978000,0.048000,192.000000,0.000000,0.000000,0.000000,0.000000,0.000000,0.000000,0.000000,0.000000,0.000000,1647076316.012058,0.000000
20.000000,37245.359986,36524.225655,18827.634314,20946.870261,11712.962295,27620.855286,42561.945923,28463.694866,-0.116000,0.978000,0.048000,192.000000,0.000000,0.000000,0.000000,0.000000,0.000000,0.000000,0.000000,0.000000,0.000000,1647076316.019122,0.000000
21.000000,37245.427042,36518.213036,18823.275724,20941.863470,11708.715464,27616.742565,42551.641768,28464.343067,-0.116000,0.978000,0.048000,192.000000,0.000000,0.000000,0.000000,0.000000,0.000000,0.000000,0.000000,0.000000,0.000000,1647076316.019125,0.000000
22.000000,37244.465917,36509.942890,18823.275724,20941.662305,11707.284952,27616.317882,42570.283123,28457.458729,-0.116000,0.978000,0.048000,192.000000,0.000000,0.000000,0.000000,0.000000,0.000000,0.000000,0.000000,0.000000,0.000000,1647076316.025671,0.000000
23.000000,37252.736062,36523.331585,18830.383579,20954.223985,11716.426816,27620.676472,42568.539687,28471.182701,-0.116000,0.978000,0.048000,192.000000,0.000000,0.000000,0.000000,0.000000,0.000000,0.000000,0.000000,0.000000,0.000000,1647076316.033764,0.000000
24.000000,37251.327902,36520.716431,18826.561430,20948.859566,11712.716426,27617.569580,42555.754489,28472.300288,-0.116000,0.978000,0.048000,192.000000,0.000000,0.000000,0.000000,0.000000,0.000000,0.000000,0.000000,0.000000,0.000000,1647076316.033768,0.000000
25.000000,37246.298760,36513.496818,18818.581858,20935.537927,11702.971065,27607.064260,42540.577655,28464.678343,-0.116000,0.978000,0.048000,192.000000,0.000000,0.000000,0.000000,0.000000,0.000000,0.000000,0.000000,0.000000,0.000000,1647076316.041778,0.000000
26.000000,37249.942094,36521.029356,18823.611000,20944.992715,11710.883583,27608.092440,42525.870207,28448.473328,-0.116000,0.978000,0.048000,192.000000,0.000000,0.000000,0.000000,0.000000,0.000000,0.000000,0.000000,0.000000,0.000000,1647076316.041782,0.000000
27.000000,37255.060644,36520.045879,18832.216422,20953.151101,11717.745568,27625.258580,42578.530917,28467.986401,-0.122000,0.976000,0.046000,192.000000,252.000000,48.000000,30.000000,128.000000,1.000000,112.000000,0.000000,0.000000,0.000000,1647076316.048244,0.000000
28.000000,37241.649597,36509.875835,18821.308770,20938.980095,11704.356874,27612.987472,42568.852612,28457.011695,-0.122000,0.976000,0.046000,192.000000,0.000000,0.000000,0.000000,0.000000,0.000000,0.000000,0.000000,0.000000,0.000000,1647076316.048280,0.000000
29.000000,37240.688472,36517.766001,18819.587686,20945.059770,11705.072129,27610.640539,42557.341463,28446.305209,-0.122000,0.976000,0.046000,192.000000,0.000000,0.000000,0.000000,0.000000,0.000000,0.000000,0.000000,0.000000,0.000000,1647076316.056297,0.000000
30.000000,37243.549495,36520.358803,18824.125090,20943.741017,11707.508470,27615.490868,42545.830315,28466.242965,-0.122000,0.976000,0.046000,192.000000,0.000000,0.000000,0.000000,0.000000,0.000000,0.000000,0.000000,0.000000,0.000000,1647076316.056301,0.000000
31.000000,37242.007225,36516.402545,18820.638218,20932.743959,11701.652312,27607.220722,42533.939187,28444.673532,-0.122000,0.976000,0.046000,192.000000,0.000000,0.000000,0.000000,0.000000,0.000000,0.000000,0.000000,0.000000,0.000000,1647076316.065780,0.000000
32.000000,37254.032463,36530.864123,18827.991942,20949.619526,11712.828185,27620.363548,42553.496963,28462.934907,-0.122000,0.976000,0.046000,192.000000,0.000000,0.000000,0.000000,0.000000,0.000000,0.000000,0.000000,0.000000,0.000000,1647076316.065784,0.000000
33.000000,37264.180155,36544.699853,18837.759654,20960.348363,11724.764016,27638.557868,42578.732083,28492.774486,-0.122000,0.976000,0.046000,192.000000,0.000000,0.000000,0.000000,0.000000,0.000000,0.000000,0.000000,0.000000,0.000000,1647076316.072703,0.000000
34.000000,37248.511582,36514.502646,18826.002637,20938.287191,11709.520127,27618.754222,42546.433812,28469.774541,-0.122000,0.976000,0.046000,192.000000,0.000000,0.000000,0.000000,0.000000,0.000000,0.000000,0.000000,0.000000,0.000000,1647076316.072706,0.000000
35.000000,37242.118984,36508.311213,18821.152308,20943.003409,11705.183888,27614.216818,42542.343443,28453.725988,-0.122000,0.976000,0.046000,192.000000,0.000000,0.000000,0.000000,0.000000,0.000000,0.000000,0.000000,0.000000,0.000000,1647076316.078951,0.000000
36.000000,37243.862420,36516.581359,18822.783985,20944.769197,11707.754339,27622.062280,42563.957580,28461.280878,-0.122000,0.976000,0.046000,192.000000,0.000000,0.000000,0.000000,0.000000,0.000000,0.000000,0.000000,0.000000,0.000000,1647076316.078954,0.000000
37.000000,37243.795364,36516.737821,18824.259201,20938.913040,11708.670760,27619.938865,42568.293818,28451.379055,-0.122000,0.978000,0.054000,192.000000,252.000000,48.000000,30.000000,144.000000,1.000000,176.000000,0.000000,0.000000,0.000000,1647076316.085968,0.000000
38.000000,37244.398861,36513.139190,18824.214497,20942.981058,11708.737815,27615.490868,42550.770050,28447.243982,-0.122000,0.978000,0.054000,192.000000,0.000000,0.000000,0.000000,0.000000,0.000000,0.000000,0.000000,0.000000,0.000000,1647076316.085972,0.000000
39.000000,37242.543667,36517.140152,18822.471061,20947.160834,11707.642580,27617.435469,42548.624283,28464.968916,-0.122000,0.978000,0.054000,192.000000,0.000000,0.000000,0.000000,0.000000,0.000000,0.000000,0.000000,0.000000,0.000000,1647076316.093900,0.000000
40.000000,37240.599065,36519.352975,18822.761634,20946.758502,11708.871926,27618.687167,42560.068376,28454.955334,-0.122000,0.978000,0.054000,192.000000,0.000000,0.000000,0.000000,0.000000,0.000000,0.000000,0.000000,0.000000,0.000000,1647076316.101149,0.000000
41.000000,37242.320149,36509.182931,18824.482718,20930.195860,11704.781557,27610.238208,42562.437661,28410.944749,-0.122000,0.978000,0.054000,192.000000,0.000000,0.000000,0.000000,0.000000,0.000000,0.000000,0.000000,0.000000,0.000000,1647076316.101153,0.000000
42.000000,37246.142298,36510.814608,18828.014294,20934.666209,11710.280086,27624.744490,42556.335635,28471.115645,-0.122000,0.978000,0.054000,192.000000,0.000000,0.000000,0.000000,0.000000,0.000000,0.000000,0.000000,0.000000,0.000000,1647076316.108656,0.000000
43.000000,37248.802155,36523.130420,18828.260163,20947.764331,11715.957429,27631.740586,42536.107306,28498.585939,-0.122000,0.978000,0.054000,192.000000,0.000000,0.000000,0.000000,0.000000,0.000000,0.000000,0.000000,0.000000,0.000000,1647076316.108666,0.000000
44.000000,37247.326940,36532.562856,18832.194070,20950.021857,11715.465691,27633.551077,42534.788553,28503.771544,-0.122000,0.978000,0.054000,192.000000,0.000000,0.000000,0.000000,0.000000,0.000000,0.000000,0.000000,0.000000,0.000000,1647076316.116509,0.000000
45.000000,37253.674835,36526.304367,18842.721742,20958.381409,11722.707656,27645.486909,42577.748606,28499.725878,-0.122000,0.978000,0.054000,192.000000,0.000000,0.000000,0.000000,0.000000,0.000000,0.000000,0.000000,0.000000,0.000000,1647076316.116513,0.000000
46.000000,37250.612646,36518.727126,18839.972477,20955.498034,11721.768882,27644.011693,42583.448301,28482.939718,-0.122000,0.978000,0.054000,192.000000,0.000000,0.000000,0.000000,0.000000,0.000000,0.000000,0.000000,0.000000,0.000000,1647076316.124668,0.000000
47.000000,37241.001396,36511.641623,18830.070654,20943.249278,11710.324789,27624.990359,42553.564018,28443.757110,-0.128000,0.976000,0.054000,192.000000,252.000000,0.000000,30.000000,128.000000,1.000000,176.000000,0.000000,0.000000,0.000000,1647076316.124672,0.000000
48.000000,37237.067489,36513.765039,18824.706235,20934.599153,11705.072129,27611.087574,42541.449373,28414.230456,-0.128000,0.976000,0.054000,192.000000,0.000000,0.000000,0.000000,0.000000,0.000000,0.000000,0.000000,0.000000,0.000000,1647076316.131302,0.000000
49.000000,37250.836164,36530.975882,18835.792701,20953.776950,11720.092502,27630.846516,42550.054795,28467.159387,-0.128000,0.976000,0.054000,192.000000,0.000000,0.000000,0.000000,0.000000,0.000000,0.000000,0.000000,0.000000,0.000000,1647076316.131306,0.000000
50.000000,37261.430891,36540.721243,18844.442826,20963.254090,11729.167310,27643.788176,42543.773954,28496.686041,-0.128000,0.976000,0.054000,192.000000,0.000000,0.000000,0.000000,0.000000,0.000000,0.000000,0.000000,0.000000,0.000000,1647076316.139151,0.000000
51.000000,37239.414422,36513.385059,18825.399140,20935.672037,11703.283990,27618.933036,42537.247245,28447.020465,-0.128000,0.976000,0.054000,192.000000,0.000000,0.000000,0.000000,0.000000,0.000000,0.000000,0.000000,0.000000,0.000000,1647076316.139154,0.000000
52.000000,37239.973216,36508.981765,18819.766500,20931.782834,11697.874868,27614.172115,42547.819620,28418.209066,-0.128000,0.976000,0.054000,192.000000,0.000000,0.000000,0.000000,0.000000,0.000000,0.000000,0.000000,0.000000,0.000000,1647076316.147242,0.000000
53.000000,37264.493080,36536.630873,18844.241660,20955.565090,11728.541461,27648.370284,42573.501774,28487.611233,-0.128000,0.976000,0.054000,192.000000,0.000000,0.000000,0.000000,0.000000,0.000000,0.000000,0.000000,0.000000,0.000000,1647076316.147247,0.000000
54.000000,37264.202507,36554.579324,18852.154178,20968.752619,11737.437455,27660.127301,42580.252001,28527.397338,-0.128000,0.976000,0.054000,192.000000,0.000000,0.000000,0.000000,0.000000,0.000000,0.000000,0.000000,0.000000,0.000000,1647076316.154347,0.000000
55.000000,37260.492117,36553.417033,18844.532233,20959.320183,11726.954487,27641.038911,42560.761280,28490.226387,-0.128000,0.976000,0.054000,192.000000,0.000000,0.000000,0.000000,0.000000,0.000000,0.000000,0.000000,0.000000,0.000000,1647076316.160845,0.000000
56.000000,37244.175344,36526.527885,18828.729549,20942.064636,11709.989513,27616.787269,42529.088858,28442.639523,-0.128000,0.976000,0.054000,192.000000,0.000000,0.000000,0.000000,0.000000,0.000000,0.000000,0.000000,0.000000,0.000000,1647076316.160849,0.000000
57.000000,37230.563132,36517.922463,18827.053169,20934.107415,11706.592048,27619.178905,42542.745774,28437.968008,-0.130000,0.972000,0.056000,192.000000,251.000000,240.000000,30.000000,96.000000,1.000000,192.000000,0.000000,0.000000,0.000000,1647076316.168841,0.000000
58.000000,37250.702053,36526.505533,18843.168776,20951.027686,11723.892298,27640.033083,42576.519260,28460.386808,-0.130000,0.972000,0.056000,192.000000,0.000000,0.000000,0.000000,0.000000,0.000000,0.000000,0.000000,0.000000,0.000000,1647076316.168845,0.000000
59.000000,37260.939152,36529.970053,18846.052151,20958.068485,11729.390827,27645.822185,42559.509582,28510.007681,-0.130000,0.972000,0.056000,192.000000,0.000000,0.000000,0.000000,0.000000,0.000000,0.000000,0.000000,0.000000,0.000000,1647076316.176950,0.000000
60.000000,37250.210315,36520.403507,18836.105625,20946.669095,11718.214955,27628.834859,42552.692300,28473.082599,-0.130000,0.972000,0.056000,192.000000,0.000000,0.000000,0.000000,0.000000,0.000000,0.000000,0.000000,0.000000,0.000000,1647076316.176954,0.000000
61.000000,37252.400786,36524.940911,18841.827672,20949.977154,11721.768882,27640.301304,42567.980894,28480.615137,-0.130000,0.972000,0.056000,192.000000,0.000000,0.000000,0.000000,0.000000,0.000000,0.000000,0.000000,0.000000,0.000000,1647076316.184045,0.000000
62.000000,37256.714673,36529.970053,18839.816015,20942.757540,11716.449167,27636.099176,42559.241362,28462.353761,-0.130000,0.972000,0.056000,192.000000,0.000000,0.000000,0.000000,0.000000,0.000000,0.000000,0.000000,0.000000,0.000000,1647076316.184049,0.000000
63.000000,37250.187963,36531.981710,18834.496300,20943.584555,11712.425853,27638.401406,42567.936190,28486.314832,-0.130000,0.972000,0.056000,192.000000,0.000000,0.000000,0.000000,0.000000,0.000000,0.000000,0.000000,0.000000,0.000000,1647076316.191423,0.000000
64.000000,37238.028614,36523.845675,18824.952105,20931.559316,11701.674664,27628.231362,42551.708824,28482.872663,-0.130000,0.972000,0.056000,192.000000,0.000000,0.000000,0.000000,0.000000,0.000000,0.000000,0.000000,0.000000,0.000000,1647076316.191426,0.000000
65.000000,37236.598103,36523.376289,18829.377750,20931.760482,11706.837917,27637.999074,42558.079071,28497.781276,-0.130000,0.972000,0.056000,192.000000,0.000000,0.000000,0.000000,0.000000,0.000000,0.000000,0.000000,0.000000,0.000000,1647076316.199576,0.000000
66.000000,37265.923591,36548.432594,18854.590518,20965.981003,11735.381095,27664.508243,42573.948809,28511.996986,-0.130000,0.972000,0.056000,192.000000,0.000000,0.000000,0.000000,0.000000,0.000000,0.000000,0.000000,0.000000,0.000000,1647076316.199580,0.000000
67.000000,37257.742853,36534.507458,18845.426303,20952.637011,11726.418045,27652.259487,42561.565943,28487.097143,-0.130000,0.972000,0.056000,192.000000,0.000000,0.000000,0.000000,0.000000,0.000000,0.000000,0.000000,0.000000,0.000000,1647076316.206550,0.000000
68.000000,37243.191867,36532.652263,18836.619715,20941.662305,11717.857327,27650.918383,42561.074205,28492.752134,-0.120000,0.974000,0.066000,192.000000,252.000000,64.000000,30.000000,112.000000,2.000000,16.000000,0.000000,0.000000,0.000000,1647076316.206554,0.000000
69.000000,37242.923646,36536.899094,18833.445768,20942.869299,11715.085711,27646.492737,42543.528085,28476.658878,-0.120000,0.974000,0.066000,192.000000,0.000000,0.000000,0.000000,0.000000,0.000000,0.000000,0.000000,0.000000,0.000000,1647076316.213174,0.000000
70.000000,37237.603931,36516.402545,18827.813128,20933.168642,11705.899144,27634.333388,42529.580597,28443.779462,-0.120000,0.974000,0.066000,192.000000,0.000000,0.000000,0.000000,0.000000,0.000000,0.000000,0.000000,0.000000,0.000000,1647076316.221236,0.000000
71.000000,37236.531047,36509.741725,18824.438015,20935.135595,11702.255810,27632.522897,42533.894483,28444.472366,-0.120000,0.974000,0.066000,192.000000,0.000000,0.000000,0.000000,0.000000,0.000000,0.000000,0.000000,0.000000,0.000000,1647076316.221254,0.000000
72.000000,37245.918780,36520.202341,18834.451596,20933.436863,11710.905935,27645.173984,42545.517390,28461.727913,-0.120000,0.974000,0.066000,192.000000,0.000000,0.000000,0.000000,0.000000,0.000000,0.000000,0.000000,0.000000,0.000000,1647076316.229126,0.000000
73.000000,37238.699167,36518.481257,18836.060922,20923.669150,11708.536650,27645.263391,42550.479478,28490.673422,-0.120000,0.974000,0.066000,192.000000,0.000000,0.000000,0.000000,0.000000,0.000000,0.000000,0.000000,0.000000,0.000000,1647076316.229130,0.000000
74.000000,37236.598103,36526.282016,18839.100759,20936.074368,11715.800967,27648.280877,42546.679681,28497.289538,-0.120000,0.974000,0.066000,192.000000,0.000000,0.000000,0.000000,0.000000,0.000000,0.000000,0.000000,0.000000,0.000000,1647076316.236249,0.000000
75.000000,37245.181173,36540.743594,18842.811149,20944.210403,11720.986571,27647.409159,42550.971216,28471.003887,-0.120000,0.974000,0.066000,192.000000,0.000000,0.000000,0.000000,0.000000,0.000000,0.000000,0.000000,0.000000,0.000000,1647076316.236253,0.000000
76.000000,37238.095670,36524.225655,18836.843233,20929.748825,11710.034217,27640.144842,42549.853629,28462.152596,-0.120000,0.974000,0.066000,192.000000,0.000000,0.000000,0.000000,0.000000,0.000000,0.000000,0.000000,0.000000,0.000000,1647076316.243853,0.000000
77.000000,37230.227855,36512.558045,18831.031779,20925.837270,11708.156670,27643.452900,42544.735079,28499.748230,-0.120000,0.974000,0.066000,192.000000,0.000000,0.000000,0.000000,0.000000,0.000000,0.000000,0.000000,0.000000,0.000000,1647076316.243858,0.000000
78.000000,37238.900332,36530.037109,18841.000657,20944.053941,11721.411255,27652.773577,42543.818658,28494.674384,-0.116000,0.976000,0.074000,192.000000,252.000000,96.000000,30.000000,128.000000,2.000000,80.000000,0.000000,0.000000,0.000000,1647076316.251727,0.000000
79.000000,37232.820658,36526.572588,18837.469082,20940.634124,11716.583278,27640.480118,42533.156876,28451.490814,-0.116000,0.976000,0.074000,192.000000,0.000000,0.000000,0.000000,0.000000,0.000000,0.000000,0.000000,0.000000,0.000000,1647076316.251731,0.000000
80.000000,37234.452335,36515.396716,18840.710085,20944.478624,11718.326714,27657.690961,42559.151955,28498.988271,-0.116000,0.976000,0.074000,192.000000,0.000000,0.000000,0.000000,0.000000,0.000000,0.000000,0.000000,0.000000,0.000000,1647076316.259827,0.000000
81.000000,37245.024710,36520.984652,18849.091989,20953.307563,11728.921441,27672.085485,42578.150937,28524.201038,-0.116000,0.976000,0.074000,192.000000,0.000000,0.000000,0.000000,0.000000,0.000000,0.000000,0.000000,0.000000,0.000000,1647076316.259830,0.000000
82.000000,37251.774937,36538.463716,18853.271765,20963.276441,11733.324734,27663.904746,42549.630111,28486.225425,-0.116000,0.976000,0.074000,192.000000,0.000000,0.000000,0.000000,0.000000,0.000000,0.000000,0.000000,0.000000,0.000000,1647076316.266516,0.000000
83.000000,37252.780766,36537.748461,18856.848044,20960.929508,11733.056513,27668.062171,42567.869135,28481.933890,-0.116000,0.976000,0.074000,192.000000,0.000000,0.000000,0.000000,0.000000,0.000000,0.000000,0.000000,0.000000,0.000000,1647076316.266520,0.000000
84.000000,37247.684568,36534.306292,18849.159044,20949.172491,11722.528842,27660.373170,42564.181097,28489.645241,-0.116000,0.976000,0.074000,192.000000,0.000000,0.000000,0.000000,0.000000,0.000000,0.000000,0.000000,0.000000,0.000000,1647076316.273451,0.000000
85.000000,37240.777879,36533.814553,18843.057018,20946.557337,11716.024484,27651.320714,42541.359966,28479.363439,-0.116000,0.976000,0.074000,192.000000,0.000000,0.000000,0.000000,0.000000,0.000000,0.000000,0.000000,0.000000,0.000000,1647076316.281944,0.000000
86.000000,37237.983911,36530.104164,18840.575974,20947.473758,11715.912725,27651.253659,42522.383335,28485.040782,-0.116000,0.976000,0.074000,192.000000,0.000000,0.000000,0.000000,0.000000,0.000000,0.000000,0.000000,0.000000,0.000000,1647076316.281961,0.000000
87.000000,37238.989739,36526.572588,18845.068675,20951.362962,11720.763054,27666.721066,42530.787591,28512.846352,-0.116000,0.976000,0.074000,192.000000,0.000000,0.000000,0.000000,0.000000,0.000000,0.000000,0.000000,0.000000,0.000000,1647076316.289936,0.000000
88.000000,37245.069414,36535.468583,18846.834463,20951.765293,11721.210089,27672.934851,42560.202487,28511.751117,-0.120000,0.976000,0.076000,192.000000,252.000000,64.000000,30.000000,128.000000,2.000000,96.000000,0.000000,0.000000,0.000000,1647076316.289952,0.000000
89.000000,37246.187001,36538.128440,18847.035628,20947.183185,11720.316019,27674.231252,42563.711710,28498.340070,-0.120000,0.976000,0.076000,192.000000,0.000000,0.000000,0.000000,0.000000,0.000000,0.000000,0.000000,0.000000,0.000000,1647076316.296563,0.000000
90.000000,37251.707882,36549.170202,18851.148349,20956.168587,11725.322810,27677.852235,42561.588295,28490.718125,-0.120000,0.976000,0.076000,192.000000,0.000000,0.000000,0.000000,0.000000,0.000000,0.000000,0.000000,0.000000,0.000000,1647076316.296580,0.000000
91.000000,37252.579600,36559.429653,18844.398122,20954.291040,11718.080845,27669.067999,42551.261789,28474.513110,-0.120000,0.976000,0.076000,192.000000,0.000000,0.000000,0.000000,0.000000,0.000000,0.000000,0.000000,0.000000,0.000000,1647076316.304427,0.000000
92.000000,37237.760393,36538.754289,18834.004561,20938.577764,11704.692150,27660.306115,42543.505733,28470.243927,-0.120000,0.976000,0.076000,192.000000,0.000000,0.000000,0.000000,0.000000,0.000000,0.000000,0.000000,0.000000,0.000000,1647076316.304443,0.000000
93.000000,37237.268655,36526.304367,18838.877241,20942.779892,11705.988551,27668.084522,42548.914856,28501.603425,-0.120000,0.976000,0.076000,192.000000,0.000000,0.000000,0.000000,0.000000,0.000000,0.000000,0.000000,0.000000,0.000000,1647076316.312373,0.000000
94.000000,37238.095670,36528.919521,18840.575974,20943.673962,11706.681455,27666.564604,42542.634015,28482.805608,-0.120000,0.976000,0.076000,192.000000,0.000000,0.000000,0.000000,0.000000,0.000000,0.000000,0.000000,0.000000,0.000000,1647076316.312389,0.000000
95.000000,37238.050966,36525.902036,18837.737303,20942.422264,11707.106138,27668.866833,42541.225855,28495.434343,-0.120000,0.976000,0.076000,192.000000,0.000000,0.000000,0.000000,0.000000,0.000000,0.000000,0.000000,0.000000,0.000000,1647076316.319655,0.000000
96.000000,37248.846859,36535.982673,18844.554585,20955.073351,11713.990475,27672.644278,42543.505733,28503.860951,-0.120000,0.976000,0.076000,192.000000,0.000000,0.000000,0.000000,0.000000,0.000000,0.000000,0.000000,0.000000,0.000000,1647076316.319671,0.000000
97.000000,37251.283199,36548.700815,18848.510843,20962.225909,11717.589106,27672.085485,42542.924588,28493.757962,-0.120000,0.976000,0.076000,192.000000,0.000000,0.000000,0.000000,0.000000,0.000000,0.000000,0.000000,0.000000,0.000000,1647076316.327120,0.000000
98.000000,37254.010112,36556.076891,18851.729495,20963.097628,11718.237307,27670.543214,42543.148106,28480.101047,-0.114000,0.966000,0.078000,192.000000,252.000000,112.000000,30.000000,48.000000,2.000000,112.000000,0.000000,0.000000,0.000000,1647076316.327136,0.000000
99.000000,37242.878943,36544.185763,18841.090064,20947.429055,11707.754339,27664.374133,42555.754489,28487.879454,-0.114000,0.966000,0.078000,192.000000,0.000000,0.000000,0.000000,0.000000,0.000000,0.000000,0.000000,0.000000,0.000000,1647076316.334015,0.000000
100.000000,37241.604893,36547.717339,18839.480739,20950.021857,11705.630923,27666.095217,42561.431832,28505.738497,-0.114000,0.966000,0.078000,192.000000,0.000000,0.000000,0.000000,0.000000,0.000000,0.000000,0.000000,0.000000,0.000000,1647076316.334031,0.000000
101.000000,37241.403728,36543.135231,18837.200861,20949.530119,11702.881658,27653.779406,42541.225855,28471.897956,-0.114000,0.966000,0.078000,192.000000,0.000000,0.000000,0.000000,0.000000,0.000000,0.000000,0.000000,0.000000,0.000000,1647076316.342152,0.000000
102.000000,37243.728309,36548.656112,18838.340800,20953.642840,11705.049778,27651.544231,42534.699146,28460.051532,-0.114000,0.966000,0.078000,192.000000,0.000000,0.000000,0.000000,0.000000,0.000000,0.000000,0.000000,0.000000,0.000000,1647076316.349248,0.000000
103.000000,37242.566018,36543.068176,18836.351494,20942.221098,11703.283990,27653.287667,42529.647652,28481.956241,-0.114000,0.966000,0.078000,192.000000,0.000000,0.000000,0.000000,0.000000,0.000000,0.000000,0.000000,0.000000,0.000000,1647076316.349264,0.000000
104.000000,37246.410518,36538.039033,18838.229041,20939.382427,11700.400615,27656.573374,42516.124846,28518.680158,-0.114000,0.966000,0.078000,192.000000,0.000000,0.000000,0.000000,0.000000,0.000000,0.000000,0.000000,0.000000,0.000000,1647076316.356603,0.000000
105.000000,37243.281274,36545.280998,18838.631372,20946.155005,11702.680493,27660.306115,42533.894483,28508.331300,-0.114000,0.966000,0.078000,192.000000,0.000000,0.000000,0.000000,0.000000,0.000000,0.000000,0.000000,0.000000,0.000000,1647076316.356620,0.000000
106.000000,37250.098556,36567.744502,18846.879166,20963.634069,11715.130414,27673.672458,42577.860365,28498.273015,-0.114000,0.966000,0.078000,192.000000,0.000000,0.000000,0.000000,0.000000,0.000000,0.000000,0.000000,0.000000,0.000000,1647076316.364701,0.000000
107.000000,37246.678739,36559.452004,18840.106587,20957.487340,11709.006036,27661.937793,42559.822507,28489.578186,-0.114000,0.966000,0.078000,192.000000,0.000000,0.000000,0.000000,0.000000,0.000000,0.000000,0.000000,0.000000,0.000000,1647076316.364735,0.000000
108.000000,37251.484364,36553.886420,18841.090064,20953.262860,11711.017693,27656.483967,42557.095594,28467.382904,-0.106000,0.966000,0.072000,192.000000,252.000000,176.000000,30.000000,48.000000,2.000000,64.000000,0.000000,0.000000,0.000000,1647076316.371822,0.000000
109.000000,37255.619437,36558.043844,18839.592497,20953.374619,11711.867060,27656.618077,42566.930362,28473.976669,-0.106000,0.966000,0.072000,192.000000,0.000000,0.000000,0.000000,0.000000,0.000000,0.000000,0.000000,0.000000,0.000000,1647076316.371838,0.000000
110.000000,37242.431908,36550.511307,18831.970552,20944.009238,11703.194583,27639.049606,42533.425097,28471.585032,-0.106000,0.966000,0.072000,192.000000,0.000000,0.000000,0.000000,0.000000,0.000000,0.000000,0.000000,0.000000,0.000000,1647076316.379197,0.000000
111.000000,37244.465917,36554.400510,18838.251393,20953.955764,11713.185813,27655.187566,42560.448356,28517.115535,-0.106000,0.966000,0.072000,192.000000,0.000000,0.000000,0.000000,0.000000,0.000000,0.000000,0.000000,0.000000,0.000000,1647076316.379212,0.000000
112.000000,37249.293893,36561.418958,18845.046323,20958.426113,11720.338371,27661.691923,42566.237458,28518.657806,-0.106000,0.966000,0.072000,192.000000,0.000000,0.000000,0.000000,0.000000,0.000000,0.000000,0.000000,0.000000,0.000000,1647076316.387472,0.000000
113.000000,37252.758414,36572.997162,18844.107550,20951.854700,11720.114853,27656.126339,42558.906085,28508.711279,-0.106000,0.966000,0.072000,192.000000,0.000000,0.000000,0.000000,0.000000,0.000000,0.000000,0.000000,0.000000,0.000000,1647076316.387488,0.000000
114.000000,37251.439661,36558.602638,18838.564317,20943.942183,11716.180946,27656.171042,42572.495946,28531.644169,-0.106000,0.966000,0.072000,192.000000,0.000000,0.000000,0.000000,0.000000,0.000000,0.000000,0.000000,0.000000,0.000000,1647076316.395428,0.000000
115.000000,37251.394957,36545.973902,18846.879166,20953.620488,11720.092502,27655.344028,42571.534821,28510.678233,-0.106000,0.966000,0.072000,192.000000,0.000000,0.000000,0.000000,0.000000,0.000000,0.000000,0.000000,0.000000,0.000000,1647076316.395445,0.000000
116.000000,37243.683606,36540.609484,18843.504053,20949.150139,11716.315057,27647.498566,42566.237458,28496.440172,-0.106000,0.966000,0.072000,192.000000,0.000000,0.000000,0.000000,0.000000,0.000000,0.000000,0.000000,0.000000,0.000000,1647076316.401584,0.000000
117.000000,37235.793440,36531.311158,18831.590573,20936.566107,11706.256772,27629.393653,42547.394937,28470.758017,-0.106000,0.966000,0.072000,192.000000,0.000000,0.000000,0.000000,0.000000,0.000000,0.000000,0.000000,0.000000,0.000000,1647076316.409095,0.000000
118.000000,37241.113155,36540.162449,18831.456462,20938.845985,11710.950638,27632.500545,42554.212219,28481.397448,-0.108000,0.960000,0.076000,192.000000,252.000000,160.000000,30.000000,0.000000,2.000000,96.000000,0.000000,0.000000,0.000000,1647076316.409111,0.000000
119.000000,37251.774937,36563.788243,18842.833500,20953.732247,11725.032237,27640.882449,42557.788498,28476.033029,-0.108000,0.960000,0.076000,192.000000,0.000000,0.000000,0.000000,0.000000,0.000000,0.000000,0.000000,0.000000,0.000000,1647076316.416657,0.000000
120.000000,37253.250152,36557.619161,18842.252355,20948.412531,11722.461787,27635.786252,42550.770050,28456.251735,-0.108000,0.960000,0.076000,192.000000,0.000000,0.000000,0.000000,0.000000,0.000000,0.000000,0.000000,0.000000,0.000000,1647076316.416666,0.000000
121.000000,37246.365815,36542.509382,18838.787834,20936.387293,11718.997266,27643.385845,42557.319112,28500.083506,-0.108000,0.960000,0.076000,192.000000,0.000000,0.000000,0.000000,0.000000,0.000000,0.000000,0.000000,0.000000,0.000000,1647076316.424938,0.000000
122.000000,37257.049949,36557.932086,18848.354381,20943.092816,11730.374304,27657.825072,42580.631981,28528.447870,-0.108000,0.960000,0.076000,192.000000,0.000000,0.000000,0.000000,0.000000,0.000000,0.000000,0.000000,0.000000,0.000000,1647076316.424955,0.000000
123.000000,37256.289990,36559.362597,18848.220271,20955.408627,11737.191586,27659.054417,42565.298684,28530.303065,-0.108000,0.960000,0.076000,192.000000,0.000000,0.000000,0.000000,0.000000,0.000000,0.000000,0.000000,0.000000,0.000000,1647076316.431653,0.000000
124.000000,37253.563077,36551.159507,18846.253317,20952.212328,11734.151749,27652.505356,42572.987684,28499.524713,-0.108000,0.960000,0.076000,192.000000,0.000000,0.000000,0.000000,0.000000,0.000000,0.000000,0.000000,0.000000,0.000000,1647076316.431669,0.000000
125.000000,37249.271542,36539.715414,18836.217384,20935.336761,11720.114853,27634.154574,42569.143184,28455.536479,-0.108000,0.960000,0.076000,192.000000,0.000000,0.000000,0.000000,0.000000,0.000000,0.000000,0.000000,0.000000,0.000000,1647076316.439642,0.000000
126.000000,37241.202562,36528.986577,18831.925849,20929.838232,11716.315057,27635.987417,42563.108213,28488.706468,-0.108000,0.960000,0.076000,192.000000,0.000000,0.000000,0.000000,0.000000,0.000000,0.000000,0.000000,0.000000,0.000000,1647076316.439658,0.000000
127.000000,37258.189888,36550.332493,18845.873337,20947.294944,11733.011810,27649.063188,42581.324885,28506.051422,-0.108000,0.960000,0.076000,192.000000,0.000000,0.000000,0.000000,0.000000,0.000000,0.000000,0.000000,0.000000,0.000000,1647076316.447675,0.000000
128.000000,37271.220955,36568.415054,18849.449617,20950.871223,11739.382057,27638.960199,42564.605780,28464.141901,-0.116000,0.968000,0.070000,192.000000,252.000000,96.000000,30.000000,64.000000,2.000000,48.000000,0.000000,0.000000,0.000000,1647076316.447691,0.000000
129.000000,37257.362873,36550.444251,18843.213480,20938.086025,11733.950583,27637.663798,42564.538725,28466.555889,-0.116000,0.968000,0.070000,192.000000,0.000000,0.000000,0.000000,0.000000,0.000000,0.000000,0.000000,0.000000,0.000000,1647076316.454784,0.000000
130.000000,37254.568905,36554.668731,18848.175567,20943.383389,11736.833958,27647.677380,42562.795289,28506.409050,-0.116000,0.968000,0.070000,192.000000,0.000000,0.000000,0.000000,0.000000,0.000000,0.000000,0.000000,0.000000,0.000000,1647076316.454801,0.000000
131.000000,37253.943056,36562.625952,18847.907346,20948.948973,11737.370400,27649.778444,42564.225801,28510.477067,-0.116000,0.968000,0.070000,192.000000,0.000000,0.000000,0.000000,0.000000,0.000000,0.000000,0.000000,0.000000,0.000000,1647076316.461257,0.000000
132.000000,37245.315283,36539.022510,18835.837404,20935.202650,11723.445263,27632.075862,42551.574713,28474.401352,-0.116000,0.968000,0.070000,192.000000,0.000000,0.000000,0.000000,0.000000,0.000000,0.000000,0.000000,0.000000,0.000000,1647076316.469269,0.000000
133.000000,37246.119946,36537.815516,18837.513785,20936.990790,11728.384999,27640.815394,42563.175269,28491.388678,-0.116000,0.968000,0.070000,192.000000,0.000000,0.000000,0.000000,0.000000,0.000000,0.000000,0.000000,0.000000,0.000000,1647076316.469286,0.000000
134.000000,37253.116042,36552.657074,18846.163910,20949.865395,11738.309173,27657.243926,42580.028484,28518.680158,-0.116000,0.968000,0.070000,192.000000,0.000000,0.000000,0.000000,0.000000,0.000000,0.000000,0.000000,0.000000,0.000000,1647076316.477297,0.000000
135.000000,37244.957655,36538.284902,18837.334971,20938.890688,11725.166348,27642.692941,42555.441565,28489.555834,-0.116000,0.968000,0.070000,192.000000,0.000000,0.000000,0.000000,0.000000,0.000000,0.000000,0.000000,0.000000,0.000000,1647076316.477313,0.000000
136.000000,37245.024710,36537.033205,18836.329143,20933.705084,11722.148862,27633.864001,42547.350233,28462.666686,-0.116000,0.968000,0.070000,192.000000,0.000000,0.000000,0.000000,0.000000,0.000000,0.000000,0.000000,0.000000,0.000000,1647076316.484345,0.000000
137.000000,37254.390091,36557.820327,18846.990925,20950.938279,11736.744551,27654.695827,42566.528030,28513.293387,-0.116000,0.968000,0.070000,192.000000,0.000000,0.000000,0.000000,0.000000,0.000000,0.000000,0.000000,0.000000,0.000000,1647076316.484361,0.000000
138.000000,37260.559173,36565.017589,18849.181396,20957.085008,11740.231423,27655.455787,42578.173289,28501.782239,-0.118000,0.970000,0.066000,192.000000,252.000000,80.000000,30.000000,80.000000,2.000000,16.000000,0.000000,0.000000,0.000000,1647076316.491887,0.000000
139.000000,37263.107272,36556.367464,18850.097817,20957.196767,11740.432589,27654.606420,42581.928382,28490.114628,-0.118000,0.970000,0.066000,192.000000,0.000000,0.000000,0.000000,0.000000,0.000000,0.000000,0.000000,0.000000,0.000000,1647076316.491904,0.000000
140.000000,37260.715635,36544.856315,18850.835425,20949.597174,11738.555043,27656.953354,42573.032388,28512.980463,-0.118000,0.970000,0.066000,192.000000,0.000000,0.000000,0.000000,0.000000,0.000000,0.000000,0.000000,0.000000,0.000000,1647076316.499870,0.000000
141.000000,37261.609705,36541.749423,18848.466140,20941.885822,11734.039990,27646.671551,42566.505678,28492.819189,-0.118000,0.970000,0.066000,192.000000,0.000000,0.000000,0.000000,0.000000,0.000000,0.000000,0.000000,0.000000,0.000000,1647076316.499887,0.000000
142.000000,37262.459071,36543.671673,18849.673134,20945.730322,11733.905880,27641.932981,42550.211257,28486.493645,-0.118000,0.970000,0.066000,192.000000,0.000000,0.000000,0.000000,0.000000,0.000000,0.000000,0.000000,0.000000,0.000000,1647076316.506958,0.000000
143.000000,37256.915838,36546.622103,18849.963707,20950.200671,11736.364572,27643.274086,42563.398786,28474.423703,-0.118000,0.970000,0.066000,192.000000,0.000000,0.000000,0.000000,0.000000,0.000000,0.000000,0.000000,0.000000,0.000000,1647076316.506974,0.000000
144.000000,37266.303571,36558.446176,18850.723666,20950.401837,11739.627926,27646.492737,42568.539687,28491.858064,-0.118000,0.970000,0.066000,192.000000,0.000000,0.000000,0.000000,0.000000,0.000000,0.000000,0.000000,0.000000,0.000000,1647076316.514533,0.000000
145.000000,37266.929420,36563.050635,18852.489454,20952.726418,11741.706639,27644.302266,42560.202487,28489.622890,-0.118000,0.970000,0.066000,192.000000,0.000000,0.000000,0.000000,0.000000,0.000000,0.000000,0.000000,0.000000,0.000000,1647076316.514544,0.000000
146.000000,37260.000379,36555.182821,18856.333954,20954.112226,11743.114798,27643.609362,42562.862344,28486.381887,-0.118000,0.970000,0.066000,192.000000,0.000000,0.000000,0.000000,0.000000,0.000000,0.000000,0.000000,0.000000,0.000000,1647076316.521638,0.000000
147.000000,37271.086844,36569.443234,18865.207596,20965.511616,11752.837807,27652.438301,42562.415309,28497.714221,-0.118000,0.970000,0.066000,192.000000,0.000000,0.000000,0.000000,0.000000,0.000000,0.000000,0.000000,0.000000,0.000000,1647076316.529555,0.000000
148.000000,37266.571792,36559.474356,18860.089047,20963.544662,11749.373287,27653.086502,42553.228742,28518.478992,-0.118000,0.974000,0.068000,192.000000,252.000000,80.000000,30.000000,112.000000,2.000000,32.000000,0.000000,0.000000,0.000000,1647076316.529571,0.000000
149.000000,37265.700074,36561.709531,18860.424323,20967.053886,11749.775618,27650.158423,42558.861382,28500.284672,-0.118000,0.974000,0.068000,192.000000,0.000000,0.000000,0.000000,0.000000,0.000000,0.000000,0.000000,0.000000,0.000000,1647076316.537667,0.000000
150.000000,37261.006208,36557.596810,18856.065733,20964.394029,11746.847540,27645.263391,42579.648504,28476.748285,-0.118000,0.974000,0.068000,192.000000,0.000000,0.000000,0.000000,0.000000,0.000000,0.000000,0.000000,0.000000,0.000000,1647076316.537702,0.000000
151.000000,37265.029522,36561.731882,18854.568166,20957.844968,11746.020525,27646.559792,42562.549420,28502.251625,-0.118000,0.974000,0.068000,192.000000,0.000000,0.000000,0.000000,0.000000,0.000000,0.000000,0.000000,0.000000,0.000000,1647076316.544309,0.000000
152.000000,37259.240420,36552.657074,18848.488492,20951.832348,11738.778560,27643.072920,42560.202487,28505.626739,-0.118000,0.974000,0.068000,192.000000,0.000000,0.000000,0.000000,0.000000,0.000000,0.000000,0.000000,0.000000,0.000000,1647076316.544325,0.000000
153.000000,37261.341484,36555.495746,18849.583727,20951.742941,11738.800912,27634.601609,42549.406594,28459.537442,-0.118000,0.974000,0.068000,192.000000,0.000000,0.000000,0.000000,0.000000,0.000000,0.000000,0.000000,0.000000,0.000000,1647076316.552239,0.000000
154.000000,37261.140318,36555.227525,18850.611907,20953.821654,11739.449112,27638.915496,42538.409536,28483.453808,-0.118000,0.974000,0.068000,192.000000,0.000000,0.000000,0.000000,0.000000,0.000000,0.000000,0.000000,0.000000,0.000000,1647076316.552255,0.000000
155.000000,37265.074225,36559.496708,18856.468064,20954.335744,11746.087580,27655.724008,42583.113025,28524.715129,-0.118000,0.974000,0.068000,192.000000,0.000000,0.000000,0.000000,0.000000,0.000000,0.000000,0.000000,0.000000,0.000000,1647076316.560163,0.000000
156.000000,37269.298705,36565.844603,18858.233852,20961.130674,11747.138112,27650.963086,42578.463862,28509.471239,-0.118000,0.974000,0.068000,192.000000,0.000000,0.000000,0.000000,0.000000,0.000000,0.000000,0.000000,0.000000,0.000000,1647076316.560179,0.000000
157.000000,37260.447414,36557.820327,18853.115303,20958.068485,11740.387886,27640.144842,42566.863306,28481.620965,-0.118000,0.974000,0.068000,192.000000,0.000000,0.000000,0.000000,0.000000,0.000000,0.000000,0.000000,0.000000,0.000000,1647076316.566715,0.000000
158.000000,37256.491155,36556.590981,18850.097817,20951.720590,11736.968069,27634.087519,42556.089766,28469.819244,-0.116000,0.968000,0.068000,192.000000,252.000000,96.000000,30.000000,64.000000,2.000000,32.000000,0.000000,0.000000,0.000000,1647076316.566732,0.000000
159.000000,37256.781728,36555.026359,18847.572070,20945.350342,11734.487025,27629.751281,42542.410498,28472.747323,-0.116000,0.968000,0.068000,192.000000,0.000000,0.000000,0.000000,0.000000,0.000000,0.000000,0.000000,0.000000,0.000000,1647076316.574832,0.000000
160.000000,37265.230687,36566.649266,18857.675059,20951.452369,11743.740647,27648.571449,42575.848708,28507.906617,-0.116000,0.968000,0.068000,192.000000,0.000000,0.000000,0.000000,0.000000,0.000000,0.000000,0.000000,0.000000,0.000000,1647076316.574848,0.000000
161.000000,37260.134490,36563.072987,18852.869434,20955.296869,11740.924327,27644.436377,42566.237458,28498.273015,-0.116000,0.968000,0.068000,192.000000,0.000000,0.000000,0.000000,0.000000,0.000000,0.000000,0.000000,0.000000,0.000000,1647076316.581813,0.000000
162.000000,37264.738949,36557.887382,18852.958840,20961.287136,11742.913633,27643.832880,42562.616475,28494.584977,-0.116000,0.968000,0.068000,192.000000,0.000000,0.000000,0.000000,0.000000,0.000000,0.000000,0.000000,0.000000,0.000000,1647076316.581830,0.000000
163.000000,37271.176251,36560.077853,18856.892748,20964.572843,11747.540444,27647.900897,42566.304513,28505.492628,-0.116000,0.968000,0.068000,192.000000,0.000000,0.000000,0.000000,0.000000,0.000000,0.000000,0.000000,0.000000,0.000000,1647076316.590016,0.000000
164.000000,37256.245286,36555.585153,18850.746018,20955.609793,11737.526862,27636.836784,42541.650539,28485.107837,-0.116000,0.968000,0.068000,192.000000,0.000000,0.000000,0.000000,0.000000,0.000000,0.000000,0.000000,0.000000,0.000000,1647076316.596505,0.000000
165.000000,37249.249190,36557.574458,18849.091989,20951.720590,11732.676534,27630.131260,42525.601986,28466.824110,-0.116000,0.968000,0.068000,192.000000,0.000000,0.000000,0.000000,0.000000,0.000000,0.000000,0.000000,0.000000,0.000000,1647076316.596521,0.000000
166.000000,37247.706920,36552.120632,18845.806282,20943.875127,11731.603650,27632.142917,42536.822562,28484.973727,-0.116000,0.968000,0.068000,192.000000,0.000000,0.000000,0.000000,0.000000,0.000000,0.000000,0.000000,0.000000,0.000000,1647076316.604345,0.000000
167.000000,37247.572809,36552.321798,18846.074503,20946.579688,11731.782464,27640.234249,42574.529955,28484.839616,-0.116000,0.968000,0.068000,192.000000,0.000000,0.000000,0.000000,0.000000,0.000000,0.000000,0.000000,0.000000,0.000000,1647076316.604362,0.000000
168.000000,37258.771033,36566.917487,18857.160968,20957.017953,11740.656107,27645.486909,42559.531934,28484.683154,-0.116000,0.968000,0.068000,192.000000,0.000000,0.000000,0.000000,0.000000,0.000000,0.000000,0.000000,0.000000,0.000000,1647076316.612439,0.000000
169.000000,37247.014016,36547.963208,18845.806282,20947.473758,11728.384999,27631.002978,42542.276387,28471.070942,-0.124000,0.974000,0.066000,192.000000,252.000000,32.000000,30.000000,112.000000,2.000000,16.000000,0.000000,0.000000,0.000000,1647076316.612456,0.000000
170.000000,37250.679702,36550.846583,18848.667306,20947.607869,11729.770807,27639.295475,42562.929399,28513.695718,-0.124000,0.974000,0.066000,192.000000,0.000000,0.000000,0.000000,0.000000,0.000000,0.000000,0.000000,0.000000,0.000000,1647076316.619530,0.000000
171.000000,37251.193792,36549.594885,18848.197919,20942.556374,11727.781502,27640.234249,42565.455146,28515.774431,-0.124000,0.974000,0.066000,192.000000,0.000000,0.000000,0.000000,0.000000,0.000000,0.000000,0.000000,0.000000,0.000000,1647076316.619565,0.000000
172.000000,37259.978027,36568.370350,18855.842216,20949.038380,11736.521034,27643.117624,42564.963408,28505.202056,-0.124000,0.974000,0.066000,192.000000,0.000000,0.000000,0.000000,0.000000,0.000000,0.000000,0.000000,0.000000,0.000000,1647076316.627182,0.000000
173.000000,37252.065510,36552.344150,18847.192090,20943.875127,11727.647391,27633.506374,42557.676739,28485.398410,-0.124000,0.974000,0.066000,192.000000,0.000000,0.000000,0.000000,0.000000,0.000000,0.000000,0.000000,0.000000,0.000000,1647076316.627198,0.000000
174.000000,37250.545591,36545.057481,18838.676076,20939.158909,11719.377246,27625.102118,42558.101423,28459.604497,-0.124000,0.974000,0.066000,192.000000,0.000000,0.000000,0.000000,0.000000,0.000000,0.000000,0.000000,0.000000,0.000000,1647076316.635105,0.000000
175.000000,37238.967388,36534.552161,18827.410797,20922.238639,11707.128490,27613.009824,42540.868228,28441.209011,-0.124000,0.974000,0.066000,192.000000,0.000000,0.000000,0.000000,0.000000,0.000000,0.000000,0.000000,0.000000,0.000000,1647076316.635122,0.000000
176.000000,37242.208390,36546.622103,18834.205727,20932.587496,11716.516223,27628.298417,42544.288044,28490.539311,-0.124000,0.974000,0.066000,192.000000,0.000000,0.000000,0.000000,0.000000,0.000000,0.000000,0.000000,0.000000,0.000000,1647076316.643174,0.000000
177.000000,37247.014016,36553.886420,18837.692599,20938.309543,11721.478310,27632.500545,42544.355100,28504.263282,-0.124000,0.974000,0.066000,192.000000,0.000000,0.000000,0.000000,0.000000,0.000000,0.000000,0.000000,0.000000,0.000000,1647076316.643190,0.000000
178.000000,37254.077167,36554.333455,18841.604154,20942.064636,11725.680438,27636.456804,42541.158800,28507.973672,-0.124000,0.974000,0.066000,192.000000,0.000000,0.000000,0.000000,0.000000,0.000000,0.000000,0.000000,0.000000,0.000000,1647076316.649295,0.000000
179.000000,37250.478536,36550.578362,18836.776177,20933.995656,11717.969086,27630.466536,42539.549475,28494.115590,-0.122000,0.976000,0.060000,192.000000,252.000000,48.000000,30.000000,128.000000,1.000000,224.000000,0.000000,0.000000,0.000000,1647076316.656879,0.000000
180.000000,37247.684568,36548.298484,18835.904459,20934.666209,11715.108063,27621.257618,42547.909027,28437.789194,-0.122000,0.976000,0.060000,192.000000,0.000000,0.000000,0.000000,0.000000,0.000000,0.000000,0.000000,0.000000,0.000000,1647076316.656896,0.000000
181.000000,37244.220048,36538.150792,18832.574050,20929.748825,11711.285914,27626.443222,42554.569847,28479.162273,-0.122000,0.976000,0.060000,192.000000,0.000000,0.000000,0.000000,0.000000,0.000000,0.000000,0.000000,0.000000,0.000000,1647076316.664810,0.000000
182.000000,37254.591257,36547.069138,18839.614849,20926.776043,11718.773749,27640.390711,42550.211257,28520.289483,-0.122000,0.976000,0.060000,192.000000,0.000000,0.000000,0.000000,0.000000,0.000000,0.000000,0.000000,0.000000,0.000000,1647076316.664826,0.000000
183.000000,37250.031501,36552.455908,18843.839329,20936.096720,11721.254792,27639.541345,42551.753527,28499.167085,-0.122000,0.976000,0.060000,192.000000,0.000000,0.000000,0.000000,0.000000,0.000000,0.000000,0.000000,0.000000,0.000000,1647076316.671983,0.000000
184.000000,37258.748681,36568.482109,18854.456407,20948.770159,11729.547290,27648.862022,42568.338522,28498.138904,-0.122000,0.976000,0.060000,192.000000,0.000000,0.000000,0.000000,0.000000,0.000000,0.000000,0.000000,0.000000,0.000000,1647076316.671999,0.000000
185.000000,37250.076205,36568.415054,18846.342724,20937.840156,11720.450130,27634.288685,42544.936245,28460.096235,-0.122000,0.976000,0.060000,192.000000,0.000000,0.000000,0.000000,0.000000,0.000000,0.000000,0.000000,0.000000,0.000000,1647076316.679465,0.000000
186.000000,37224.818733,36531.668786,18820.817032,20907.553543,11692.041062,27606.728984,42500.679791,28442.907744,-0.122000,0.976000,0.060000,192.000000,0.000000,0.000000,0.000000,0.000000,0.000000,0.000000,0.000000,0.000000,0.000000,1647076316.679481,0.000000
187.000000,37232.284216,36530.886475,18828.260163,20913.275589,11696.623170,27614.753260,42515.566053,28459.828014,-0.122000,0.976000,0.060000,192.000000,0.000000,0.000000,0.000000,0.000000,0.000000,0.000000,0.000000,0.000000,0.000000,1647076316.687377,0.000000
188.000000,37248.936266,36548.074966,18846.119207,20936.990790,11718.304362,27640.033083,42555.933303,28492.595672,-0.122000,0.976000,0.060000,192.000000,0.000000,0.000000,0.000000,0.000000,0.000000,0.000000,0.000000,0.000000,0.000000,1647076316.687393,0.000000
189.000000,37234.318225,36529.768888,18834.719817,20926.843098,11707.530821,27628.566638,42545.495039,28471.965012,-0.128000,0.974000,0.064000,192.000000,252.000000,0.000000,30.000000,112.000000,2.000000,0.000000,0.000000,0.000000,0.000000,1647076316.695487,0.000000
190.000000,37230.920760,36540.765946,18833.937506,20927.156022,11709.251906,27631.405310,42547.394937,28489.712297,-0.128000,0.974000,0.064000,192.000000,0.000000,0.000000,0.000000,0.000000,0.000000,0.000000,0.000000,0.000000,0.000000,1647076316.695504,0.000000
191.000000,37247.639864,36552.902943,18842.922907,20938.510709,11718.594935,27636.345045,42556.536800,28493.020355,-0.128000,0.974000,0.064000,192.000000,0.000000,0.000000,0.000000,0.000000,0.000000,0.000000,0.000000,0.000000,0.000000,1647076316.702108,0.000000
192.000000,37240.554361,36540.073042,18837.893765,20932.229868,11713.141109,27630.600647,42558.302588,28488.281785,-0.128000,0.974000,0.064000,192.000000,0.000000,0.000000,0.000000,0.000000,0.000000,0.000000,0.000000,0.000000,0.000000,1647076316.702124,0.000000
193.000000,37242.834239,36545.035129,18839.123111,20938.600116,11716.449167,27630.220667,42549.808925,28486.091314,-0.128000,0.974000,0.064000,192.000000,0.000000,0.000000,0.000000,0.000000,0.000000,0.000000,0.000000,0.000000,0.000000,1647076316.709137,0.000000
194.000000,37236.911027,36544.208115,18835.815052,20932.788662,11711.777653,27619.894161,42536.666100,28458.889241,-0.128000,0.974000,0.064000,192.000000,0.000000,0.000000,0.000000,0.000000,0.000000,0.000000,0.000000,0.000000,0.000000,1647076316.717111,0.000000
195.000000,37231.546608,36539.648359,18830.093006,20923.825613,11704.066301,27616.899027,42520.796361,28483.185587,-0.128000,0.974000,0.064000,192.000000,0.000000,0.000000,0.000000,0.000000,0.000000,0.000000,0.000000,0.000000,0.000000,1647076316.717129,0.000000
196.000000,37221.845951,36519.934120,18818.648913,20904.536057,11687.816583,27600.470495,42512.526216,28455.380017,-0.128000,0.974000,0.064000,192.000000,0.000000,0.000000,0.000000,0.000000,0.000000,0.000000,0.000000,0.000000,0.000000,1647076316.725120,0.000000
197.000000,37223.567036,36520.694079,18826.829651,20911.576857,11695.594990,27609.344138,42528.910044,28448.942715,-0.128000,0.974000,0.064000,192.000000,0.000000,0.000000,0.000000,0.000000,0.000000,0.000000,0.000000,0.000000,0.000000,1647076316.725136,0.000000
198.000000,37242.342501,36543.962245,18841.917079,20933.213345,11712.559964,27633.171097,42562.325902,28485.934852,-0.128000,0.974000,0.064000,192.000000,0.000000,0.000000,0.000000,0.000000,0.000000,0.000000,0.000000,0.000000,0.000000,1647076316.731716,0.000000
199.000000,37238.028614,36540.698891,18840.173643,20929.078272,11708.559002,27630.287722,42556.581504,28489.712297,-0.132000,0.974000,0.066000,192.000000,251.000000,224.000000,30.000000,112.000000,2.000000,16.000000,0.000000,0.000000,0.000000,1647076316.731732,0.000000
200.000000,37224.662271,36524.359766,18825.712064,20912.806203,11692.666911,27612.585141,42538.186018,28468.053456,-0.132000,0.974000,0.066000,192.000000,0.000000,0.000000,0.000000,0.000000,0.000000,0.000000,0.000000,0.000000,0.000000,1647076316.739658,0.000000
201.000000,37232.172457,36530.126516,18830.271820,20918.952932,11698.813641,27615.535571,42530.273501,28467.472311,-0.132000,0.974000,0.066000,192.000000,0.000000,0.000000,0.000000,0.000000,0.000000,0.000000,0.000000,0.000000,0.000000,1647076316.739674,0.000000
202.000000,37238.274483,36536.139135,18831.747035,20922.506860,11704.111004,27621.257618,42540.734117,28464.119549,-0.132000,0.974000,0.066000,192.000000,0.000000,0.000000,0.000000,0.000000,0.000000,0.000000,0.000000,0.000000,0.000000,1647076316.747679,0.000000
203.000000,37232.641844,36542.777603,18828.081349,20919.198801,11700.311208,27615.937902,42542.879885,28452.563697,-0.132000,0.974000,0.066000,192.000000,0.000000,0.000000,0.000000,0.000000,0.000000,0.000000,0.000000,0.000000,0.000000,1647076316.747695,0.000000
204.000000,37233.334748,36542.688196,18831.434111,20921.255162,11703.172231,27623.939827,42548.244303,28468.835767,-0.132000,0.974000,0.066000,192.000000,0.000000,0.000000,0.000000,0.000000,0.000000,0.000000,0.000000,0.000000,0.000000,1647076316.754853,0.000000
205.000000,37226.025728,36525.298539,18821.912267,20912.381519,11693.851554,27618.664815,42547.864324,28480.771599,-0.132000,0.974000,0.066000,192.000000,0.000000,0.000000,0.000000,0.000000,0.000000,0.000000,0.000000,0.000000,0.000000,1647076316.754869,0.000000
206.000000,37217.308547,36524.873856,18818.715968,20912.828554,11692.957484,27620.810583,42538.141315,28496.127247,-0.132000,0.974000,0.066000,192.000000,0.000000,0.000000,0.000000,0.000000,0.000000,0.000000,0.000000,0.000000,0.000000,1647076316.762327,0.000000
207.000000,37217.934396,36523.175123,18823.611000,20920.472851,11697.316074,27622.509315,42534.721498,28498.608291,-0.132000,0.974000,0.066000,192.000000,0.000000,0.000000,0.000000,0.000000,0.000000,0.000000,0.000000,0.000000,0.000000,1647076316.762343,0.000000
208.000000,37226.472762,36533.680443,18829.690675,20925.993732,11701.719368,27623.381033,42537.090783,28485.264300,-0.132000,0.974000,0.066000,192.000000,0.000000,0.000000,0.000000,0.000000,0.000000,0.000000,0.000000,0.000000,0.000000,1647076316.769333,0.000000
209.000000,37234.519390,36532.719318,18833.088140,20921.433976,11701.674664,27615.513219,42517.063620,28448.719197,-0.132000,0.974000,0.064000,192.000000,251.000000,224.000000,30.000000,112.000000,2.000000,0.000000,0.000000,0.000000,0.000000,1647076316.777383,0.000000
210.000000,37220.951882,36522.169295,18825.197974,20912.135650,11692.555152,27611.288740,42521.533969,28451.379055,-0.132000,0.974000,0.064000,192.000000,0.000000,0.000000,0.000000,0.000000,0.000000,0.000000,0.000000,0.000000,0.000000,1647076316.777400,0.000000
211.000000,37224.505809,36532.987539,18831.255297,20928.988865,11704.222763,27633.193449,42559.576638,28506.967843,-0.132000,0.974000,0.064000,192.000000,0.000000,0.000000,0.000000,0.000000,0.000000,0.000000,0.000000,0.000000,0.000000,1647076316.784244,0.000000
212.000000,37222.784725,36527.801934,18828.818956,20926.999560,11702.836955,27627.046719,42542.365794,28490.092276,-0.132000,0.974000,0.064000,192.000000,0.000000,0.000000,0.000000,0.000000,0.000000,0.000000,0.000000,0.000000,0.000000,1647076316.784260,0.000000
213.000000,37209.351326,36507.461847,18817.553677,20898.858714,11684.955559,27614.350929,42541.270559,28486.761866,-0.132000,0.974000,0.064000,192.000000,0.000000,0.000000,0.000000,0.000000,0.000000,0.000000,0.000000,0.000000,0.000000,1647076316.791711,0.000000
214.000000,37194.353306,36480.013905,18808.233000,20885.201798,11672.706803,27611.758126,42547.953731,28487.588881,-0.132000,0.974000,0.064000,192.000000,0.000000,0.000000,0.000000,0.000000,0.000000,0.000000,0.000000,0.000000,0.000000,1647076316.791734,0.000000
215.000000,37215.609815,36505.092562,18825.376788,20920.070519,11695.751452,27629.863039,42555.218048,28496.239006,-0.132000,0.974000,0.064000,192.000000,0.000000,0.000000,0.000000,0.000000,0.000000,0.000000,0.000000,0.000000,0.000000,1647076316.799471,0.000000
216.000000,37210.871245,36511.507513,18821.420529,20916.561296,11692.063414,27624.655083,42547.663158,28485.465465,-0.132000,0.974000,0.064000,192.000000,0.000000,0.000000,0.000000,0.000000,0.000000,0.000000,0.000000,0.000000,0.000000,1647076316.799479,0.000000
217.000000,37203.741038,36505.293728,18814.647950,20906.748880,11683.122716,27620.184734,42538.007204,28486.270128,-0.132000,0.974000,0.064000,192.000000,0.000000,0.000000,0.000000,0.000000,0.000000,0.000000,0.000000,0.000000,0.000000,1647076316.807625,0.000000
218.000000,37205.015088,36512.066306,18815.027930,20907.106508,11685.112022,27619.268312,42527.837161,28478.648183,-0.132000,0.974000,0.064000,192.000000,0.000000,0.000000,0.000000,0.000000,0.000000,0.000000,0.000000,0.000000,0.000000,1647076316.807631,0.000000
219.000000,37213.687565,36523.353937,18821.308770,20922.305694,11696.690225,27631.494717,42529.200617,28494.920253,-0.132000,0.978000,0.064000,192.000000,251.000000,224.000000,30.000000,144.000000,2.000000,0.000000,0.000000,0.000000,0.000000,1647076316.814464,0.000000
220.000000,37221.533027,36524.829152,18827.790776,20926.485470,11697.427833,27633.238153,42551.798231,28473.507282,-0.132000,0.978000,0.064000,192.000000,0.000000,0.000000,0.000000,0.000000,0.000000,0.000000,0.000000,0.000000,0.000000,1647076316.814480,0.000000
221.000000,37210.401858,36516.894283,18822.873392,20915.957798,11686.475478,27619.178905,42546.947902,28442.438357,-0.132000,0.978000,0.064000,192.000000,0.000000,0.000000,0.000000,0.000000,0.000000,0.000000,0.000000,0.000000,0.000000,1647076316.822606,0.000000
222.000000,37204.657460,36521.252873,18825.667361,20922.216287,11691.415214,27631.897048,42551.775879,28470.780369,-0.132000,0.978000,0.064000,192.000000,0.000000,0.000000,0.000000,0.000000,0.000000,0.000000,0.000000,0.000000,0.000000,1647076316.822622,0.000000
223.000000,37196.476721,36516.715469,18816.503145,20909.878124,11682.005129,27626.934961,42538.096611,28500.664651,-0.132000,0.978000,0.064000,192.000000,0.000000,0.000000,0.000000,0.000000,0.000000,0.000000,0.000000,0.000000,0.000000,1647076316.829557,0.000000
224.000000,37181.746922,36493.536710,18803.628540,20892.667281,11665.218969,27612.071051,42518.158855,28485.264300,-0.132000,0.978000,0.064000,192.000000,0.000000,0.000000,0.000000,0.000000,0.000000,0.000000,0.000000,0.000000,0.000000,1647076316.829573,0.000000
225.000000,37180.584631,36480.192719,18798.867619,20885.425316,11659.027536,27601.990414,42503.250242,28459.626849,-0.132000,0.978000,0.064000,192.000000,0.000000,0.000000,0.000000,0.000000,0.000000,0.000000,0.000000,0.000000,0.000000,1647076316.836369,0.000000
226.000000,37183.803282,36482.830224,18799.068785,20891.862618,11662.268539,27603.912664,42507.742942,28436.023407,-0.132000,0.978000,0.064000,192.000000,0.000000,0.000000,0.000000,0.000000,0.000000,0.000000,0.000000,0.000000,0.000000,1647076316.844268,0.000000
227.000000,37190.687620,36502.857387,18809.909381,20905.832458,11677.266559,27624.655083,42531.011108,28453.390712,-0.132000,0.978000,0.064000,192.000000,0.000000,0.000000,0.000000,0.000000,0.000000,0.000000,0.000000,0.000000,0.000000,1647076316.844283,0.000000
228.000000,37201.438809,36519.665899,18823.499241,20926.574877,11695.729100,27659.300287,42574.529955,28528.447870,-0.132000,0.978000,0.064000,192.000000,0.000000,0.000000,0.000000,0.000000,0.000000,0.000000,0.000000,0.000000,0.000000,1647076316.852198,0.000000
229.000000,37189.950012,36497.336507,18810.356416,20910.325159,11679.814658,27643.810528,42557.229705,28506.386698,-0.126000,0.978000,0.064000,192.000000,252.000000,16.000000,30.000000,144.000000,2.000000,0.000000,0.000000,0.000000,0.000000,1647076316.852214,0.000000
230.000000,37180.696390,36479.790387,18797.459459,20888.465153,11661.776800,27621.995225,42536.554341,28470.512148,-0.126000,0.978000,0.064000,192.000000,0.000000,0.000000,0.000000,0.000000,0.000000,0.000000,0.000000,0.000000,0.000000,1647076316.860048,0.000000
231.000000,37180.472872,36489.960431,18793.883180,20877.333984,11659.809847,27619.335368,42530.519370,28483.006773,-0.126000,0.978000,0.064000,192.000000,0.000000,0.000000,0.000000,0.000000,0.000000,0.000000,0.000000,0.000000,0.000000,1647076316.860064,0.000000
232.000000,37180.025837,36497.403562,18797.884142,20884.710060,11665.554245,27622.598722,42520.684602,28474.110779,-0.126000,0.978000,0.064000,192.000000,0.000000,0.000000,0.000000,0.000000,0.000000,0.000000,0.000000,0.000000,0.000000,1647076316.868043,0.000000
233.000000,37189.815901,36511.663975,18808.769442,20899.395156,11679.367623,27636.836784,42541.605835,28477.217672,-0.126000,0.978000,0.064000,192.000000,0.000000,0.000000,0.000000,0.000000,0.000000,0.000000,0.000000,0.000000,0.000000,1647076316.868054,0.000000
234.000000,37195.850872,36526.796106,18817.754843,20917.880048,11689.470612,27644.302266,42549.786574,28488.661765,-0.126000,0.978000,0.064000,192.000000,0.000000,0.000000,0.000000,0.000000,0.000000,0.000000,0.000000,0.000000,0.000000,1647076316.876200,0.000000
235.000000,37199.069524,36526.125553,18823.029855,20928.675941,11693.739795,27650.940734,42552.200562,28498.004794,-0.126000,0.978000,0.064000,192.000000,0.000000,0.000000,0.000000,0.000000,0.000000,0.000000,0.000000,0.000000,0.000000,1647076316.876234,0.000000
236.000000,37190.642916,36500.622213,18815.765538,20914.259066,11682.675681,27646.939772,42551.932341,28486.359535,-0.126000,0.978000,0.064000,192.000000,0.000000,0.000000,0.000000,0.000000,0.000000,0.000000,0.000000,0.000000,0.000000,1647076316.882815,0.000000
237.000000,37189.570032,36498.364687,18810.959913,20899.395156,11676.283083,27637.395577,42526.719573,28464.432474,-0.126000,0.978000,0.064000,192.000000,0.000000,0.000000,0.000000,0.000000,0.000000,0.000000,0.000000,0.000000,0.000000,1647076316.882832,0.000000
238.000000,37185.949050,36490.496873,18810.937561,20900.848019,11675.612530,27643.609362,42528.686527,28477.038858,-0.126000,0.978000,0.064000,192.000000,0.000000,0.000000,0.000000,0.000000,0.000000,0.000000,0.000000,0.000000,0.000000,1647076316.891205,0.000000
239.000000,37171.912154,36472.190794,18800.834572,20883.592473,11664.593120,27637.909667,42536.777858,28471.741494,-0.118000,0.974000,0.064000,192.000000,252.000000,80.000000,30.000000,112.000000,2.000000,0.000000,0.000000,0.000000,0.000000,1647076316.891221,0.000000
240.000000,37175.488433,36481.980858,18798.800564,20883.771286,11662.134428,27628.678397,42529.737059,28443.332427,-0.118000,0.974000,0.064000,192.000000,0.000000,0.000000,0.000000,0.000000,0.000000,0.000000,0.000000,0.000000,0.000000,1647076316.897550,0.000000
241.000000,37186.910175,36500.152826,18809.574104,20896.869409,11674.427888,27643.430548,42535.906140,28464.119549,-0.118000,0.974000,0.064000,192.000000,0.000000,0.000000,0.000000,0.000000,0.000000,0.000000,0.000000,0.000000,0.000000,1647076316.904332,0.000000
242.000000,37197.080218,36510.702850,18814.066805,20898.098755,11678.473553,27644.570487,42535.079126,28460.900898,-0.118000,0.974000,0.064000,192.000000,0.000000,0.000000,0.000000,0.000000,0.000000,0.000000,0.000000,0.000000,0.000000,1647076316.904343,0.000000
243.000000,37186.865471,36488.641678,18806.154288,20879.390345,11665.844818,27632.634656,42529.580597,28449.546212,-0.118000,0.974000,0.064000,192.000000,0.000000,0.000000,0.000000,0.000000,0.000000,0.000000,0.000000,0.000000,0.000000,1647076316.912345,0.000000
244.000000,37190.262936,36499.392867,18815.452613,20899.819839,11678.138277,27642.804699,42535.570864,28467.517014,-0.118000,0.974000,0.064000,192.000000,0.000000,0.000000,0.000000,0.000000,0.000000,0.000000,0.000000,0.000000,0.000000,1647076316.912357,0.000000
245.000000,37203.562224,36521.945777,18825.957933,20918.081214,11693.583333,27659.322638,42554.391033,28502.899826,-0.118000,0.974000,0.064000,192.000000,0.000000,0.000000,0.000000,0.000000,0.000000,0.000000,0.000000,0.000000,0.000000,1647076316.919563,0.000000
246.000000,37206.467951,36528.114859,18827.164927,20921.858659,11696.466708,27660.261412,42552.424079,28501.715183,-0.118000,0.974000,0.064000,192.000000,0.000000,0.000000,0.000000,0.000000,0.000000,0.000000,0.000000,0.000000,0.000000,1647076316.919579,0.000000
247.000000,37194.666230,36512.759210,18814.491488,20899.395156,11679.926417,27641.217725,42523.813847,28468.880471,-0.118000,0.974000,0.064000,192.000000,0.000000,0.000000,0.000000,0.000000,0.000000,0.000000,0.000000,0.000000,0.000000,1647076316.927134,0.000000
248.000000,37172.940334,36479.700980,18794.531380,20873.511836,11655.004222,27628.074900,42525.289062,28489.935814,-0.118000,0.974000,0.064000,192.000000,0.000000,0.000000,0.000000,0.000000,0.000000,0.000000,0.000000,0.000000,0.000000,1647076316.927150,0.000000
249.000000,37185.077332,36491.435646,18803.136802,20891.259121,11664.794286,27638.736682,42537.962501,28501.536370,-0.118000,0.978000,0.068000,192.000000,252.000000,80.000000,30.000000,144.000000,2.000000,32.000000,0.000000,0.000000,0.000000,1647076316.935174,0.000000
250.000000,37205.685640,36515.374364,18823.789814,20918.371787,11684.150897,27652.572412,42547.841972,28501.290500,-0.118000,0.978000,0.068000,192.000000,0.000000,0.000000,0.000000,0.000000,0.000000,0.000000,0.000000,0.000000,0.000000,1647076316.935192,0.000000
251.000000,37213.151123,36531.869952,18837.089102,20918.572953,11696.287894,27660.328467,42550.591236,28502.966881,-0.118000,0.978000,0.068000,192.000000,0.000000,0.000000,0.000000,0.000000,0.000000,0.000000,0.000000,0.000000,0.000000,1647076316.941985,0.000000
252.000000,37197.169625,36508.870007,18823.163965,20904.536057,11681.669853,27642.335313,42523.411515,28481.844483,-0.118000,0.978000,0.068000,192.000000,0.000000,0.000000,0.000000,0.000000,0.000000,0.000000,0.000000,0.000000,0.000000,1647076316.941995,0.000000
253.000000,37188.072465,36498.476445,18817.218401,20901.540923,11671.946844,27639.250772,42544.109231,28464.678343,-0.118000,0.978000,0.068000,192.000000,0.000000,0.000000,0.000000,0.000000,0.000000,0.000000,0.000000,0.000000,0.000000,1647076316.951092,0.000000
254.000000,37188.184224,36503.818512,18819.453576,20902.077365,11672.818562,27637.753205,42534.073297,28451.379055,-0.118000,0.978000,0.068000,192.000000,0.000000,0.000000,0.000000,0.000000,0.000000,0.000000,0.000000,0.000000,0.000000,1647076316.951109,0.000000
255.000000,37184.049151,36500.644565,18816.100814,20887.816952,11667.007109,27633.148746,42515.096666,28448.428625,-0.118000,0.978000,0.068000,192.000000,0.000000,0.000000,0.000000,0.000000,0.000000,0.000000,0.000000,0.000000,0.000000,1647076316.957230,0.000000
0.000000,37186.172567,36508.065344,18814.938523,20885.134743,11666.023632,27638.803737,42531.838123,28479.229329,-0.118000,0.978000,0.068000,192.000000,0.000000,0.000000,0.000000,0.000000,0.000000,0.000000,0.000000,0.000000,0.000000,1647076316.964593,0.000000
1.000000,37195.537948,36504.354954,18820.213535,20893.159019,11672.840914,27645.509260,42558.369643,28485.800741,-0.118000,0.978000,0.068000,192.000000,0.000000,0.000000,0.000000,0.000000,0.000000,0.000000,0.000000,0.000000,0.000000,1647076316.964628,0.000000
2.000000,37209.194864,36515.620233,18827.947238,20905.318368,11681.893370,27649.577278,42561.074205,28486.918329,-0.118000,0.978000,0.068000,192.000000,0.000000,0.000000,0.000000,0.000000,0.000000,0.000000,0.000000,0.000000,0.000000,1647076316.971893,0.000000
3.000000,37209.083105,36527.466658,18826.829651,20903.507877,11681.111059,27644.056397,42548.534876,28479.162273,-0.122000,0.978000,0.066000,192.000000,252.000000,48.000000,30.000000,144.000000,2.000000,16.000000,0.000000,0.000000,0.000000,1647076316.971910,0.000000
4.000000,37197.594309,36515.284957,18824.907401,20897.830534,11679.412327,27647.364455,42559.174306,28485.845445,-0.122000,0.978000,0.066000,192.000000,0.000000,0.000000,0.000000,0.000000,0.000000,0.000000,0.000000,0.000000,0.000000,1647076316.979351,0.000000
5.000000,37193.369829,36498.789370,18819.073596,20890.387403,11674.539646,27640.837746,42556.335635,28457.726950,-0.122000,0.978000,0.066000,192.000000,0.000000,0.000000,0.000000,0.000000,0.000000,0.000000,0.000000,0.000000,0.000000,1647076316.979368,0.000000
6.000000,37199.583614,36508.020640,18822.761634,20889.672147,11678.093574,27634.311036,42551.418251,28427.641502,-0.122000,0.978000,0.066000,192.000000,0.000000,0.000000,0.000000,0.000000,0.000000,0.000000,0.000000,0.000000,0.000000,1647076316.987467,0.000000
7.000000,37205.953861,36524.538580,18827.030817,20900.244522,11686.944865,27648.996132,42556.402690,28491.925119,-0.122000,0.978000,0.066000,192.000000,0.000000,0.000000,0.000000,0.000000,0.000000,0.000000,0.000000,0.000000,0.000000,1647076316.987483,0.000000
8.000000,37198.577785,36521.051707,18822.001674,20890.677975,11683.703862,27637.306170,42542.499905,28476.658878,-0.122000,0.978000,0.066000,192.000000,0.000000,0.000000,0.000000,0.000000,0.000000,0.000000,0.000000,0.000000,0.000000,1647076316.995380,0.000000
9.000000,37187.178396,36507.864178,18818.514802,20884.978281,11680.686376,27632.299379,42548.557228,28469.059285,-0.122000,0.978000,0.066000,192.000000,0.000000,0.000000,0.000000,0.000000,0.000000,0.000000,0.000000,0.000000,0.000000,1647076316.995396,0.000000
10.000000,37188.921832,36502.767980,18816.391387,20888.912188,11683.636806,27632.299379,42541.807001,28484.996079,-0.122000,0.978000,0.066000,192.000000,0.000000,0.000000,0.000000,0.000000,0.000000,0.000000,0.000000,0.000000,0.000000,1647076317.001705,0.000000
11.000000,37197.393143,36511.105181,18821.934619,20903.999615,11692.778670,27637.797909,42550.434774,28483.029125,-0.122000,0.978000,0.066000,192.000000,0.000000,0.000000,0.000000,0.000000,0.000000,0.000000,0.000000,0.000000,0.000000,1647076317.001717,0.000000
12.000000,37192.654573,36499.124646,18818.894782,20889.359223,11685.961388,27631.628827,42553.094632,28452.183718,-0.122000,0.978000,0.066000,192.000000,0.000000,0.000000,0.000000,0.000000,0.000000,0.000000,0.000000,0.000000,0.000000,1647076317.010145,0.000000
13.000000,37188.631259,36490.720390,18807.405985,20876.954004,11672.729155,27622.710481,42551.999396,28465.147730,-0.122000,0.978000,0.066000,192.000000,0.000000,0.000000,0.000000,0.000000,0.000000,0.000000,0.000000,0.000000,0.000000,1647076317.010162,0.000000
14.000000,37187.714838,36494.319021,18803.203857,20868.572100,11670.717498,27622.799888,42557.073242,28461.549099,-0.124000,0.976000,0.080000,192.000000,252.000000,32.000000,30.000000,128.000000,2.000000,128.000000,0.000000,0.000000,0.000000,1647076317.016962,0.000000
15.000000,37183.490358,36493.983745,18806.735433,20874.808237,11679.322920,27634.646313,42561.387129,28490.092276,-0.124000,0.976000,0.080000,192.000000,0.000000,0.000000,0.000000,0.000000,0.000000,0.000000,0.000000,0.000000,0.000000,1647076317.024951,0.000000
16.000000,37195.381486,36499.549329,18815.609075,20889.850961,11690.588199,27636.277990,42555.016882,28474.334297,-0.124000,0.976000,0.080000,192.000000,0.000000,0.000000,0.000000,0.000000,0.000000,0.000000,0.000000,0.000000,0.000000,1647076317.024969,0.000000
17.000000,37201.818788,36505.718411,18820.057073,20895.640063,11698.791289,27640.748339,42560.157783,28476.278898,-0.124000,0.976000,0.080000,192.000000,0.000000,0.000000,0.000000,0.000000,0.000000,0.000000,0.000000,0.000000,0.000000,1647076317.032150,0.000000
18.000000,37209.664251,36519.509437,18827.835480,20911.710967,11712.492909,27658.808548,42581.168423,28500.016451,-0.124000,0.976000,0.080000,192.000000,0.000000,0.000000,0.000000,0.000000,0.000000,0.000000,0.000000,0.000000,0.000000,1647076317.032166,0.000000
19.000000,37195.068561,36502.164483,18815.117337,20895.573008,11697.852516,27639.854269,42556.514449,28456.050570,-0.124000,0.976000,0.080000,192.000000,0.000000,0.000000,0.000000,0.000000,0.000000,0.000000,0.000000,0.000000,0.000000,1647076317.039758,0.000000
20.000000,37186.820768,36492.329716,18806.556619,20875.590548,11688.531838,27635.450975,42555.821545,28473.686096,-0.124000,0.976000,0.080000,192.000000,0.000000,0.000000,0.000000,0.000000,0.000000,0.000000,0.000000,0.000000,0.000000,1647076317.039775,0.000000
21.000000,37189.502977,36494.073152,18807.920075,20880.083249,11692.644559,27640.189545,42557.967312,28495.903730,-0.124000,0.976000,0.080000,192.000000,0.000000,0.000000,0.000000,0.000000,0.000000,0.000000,0.000000,0.000000,0.000000,1647076317.047653,0.000000
22.000000,37195.828521,36498.096466,18813.329198,20886.721717,11697.517240,27637.730853,42560.917742,28463.538404,-0.124000,0.976000,0.080000,192.000000,0.000000,0.000000,0.000000,0.000000,0.000000,0.000000,0.000000,0.000000,0.000000,1647076317.047687,0.000000
23.000000,37212.100591,36523.376289,18831.769387,20912.694444,11717.879679,27666.721066,42599.250984,28511.549951,-0.124000,0.976000,0.080000,192.000000,0.000000,0.000000,0.000000,0.000000,0.000000,0.000000,0.000000,0.000000,0.000000,1647076317.054676,0.000000
24.000000,37206.847931,36517.855408,18826.382616,20906.994749,11713.096406,27661.602516,42591.740798,28508.286596,-0.128000,0.974000,0.084000,192.000000,252.000000,0.000000,30.000000,112.000000,2.000000,160.000000,0.000000,0.000000,0.000000,1647076317.054693,0.000000
25.000000,37203.495169,36510.032297,18817.464270,20890.320348,11701.898182,27643.475252,42565.633960,28470.310983,-0.128000,0.974000,0.084000,192.000000,0.000000,0.000000,0.000000,0.000000,0.000000,0.000000,0.000000,0.000000,0.000000,1647076317.062396,0.000000
26.000000,37198.913061,36503.349126,18807.897724,20878.630385,11692.599856,27630.131260,42553.318149,28440.270238,-0.128000,0.974000,0.084000,192.000000,0.000000,0.000000,0.000000,0.000000,0.000000,0.000000,0.000000,0.000000,0.000000,1647076317.062411,0.000000
27.000000,37196.722591,36498.923480,18812.837459,20886.989938,11699.037158,27637.909667,42555.106289,28450.060302,-0.128000,0.974000,0.084000,192.000000,0.000000,0.000000,0.000000,0.000000,0.000000,0.000000,0.000000,0.000000,0.000000,1647076317.070350,0.000000
28.000000,37207.026745,36517.587187,18823.946276,20909.229923,11714.839842,27659.367342,42567.511507,28491.589843,-0.128000,0.974000,0.084000,192.000000,0.000000,0.000000,0.000000,0.000000,0.000000,0.000000,0.000000,0.000000,0.000000,1647076317.070366,0.000000
29.000000,37210.200692,36522.929254,18829.489509,20912.605037,11718.438473,27669.090351,42578.687379,28512.041689,-0.128000,0.974000,0.084000,192.000000,0.000000,0.000000,0.000000,0.000000,0.000000,0.000000,0.000000,0.000000,0.000000,1647076317.077342,0.000000
30.000000,37207.004393,36507.931233,18827.008465,20898.299920,11710.257734,27662.921269,42581.704865,28498.898864,-0.128000,0.974000,0.084000,192.000000,0.000000,0.000000,0.000000,0.000000,0.000000,0.000000,0.000000,0.000000,0.000000,1647076317.077358,0.000000
31.000000,37193.012201,36488.529919,18811.652817,20878.138647,11694.008016,27643.430548,42559.397824,28469.841596,-0.128000,0.974000,0.084000,192.000000,0.000000,0.000000,0.000000,0.000000,0.000000,0.000000,0.000000,0.000000,0.000000,1647076317.084331,0.000000
32.000000,37200.880015,36506.098390,18818.112471,20892.264949,11703.172231,27643.743473,42554.636902,28451.714331,-0.128000,0.974000,0.084000,192.000000,0.000000,0.000000,0.000000,0.000000,0.000000,0.000000,0.000000,0.000000,0.000000,1647076317.091947,0.000000
33.000000,37209.172512,36512.490989,18826.561430,20902.233827,11713.006999,27646.850365,42551.306492,28440.896087,-0.128000,0.974000,0.084000,192.000000,0.000000,0.000000,0.000000,0.000000,0.000000,0.000000,0.000000,0.000000,0.000000,1647076317.091963,0.000000
34.000000,37204.858626,36505.785466,18829.668323,20905.318368,11715.912725,27664.843519,42573.881754,28496.082544,-0.116000,0.974000,0.082000,192.000000,252.000000,96.000000,30.000000,112.000000,2.000000,144.000000,0.000000,0.000000,0.000000,1647076317.099816,0.000000
35.000000,37226.740983,36519.487085,18860.379620,20934.956781,11747.853368,27702.394450,42617.311194,28540.137832,-0.116000,0.974000,0.082000,192.000000,0.000000,0.000000,0.000000,0.000000,0.000000,0.000000,0.000000,0.000000,0.000000,1647076317.099833,0.000000
36.000000,37249.830335,36543.626969,18896.656501,20975.279328,11787.952398,27744.303971,42653.699834,28570.536205,-0.116000,0.974000,0.082000,192.000000,0.000000,0.000000,0.000000,0.000000,0.000000,0.000000,0.000000,0.000000,0.000000,1647076317.107150,0.000000
37.000000,37137.803392,36437.836163,18802.779174,20885.514723,11696.645522,27663.480063,42569.679626,28509.046556,-0.116000,0.974000,0.082000,192.000000,0.000000,0.000000,0.000000,0.000000,0.000000,0.000000,0.000000,0.000000,0.000000,1647076317.107167,0.000000
38.000000,37071.016380,36345.590513,18760.444970,20831.356446,11649.796265,27633.551077,42542.566960,28472.635564,-0.116000,0.974000,0.082000,192.000000,0.000000,0.000000,0.000000,0.000000,0.000000,0.000000,0.000000,0.000000,0.000000,1647076317.114693,0.000000
39.000000,37046.965903,36305.357373,18761.763723,20825.992027,11649.572748,27638.691978,42550.524181,28448.026293,-0.116000,0.974000,0.082000,192.000000,0.000000,0.000000,0.000000,0.000000,0.000000,0.000000,0.000000,0.000000,0.000000,1647076317.114710,0.000000
40.000000,37013.818266,36270.600411,18748.933822,20816.447832,11638.776855,27632.098214,42554.659254,28435.241095,-0.116000,0.974000,0.082000,192.000000,0.000000,0.000000,0.000000,0.000000,0.000000,0.000000,0.000000,0.000000,0.000000,1647076317.123184,0.000000
41.000000,36994.886338,36249.969751,18746.586889,20816.201963,11639.514463,27638.356702,42558.146126,28464.231308,-0.116000,0.974000,0.082000,192.000000,0.000000,0.000000,0.000000,0.000000,0.000000,0.000000,0.000000,0.000000,0.000000,1647076317.123201,0.000000
42.000000,36983.598707,36231.462506,18743.122368,20804.042614,11633.725361,27632.053510,42550.479478,28456.922288,-0.116000,0.974000,0.082000,192.000000,0.000000,0.000000,0.000000,0.000000,0.000000,0.000000,0.000000,0.000000,0.000000,1647076317.131124,0.000000
43.000000,36979.418931,36234.234123,18742.787092,20803.148544,11634.172396,27633.953408,42555.374510,28448.540383,-0.116000,0.974000,0.082000,192.000000,0.000000,0.000000,0.000000,0.000000,0.000000,0.000000,0.000000,0.000000,0.000000,1647076317.131158,0.000000
44.000000,36976.423797,36231.216637,18742.474168,20804.646111,11635.289983,27649.420816,42564.404614,28492.841541,-0.120000,0.966000,0.072000,192.000000,252.000000,64.000000,30.000000,48.000000,2.000000,64.000000,0.000000,0.000000,0.000000,1647076317.137041,0.000000
45.000000,36952.418024,36188.770674,18724.771586,20781.132076,11613.899364,27631.829993,42544.668024,28462.331410,-0.120000,0.966000,0.072000,192.000000,0.000000,0.000000,0.000000,0.000000,0.000000,0.000000,0.000000,0.000000,0.000000,1647076317.137058,0.000000
46.000000,36954.384977,36189.687096,18724.257496,20781.512056,11613.452329,27635.048644,42545.897370,28459.336276,-0.120000,0.966000,0.072000,192.000000,0.000000,0.000000,0.000000,0.000000,0.000000,0.000000,0.000000,0.000000,0.000000,1647076317.144345,0.000000
47.000000,36978.055475,36221.739497,18741.289525,20799.706376,11629.791454,27647.811490,42546.657329,28461.906727,-0.120000,0.966000,0.072000,192.000000,0.000000,0.000000,0.000000,0.000000,0.000000,0.000000,0.000000,0.000000,0.000000,1647076317.152278,0.000000
48.000000,36992.226481,36235.485820,18742.675333,20801.516867,11631.892518,27637.619095,42543.170457,28426.926247,-0.120000,0.966000,0.072000,192.000000,0.000000,0.000000,0.000000,0.000000,0.000000,0.000000,0.000000,0.000000,0.000000,1647076317.152294,0.000000
49.000000,37014.019431,36253.478975,18754.544110,20822.013417,11648.566919,27653.891165,42559.621341,28468.187567,-0.120000,0.966000,0.072000,192.000000,0.000000,0.000000,0.000000,0.000000,0.000000,0.000000,0.000000,0.000000,0.000000,1647076317.160274,0.000000
50.000000,37022.982481,36273.662600,18764.267118,20827.780167,11654.333669,27653.399426,42552.245266,28480.324564,-0.120000,0.966000,0.072000,192.000000,0.000000,0.000000,0.000000,0.000000,0.000000,0.000000,0.000000,0.000000,0.000000,1647076317.160290,0.000000
51.000000,37033.219580,36289.532338,18761.361392,20827.467242,11649.952728,27635.026292,42530.139390,28439.778500,-0.120000,0.966000,0.072000,192.000000,0.000000,0.000000,0.000000,0.000000,0.000000,0.000000,0.000000,0.000000,0.000000,1647076317.166754,0.000000
52.000000,37053.961999,36314.834513,18773.207816,20842.286449,11664.056678,27647.498566,42549.384242,28459.380979,-0.120000,0.966000,0.072000,192.000000,0.000000,0.000000,0.000000,0.000000,0.000000,0.000000,0.000000,0.000000,0.000000,1647076317.166770,0.000000
53.000000,37057.247705,36324.892798,18769.698592,20842.912298,11660.860379,27643.475252,42552.446431,28479.832826,-0.120000,0.966000,0.072000,192.000000,0.000000,0.000000,0.000000,0.000000,0.000000,0.000000,0.000000,0.000000,0.000000,1647076317.174818,0.000000
54.000000,37083.287487,36359.113319,18782.573197,20861.821873,11675.612530,27648.794967,42559.755452,28465.080674,-0.122000,0.972000,0.072000,192.000000,252.000000,48.000000,30.000000,96.000000,2.000000,64.000000,0.000000,0.000000,0.000000,1647076317.174834,0.000000
55.000000,37100.721848,36371.384427,18789.189314,20865.979298,11682.832144,27656.774540,42561.655350,28469.774541,-0.122000,0.972000,0.072000,192.000000,0.000000,0.000000,0.000000,0.000000,0.000000,0.000000,0.000000,0.000000,0.000000,1647076317.182860,0.000000
56.000000,37093.658697,36358.688636,18783.959005,20852.076513,11672.796210,27654.159385,42550.524181,28483.073829,-0.122000,0.972000,0.072000,192.000000,0.000000,0.000000,0.000000,0.000000,0.000000,0.000000,0.000000,0.000000,0.000000,1647076317.182876,0.000000
57.000000,37099.358392,36377.531156,18780.874465,20853.015286,11668.012937,27641.485946,42522.986832,28461.347933,-0.122000,0.972000,0.072000,192.000000,0.000000,0.000000,0.000000,0.000000,0.000000,0.000000,0.000000,0.000000,0.000000,1647076317.189903,0.000000
58.000000,37102.398229,36386.203633,18779.466305,20849.908394,11667.074164,27637.395577,42520.639899,28433.318845,-0.122000,0.972000,0.072000,192.000000,0.000000,0.000000,0.000000,0.000000,0.000000,0.000000,0.000000,0.000000,0.000000,1647076317.189919,0.000000
59.000000,37111.405982,36378.939316,18782.662604,20856.233937,11668.817600,27647.275048,42555.508620,28455.648238,-0.122000,0.972000,0.072000,192.000000,0.000000,0.000000,0.000000,0.000000,0.000000,0.000000,0.000000,0.000000,0.000000,1647076317.197455,0.000000
60.000000,37135.657625,36401.581633,18795.492505,20869.890853,11681.826315,27656.193394,42558.794327,28463.739570,-0.122000,0.972000,0.072000,192.000000,0.000000,0.000000,0.000000,0.000000,0.000000,0.000000,0.000000,0.000000,0.000000,1647076317.197471,0.000000
61.000000,37146.587628,36422.480514,18811.026968,20878.004536,11694.656216,27663.100083,42568.249115,28461.549099,-0.122000,0.972000,0.072000,192.000000,0.000000,0.000000,0.000000,0.000000,0.000000,0.000000,0.000000,0.000000,0.000000,1647076317.204461,0.000000
62.000000,37140.172677,36425.788573,18807.674206,20873.265967,11690.141164,27656.506319,42553.698129,28463.672514,-0.122000,0.972000,0.072000,192.000000,0.000000,0.000000,0.000000,0.000000,0.000000,0.000000,0.000000,0.000000,0.000000,1647076317.212594,0.000000
63.000000,37152.667302,36436.293892,18810.423471,20878.540978,11690.543495,27654.606420,42553.966350,28463.136073,-0.122000,0.972000,0.072000,192.000000,0.000000,0.000000,0.000000,0.000000,0.000000,0.000000,0.000000,0.000000,0.000000,1647076317.212609,0.000000
64.000000,37165.944238,36449.637884,18820.973494,20883.793638,11699.327731,27667.391618,42554.659254,28494.115590,-0.126000,0.980000,0.068000,192.000000,252.000000,16.000000,30.000000,160.000000,2.000000,32.000000,0.000000,0.000000,0.000000,1647076317.219681,0.000000
65.000000,37166.905363,36448.944980,18815.229096,20886.878179,11696.734929,27662.071903,42543.304568,28472.859081,-0.126000,0.980000,0.068000,192.000000,0.000000,0.000000,0.000000,0.000000,0.000000,0.000000,0.000000,0.000000,0.000000,1647076317.219715,0.000000
66.000000,37158.970494,36445.547515,18808.031834,20879.211531,11688.911818,27653.377074,42542.455201,28451.289648,-0.126000,0.980000,0.068000,192.000000,0.000000,0.000000,0.000000,0.000000,0.000000,0.000000,0.000000,0.000000,0.000000,1647076317.227126,0.000000
67.000000,37154.768366,36449.503773,18810.088195,20868.840321,11685.804926,27650.739569,42544.288044,28447.981590,-0.126000,0.980000,0.068000,192.000000,0.000000,0.000000,0.000000,0.000000,0.000000,0.000000,0.000000,0.000000,0.000000,1647076317.227142,0.000000
68.000000,37161.049206,36463.495965,18811.831631,20872.349545,11687.660120,27655.656952,42545.562094,28470.847424,-0.126000,0.980000,0.068000,192.000000,0.000000,0.000000,0.000000,0.000000,0.000000,0.000000,0.000000,0.000000,0.000000,1647076317.235154,0.000000
69.000000,37164.044340,36467.608686,18806.891895,20869.019135,11682.429812,27647.051531,42533.603911,28453.949506,-0.126000,0.980000,0.068000,192.000000,0.000000,0.000000,0.000000,0.000000,0.000000,0.000000,0.000000,0.000000,0.000000,1647076317.235170,0.000000
70.000000,37173.052093,36463.160689,18808.635331,20876.171693,11687.615417,27649.733740,42539.862399,28443.891221,-0.126000,0.980000,0.068000,192.000000,0.000000,0.000000,0.000000,0.000000,0.000000,0.000000,0.000000,0.000000,0.000000,1647076317.243172,0.000000
71.000000,37183.020971,36471.274372,18819.721796,20885.000632,11698.925400,27652.326542,42544.690376,28421.338310,-0.126000,0.980000,0.068000,192.000000,0.000000,0.000000,0.000000,0.000000,0.000000,0.000000,0.000000,0.000000,0.000000,1647076317.243188,0.000000
72.000000,37186.798416,36478.292820,18825.354436,20893.740164,11702.635789,27656.439263,42542.097574,28442.706578,-0.126000,0.980000,0.068000,192.000000,0.000000,0.000000,0.000000,0.000000,0.000000,0.000000,0.000000,0.000000,0.000000,1647076317.249819,0.000000
73.000000,37199.315393,36495.280146,18834.339837,20903.977263,11713.901068,27670.073828,42548.244303,28498.004794,-0.126000,0.980000,0.068000,192.000000,0.000000,0.000000,0.000000,0.000000,0.000000,0.000000,0.000000,0.000000,0.000000,1647076317.249837,0.000000
74.000000,37199.941242,36496.889472,18832.372884,20900.959778,11712.939943,27667.078694,42563.398786,28474.088427,-0.122000,0.976000,0.074000,192.000000,252.000000,48.000000,30.000000,128.000000,2.000000,80.000000,0.000000,0.000000,0.000000,1647076317.257608,0.000000
75.000000,37200.008297,36497.247100,18827.790776,20895.036566,11708.559002,27661.490758,42564.851649,28452.764863,-0.122000,0.976000,0.074000,192.000000,0.000000,0.000000,0.000000,0.000000,0.000000,0.000000,0.000000,0.000000,0.000000,1647076317.257625,0.000000
76.000000,37183.646820,36484.350143,18810.915209,20872.975394,11687.749527,27638.401406,42532.553379,28434.056453,-0.122000,0.976000,0.074000,192.000000,0.000000,0.000000,0.000000,0.000000,0.000000,0.000000,0.000000,0.000000,0.000000,1647076317.264544,0.000000
77.000000,37185.278497,36490.474521,18817.866602,20889.180409,11695.147955,27644.928115,42537.671928,28425.562790,-0.122000,0.976000,0.074000,192.000000,0.000000,0.000000,0.000000,0.000000,0.000000,0.000000,0.000000,0.000000,0.000000,1647076317.271943,0.000000
78.000000,37216.749754,36528.919521,18843.392294,20925.613752,11724.607554,27677.047572,42566.997417,28462.219651,-0.122000,0.976000,0.074000,192.000000,0.000000,0.000000,0.000000,0.000000,0.000000,0.000000,0.000000,0.000000,0.000000,1647076317.271960,0.000000
79.000000,37216.034498,36522.996309,18839.547794,20909.900476,11718.371417,27676.242909,42561.990626,28468.880471,-0.122000,0.976000,0.074000,192.000000,0.000000,0.000000,0.000000,0.000000,0.000000,0.000000,0.000000,0.000000,0.000000,1647076317.279439,0.000000
80.000000,37204.657460,36519.800010,18828.438977,20884.732411,11705.966199,27664.195319,42547.529047,28477.910576,-0.122000,0.976000,0.074000,192.000000,0.000000,0.000000,0.000000,0.000000,0.000000,0.000000,0.000000,0.000000,0.000000,1647076317.279455,0.000000
81.000000,37208.323146,36513.608576,18827.835480,20888.800429,11706.212068,27660.864909,42554.100460,28471.428570,-0.122000,0.976000,0.074000,192.000000,0.000000,0.000000,0.000000,0.000000,0.000000,0.000000,0.000000,0.000000,0.000000,1647076317.287329,0.000000
82.000000,37205.238605,36499.683440,18828.751901,20899.126935,11705.675626,27653.868813,42548.981911,28436.872773,-0.122000,0.976000,0.074000,192.000000,0.000000,0.000000,0.000000,0.000000,0.000000,0.000000,0.000000,0.000000,0.000000,1647076317.287345,0.000000
83.000000,37192.989849,36490.541576,18820.995846,20894.142496,11695.013844,27634.780423,42521.601024,28400.573540,-0.122000,0.976000,0.074000,192.000000,0.000000,0.000000,0.000000,0.000000,0.000000,0.000000,0.000000,0.000000,0.000000,1647076317.295475,0.000000
84.000000,37212.189998,36512.893321,18835.502128,20909.140516,11709.944810,27654.181737,42537.426059,28464.276011,-0.124000,0.968000,0.072000,192.000000,252.000000,32.000000,30.000000,64.000000,2.000000,64.000000,0.000000,0.000000,0.000000,1647076317.295491,0.000000
85.000000,37223.924664,36527.980748,18841.984134,20914.169659,11717.723217,27656.931002,42547.953731,28462.353761,-0.124000,0.968000,0.072000,192.000000,0.000000,0.000000,0.000000,0.000000,0.000000,0.000000,0.000000,0.000000,0.000000,1647076317.302119,0.000000
86.000000,37228.305605,36537.301426,18846.633297,20915.935447,11722.618249,27657.869775,42539.772992,28452.966029,-0.124000,0.968000,0.072000,192.000000,0.000000,0.000000,0.000000,0.000000,0.000000,0.000000,0.000000,0.000000,0.000000,1647076317.302153,0.000000
87.000000,37233.133582,36538.419013,18849.807245,20925.323179,11728.474406,27663.614173,42542.589312,28459.962125,-0.124000,0.968000,0.072000,192.000000,0.000000,0.000000,0.000000,0.000000,0.000000,0.000000,0.000000,0.000000,0.000000,1647076317.310124,0.000000
88.000000,37230.361966,36535.289769,18847.057980,20920.092871,11724.987534,27659.881432,42545.226818,28443.198316,-0.124000,0.968000,0.072000,192.000000,0.000000,0.000000,0.000000,0.000000,0.000000,0.000000,0.000000,0.000000,0.000000,1647076317.310140,0.000000
89.000000,37222.047117,36530.037109,18838.720779,20904.781926,11714.795138,27651.320714,42541.672890,28440.136127,-0.124000,0.968000,0.072000,192.000000,0.000000,0.000000,0.000000,0.000000,0.000000,0.000000,0.000000,0.000000,0.000000,1647076317.317989,0.000000
90.000000,37226.986853,36540.564780,18842.051189,20909.855772,11717.522051,27654.427606,42535.190884,28440.896087,-0.124000,0.968000,0.072000,192.000000,0.000000,0.000000,0.000000,0.000000,0.000000,0.000000,0.000000,0.000000,0.000000,1647076317.318005,0.000000
91.000000,37222.427097,36528.539542,18844.107550,20912.023891,11718.639638,27655.969877,42542.656367,28434.123508,-0.124000,0.968000,0.072000,192.000000,0.000000,0.000000,0.000000,0.000000,0.000000,0.000000,0.000000,0.000000,0.000000,1647076317.324942,0.000000
92.000000,37220.080163,36519.732954,18844.085198,20902.680862,11716.739740,27653.645295,42536.129658,28434.794061,-0.124000,0.968000,0.072000,192.000000,0.000000,0.000000,0.000000,0.000000,0.000000,0.000000,0.000000,0.000000,0.000000,1647076317.324958,0.000000
93.000000,37223.075297,36518.905940,18844.286364,20900.043356,11714.906897,27652.527708,42528.574768,28442.393654,-0.124000,0.968000,0.072000,192.000000,0.000000,0.000000,0.000000,0.000000,0.000000,0.000000,0.000000,0.000000,0.000000,1647076317.331772,0.000000
94.000000,37229.691414,36531.489972,18848.667306,20907.888819,11722.573545,27659.166176,42552.468783,28436.537497,-0.122000,0.970000,0.072000,192.000000,252.000000,48.000000,30.000000,80.000000,2.000000,64.000000,0.000000,0.000000,0.000000,1647076317.339815,0.000000
95.000000,37233.602969,36542.151754,18851.997715,20909.855772,11725.948659,27667.011639,42557.162649,28445.433491,-0.122000,0.970000,0.072000,192.000000,0.000000,0.000000,0.000000,0.000000,0.000000,0.000000,0.000000,0.000000,0.000000,1647076317.339831,0.000000
96.000000,37229.981986,36533.769850,18848.644954,20906.681825,11721.813586,27663.100083,42549.093670,28440.113776,-0.122000,0.970000,0.072000,192.000000,0.000000,0.000000,0.000000,0.000000,0.000000,0.000000,0.000000,0.000000,0.000000,1647076317.349184,0.000000
97.000000,37230.227855,36530.864123,18850.254279,20906.815935,11724.026409,27665.223499,42551.261789,28460.453863,-0.122000,0.970000,0.072000,192.000000,0.000000,0.000000,0.000000,0.000000,0.000000,0.000000,0.000000,0.000000,0.000000,1647076317.349200,0.000000
98.000000,37223.388222,36529.031280,18844.845157,20900.758612,11720.852461,27654.874641,42522.495094,28442.192488,-0.122000,0.970000,0.072000,192.000000,0.000000,0.000000,0.000000,0.000000,0.000000,0.000000,0.000000,0.000000,0.000000,1647076317.355304,0.000000
99.000000,37227.813867,36543.448155,18842.162948,20894.455420,11719.310191,27652.259487,42542.142277,28409.424831,-0.122000,0.970000,0.072000,192.000000,0.000000,0.000000,0.000000,0.000000,0.000000,0.000000,0.000000,0.000000,0.000000,1647076317.355320,0.000000
100.000000,37219.096687,36525.812629,18838.206689,20892.309653,11713.677551,27652.706522,42568.740853,28417.516162,-0.122000,0.970000,0.072000,192.000000,0.000000,0.000000,0.000000,0.000000,0.000000,0.000000,0.000000,0.000000,0.000000,1647076317.362390,0.000000
101.000000,37209.708954,36509.674669,18836.731474,20899.395156,11709.542478,27652.147728,42545.897370,28457.078750,-0.122000,0.970000,0.072000,192.000000,0.000000,0.000000,0.000000,0.000000,0.000000,0.000000,0.000000,0.000000,0.000000,1647076317.362406,0.000000
102.000000,37223.611739,36526.349071,18846.342724,20905.072499,11720.025446,27664.217670,42545.897370,28474.513110,-0.122000,0.970000,0.072000,192.000000,0.000000,0.000000,0.000000,0.000000,0.000000,0.000000,0.000000,0.000000,0.000000,1647076317.370862,0.000000
103.000000,37228.707937,36534.149830,18852.534157,20913.230886,11724.764016,27678.902767,42562.147088,28502.609253,-0.122000,0.970000,0.072000,192.000000,0.000000,0.000000,0.000000,0.000000,0.000000,0.000000,0.000000,0.000000,0.000000,1647076317.370878,0.000000
104.000000,37229.087917,36530.573551,18850.768370,20913.186182,11721.902993,27674.633583,42567.980894,28483.498512,-0.128000,0.968000,0.064000,192.000000,252.000000,0.000000,30.000000,64.000000,2.000000,0.000000,0.000000,0.000000,0.000000,1647076317.378396,0.000000
105.000000,37221.734193,36520.023527,18844.845157,20902.524400,11714.750435,27660.395522,42547.260826,28458.598668,-0.128000,0.968000,0.064000,192.000000,0.000000,0.000000,0.000000,0.000000,0.000000,0.000000,0.000000,0.000000,0.000000,1647076317.378412,0.000000
106.000000,37217.308547,36520.045879,18842.319410,20900.400984,11711.934115,27650.896031,42538.543646,28429.809622,-0.128000,0.968000,0.064000,192.000000,0.000000,0.000000,0.000000,0.000000,0.000000,0.000000,0.000000,0.000000,0.000000,1647076317.384699,0.000000
107.000000,37226.875094,36539.916580,18849.091989,20905.720700,11720.651295,27658.182699,42540.465896,28443.265372,-0.128000,0.968000,0.064000,192.000000,0.000000,0.000000,0.000000,0.000000,0.000000,0.000000,0.000000,0.000000,0.000000,1647076317.384732,0.000000
108.000000,37233.804135,36544.074004,18859.262032,20914.929618,11729.502586,27672.510168,42546.925550,28463.560756,-0.128000,0.968000,0.064000,192.000000,0.000000,0.000000,0.000000,0.000000,0.000000,0.000000,0.000000,0.000000,0.000000,1647076317.392123,0.000000
109.000000,37223.924664,36532.831077,18853.450579,20908.425261,11723.668781,27670.610269,42554.078109,28461.794968,-0.128000,0.968000,0.064000,192.000000,0.000000,0.000000,0.000000,0.000000,0.000000,0.000000,0.000000,0.000000,0.000000,1647076317.399992,0.000000
110.000000,37222.851780,36532.831077,18851.461274,20908.782889,11721.098330,27665.201147,42556.290931,28459.090407,-0.128000,0.968000,0.064000,192.000000,0.000000,0.000000,0.000000,0.000000,0.000000,0.000000,0.000000,0.000000,0.000000,1647076317.400009,0.000000
111.000000,37219.007280,36526.818457,18846.678000,20905.653644,11717.611458,27658.227403,42550.635940,28437.565677,-0.128000,0.968000,0.064000,192.000000,0.000000,0.000000,0.000000,0.000000,0.000000,0.000000,0.000000,0.000000,0.000000,1647076317.407207,0.000000
112.000000,37224.215236,36534.239237,18851.148349,20909.632255,11722.506490,27664.240022,42555.396861,28452.004904,-0.128000,0.968000,0.064000,192.000000,0.000000,0.000000,0.000000,0.000000,0.000000,0.000000,0.000000,0.000000,0.000000,1647076317.407223,0.000000
113.000000,37225.131658,36525.745574,18852.198881,20907.441784,11721.366551,27662.206013,42553.206391,28455.759997,-0.128000,0.968000,0.064000,192.000000,0.000000,0.000000,0.000000,0.000000,0.000000,0.000000,0.000000,0.000000,0.000000,1647076317.414859,0.000000
114.000000,37221.443620,36526.572588,18845.336896,20893.181371,11712.358798,27646.872717,42525.177303,28441.723101,-0.132000,0.978000,0.064000,192.000000,251.000000,224.000000,30.000000,144.000000,2.000000,0.000000,0.000000,0.000000,0.000000,1647076317.414869,0.000000
115.000000,37208.524312,36531.109992,18840.084236,20884.039507,11705.787385,27637.484984,42514.314355,28416.197409,-0.132000,0.978000,0.064000,192.000000,0.000000,0.000000,0.000000,0.000000,0.000000,0.000000,0.000000,0.000000,0.000000,1647076317.422501,0.000000
116.000000,37217.733230,36534.909789,18848.957878,20904.223133,11718.617287,27659.926136,42567.869135,28435.509316,-0.132000,0.978000,0.064000,192.000000,0.000000,0.000000,0.000000,0.000000,0.000000,0.000000,0.000000,0.000000,0.000000,1647076317.422514,0.000000
117.000000,37228.305605,36538.195495,18851.550681,20914.571990,11722.618249,27670.073828,42559.755452,28461.571450,-0.132000,0.978000,0.064000,192.000000,0.000000,0.000000,0.000000,0.000000,0.000000,0.000000,0.000000,0.000000,0.000000,1647076317.430692,0.000000
118.000000,37230.630187,36548.522001,18855.953974,20912.917961,11724.808720,27674.141845,42549.652463,28472.121474,-0.132000,0.978000,0.064000,192.000000,0.000000,0.000000,0.000000,0.000000,0.000000,0.000000,0.000000,0.000000,0.000000,1647076317.430710,0.000000
119.000000,37212.815847,36536.966149,18842.699390,20894.030737,11710.928286,27668.688019,42551.731175,28474.580166,-0.132000,0.978000,0.064000,192.000000,0.000000,0.000000,0.000000,0.000000,0.000000,0.000000,0.000000,0.000000,0.000000,1647076317.437308,0.000000
120.000000,37202.690506,36507.685364,18837.223212,20885.738240,11701.428795,27656.707484,42535.146181,28438.102119,-0.132000,0.978000,0.064000,192.000000,0.000000,0.000000,0.000000,0.000000,0.000000,0.000000,0.000000,0.000000,0.000000,1647076317.437324,0.000000
121.000000,37203.517521,36503.393829,18833.803395,20892.801391,11697.293722,27655.612249,42532.240454,28436.381034,-0.132000,0.978000,0.064000,192.000000,0.000000,0.000000,0.000000,0.000000,0.000000,0.000000,0.000000,0.000000,0.000000,1647076317.445311,0.000000
122.000000,37210.155989,36522.146943,18831.188241,20892.823743,11698.433661,27656.103987,42531.726364,28434.570543,-0.132000,0.978000,0.064000,192.000000,0.000000,0.000000,0.000000,0.000000,0.000000,0.000000,0.000000,0.000000,0.000000,1647076317.445327,0.000000
123.000000,37217.777934,36532.048766,18837.804358,20900.535095,11703.909839,27656.573374,42531.949882,28423.931113,-0.132000,0.978000,0.064000,192.000000,0.000000,0.000000,0.000000,0.000000,0.000000,0.000000,0.000000,0.000000,0.000000,1647076317.452269,0.000000
124.000000,37201.863492,36520.358803,18826.404968,20877.646908,11692.197525,27647.118586,42520.796361,28430.502526,-0.132000,0.978000,0.064000,192.000000,0.000000,0.000000,0.000000,0.000000,0.000000,0.000000,0.000000,0.000000,0.000000,1647076317.460320,0.000000
125.000000,37190.821730,36511.239292,18818.671264,20868.348583,11684.195600,27643.162327,42521.489265,28425.920418,-0.132000,0.970000,0.058000,192.000000,251.000000,224.000000,30.000000,80.000000,1.000000,208.000000,0.000000,0.000000,0.000000,1647076317.460332,0.000000
126.000000,37190.911137,36512.558045,18816.123166,20871.544882,11681.871019,27639.496641,42523.702088,28406.116772,-0.132000,0.970000,0.058000,192.000000,0.000000,0.000000,0.000000,0.000000,0.000000,0.000000,0.000000,0.000000,0.000000,1647076317.466823,0.000000
127.000000,37198.466027,36510.926367,18817.173698,20868.773266,11682.228647,27637.194411,42517.085971,28408.240188,-0.132000,0.970000,0.058000,192.000000,0.000000,0.000000,0.000000,0.000000,0.000000,0.000000,0.000000,0.000000,0.000000,1647076317.466839,0.000000
128.000000,37200.030649,36513.854446,18825.019160,20871.321365,11690.141164,27659.456749,42547.730213,28453.457767,-0.132000,0.970000,0.058000,192.000000,0.000000,0.000000,0.000000,0.000000,0.000000,0.000000,0.000000,0.000000,0.000000,1647076317.474881,0.000000
129.000000,37194.129788,36520.157638,18819.967666,20868.885025,11685.983740,27650.314885,42528.753582,28432.335369,-0.132000,0.970000,0.058000,192.000000,0.000000,0.000000,0.000000,0.000000,0.000000,0.000000,0.000000,0.000000,0.000000,1647076317.474915,0.000000
130.000000,37197.482550,36516.693117,18826.159099,20866.381629,11688.822411,27657.176871,42540.242379,28455.804700,-0.132000,0.970000,0.058000,192.000000,0.000000,0.000000,0.000000,0.000000,0.000000,0.000000,0.000000,0.000000,0.000000,1647076317.482961,0.000000
131.000000,37196.476721,36502.879739,18826.270858,20871.813103,11687.973045,27658.696790,42550.926513,28438.638561,-0.132000,0.970000,0.058000,192.000000,0.000000,0.000000,0.000000,0.000000,0.000000,0.000000,0.000000,0.000000,0.000000,1647076317.482978,0.000000
132.000000,37202.936375,36502.723277,18823.029855,20869.846150,11682.228647,27649.756092,42528.842989,28434.883468,-0.132000,0.970000,0.058000,192.000000,0.000000,0.000000,0.000000,0.000000,0.000000,0.000000,0.000000,0.000000,0.000000,1647076317.490125,0.000000
133.000000,37201.259995,36511.306347,18825.220326,20872.148379,11685.335539,27657.758016,42531.167570,28452.720160,-0.132000,0.970000,0.058000,192.000000,0.000000,0.000000,0.000000,0.000000,0.000000,0.000000,0.000000,0.000000,0.000000,1647076317.490141,0.000000
134.000000,37198.555434,36516.469600,18826.695541,20875.232920,11688.911818,27659.032066,42538.454239,28438.772671,-0.132000,0.970000,0.058000,192.000000,0.000000,0.000000,0.000000,0.000000,0.000000,0.000000,0.000000,0.000000,0.000000,1647076317.497603,0.000000
135.000000,37205.015088,36518.838885,18832.238773,20881.245539,11692.376339,27663.234194,42545.807963,28452.049607,-0.126000,0.970000,0.064000,192.000000,252.000000,16.000000,30.000000,80.000000,2.000000,0.000000,0.000000,0.000000,0.000000,1647076317.497619,0.000000
136.000000,37205.998564,36526.483181,18833.423416,20878.630385,11692.666911,27662.094255,42544.936245,28444.807642,-0.126000,0.970000,0.064000,192.000000,0.000000,0.000000,0.000000,0.000000,0.000000,0.000000,0.000000,0.000000,0.000000,1647076317.505620,0.000000
137.000000,37202.511692,36520.314100,18828.975419,20874.025926,11688.017748,27651.790101,42538.588350,28412.732889,-0.126000,0.970000,0.064000,192.000000,0.000000,0.000000,0.000000,0.000000,0.000000,0.000000,0.000000,0.000000,0.000000,1647076317.505637,0.000000
138.000000,37198.756599,36502.767980,18824.192145,20866.783961,11682.161591,27650.784272,42534.229759,28429.429642,-0.126000,0.970000,0.064000,192.000000,0.000000,0.000000,0.000000,0.000000,0.000000,0.000000,0.000000,0.000000,0.000000,1647076317.512657,0.000000
139.000000,37208.680774,36515.597882,18833.266954,20881.357298,11691.728138,27666.050514,42539.303605,28460.655029,-0.126000,0.970000,0.064000,192.000000,0.000000,0.000000,0.000000,0.000000,0.000000,0.000000,0.000000,0.000000,0.000000,1647076317.519923,0.000000
140.000000,37216.414477,36529.344205,18839.212518,20893.427240,11701.115871,27675.885281,42552.647597,28466.265317,-0.126000,0.970000,0.064000,192.000000,0.000000,0.000000,0.000000,0.000000,0.000000,0.000000,0.000000,0.000000,0.000000,1647076317.519939,0.000000
141.000000,37213.039364,36532.607559,18833.088140,20883.614824,11694.611513,27666.989287,42545.562094,28441.857212,-0.126000,0.970000,0.064000,192.000000,0.000000,0.000000,0.000000,0.000000,0.000000,0.000000,0.000000,0.000000,0.000000,1647076317.527209,0.000000
142.000000,37206.803227,36534.574513,18829.645971,20874.517664,11688.509487,27659.680266,42539.057736,28422.165325,-0.126000,0.970000,0.064000,192.000000,0.000000,0.000000,0.000000,0.000000,0.000000,0.000000,0.000000,0.000000,0.000000,1647076317.527226,0.000000
143.000000,37202.064657,36519.352975,18830.875317,20879.233882,11690.476440,27660.529633,42521.869245,28422.277084,-0.126000,0.970000,0.064000,192.000000,0.000000,0.000000,0.000000,0.000000,0.000000,0.000000,0.000000,0.000000,0.000000,1647076317.535237,0.000000
144.000000,37205.976213,36523.286882,18834.809224,20894.433069,11696.399653,27666.832825,42538.521294,28437.386863,-0.126000,0.970000,0.064000,192.000000,0.000000,0.000000,0.000000,0.000000,0.000000,0.000000,0.000000,0.000000,0.000000,1647076317.535253,0.000000
145.000000,37209.954823,36517.698946,18835.390369,20891.572045,11696.936094,27672.085485,42544.220989,28457.794006,-0.118000,0.964000,0.068000,192.000000,252.000000,80.000000,30.000000,32.000000,2.000000,32.000000,0.000000,0.000000,0.000000,1647076317.543256,0.000000
146.000000,37211.139466,36524.315062,18835.569183,20889.381574,11698.254847,27667.235156,42536.800210,28440.136127,-0.118000,0.964000,0.068000,192.000000,0.000000,0.000000,0.000000,0.000000,0.000000,0.000000,0.000000,0.000000,0.000000,1647076317.543272,0.000000
147.000000,37204.657460,36529.433612,18832.216422,20881.670222,11693.806850,27657.221574,42534.006242,28399.008918,-0.118000,0.964000,0.068000,192.000000,0.000000,0.000000,0.000000,0.000000,0.000000,0.000000,0.000000,0.000000,0.000000,1647076317.549935,0.000000
148.000000,37204.478646,36530.260626,18837.983172,20885.648833,11698.835993,27673.158368,42542.701071,28441.879564,-0.118000,0.964000,0.068000,192.000000,0.000000,0.000000,0.000000,0.000000,0.000000,0.000000,0.000000,0.000000,0.000000,1647076317.549952,0.000000
149.000000,37213.262881,36529.679481,18840.195994,20894.813048,11701.160574,27678.925118,42532.821600,28469.774541,-0.118000,0.964000,0.068000,192.000000,0.000000,0.000000,0.000000,0.000000,0.000000,0.000000,0.000000,0.000000,0.000000,1647076317.557846,0.000000
150.000000,37209.865416,36525.633815,18837.469082,20886.721717,11695.729100,27668.084522,42534.207408,28435.442261,-0.118000,0.964000,0.068000,192.000000,0.000000,0.000000,0.000000,0.000000,0.000000,0.000000,0.000000,0.000000,0.000000,1647076317.557880,0.000000
151.000000,37214.268710,36538.351958,18841.045361,20899.909246,11702.389920,27674.722990,42547.976082,28452.407235,-0.118000,0.964000,0.068000,192.000000,0.000000,0.000000,0.000000,0.000000,0.000000,0.000000,0.000000,0.000000,0.000000,1647076317.565851,0.000000
152.000000,37208.278442,36523.733917,18832.417587,20887.705193,11689.403557,27662.049551,42541.561132,28441.186659,-0.118000,0.964000,0.068000,192.000000,0.000000,0.000000,0.000000,0.000000,0.000000,0.000000,0.000000,0.000000,0.000000,1647076317.565869,0.000000
153.000000,37212.882902,36538.597827,18840.687733,20877.758667,11694.142126,27663.345952,42542.589312,28433.698825,-0.118000,0.964000,0.068000,192.000000,0.000000,0.000000,0.000000,0.000000,0.000000,0.000000,0.000000,0.000000,0.000000,1647076317.572142,0.000000
154.000000,37204.433942,36542.576437,18835.949163,20866.694554,11685.357891,27650.761920,42534.319166,28407.346118,-0.118000,0.964000,0.068000,192.000000,0.000000,0.000000,0.000000,0.000000,0.000000,0.000000,0.000000,0.000000,0.000000,1647076317.572158,0.000000
155.000000,37212.949957,36534.753327,18844.174605,20886.341737,11694.969141,27662.764807,42548.736042,28444.628828,-0.128000,0.968000,0.066000,192.000000,252.000000,0.000000,30.000000,64.000000,2.000000,16.000000,0.000000,0.000000,0.000000,1647076317.579290,0.000000
156.000000,37213.396992,36534.105126,18845.001619,20894.768345,11699.707711,27661.870737,42562.504716,28442.170136,-0.128000,0.968000,0.066000,192.000000,0.000000,0.000000,0.000000,0.000000,0.000000,0.000000,0.000000,0.000000,0.000000,1647076317.587608,0.000000
157.000000,37201.103532,36530.730013,18831.925849,20882.854865,11687.280141,27641.485946,42535.302643,28410.095383,-0.128000,0.968000,0.066000,192.000000,0.000000,0.000000,0.000000,0.000000,0.000000,0.000000,0.000000,0.000000,0.000000,1647076317.587624,0.000000
158.000000,37205.104495,36530.260626,18833.758692,20884.888874,11691.884600,27656.573374,42561.901219,28457.481081,-0.128000,0.968000,0.066000,192.000000,0.000000,0.000000,0.000000,0.000000,0.000000,0.000000,0.000000,0.000000,0.000000,1647076317.595624,0.000000
159.000000,37207.294966,36535.021548,18835.837404,20889.068650,11694.052719,27652.594763,42546.679681,28432.223610,-0.128000,0.968000,0.066000,192.000000,0.000000,0.000000,0.000000,0.000000,0.000000,0.000000,0.000000,0.000000,0.000000,1647076317.595640,0.000000
160.000000,37207.406724,36539.067213,18835.680942,20883.391307,11693.717443,27652.415949,42532.709841,28442.438357,-0.128000,0.968000,0.066000,192.000000,0.000000,0.000000,0.000000,0.000000,0.000000,0.000000,0.000000,0.000000,0.000000,1647076317.602138,0.000000
