%OpenBCI Raw EEG Data
%Number of channels = 8
%Sample Rate = 256 Hz
%Board = OpenBCI_GUI$BoardCytonSerial
%Channels = Fp1, Fp2, F3, F4, Fz, Pz, O1, O2
%Data recorded at AIMS Lab (http://aimsl.uiu.ac.bd) by Rana Depto (mail@ranadepto.com)
%Brainwaves were obtained via the Ultracortex Mark IV Headset using the OpenBCI Cyton Board
%Recording Application = ConcentrateToday (https://concentrate.today)
%Data type = RAW data with noise
%Day No = 5
%Subject ID = 4
%Session ID = 7
%Record starting timestamp (UTC+6) = 2022-03-20T11:51:30.704824
%Record ending timestamp (UTC+6)   = 2022-03-20T11:52:02.086873
%Recorded durations = ~31 seconds
Sample Index, EXG Channel 0, EXG Channel 1, EXG Channel 2, EXG Channel 3, EXG Channel 4, EXG Channel 5, EXG Channel 6, EXG Channel 7, Accel Channel 0, Accel Channel 1, Accel Channel 2, Other, Other, Other, Other, Other, Other, Other, Analog Channel 0, Analog Channel 1, Analog Channel 2, Timestamp, Timestamp (Formatted)
157.000000,10527.761045,9827.145615,38987.544356,34566.056379,33955.071444,56120.491757,27916.524162,33711.236264,0.040000,0.924000,0.326000,192.000000,0.000000,0.000000,0.000000,0.000000,0.000000,0.000000,0.000000,0.000000,0.000000,1647755490.730963,0.000000
99.000000,10519.937935,9839.930813,39041.188543,34593.884300,34145.955342,56061.594911,27897.838104,33714.499618,0.040000,0.924000,0.326000,192.000000,0.000000,0.000000,0.000000,0.000000,0.000000,0.000000,0.000000,0.000000,0.000000,1647755490.762957,0.000000
155.000000,10528.029266,9827.905575,38979.453025,34562.614210,33953.283304,56120.514109,27941.781633,33735.398499,0.040000,0.924000,0.326000,192.000000,0.000000,0.000000,0.000000,0.000000,0.000000,0.000000,0.000000,0.000000,0.000000,1647755490.795077,0.000000
143.000000,10543.407267,9855.308813,39005.336345,34599.583995,34012.157799,56109.874679,27929.398767,33735.309092,0.036000,0.920000,0.348000,192.000000,1.000000,32.000000,28.000000,192.000000,10.000000,224.000000,0.000000,0.000000,0.000000,1647755490.801220,0.000000
212.000000,10522.284868,9813.421644,39023.910645,34535.210971,33990.655421,56144.653993,27933.466784,33731.285778,0.036000,0.920000,0.348000,192.000000,0.000000,0.000000,0.000000,0.000000,0.000000,0.000000,0.000000,0.000000,0.000000,1647755490.801225,0.000000
95.000000,10521.949592,9841.562491,39032.918398,34593.191396,34141.932028,56059.493847,27893.255996,33705.201293,0.036000,0.920000,0.348000,192.000000,0.000000,0.000000,0.000000,0.000000,0.000000,0.000000,0.000000,0.000000,0.000000,1647755490.815327,0.000000
151.000000,10529.705647,9836.019258,38984.281002,34577.880451,33986.810921,56125.431493,27940.708749,33747.155517,0.036000,0.920000,0.348000,192.000000,0.000000,0.000000,0.000000,0.000000,0.000000,0.000000,0.000000,0.000000,0.000000,1647755490.815343,0.000000
210.000000,10525.637630,9815.187432,39026.235226,34542.050605,33986.408590,56159.830828,27952.018732,33750.642389,0.036000,0.920000,0.348000,192.000000,0.000000,0.000000,0.000000,0.000000,0.000000,0.000000,0.000000,0.000000,0.000000,1647755490.831159,0.000000
208.000000,10518.596830,9805.799700,39019.484999,34536.149745,33983.569918,56145.682173,27934.271447,33724.580255,0.036000,0.920000,0.348000,192.000000,0.000000,0.000000,0.000000,0.000000,0.000000,0.000000,0.000000,0.000000,0.000000,1647755490.831168,0.000000
149.000000,10535.539452,9849.385601,39004.263461,34585.949431,34018.036308,56109.852327,27911.807944,33701.312089,0.036000,0.920000,0.348000,192.000000,0.000000,0.000000,0.000000,0.000000,0.000000,0.000000,0.000000,0.000000,0.000000,1647755490.874528,0.000000
144.000000,10539.741580,9851.061982,39018.188598,34600.008678,34025.747660,56117.049589,27926.314226,33735.264389,0.036000,0.920000,0.348000,192.000000,0.000000,0.000000,0.000000,0.000000,0.000000,0.000000,0.000000,0.000000,0.000000,1647755490.890564,0.000000
206.000000,10519.379141,9809.018351,39006.476284,34534.138088,33970.985886,56157.483895,27938.115947,33737.678377,0.036000,0.920000,0.348000,192.000000,0.000000,0.000000,0.000000,0.000000,0.000000,0.000000,0.000000,0.000000,0.000000,1647755490.922564,0.000000
158.000000,10517.903926,9817.355551,38990.248917,34560.021408,33964.369770,56113.808586,27924.771956,33713.560845,0.036000,0.920000,0.348000,192.000000,0.000000,0.000000,0.000000,0.000000,0.000000,0.000000,0.000000,0.000000,0.000000,1647755490.938465,0.000000
174.000000,10509.186746,9803.162194,38994.831025,34543.637579,34024.071279,56119.217708,27930.270485,33723.574427,0.046000,0.918000,0.364000,192.000000,1.000000,112.000000,28.000000,176.000000,11.000000,96.000000,0.000000,0.000000,0.000000,1647755490.944668,0.000000
204.000000,10521.189633,9808.236040,39003.749371,34541.044777,33976.015028,56141.949432,27934.405557,33705.044830,0.048000,0.914000,0.360000,192.000000,1.000000,128.000000,28.000000,144.000000,11.000000,64.000000,0.000000,0.000000,0.000000,1647755490.944680,0.000000
242.000000,10524.229470,9802.379883,38991.388856,34521.375241,33973.958668,56134.595708,27943.949752,33725.206104,0.048000,0.914000,0.360000,192.000000,0.000000,0.000000,0.000000,0.000000,0.000000,0.000000,0.000000,0.000000,0.000000,1647755490.960602,0.000000
202.000000,10518.127444,9803.855098,39002.318859,34533.758108,33983.793436,56137.166159,27928.147069,33708.866979,0.048000,0.914000,0.360000,192.000000,0.000000,0.000000,0.000000,0.000000,0.000000,0.000000,0.000000,0.000000,0.000000,1647755490.976449,0.000000
189.000000,10524.676505,9812.505223,39006.297470,34551.974780,34027.781669,56146.531540,27941.602819,33732.112793,0.048000,0.914000,0.360000,192.000000,0.000000,0.000000,0.000000,0.000000,0.000000,0.000000,0.000000,0.000000,0.000000,1647755490.976460,0.000000
240.000000,10521.480205,9802.379883,39005.336345,34528.326634,33990.878939,56137.188511,27946.609610,33735.666720,0.048000,0.914000,0.360000,192.000000,0.000000,0.000000,0.000000,0.000000,0.000000,0.000000,0.000000,0.000000,0.000000,1647755491.008459,0.000000
200.000000,10517.143967,9806.179679,39006.230415,34531.455878,33992.711782,56132.293479,27926.917723,33711.303319,0.048000,0.914000,0.360000,192.000000,0.000000,0.000000,0.000000,0.000000,0.000000,0.000000,0.000000,0.000000,0.000000,1647755491.040663,0.000000
224.000000,10510.818423,9802.536345,38994.004010,34528.170172,33942.442708,56136.272089,27912.880828,33705.514217,0.034000,0.922000,0.364000,192.000000,1.000000,16.000000,28.000000,208.000000,11.000000,96.000000,0.000000,0.000000,0.000000,1647755491.040682,0.000000
238.000000,10515.244069,9798.200106,39002.072990,34530.673567,33975.456235,56137.747304,27944.307380,33721.696880,0.034000,0.922000,0.364000,192.000000,0.000000,0.000000,0.000000,0.000000,0.000000,0.000000,0.000000,0.000000,0.000000,1647755491.072582,0.000000
222.000000,10519.356790,9811.477043,38976.659057,34520.950558,33901.628423,56136.540310,27931.008092,33714.946653,0.034000,0.922000,0.364000,192.000000,0.000000,0.000000,0.000000,0.000000,0.000000,0.000000,0.000000,0.000000,0.000000,1647755491.072593,0.000000
231.000000,10509.119691,9797.484851,38974.423882,34527.656082,33945.326083,56142.530577,27936.685435,33732.269255,0.034000,0.922000,0.364000,192.000000,0.000000,0.000000,0.000000,0.000000,0.000000,0.000000,0.000000,0.000000,0.000000,1647755491.121006,0.000000
5.000000,10527.425769,9809.599496,39007.169188,34524.906817,33986.676811,56121.631696,27945.223802,33736.918418,0.034000,0.922000,0.364000,192.000000,0.000000,0.000000,0.000000,0.000000,0.000000,0.000000,0.000000,0.000000,0.000000,1647755491.121023,0.000000
236.000000,10520.876708,9805.017388,38987.454949,34526.180867,33955.339665,56143.201130,27942.943924,33738.997130,0.034000,0.922000,0.364000,192.000000,0.000000,0.000000,0.000000,0.000000,0.000000,0.000000,0.000000,0.000000,0.000000,1647755491.127476,0.000000
15.000000,10537.953441,9812.102891,39006.990374,34524.728003,34026.194695,56100.397539,27934.159688,33712.532665,0.034000,0.922000,0.364000,192.000000,0.000000,0.000000,0.000000,0.000000,0.000000,0.000000,0.000000,0.000000,0.000000,1647755491.133502,0.000000
234.000000,10508.851470,9793.953275,38986.382066,34526.136163,33967.007275,56143.916386,27947.347217,33725.295511,0.034000,0.922000,0.364000,192.000000,0.000000,0.000000,0.000000,0.000000,0.000000,0.000000,0.000000,0.000000,0.000000,1647755491.133510,0.000000
13.000000,10542.490845,9816.729703,39012.310089,34527.723137,34028.385166,56112.020446,27942.295723,33716.533627,0.034000,0.922000,0.364000,192.000000,0.000000,0.000000,0.000000,0.000000,0.000000,0.000000,0.000000,0.000000,0.000000,1647755491.140157,0.000000
232.000000,10514.394702,9799.787080,38974.312124,34523.990396,33942.912095,56142.463522,27947.816604,33744.875639,0.034000,0.922000,0.364000,192.000000,0.000000,0.000000,0.000000,0.000000,0.000000,0.000000,0.000000,0.000000,0.000000,1647755491.140175,0.000000
243.000000,10518.462720,9796.523726,38994.473397,34516.971948,33975.836215,56136.115627,27942.049854,33724.669662,0.034000,0.922000,0.364000,192.000000,0.000000,0.000000,0.000000,0.000000,0.000000,0.000000,0.000000,0.000000,0.000000,1647755491.146049,0.000000
11.000000,10527.962211,9802.245772,38994.831025,34520.928207,34005.072296,56100.621057,27929.018787,33705.380107,0.034000,0.922000,0.364000,192.000000,0.000000,0.000000,0.000000,0.000000,0.000000,0.000000,0.000000,0.000000,0.000000,1647755491.146069,0.000000
245.000000,10518.820348,9799.854135,39007.348002,34521.129372,33982.027648,56144.206958,27942.899220,33736.225514,0.046000,0.916000,0.370000,192.000000,1.000000,112.000000,28.000000,160.000000,11.000000,144.000000,0.000000,0.000000,0.000000,1647755491.152091,0.000000
22.000000,10532.209043,9803.028083,39020.133200,34518.357756,34021.612587,56089.154612,27944.709712,33715.907778,0.046000,0.916000,0.370000,192.000000,0.000000,0.000000,0.000000,0.000000,0.000000,0.000000,0.000000,0.000000,0.000000,1647755491.152098,0.000000
9.000000,10534.265403,9812.661685,39003.369391,34531.075899,34005.184055,56115.864946,27943.234497,33725.027290,0.038000,0.914000,0.366000,192.000000,1.000000,48.000000,28.000000,144.000000,11.000000,112.000000,0.000000,0.000000,0.000000,1647755491.158269,0.000000
253.000000,10526.934031,9806.559659,39017.495694,34531.880561,33998.769104,56116.870775,27932.326845,33708.531703,0.038000,0.914000,0.366000,192.000000,0.000000,0.000000,0.000000,0.000000,0.000000,0.000000,0.000000,0.000000,0.000000,1647755491.158281,0.000000
20.000000,10528.275136,9798.960066,39013.606490,34507.137180,34021.031442,56093.244981,27942.698055,33720.176961,0.038000,0.914000,0.366000,192.000000,0.000000,0.000000,0.000000,0.000000,0.000000,0.000000,0.000000,0.000000,0.000000,1647755491.164272,0.000000
6.000000,10530.733827,9808.951295,39015.528740,34529.913608,33998.366773,56121.296420,27943.279200,33734.772651,0.038000,0.914000,0.366000,192.000000,0.000000,0.000000,0.000000,0.000000,0.000000,0.000000,0.000000,0.000000,0.000000,1647755491.164282,0.000000
18.000000,10533.438389,9802.424586,39012.466551,34514.602663,34025.814715,56096.664798,27943.994456,33730.749337,0.038000,0.914000,0.366000,192.000000,0.000000,0.000000,0.000000,0.000000,0.000000,0.000000,0.000000,0.000000,0.000000,1647755491.179695,0.000000
38.000000,10526.911679,9798.714197,39083.120416,34542.005902,34221.392479,56114.747359,27940.015845,33716.578331,0.038000,0.914000,0.366000,192.000000,0.000000,0.000000,0.000000,0.000000,0.000000,0.000000,0.000000,0.000000,0.000000,1647755491.218282,0.000000
51.000000,10508.404435,9777.368281,39154.042501,34536.730890,34358.498080,56108.645333,27938.361816,33707.704688,0.038000,0.914000,0.366000,192.000000,0.000000,0.000000,0.000000,0.000000,0.000000,0.000000,0.000000,0.000000,0.000000,1647755491.224822,0.000000
36.000000,10534.645383,9808.839537,39067.027160,34544.464593,34169.536432,56106.700731,27930.248133,33710.766877,0.038000,0.914000,0.366000,192.000000,0.000000,0.000000,0.000000,0.000000,0.000000,0.000000,0.000000,0.000000,0.000000,1647755491.224852,0.000000
63.000000,10518.686237,9793.170964,39034.952406,34490.596889,34042.913800,56114.166214,27951.214069,33727.530685,0.038000,0.914000,0.366000,192.000000,0.000000,0.000000,0.000000,0.000000,0.000000,0.000000,0.000000,0.000000,0.000000,1647755491.230934,0.000000
26.000000,10526.017609,9799.585915,39029.252711,34526.091460,34029.480401,56099.771690,27941.602819,33702.630842,0.038000,0.914000,0.366000,192.000000,0.000000,0.000000,0.000000,0.000000,0.000000,0.000000,0.000000,0.000000,0.000000,1647755491.230944,0.000000
61.000000,10521.413150,9788.812374,39055.493659,34503.672660,34103.107047,56108.243001,27938.741796,33708.464647,0.038000,0.914000,0.366000,192.000000,0.000000,0.000000,0.000000,0.000000,0.000000,0.000000,0.000000,0.000000,0.000000,1647755491.236943,0.000000
59.000000,10519.647362,9789.326464,39089.490663,34509.819390,34225.348738,56103.683246,27938.250057,33715.214874,0.038000,0.914000,0.366000,192.000000,0.000000,0.000000,0.000000,0.000000,0.000000,0.000000,0.000000,0.000000,0.000000,1647755491.236955,0.000000
39.000000,10530.979697,9801.999903,39084.975610,34540.731852,34223.873523,56116.960182,27945.469671,33714.969005,0.046000,0.914000,0.368000,192.000000,1.000000,112.000000,28.000000,144.000000,11.000000,128.000000,0.000000,0.000000,0.000000,1647755491.243090,0.000000
57.000000,10530.577365,9800.614095,39132.070736,34540.217762,34313.369908,56119.217708,27940.775805,33723.797944,0.046000,0.914000,0.368000,192.000000,0.000000,0.000000,0.000000,0.000000,0.000000,0.000000,0.000000,0.000000,0.000000,1647755491.243101,0.000000
45.000000,10525.503519,9793.685054,39134.328262,34543.570524,34315.828599,56115.552022,27940.306418,33715.438392,0.046000,0.914000,0.368000,192.000000,0.000000,0.000000,0.000000,0.000000,0.000000,0.000000,0.000000,0.000000,0.000000,1647755491.249007,0.000000
66.000000,10509.544374,9782.777403,39008.979679,34488.384067,33954.020912,56114.926173,27950.789386,33712.644424,0.046000,0.914000,0.368000,192.000000,0.000000,0.000000,0.000000,0.000000,0.000000,0.000000,0.000000,0.000000,0.000000,1647755491.249017,0.000000
53.000000,10516.920449,9781.302188,39151.606161,34525.867942,34366.365894,56123.241022,27944.217973,33736.359624,0.046000,0.914000,0.368000,192.000000,0.000000,0.000000,0.000000,0.000000,0.000000,0.000000,0.000000,0.000000,0.000000,1647755491.256517,0.000000
69.000000,10515.601696,9790.645217,38995.054542,34485.187767,33917.520513,56116.356685,27947.615438,33724.826124,0.046000,0.914000,0.368000,192.000000,0.000000,0.000000,0.000000,0.000000,0.000000,0.000000,0.000000,0.000000,0.000000,1647755491.256533,0.000000
67.000000,10518.149795,9792.321598,39015.305223,34495.693087,33952.210421,56120.178833,27953.873927,33743.065148,0.046000,0.914000,0.368000,192.000000,0.000000,0.000000,0.000000,0.000000,0.000000,0.000000,0.000000,0.000000,0.000000,1647755491.262321,0.000000
70.000000,10518.663885,9793.930923,38990.673601,34480.896232,33892.866539,56110.992266,27946.162575,33723.529723,0.046000,0.922000,0.368000,192.000000,1.000000,112.000000,28.000000,208.000000,11.000000,128.000000,0.000000,0.000000,0.000000,1647755491.262332,0.000000
71.000000,10517.836871,9791.673397,38995.389819,34482.125578,33889.200853,56110.411121,27946.967238,33722.926226,0.046000,0.922000,0.368000,192.000000,0.000000,0.000000,0.000000,0.000000,0.000000,0.000000,0.000000,0.000000,0.000000,1647755491.268417,0.000000
72.000000,10517.747464,9790.578162,38999.323726,34481.410322,33895.705211,56109.762920,27949.694151,33721.830991,0.046000,0.922000,0.368000,192.000000,0.000000,0.000000,0.000000,0.000000,0.000000,0.000000,0.000000,0.000000,0.000000,1647755491.283874,0.000000
91.000000,10519.200327,9784.453784,39040.182714,34490.216910,34000.624299,56100.397539,27926.403633,33699.903929,0.046000,0.922000,0.368000,192.000000,0.000000,0.000000,0.000000,0.000000,0.000000,0.000000,0.000000,0.000000,0.000000,1647755491.283884,0.000000
74.000000,10507.175089,9777.837667,38990.919470,34480.628011,33876.236841,56101.224554,27938.831203,33708.643461,0.046000,0.922000,0.368000,192.000000,0.000000,0.000000,0.000000,0.000000,0.000000,0.000000,0.000000,0.000000,0.000000,1647755491.331954,0.000000
75.000000,10507.197441,9777.927074,39001.581252,34482.997296,33884.976373,56102.677417,27943.078034,33708.643461,0.046000,0.922000,0.368000,192.000000,0.000000,0.000000,0.000000,0.000000,0.000000,0.000000,0.000000,0.000000,0.000000,1647755491.354307,0.000000
89.000000,10532.767836,9803.542173,39054.018444,34513.619186,33991.929471,56116.401388,27935.858421,33719.014671,0.046000,0.922000,0.368000,192.000000,0.000000,0.000000,0.000000,0.000000,0.000000,0.000000,0.000000,0.000000,0.000000,1647755491.354323,0.000000
87.000000,10526.688162,9797.283685,39052.967912,34510.802866,33969.041284,56115.775539,27935.411386,33708.934034,0.046000,0.922000,0.368000,192.000000,0.000000,0.000000,0.000000,0.000000,0.000000,0.000000,0.000000,0.000000,0.000000,1647755491.369109,0.000000
78.000000,10512.271287,9785.996054,38999.413133,34476.939973,33869.732484,56104.063225,27946.006113,33732.135145,0.046000,0.922000,0.368000,192.000000,0.000000,0.000000,0.000000,0.000000,0.000000,0.000000,0.000000,0.000000,0.000000,1647755491.385168,0.000000
79.000000,10505.878688,9779.469345,38997.110903,34476.202366,33867.251440,56103.683246,27942.608648,33715.214874,0.046000,0.922000,0.368000,192.000000,0.000000,0.000000,0.000000,0.000000,0.000000,0.000000,0.000000,0.000000,0.000000,1647755491.400155,0.000000
80.000000,10517.322781,9787.717138,38999.614298,34481.320915,33862.445815,56100.844574,27941.021674,33697.892272,0.040000,0.918000,0.368000,192.000000,1.000000,64.000000,28.000000,176.000000,11.000000,128.000000,0.000000,0.000000,0.000000,1647755491.400172,0.000000
85.000000,10519.021513,9792.411005,39019.887331,34495.380163,33913.810124,56112.936868,27946.587258,33723.350909,0.040000,0.918000,0.368000,192.000000,0.000000,0.000000,0.000000,0.000000,0.000000,0.000000,0.000000,0.000000,0.000000,1647755491.410181,0.000000
82.000000,10517.658057,9785.638426,39013.226511,34488.384067,33880.506024,56111.193432,27949.560040,33730.525819,0.040000,0.918000,0.368000,192.000000,0.000000,0.000000,0.000000,0.000000,0.000000,0.000000,0.000000,0.000000,0.000000,1647755491.410192,0.000000
83.000000,10516.562821,9784.587894,39017.026307,34489.099322,33894.565272,56116.244926,27951.906973,33729.519991,0.040000,0.918000,0.368000,192.000000,0.000000,0.000000,0.000000,0.000000,0.000000,0.000000,0.000000,0.000000,0.000000,1647755491.415969,0.000000
92.000000,10508.806766,9774.462554,39037.724023,34483.779607,34011.107267,56093.736719,27917.172362,33687.029324,0.040000,0.918000,0.368000,192.000000,0.000000,0.000000,0.000000,0.000000,0.000000,0.000000,0.000000,0.000000,0.000000,1647755491.415976,0.000000
93.000000,10501.944781,9770.774516,39039.109831,34484.450160,34020.204427,56089.288722,27919.116964,33682.514272,0.040000,0.918000,0.368000,192.000000,0.000000,0.000000,0.000000,0.000000,0.000000,0.000000,0.000000,0.000000,0.000000,1647755491.442868,0.000000
94.000000,10503.442347,9767.734679,39029.118601,34484.561918,34008.112134,56092.686187,27931.164554,33701.245034,0.040000,0.918000,0.368000,192.000000,0.000000,0.000000,0.000000,0.000000,0.000000,0.000000,0.000000,0.000000,0.000000,1647755491.449262,0.000000
95.000000,10506.906868,9769.120487,39023.083630,34484.651325,34003.753543,56096.173059,27930.315188,33714.231397,0.040000,0.918000,0.368000,192.000000,0.000000,0.000000,0.000000,0.000000,0.000000,0.000000,0.000000,0.000000,0.000000,1647755491.449267,0.000000
96.000000,10518.350961,9778.351757,39031.398479,34494.888424,34005.631090,56104.890240,27937.467746,33729.967026,0.040000,0.918000,0.368000,192.000000,0.000000,0.000000,0.000000,0.000000,0.000000,0.000000,0.000000,0.000000,0.000000,1647755491.456263,0.000000
97.000000,10517.702760,9775.110754,39033.566598,34495.044886,34018.103363,56106.991304,27936.283104,33711.817409,0.040000,0.918000,0.368000,192.000000,0.000000,0.000000,0.000000,0.000000,0.000000,0.000000,0.000000,0.000000,0.000000,1647755491.456275,0.000000
98.000000,10514.998199,9772.540304,39016.936900,34488.652288,34007.575692,56102.163327,27935.925476,33708.688165,0.040000,0.918000,0.368000,192.000000,0.000000,0.000000,0.000000,0.000000,0.000000,0.000000,0.000000,0.000000,0.000000,1647755491.462301,0.000000
99.000000,10513.388874,9772.517952,39009.225548,34485.903023,33999.260843,56102.163327,27942.899220,33728.938845,0.040000,0.918000,0.368000,192.000000,0.000000,0.000000,0.000000,0.000000,0.000000,0.000000,0.000000,0.000000,0.000000,1647755491.462318,0.000000
117.000000,10530.398551,9792.478060,39036.405270,34485.813616,33990.074276,56094.451975,27945.804947,33719.349947,0.040000,0.918000,0.368000,192.000000,0.000000,0.000000,0.000000,0.000000,0.000000,0.000000,0.000000,0.000000,0.000000,1647755491.468510,0.000000
101.000000,10521.882537,9780.899856,39025.944653,34492.273270,33993.739962,56098.318827,27943.860345,33715.147819,0.040000,0.918000,0.368000,192.000000,0.000000,0.000000,0.000000,0.000000,0.000000,0.000000,0.000000,0.000000,0.000000,1647755491.468517,0.000000
115.000000,10532.745484,9792.925095,39043.580180,34497.414171,33991.393029,56101.962161,27951.281125,33731.866924,0.040000,0.918000,0.368000,192.000000,0.000000,0.000000,0.000000,0.000000,0.000000,0.000000,0.000000,0.000000,0.000000,1647755491.474678,0.000000
124.000000,10523.536566,9787.225400,39033.834819,34497.056543,33974.070427,56115.686132,27950.252944,33730.995206,0.040000,0.918000,0.368000,192.000000,0.000000,0.000000,0.000000,0.000000,0.000000,0.000000,0.000000,0.000000,0.000000,1647755491.474696,0.000000
113.000000,10526.241127,9787.627731,39044.541305,34497.548282,33989.962517,56098.765862,27949.716502,33719.081726,0.040000,0.918000,0.368000,192.000000,0.000000,0.000000,0.000000,0.000000,0.000000,0.000000,0.000000,0.000000,0.000000,1647755491.480552,0.000000
122.000000,10530.420903,9793.394481,39040.808563,34496.967136,33973.824558,56108.511222,27955.527956,33727.173057,0.040000,0.918000,0.368000,192.000000,0.000000,0.000000,0.000000,0.000000,0.000000,0.000000,0.000000,0.000000,0.000000,1647755491.480559,0.000000
111.000000,10526.576403,9786.241923,39051.939732,34498.107075,33976.238546,56101.291609,27948.017770,33728.737680,0.040000,0.918000,0.368000,192.000000,0.000000,0.000000,0.000000,0.000000,0.000000,0.000000,0.000000,0.000000,0.000000,1647755491.496228,0.000000
120.000000,10527.582231,9794.713234,39038.171057,34490.351020,33965.621467,56105.024350,27955.952639,33737.879543,0.042000,0.912000,0.362000,192.000000,1.000000,80.000000,28.000000,128.000000,11.000000,80.000000,0.000000,0.000000,0.000000,1647755491.512240,0.000000
133.000000,10531.382028,9800.792909,39037.902837,34485.701857,33971.477624,56100.665760,27955.460901,33723.306206,0.042000,0.912000,0.362000,192.000000,0.000000,0.000000,0.000000,0.000000,0.000000,0.000000,0.000000,0.000000,0.000000,1647755491.528313,0.000000
131.000000,10525.078836,9796.099042,39044.451898,34478.325782,33978.406665,56112.132205,27947.749549,33718.701746,0.042000,0.912000,0.362000,192.000000,0.000000,0.000000,0.000000,0.000000,0.000000,0.000000,0.000000,0.000000,0.000000,1647755491.538332,0.000000
118.000000,10530.197386,9795.674359,39031.934921,34484.293697,33979.099569,56093.915533,27940.127604,33708.397592,0.042000,0.912000,0.362000,192.000000,0.000000,0.000000,0.000000,0.000000,0.000000,0.000000,0.000000,0.000000,0.000000,1647755491.544669,0.000000
129.000000,10522.217813,9789.460574,39029.140953,34478.057561,33956.189031,56113.719179,27951.392883,33722.926226,0.042000,0.912000,0.362000,192.000000,0.000000,0.000000,0.000000,0.000000,0.000000,0.000000,0.000000,0.000000,0.000000,1647755491.544681,0.000000
137.000000,10539.160435,9810.113586,39030.794982,34491.110979,33980.753598,56108.377112,27963.462825,33743.087500,0.042000,0.912000,0.362000,192.000000,0.000000,0.000000,0.000000,0.000000,0.000000,0.000000,0.000000,0.000000,0.000000,1647755491.551281,0.000000
127.000000,10527.962211,9797.753072,39038.506334,34493.279099,33978.764293,56119.910612,27959.081883,33732.425717,0.042000,0.912000,0.362000,192.000000,0.000000,0.000000,0.000000,0.000000,0.000000,0.000000,0.000000,0.000000,0.000000,1647755491.551293,0.000000
134.000000,10526.308182,9797.954237,39047.804659,34493.949651,33983.547566,56109.025313,27953.628058,33725.004938,0.042000,0.912000,0.362000,192.000000,0.000000,0.000000,0.000000,0.000000,0.000000,0.000000,0.000000,0.000000,0.000000,1647755491.557875,0.000000
135.000000,10525.302354,9798.468327,39039.109831,34492.586195,33988.152026,56106.946600,27949.671799,33726.346043,0.042000,0.912000,0.362000,192.000000,0.000000,0.000000,0.000000,0.000000,0.000000,0.000000,0.000000,0.000000,0.000000,1647755491.557884,0.000000
138.000000,10544.211929,9814.047493,39036.271159,34495.156645,33987.235604,56109.986438,27970.570680,33741.902857,0.042000,0.912000,0.362000,192.000000,0.000000,0.000000,0.000000,0.000000,0.000000,0.000000,0.000000,0.000000,0.000000,1647755491.564448,0.000000
146.000000,10461.130495,9703.518117,39003.637612,34432.191781,33953.104490,56082.270274,27952.376360,33718.835857,0.042000,0.912000,0.362000,192.000000,0.000000,0.000000,0.000000,0.000000,0.000000,0.000000,0.000000,0.000000,0.000000,1647755491.564453,0.000000
149.000000,10419.556251,9657.920558,38984.795092,34413.438667,33933.680824,56073.284873,27938.652389,33706.184769,0.042000,0.912000,0.362000,192.000000,0.000000,0.000000,0.000000,0.000000,0.000000,0.000000,0.000000,0.000000,0.000000,1647755491.570735,0.000000
141.000000,10521.949592,9784.610246,39029.476229,34477.856395,33994.119941,56095.368397,27964.692171,33729.564694,0.042000,0.912000,0.362000,192.000000,0.000000,0.000000,0.000000,0.000000,0.000000,0.000000,0.000000,0.000000,0.000000,1647755491.570745,0.000000
142.000000,10511.354865,9772.763821,39028.224531,34468.312200,34002.345383,56090.227495,27957.494909,33718.031194,0.042000,0.912000,0.362000,192.000000,0.000000,0.000000,0.000000,0.000000,0.000000,0.000000,0.000000,0.000000,0.000000,1647755491.577132,0.000000
147.000000,10451.340431,9688.676559,39001.469493,34426.648548,33958.424206,56073.508391,27943.547421,33706.184769,0.042000,0.912000,0.362000,192.000000,0.000000,0.000000,0.000000,0.000000,0.000000,0.000000,0.000000,0.000000,0.000000,1647755491.577142,0.000000
150.000000,10405.117024,9643.011945,38971.696969,34403.559196,33930.149249,56061.840780,27922.425022,33690.650307,0.042000,0.912000,0.362000,192.000000,0.000000,0.000000,0.000000,0.000000,0.000000,0.000000,0.000000,0.000000,0.000000,1647755491.583127,0.000000
151.000000,10399.305570,9635.010020,38975.697932,34407.470752,33952.277476,56075.743565,27959.663029,33723.909703,0.036000,0.918000,0.364000,192.000000,1.000000,32.000000,28.000000,176.000000,11.000000,96.000000,0.000000,0.000000,0.000000,1647755491.583135,0.000000
152.000000,10393.315303,9631.612555,38973.038074,34403.693307,33956.457252,56078.761051,27972.917613,33735.957293,0.036000,0.918000,0.364000,192.000000,0.000000,0.000000,0.000000,0.000000,0.000000,0.000000,0.000000,0.000000,0.000000,1647755491.589569,0.000000
153.000000,10389.940189,9627.723351,38968.098339,34400.251138,33945.527249,56082.449088,27970.414218,33734.593837,0.036000,0.918000,0.364000,192.000000,0.000000,0.000000,0.000000,0.000000,0.000000,0.000000,0.000000,0.000000,0.000000,1647755491.596131,0.000000
154.000000,10391.616570,9633.020715,38963.091548,34389.835225,33939.335816,56082.516144,27966.636773,33738.639502,0.036000,0.918000,0.364000,192.000000,0.000000,0.000000,0.000000,0.000000,0.000000,0.000000,0.000000,0.000000,0.000000,1647755491.596141,0.000000
155.000000,10403.328884,9642.788427,38953.346187,34391.869234,33919.621577,56075.363585,27963.529880,33724.110868,0.036000,0.918000,0.364000,192.000000,0.000000,0.000000,0.000000,0.000000,0.000000,0.000000,0.000000,0.000000,0.000000,1647755491.602769,0.000000
156.000000,10402.188945,9634.518282,38967.114862,34408.856560,33932.429127,56086.852382,27964.736875,33729.475287,0.036000,0.918000,0.364000,192.000000,0.000000,0.000000,0.000000,0.000000,0.000000,0.000000,0.000000,0.000000,0.000000,1647755491.602783,0.000000
166.000000,10453.419143,9693.772756,39020.937863,34443.144136,33980.999467,56106.588972,27969.654258,33733.118621,0.036000,0.918000,0.364000,192.000000,0.000000,0.000000,0.000000,0.000000,0.000000,0.000000,0.000000,0.000000,0.000000,1647755491.609188,0.000000
158.000000,10405.832279,9647.169369,38976.390836,34403.559196,33942.465060,56078.135202,27962.836976,33735.465555,0.036000,0.918000,0.364000,192.000000,0.000000,0.000000,0.000000,0.000000,0.000000,0.000000,0.000000,0.000000,0.000000,1647755491.609198,0.000000
164.000000,10444.411390,9682.552181,39007.348002,34434.024624,33958.737130,56089.981626,27954.969162,33715.438392,0.036000,0.918000,0.364000,192.000000,0.000000,0.000000,0.000000,0.000000,0.000000,0.000000,0.000000,0.000000,0.000000,1647755491.615843,0.000000
173.000000,10475.212094,9723.254707,39045.480078,34448.866182,33968.706008,56098.609400,27969.028410,33728.871790,0.036000,0.918000,0.364000,192.000000,0.000000,0.000000,0.000000,0.000000,0.000000,0.000000,0.000000,0.000000,0.000000,1647755491.615854,0.000000
161.000000,10437.661164,9669.118782,38990.248917,34425.799182,33937.055938,56080.079803,27975.510415,33729.587046,0.042000,0.914000,0.366000,192.000000,1.000000,80.000000,28.000000,144.000000,11.000000,112.000000,0.000000,0.000000,0.000000,1647755491.622410,0.000000
169.000000,10455.989594,9697.997236,39023.307147,34434.784583,33966.671999,56086.338292,27946.587258,33702.496732,0.042000,0.914000,0.366000,192.000000,0.000000,0.000000,0.000000,0.000000,0.000000,0.000000,0.000000,0.000000,0.000000,1647755491.622418,0.000000
167.000000,10452.100390,9694.420957,39028.068069,34443.032377,33987.526177,56098.698807,27965.407427,33722.479191,0.042000,0.914000,0.366000,192.000000,0.000000,0.000000,0.000000,0.000000,0.000000,0.000000,0.000000,0.000000,0.000000,1647755491.628963,0.000000
170.000000,10463.768001,9707.854355,39021.921339,34436.125688,33962.514575,56093.356740,27960.601802,33724.155572,0.042000,0.914000,0.366000,192.000000,0.000000,0.000000,0.000000,0.000000,0.000000,0.000000,0.000000,0.000000,0.000000,1647755491.628973,0.000000
171.000000,10462.091620,9708.860184,39032.225493,34442.048900,33966.671999,56095.569562,27956.176157,33710.789229,0.042000,0.918000,0.360000,192.000000,1.000000,80.000000,28.000000,176.000000,11.000000,64.000000,0.000000,0.000000,0.000000,1647755491.635627,0.000000
174.000000,10480.956493,9732.955364,39029.923264,34444.932275,33944.432014,56096.530687,27977.276203,33739.198296,0.042000,0.918000,0.360000,192.000000,0.000000,0.000000,0.000000,0.000000,0.000000,0.000000,0.000000,0.000000,0.000000,1647755491.635639,0.000000
175.000000,10477.849600,9731.681315,39023.083630,34444.373482,33938.039415,56094.876658,27977.745590,33740.718215,0.042000,0.918000,0.360000,192.000000,0.000000,0.000000,0.000000,0.000000,0.000000,0.000000,0.000000,0.000000,0.000000,1647755491.641946,0.000000
176.000000,10482.923446,9736.486940,39019.596758,34452.218944,33948.812955,56099.659932,27983.288823,33742.707520,0.042000,0.918000,0.360000,192.000000,0.000000,0.000000,0.000000,0.000000,0.000000,0.000000,0.000000,0.000000,0.000000,1647755491.641958,0.000000
177.000000,10482.811687,9736.330478,39017.562749,34447.927409,33957.351322,56090.607475,27966.122683,33729.721156,0.042000,0.918000,0.360000,192.000000,0.000000,0.000000,0.000000,0.000000,0.000000,0.000000,0.000000,0.000000,0.000000,1647755491.648012,0.000000
178.000000,10487.013815,9740.577309,39008.510293,34441.579514,33934.999577,56083.901952,27959.037180,33713.270272,0.042000,0.918000,0.360000,192.000000,0.000000,0.000000,0.000000,0.000000,0.000000,0.000000,0.000000,0.000000,0.000000,1647755491.654298,0.000000
179.000000,10480.084775,9734.274117,39015.931072,34448.374444,33934.329025,56093.580257,27959.551270,33719.953444,0.042000,0.918000,0.360000,192.000000,0.000000,0.000000,0.000000,0.000000,0.000000,0.000000,0.000000,0.000000,0.000000,1647755491.654311,0.000000
180.000000,10481.001196,9737.582175,39019.194426,34451.749557,33938.285284,56094.183754,27960.154767,33722.434488,0.042000,0.918000,0.360000,192.000000,0.000000,0.000000,0.000000,0.000000,0.000000,0.000000,0.000000,0.000000,0.000000,1647755491.660515,0.000000
181.000000,10483.661054,9738.722114,39020.647290,34454.722339,33942.979150,56094.496679,27962.568755,33722.658005,0.036000,0.918000,0.362000,192.000000,1.000000,32.000000,28.000000,176.000000,11.000000,80.000000,0.000000,0.000000,0.000000,1647755491.660527,0.000000
182.000000,10477.961359,9732.038943,39027.509275,34452.665979,33962.961610,56088.864039,27961.764093,33717.315938,0.036000,0.918000,0.362000,192.000000,0.000000,0.000000,0.000000,0.000000,0.000000,0.000000,0.000000,0.000000,0.000000,1647755491.666593,0.000000
183.000000,10477.737841,9735.257594,39024.983528,34446.027511,33961.799319,56077.017614,27955.684418,33702.653194,0.036000,0.918000,0.362000,192.000000,0.000000,0.000000,0.000000,0.000000,0.000000,0.000000,0.000000,0.000000,0.000000,1647755491.666603,0.000000
184.000000,10481.582341,9740.756123,39027.777496,34449.201459,33952.925676,56077.710519,27954.924459,33711.348022,0.036000,0.918000,0.362000,192.000000,0.000000,0.000000,0.000000,0.000000,0.000000,0.000000,0.000000,0.000000,0.000000,1647755491.673184,0.000000
185.000000,10489.606618,9750.814408,39028.671566,34453.001255,33938.844077,56069.932111,27962.948735,33704.553092,0.036000,0.918000,0.362000,192.000000,0.000000,0.000000,0.000000,0.000000,0.000000,0.000000,0.000000,0.000000,0.000000,1647755491.673200,0.000000
186.000000,10489.226638,9749.897987,39043.043738,34462.143119,33950.377578,56079.744527,27967.128511,33723.663834,0.036000,0.918000,0.362000,192.000000,0.000000,0.000000,0.000000,0.000000,0.000000,0.000000,0.000000,0.000000,0.000000,1647755491.678984,0.000000
187.000000,10489.941894,9748.445123,39053.280837,34466.747578,33964.459177,56081.398556,27964.468654,33721.920398,0.036000,0.918000,0.362000,192.000000,0.000000,0.000000,0.000000,0.000000,0.000000,0.000000,0.000000,0.000000,0.000000,1647755491.678993,0.000000
188.000000,10502.660036,9763.443144,39046.105927,34473.743674,33961.754616,56081.219742,27964.401599,33716.354813,0.036000,0.918000,0.362000,192.000000,0.000000,0.000000,0.000000,0.000000,0.000000,0.000000,0.000000,0.000000,0.000000,1647755491.685336,0.000000
189.000000,10505.342246,9768.829914,39038.238113,34476.537642,33955.183203,56093.244981,27971.844729,33720.467534,0.036000,0.918000,0.362000,192.000000,0.000000,0.000000,0.000000,0.000000,0.000000,0.000000,0.000000,0.000000,0.000000,1647755491.685348,0.000000
190.000000,10503.732920,9768.986376,39050.308055,34484.494863,33973.779854,56101.515126,27966.212090,33723.842648,0.036000,0.918000,0.362000,192.000000,0.000000,0.000000,0.000000,0.000000,0.000000,0.000000,0.000000,0.000000,0.000000,1647755491.691650,0.000000
191.000000,10504.269362,9772.450897,39057.214744,34493.279099,33995.461046,56099.704635,27961.339410,33719.215836,0.032000,0.918000,0.364000,192.000000,1.000000,0.000000,28.000000,176.000000,11.000000,96.000000,0.000000,0.000000,0.000000,1647755491.691666,0.000000
192.000000,10506.795109,9775.222513,39046.217685,34498.308241,34000.825465,56093.334388,27958.545441,33722.367432,0.032000,0.918000,0.364000,192.000000,0.000000,0.000000,0.000000,0.000000,0.000000,0.000000,0.000000,0.000000,0.000000,1647755491.697536,0.000000
193.000000,10514.975848,9781.682167,39037.366395,34505.907834,33993.114113,56101.760996,27974.973974,33745.032101,0.032000,0.918000,0.364000,192.000000,0.000000,0.000000,0.000000,0.000000,0.000000,0.000000,0.000000,0.000000,0.000000,1647755491.703953,0.000000
194.000000,10511.108996,9778.597627,39029.140953,34506.310166,33985.179244,56103.571487,27976.091561,33740.695863,0.032000,0.918000,0.364000,192.000000,0.000000,0.000000,0.000000,0.000000,0.000000,0.000000,0.000000,0.000000,0.000000,1647755491.703966,0.000000
195.000000,10505.789281,9776.496563,39025.497618,34502.331555,33987.704991,56100.375187,27973.163482,33733.185677,0.032000,0.918000,0.364000,192.000000,0.000000,0.000000,0.000000,0.000000,0.000000,0.000000,0.000000,0.000000,0.000000,1647755491.710042,0.000000
196.000000,10506.348074,9779.983435,39030.951444,34505.147875,34001.607776,56105.739606,27976.963279,33738.438337,0.032000,0.918000,0.364000,192.000000,0.000000,0.000000,0.000000,0.000000,0.000000,0.000000,0.000000,0.000000,0.000000,1647755491.710051,0.000000
197.000000,10507.845641,9780.542228,39026.726964,34501.750410,34004.602910,56099.481118,27967.396732,33729.587046,0.032000,0.918000,0.364000,192.000000,0.000000,0.000000,0.000000,0.000000,0.000000,0.000000,0.000000,0.000000,0.000000,1647755491.716214,0.000000
198.000000,10508.560897,9777.390632,39019.976737,34494.620203,33995.014011,56087.165306,27946.944886,33705.178941,0.032000,0.918000,0.364000,192.000000,0.000000,0.000000,0.000000,0.000000,0.000000,0.000000,0.000000,0.000000,0.000000,1647755491.716224,0.000000
199.000000,10507.711531,9773.255560,39033.208970,34490.842759,34006.815732,56087.992321,27949.694151,33705.357755,0.032000,0.918000,0.364000,192.000000,0.000000,0.000000,0.000000,0.000000,0.000000,0.000000,0.000000,0.000000,0.000000,1647755491.722400,0.000000
200.000000,10514.729978,9778.284702,39037.545209,34488.093494,34009.296776,56090.272199,27968.983706,33716.488924,0.032000,0.918000,0.364000,192.000000,0.000000,0.000000,0.000000,0.000000,0.000000,0.000000,0.000000,0.000000,0.000000,1647755491.722408,0.000000
201.000000,10517.367484,9778.195295,39040.987377,34489.971040,34006.748677,56095.569562,27973.476407,33734.795002,0.040000,0.918000,0.370000,192.000000,1.000000,64.000000,28.000000,176.000000,11.000000,144.000000,0.000000,0.000000,0.000000,1647755491.729005,0.000000
202.000000,10514.953496,9776.630673,39045.323616,34491.736828,34011.755468,56100.554001,27976.538596,33744.182735,0.040000,0.918000,0.370000,192.000000,0.000000,0.000000,0.000000,0.000000,0.000000,0.000000,0.000000,0.000000,0.000000,1647755491.729022,0.000000
203.000000,10511.153699,9772.607359,39035.801773,34488.451122,34005.876959,56095.770728,27967.150863,33735.510258,0.040000,0.918000,0.370000,192.000000,0.000000,0.000000,0.000000,0.000000,0.000000,0.000000,0.000000,0.000000,0.000000,1647755491.734809,0.000000
204.000000,10504.068196,9766.617091,39020.602586,34479.286907,33990.945994,56087.992321,27958.187814,33716.690089,0.040000,0.918000,0.370000,192.000000,0.000000,0.000000,0.000000,0.000000,0.000000,0.000000,0.000000,0.000000,0.000000,1647755491.734821,0.000000
205.000000,10510.572554,9771.780344,39023.530665,34484.383104,33989.403723,56097.916496,27973.074075,33721.920398,0.040000,0.918000,0.370000,192.000000,0.000000,0.000000,0.000000,0.000000,0.000000,0.000000,0.000000,0.000000,0.000000,1647755491.741091,0.000000
206.000000,10514.126481,9776.630673,39029.789153,34489.322840,33997.405648,56102.856231,27973.521110,33731.218723,0.040000,0.918000,0.370000,192.000000,0.000000,0.000000,0.000000,0.000000,0.000000,0.000000,0.000000,0.000000,0.000000,1647755491.741099,0.000000
207.000000,10509.164394,9772.719118,39039.243941,34487.981735,34017.701032,56105.538440,27967.776712,33730.302302,0.040000,0.918000,0.370000,192.000000,0.000000,0.000000,0.000000,0.000000,0.000000,0.000000,0.000000,0.000000,0.000000,1647755491.747256,0.000000
208.000000,10513.098301,9773.724946,39039.534514,34481.052694,34014.907064,56102.185679,27967.150863,33730.659930,0.040000,0.918000,0.370000,192.000000,0.000000,0.000000,0.000000,0.000000,0.000000,0.000000,0.000000,0.000000,0.000000,1647755491.753510,0.000000
209.000000,10520.452025,9774.171981,39031.242017,34477.163491,33987.973212,56094.966065,27965.698000,33725.116697,0.040000,0.918000,0.370000,192.000000,0.000000,0.000000,0.000000,0.000000,0.000000,0.000000,0.000000,0.000000,0.000000,1647755491.753522,0.000000
210.000000,10535.070066,9787.471269,39031.599645,34484.450160,33970.427092,56094.451975,27974.392828,33739.622979,0.040000,0.918000,0.370000,192.000000,0.000000,0.000000,0.000000,0.000000,0.000000,0.000000,0.000000,0.000000,0.000000,1647755491.759672,0.000000
211.000000,10533.237223,9785.772536,39042.887276,34494.061410,33984.352229,56099.034083,27978.684363,33741.858154,0.040000,0.918000,0.370000,192.000000,1.000000,64.000000,28.000000,176.000000,11.000000,144.000000,0.000000,0.000000,0.000000,1647755491.759683,0.000000
212.000000,10523.491862,9775.021347,39048.788136,34490.440427,34003.641785,56096.687150,27974.817511,33724.803773,0.040000,0.918000,0.370000,192.000000,0.000000,0.000000,0.000000,0.000000,0.000000,0.000000,0.000000,0.000000,0.000000,1647755491.766065,0.000000
213.000000,10520.832005,9774.216685,39045.368319,34483.801959,34001.563072,56094.295513,27966.815587,33723.462668,0.040000,0.918000,0.370000,192.000000,0.000000,0.000000,0.000000,0.000000,0.000000,0.000000,0.000000,0.000000,0.000000,1647755491.766076,0.000000
214.000000,10519.848528,9775.893065,39042.775517,34481.857357,33997.316241,56099.257600,27969.207224,33727.955369,0.040000,0.918000,0.370000,192.000000,0.000000,0.000000,0.000000,0.000000,0.000000,0.000000,0.000000,0.000000,0.000000,1647755491.772378,0.000000
215.000000,10526.844624,9782.240961,39042.663758,34485.232471,33997.249186,56106.544269,27969.877776,33743.936866,0.040000,0.918000,0.370000,192.000000,0.000000,0.000000,0.000000,0.000000,0.000000,0.000000,0.000000,0.000000,0.000000,1647755491.772394,0.000000
216.000000,10530.979697,9788.342987,39044.988340,34493.390857,34000.065506,56109.427644,27970.950660,33736.024348,0.040000,0.918000,0.370000,192.000000,0.000000,0.000000,0.000000,0.000000,0.000000,0.000000,0.000000,0.000000,0.000000,1647755491.778280,0.000000
217.000000,10533.058409,9792.232191,39045.502430,34499.247014,34000.110209,56118.770673,27984.361706,33751.000017,0.040000,0.918000,0.370000,192.000000,0.000000,0.000000,0.000000,0.000000,0.000000,0.000000,0.000000,0.000000,0.000000,1647755491.778290,0.000000
218.000000,10532.767836,9794.512069,39034.594778,34499.872863,33980.865357,56115.686132,27963.395770,33737.432508,0.040000,0.918000,0.370000,192.000000,0.000000,0.000000,0.000000,0.000000,0.000000,0.000000,0.000000,0.000000,0.000000,1647755491.784623,0.000000
219.000000,10525.481167,9789.460574,39033.007805,34502.353907,33974.159834,56107.170118,27960.579450,33733.096270,0.040000,0.918000,0.370000,192.000000,0.000000,0.000000,0.000000,0.000000,0.000000,0.000000,0.000000,0.000000,0.000000,1647755491.784634,0.000000
220.000000,10514.238240,9777.524743,39028.917435,34492.541491,33970.807072,56097.044778,27956.645543,33724.088517,0.040000,0.918000,0.370000,192.000000,0.000000,0.000000,0.000000,0.000000,0.000000,0.000000,0.000000,0.000000,0.000000,1647755491.791103,0.000000
221.000000,10508.180917,9768.405231,39022.457781,34477.610526,33967.275496,56081.487963,27943.882697,33696.350002,0.046000,0.918000,0.366000,192.000000,1.000000,112.000000,28.000000,176.000000,11.000000,112.000000,0.000000,0.000000,0.000000,1647755491.791120,0.000000
222.000000,10507.599772,9765.946539,39026.212874,34471.597907,33962.715741,56075.631806,27944.374435,33697.177016,0.046000,0.918000,0.366000,192.000000,0.000000,0.000000,0.000000,0.000000,0.000000,0.000000,0.000000,0.000000,0.000000,1647755491.796970,0.000000
223.000000,10504.202307,9763.264330,39027.777496,34465.115901,33957.239563,56082.113812,27947.704845,33707.838799,0.046000,0.918000,0.366000,192.000000,0.000000,0.000000,0.000000,0.000000,0.000000,0.000000,0.000000,0.000000,0.000000,1647755491.803441,0.000000
224.000000,10510.706664,9771.646234,39027.397517,34465.629991,33946.846002,56086.137126,27954.253907,33710.699822,0.046000,0.918000,0.366000,192.000000,0.000000,0.000000,0.000000,0.000000,0.000000,0.000000,0.000000,0.000000,0.000000,1647755491.803453,0.000000
225.000000,10507.398606,9767.064126,39031.040851,34466.881688,33952.165717,56085.332463,27952.376360,33700.641537,0.046000,0.918000,0.366000,192.000000,0.000000,0.000000,0.000000,0.000000,0.000000,0.000000,0.000000,0.000000,0.000000,1647755491.809592,0.000000
226.000000,10502.391815,9758.525760,39028.202179,34462.098415,33963.587459,56079.722176,27944.933229,33691.522025,0.046000,0.918000,0.366000,192.000000,0.000000,0.000000,0.000000,0.000000,0.000000,0.000000,0.000000,0.000000,0.000000,1647755491.809603,0.000000
227.000000,10503.174127,9760.984452,39026.905778,34463.618334,33967.543717,56084.728966,27954.030389,33705.335403,0.046000,0.918000,0.366000,192.000000,0.000000,0.000000,0.000000,0.000000,0.000000,0.000000,0.000000,0.000000,0.000000,1647755491.816123,0.000000
228.000000,10510.214926,9771.378013,39016.333403,34462.388988,33951.204592,56092.060339,27975.353953,33727.329520,0.046000,0.918000,0.366000,192.000000,0.000000,0.000000,0.000000,0.000000,0.000000,0.000000,0.000000,0.000000,0.000000,1647755491.816139,0.000000
229.000000,10510.773720,9771.914455,39014.813485,34472.156700,33946.577781,56103.951467,27980.338392,33732.358662,0.046000,0.918000,0.366000,192.000000,0.000000,0.000000,0.000000,0.000000,0.000000,0.000000,0.000000,0.000000,0.000000,1647755491.822124,0.000000
230.000000,10513.746502,9775.311920,39025.676432,34478.884575,33955.183203,56109.785272,27982.662974,33740.561752,0.046000,0.918000,0.366000,192.000000,0.000000,0.000000,0.000000,0.000000,0.000000,0.000000,0.000000,0.000000,0.000000,1647755491.822133,0.000000
231.000000,10508.247973,9772.406193,39037.478153,34480.784474,33974.271592,56111.998095,27971.732971,33733.431546,0.046000,0.918000,0.366000,192.000000,0.000000,0.000000,0.000000,0.000000,0.000000,0.000000,0.000000,0.000000,0.000000,1647755491.828473,0.000000
232.000000,10497.832060,9763.979586,39033.365432,34474.838909,33986.453293,56099.659932,27963.663991,33723.373261,0.038000,0.918000,0.366000,192.000000,1.000000,48.000000,28.000000,176.000000,11.000000,112.000000,0.000000,0.000000,0.000000,1647755491.828479,0.000000
233.000000,10502.168298,9768.405231,39021.429601,34473.788377,33975.545642,56091.121565,27966.636773,33725.720194,0.038000,0.918000,0.366000,192.000000,0.000000,0.000000,0.000000,0.000000,0.000000,0.000000,0.000000,0.000000,0.000000,1647755491.834850,0.000000
234.000000,10507.756234,9771.825048,39019.529703,34473.654267,33959.027703,56088.215838,27958.523090,33712.219740,0.038000,0.918000,0.366000,192.000000,0.000000,0.000000,0.000000,0.000000,0.000000,0.000000,0.000000,0.000000,0.000000,1647755491.834863,0.000000
235.000000,10509.298505,9775.066051,39019.954386,34473.430750,33949.818784,56081.465612,27948.710674,33696.484112,0.038000,0.918000,0.366000,192.000000,0.000000,0.000000,0.000000,0.000000,0.000000,0.000000,0.000000,0.000000,0.000000,1647755491.841409,0.000000
236.000000,10504.850507,9771.668586,39033.588950,34481.544433,33964.436825,56090.026330,27953.181023,33718.500581,0.038000,0.918000,0.366000,192.000000,0.000000,0.000000,0.000000,0.000000,0.000000,0.000000,0.000000,0.000000,0.000000,1647755491.841426,0.000000
237.000000,10502.816499,9769.835743,39040.406232,34479.778645,33975.970325,56087.768804,27956.667895,33729.587046,0.038000,0.918000,0.366000,192.000000,0.000000,0.000000,0.000000,0.000000,0.000000,0.000000,0.000000,0.000000,0.000000,1647755491.847777,0.000000
238.000000,10509.745539,9777.480039,39022.435429,34472.581383,33946.957761,56080.795059,27964.468654,33726.122525,0.038000,0.918000,0.366000,192.000000,0.000000,0.000000,0.000000,0.000000,0.000000,0.000000,0.000000,0.000000,0.000000,1647755491.847788,0.000000
239.000000,10508.180917,9775.423679,39024.022403,34477.185843,33949.595267,56093.021464,27965.519186,33729.587046,0.038000,0.918000,0.366000,192.000000,0.000000,0.000000,0.000000,0.000000,0.000000,0.000000,0.000000,0.000000,0.000000,1647755491.854354,0.000000
240.000000,10510.125519,9777.412984,39016.825142,34478.191671,33956.300790,56087.634693,27946.117872,33707.503522,0.038000,0.918000,0.366000,192.000000,0.000000,0.000000,0.000000,0.000000,0.000000,0.000000,0.000000,0.000000,0.000000,1647755491.860417,0.000000
241.000000,10520.966115,9785.683130,39018.568578,34487.914680,33967.141386,56094.004940,27967.486139,33720.802810,0.038000,0.918000,0.366000,192.000000,0.000000,0.000000,0.000000,0.000000,0.000000,0.000000,0.000000,0.000000,0.000000,1647755491.860433,0.000000
242.000000,10518.373313,9782.933865,39028.135124,34493.569671,33991.884767,56102.610362,27974.057552,33737.946598,0.040000,0.910000,0.362000,192.000000,1.000000,64.000000,28.000000,112.000000,11.000000,80.000000,0.000000,0.000000,0.000000,1647755491.866640,0.000000
243.000000,10519.110920,9782.822106,39026.078764,34488.965212,33992.756485,56099.771690,27971.844729,33728.760031,0.040000,0.910000,0.362000,192.000000,0.000000,0.000000,0.000000,0.000000,0.000000,0.000000,0.000000,0.000000,0.000000,1647755491.866653,0.000000
244.000000,10525.168243,9786.867772,39014.612319,34486.707686,33972.125825,56091.814469,27974.258718,33727.977720,0.040000,0.910000,0.362000,192.000000,0.000000,0.000000,0.000000,0.000000,0.000000,0.000000,0.000000,0.000000,0.000000,1647755491.873372,0.000000
245.000000,10517.747464,9781.458650,39018.657985,34491.647421,33978.071389,56089.154612,27967.307325,33717.181828,0.040000,0.910000,0.362000,192.000000,0.000000,0.000000,0.000000,0.000000,0.000000,0.000000,0.000000,0.000000,0.000000,1647755491.873389,0.000000
246.000000,10522.530737,9785.616074,39027.464572,34496.073067,33999.462008,56097.760033,27978.237328,33730.302302,0.040000,0.910000,0.362000,192.000000,0.000000,0.000000,0.000000,0.000000,0.000000,0.000000,0.000000,0.000000,0.000000,1647755491.879451,0.000000
247.000000,10524.765912,9786.577199,39028.001014,34492.139160,34005.295814,56103.727949,27986.194549,33738.326578,0.040000,0.910000,0.362000,192.000000,0.000000,0.000000,0.000000,0.000000,0.000000,0.000000,0.000000,0.000000,0.000000,1647755491.879460,0.000000
248.000000,10528.632763,9789.862906,39017.875674,34484.852491,33995.081066,56104.845536,27983.579395,33733.655063,0.040000,0.910000,0.362000,192.000000,0.000000,0.000000,0.000000,0.000000,0.000000,0.000000,0.000000,0.000000,0.000000,1647755491.885783,0.000000
249.000000,10528.655115,9789.013539,38996.842682,34477.834043,33970.583555,56094.474327,27973.208186,33717.852380,0.040000,0.910000,0.362000,192.000000,0.000000,0.000000,0.000000,0.000000,0.000000,0.000000,0.000000,0.000000,0.000000,1647755491.885792,0.000000
250.000000,10525.570574,9788.320635,39002.810598,34485.970078,33981.133578,56100.799871,27978.684363,33729.765860,0.040000,0.910000,0.362000,192.000000,0.000000,0.000000,0.000000,0.000000,0.000000,0.000000,0.000000,0.000000,0.000000,1647755491.892145,0.000000
251.000000,10524.475339,9789.237057,39004.889310,34486.484168,33990.789532,56100.978685,27982.059477,33738.997130,0.040000,0.910000,0.362000,192.000000,0.000000,0.000000,0.000000,0.000000,0.000000,0.000000,0.000000,0.000000,0.000000,1647755491.892156,0.000000
252.000000,10521.659019,9784.967874,39009.784342,34482.550261,34000.736058,56091.725062,27966.972049,33715.326633,0.044000,0.914000,0.358000,192.000000,1.000000,96.000000,28.000000,144.000000,11.000000,48.000000,0.000000,0.000000,0.000000,1647755491.898234,0.000000
253.000000,10530.040923,9792.187487,39017.294528,34489.211081,34001.071334,56098.810565,27983.177064,33748.742491,0.044000,0.914000,0.358000,192.000000,0.000000,0.000000,0.000000,0.000000,0.000000,0.000000,0.000000,0.000000,0.000000,1647755491.898243,0.000000
254.000000,10525.659981,9789.795850,39014.209987,34483.109055,33991.169511,56094.921362,27974.750456,33734.616188,0.044000,0.914000,0.358000,192.000000,0.000000,0.000000,0.000000,0.000000,0.000000,0.000000,0.000000,0.000000,0.000000,1647755491.904637,0.000000
255.000000,10527.358714,9791.829859,39007.213891,34476.939973,33979.770122,56092.865001,27974.214014,33733.588008,0.044000,0.914000,0.358000,192.000000,0.000000,0.000000,0.000000,0.000000,0.000000,0.000000,0.000000,0.000000,0.000000,1647755491.911111,0.000000
0.000000,10522.977772,9786.577199,39014.478208,34483.690200,33993.695258,56092.686187,27968.603726,33726.234284,0.044000,0.914000,0.358000,192.000000,0.000000,0.000000,0.000000,0.000000,0.000000,0.000000,0.000000,0.000000,0.000000,1647755491.911122,0.000000
1.000000,10526.822272,9792.276894,39015.841665,34487.646459,34003.731192,56094.094347,27971.621212,33735.867886,0.044000,0.914000,0.358000,192.000000,0.000000,0.000000,0.000000,0.000000,0.000000,0.000000,0.000000,0.000000,0.000000,1647755491.917021,0.000000
2.000000,10526.174072,9793.595647,39003.503502,34481.767950,33986.118017,56095.256638,27961.764093,33741.433470,0.044000,0.914000,0.358000,192.000000,0.000000,0.000000,0.000000,0.000000,0.000000,0.000000,0.000000,0.000000,0.000000,1647755491.917028,0.000000
3.000000,10522.486034,9789.371167,39004.598737,34482.058523,33986.408590,56098.989379,27971.800026,33746.440261,0.044000,0.914000,0.358000,192.000000,0.000000,0.000000,0.000000,0.000000,0.000000,0.000000,0.000000,0.000000,0.000000,1647755491.923355,0.000000
4.000000,10523.536566,9790.801679,39006.453932,34481.902061,33987.950860,56093.647312,27973.677572,33741.254656,0.044000,0.914000,0.358000,192.000000,0.000000,0.000000,0.000000,0.000000,0.000000,0.000000,0.000000,0.000000,0.000000,1647755491.923372,0.000000
5.000000,10524.274173,9791.919266,39011.304261,34482.997296,33993.941128,56094.027292,27978.371439,33741.187601,0.044000,0.914000,0.358000,192.000000,0.000000,0.000000,0.000000,0.000000,0.000000,0.000000,0.000000,0.000000,0.000000,1647755491.929404,0.000000
6.000000,10520.496728,9789.818202,39024.916473,34487.154721,34020.338538,56102.722121,27985.233424,33747.244924,0.044000,0.920000,0.362000,192.000000,1.000000,96.000000,28.000000,192.000000,11.000000,80.000000,0.000000,0.000000,0.000000,1647755491.929413,0.000000
7.000000,10528.900984,9800.278819,39015.707554,34484.003125,34013.409497,56103.035045,27987.267433,33746.619075,0.044000,0.920000,0.362000,192.000000,0.000000,0.000000,0.000000,0.000000,0.000000,0.000000,0.000000,0.000000,0.000000,1647755491.935822,0.000000
8.000000,10521.390798,9786.845420,39014.254691,34477.968154,34002.904177,56106.454862,27985.479294,33743.758052,0.044000,0.920000,0.362000,192.000000,0.000000,0.000000,0.000000,0.000000,0.000000,0.000000,0.000000,0.000000,0.000000,1647755491.935835,0.000000
9.000000,10520.027342,9780.363414,39008.085609,34469.318029,33988.219081,56100.486946,27991.022526,33745.836764,0.044000,0.920000,0.362000,192.000000,0.000000,0.000000,0.000000,0.000000,0.000000,0.000000,0.000000,0.000000,0.000000,1647755491.942131,0.000000
10.000000,10523.693028,9785.750185,39013.137104,34476.247069,33990.364848,56099.101138,27990.553140,33742.573409,0.044000,0.920000,0.362000,192.000000,0.000000,0.000000,0.000000,0.000000,0.000000,0.000000,0.000000,0.000000,0.000000,1647755491.942143,0.000000
11.000000,10533.259575,9794.892048,39011.438371,34484.472511,33980.015991,56098.184716,27992.877721,33735.510258,0.044000,0.920000,0.362000,192.000000,0.000000,0.000000,0.000000,0.000000,0.000000,0.000000,0.000000,0.000000,0.000000,1647755491.948343,0.000000
12.000000,10527.135197,9785.012577,39008.242072,34479.800997,33969.130691,56097.357702,27988.452076,33736.806659,0.044000,0.920000,0.362000,192.000000,0.000000,0.000000,0.000000,0.000000,0.000000,0.000000,0.000000,0.000000,0.000000,1647755491.948352,0.000000
13.000000,10522.620144,9781.860981,39006.342173,34478.750465,33969.085988,56094.809603,27980.450151,33732.224552,0.044000,0.920000,0.362000,192.000000,0.000000,0.000000,0.000000,0.000000,0.000000,0.000000,0.000000,0.000000,0.000000,1647755491.954805,0.000000
14.000000,10524.520042,9782.442127,39014.679374,34484.718381,33995.729267,56097.424757,27977.007982,33723.395613,0.044000,0.920000,0.362000,192.000000,0.000000,0.000000,0.000000,0.000000,0.000000,0.000000,0.000000,0.000000,0.000000,1647755491.961040,0.000000
15.000000,10533.661906,9790.287589,39006.386877,34486.305354,34000.959575,56098.430586,27983.065305,33735.465555,0.044000,0.920000,0.362000,192.000000,0.000000,0.000000,0.000000,0.000000,0.000000,0.000000,0.000000,0.000000,0.000000,1647755491.961049,0.000000
16.000000,10534.086589,9790.891086,38996.440351,34480.426846,33996.623337,56090.249847,27973.431703,33727.687148,0.046000,0.912000,0.366000,192.000000,1.000000,112.000000,28.000000,128.000000,11.000000,112.000000,0.000000,0.000000,0.000000,1647755491.967401,0.000000
17.000000,10533.460740,9791.896914,38999.301374,34482.840834,33992.287098,56098.363530,27993.123590,33741.813450,0.046000,0.912000,0.366000,192.000000,0.000000,0.000000,0.000000,0.000000,0.000000,0.000000,0.000000,0.000000,0.000000,1647755491.967412,0.000000
18.000000,10522.933069,9780.318711,39010.343136,34476.917622,34001.317203,56101.001036,27991.357802,33746.015578,0.046000,0.912000,0.366000,192.000000,0.000000,0.000000,0.000000,0.000000,0.000000,0.000000,0.000000,0.000000,0.000000,1647755491.973855,0.000000
19.000000,10524.095359,9781.123374,39009.180845,34473.028418,33995.125770,56091.166269,27980.718372,33731.621055,0.046000,0.912000,0.366000,192.000000,0.000000,0.000000,0.000000,0.000000,0.000000,0.000000,0.000000,0.000000,0.000000,1647755491.973872,0.000000
20.000000,10528.677467,9786.733662,39017.249825,34478.594003,34000.892520,56091.412138,27989.927291,33738.483040,0.046000,0.912000,0.366000,192.000000,0.000000,0.000000,0.000000,0.000000,0.000000,0.000000,0.000000,0.000000,0.000000,1647755491.979809,0.000000
21.000000,10525.257650,9784.923170,39016.243996,34479.778645,34003.999413,56094.519030,27986.909805,33753.391654,0.046000,0.912000,0.366000,192.000000,0.000000,0.000000,0.000000,0.000000,0.000000,0.000000,0.000000,0.000000,0.000000,1647755491.979820,0.000000
22.000000,10521.167281,9783.872638,39006.766857,34470.122691,33986.028610,56086.114774,27989.703773,33738.795965,0.046000,0.912000,0.366000,192.000000,0.000000,0.000000,0.000000,0.000000,0.000000,0.000000,0.000000,0.000000,0.000000,1647755491.986026,0.000000
23.000000,10514.662923,9777.971778,39011.572482,34468.133386,33980.820654,56090.003978,27984.361706,33736.001997,0.046000,0.912000,0.366000,192.000000,0.000000,0.000000,0.000000,0.000000,0.000000,0.000000,0.000000,0.000000,0.000000,1647755491.986039,0.000000
24.000000,10517.143967,9779.670510,39013.874711,34466.211136,33987.883805,56083.276103,27975.152788,33720.154610,0.046000,0.912000,0.366000,192.000000,0.000000,0.000000,0.000000,0.000000,0.000000,0.000000,0.000000,0.000000,0.000000,1647755491.992460,0.000000
25.000000,10519.602659,9783.246789,39022.390726,34475.062427,33994.343459,56093.177926,27986.462770,33742.998093,0.046000,0.912000,0.366000,192.000000,0.000000,0.000000,0.000000,0.000000,0.000000,0.000000,0.000000,0.000000,0.000000,1647755491.992472,0.000000
26.000000,10520.809653,9783.894990,39027.755145,34473.833081,33997.182130,56087.567638,27981.657145,33730.928151,0.040000,0.916000,0.366000,192.000000,1.000000,64.000000,28.000000,160.000000,11.000000,112.000000,0.000000,0.000000,0.000000,1647755491.998690,0.000000
27.000000,10520.250859,9781.950388,39026.794020,34468.356904,33990.700125,56081.934998,27976.583299,33721.205142,0.040000,0.916000,0.366000,192.000000,0.000000,0.000000,0.000000,0.000000,0.000000,0.000000,0.000000,0.000000,0.000000,1647755491.998699,0.000000
28.000000,10525.436464,9787.515973,39019.641461,34466.591116,33972.483453,56079.498658,27984.629927,33730.414060,0.040000,0.916000,0.366000,192.000000,0.000000,0.000000,0.000000,0.000000,0.000000,0.000000,0.000000,0.000000,0.000000,1647755492.004854,0.000000
29.000000,10525.905851,9787.895952,39024.603549,34472.559032,33974.517462,56089.244019,27989.279090,33747.043758,0.040000,0.916000,0.366000,192.000000,0.000000,0.000000,0.000000,0.000000,0.000000,0.000000,0.000000,0.000000,0.000000,1647755492.011022,0.000000
30.000000,10519.714417,9782.710347,39026.324633,34467.082854,33980.217156,56078.157553,27973.007020,33718.746450,0.040000,0.916000,0.366000,192.000000,0.000000,0.000000,0.000000,0.000000,0.000000,0.000000,0.000000,0.000000,0.000000,1647755492.011029,0.000000
31.000000,10516.249897,9778.396461,39032.873694,34466.255840,33995.259880,56083.074937,27982.551215,33729.140011,0.040000,0.916000,0.366000,192.000000,0.000000,0.000000,0.000000,0.000000,0.000000,0.000000,0.000000,0.000000,0.000000,1647755492.017443,0.000000
32.000000,10521.748426,9783.380900,39021.071973,34457.181031,33979.501901,56072.681376,27977.142093,33723.283854,0.040000,0.916000,0.366000,192.000000,0.000000,0.000000,0.000000,0.000000,0.000000,0.000000,0.000000,0.000000,0.000000,1647755492.017455,0.000000
33.000000,10527.984563,9786.711310,39012.757124,34459.103281,33957.977171,56072.524914,27976.851520,33724.513200,0.040000,0.916000,0.366000,192.000000,0.000000,0.000000,0.000000,0.000000,0.000000,0.000000,0.000000,0.000000,0.000000,1647755492.023607,0.000000
34.000000,10521.703723,9780.966911,39016.422810,34458.589191,33958.938296,56070.356795,27964.692171,33701.043868,0.040000,0.916000,0.366000,192.000000,0.000000,0.000000,0.000000,0.000000,0.000000,0.000000,0.000000,0.000000,0.000000,1647755492.023615,0.000000
35.000000,10523.111883,9781.972740,39021.519008,34460.757310,33967.856642,56076.525876,27967.463787,33706.810618,0.040000,0.916000,0.366000,192.000000,0.000000,0.000000,0.000000,0.000000,0.000000,0.000000,0.000000,0.000000,0.000000,1647755492.029770,0.000000
36.000000,10523.469510,9781.279836,39019.350889,34458.231563,33973.668095,56079.833934,27966.748532,33720.802810,0.038000,0.912000,0.368000,192.000000,1.000000,48.000000,28.000000,128.000000,11.000000,128.000000,0.000000,0.000000,0.000000,1647755492.029779,0.000000
37.000000,10524.967077,9784.096156,39009.046734,34453.224773,33965.017970,56077.419946,27982.752381,33728.760031,0.038000,0.912000,0.368000,192.000000,0.000000,0.000000,0.000000,0.000000,0.000000,0.000000,0.000000,0.000000,0.000000,1647755492.036221,0.000000
38.000000,10523.558917,9781.659816,39009.292604,34457.471604,33968.929525,56081.197391,27982.618270,33728.089479,0.038000,0.912000,0.368000,192.000000,0.000000,0.000000,0.000000,0.000000,0.000000,0.000000,0.000000,0.000000,0.000000,1647755492.036234,0.000000
39.000000,10523.983601,9779.581103,39005.917490,34457.471604,33971.164700,56080.616245,27983.959375,33730.324653,0.038000,0.912000,0.368000,192.000000,0.000000,0.000000,0.000000,0.000000,0.000000,0.000000,0.000000,0.000000,0.000000,1647755492.042342,0.000000
40.000000,10518.976810,9774.842533,39010.097266,34458.812709,33982.944069,56082.359681,27984.026430,33729.095307,0.038000,0.912000,0.368000,192.000000,0.000000,0.000000,0.000000,0.000000,0.000000,0.000000,0.000000,0.000000,0.000000,1647755492.042354,0.000000
41.000000,10525.347057,9782.285664,39012.846531,34462.523098,33985.134540,56084.706615,27985.009907,33732.872752,0.038000,0.912000,0.368000,192.000000,0.000000,0.000000,0.000000,0.000000,0.000000,0.000000,0.000000,0.000000,0.000000,1647755492.048557,0.000000
42.000000,10518.842699,9774.887237,39008.510293,34454.968209,33974.226889,56082.851420,27974.973974,33724.557903,0.038000,0.912000,0.368000,192.000000,0.000000,0.000000,0.000000,0.000000,0.000000,0.000000,0.000000,0.000000,0.000000,1647755492.048566,0.000000
43.000000,10512.092473,9769.142839,39007.437409,34454.454119,33975.232717,56086.897086,27975.331602,33715.818371,0.038000,0.912000,0.368000,192.000000,0.000000,0.000000,0.000000,0.000000,0.000000,0.000000,0.000000,0.000000,0.000000,1647755492.054767,0.000000
44.000000,10513.657095,9773.814353,39000.307202,34451.213116,33961.776967,56076.749394,27971.375343,33703.346098,0.038000,0.912000,0.368000,192.000000,0.000000,0.000000,0.000000,0.000000,0.000000,0.000000,0.000000,0.000000,0.000000,1647755492.054779,0.000000
45.000000,10516.182842,9774.194333,38997.759104,34453.045959,33950.981075,56079.185734,27978.103218,33714.812543,0.038000,0.912000,0.368000,192.000000,0.000000,0.000000,0.000000,0.000000,0.000000,0.000000,0.000000,0.000000,0.000000,1647755492.062110,0.000000
46.000000,10518.775644,9775.758955,38999.569595,34456.733996,33954.937333,56088.975798,27984.719334,33733.990340,0.038000,0.916000,0.366000,192.000000,1.000000,48.000000,28.000000,160.000000,11.000000,112.000000,0.000000,0.000000,0.000000,1647755492.070168,0.000000
47.000000,10515.668752,9776.787135,39001.938880,34456.130499,33955.339665,56094.854307,27989.703773,33746.909648,0.038000,0.916000,0.366000,192.000000,0.000000,0.000000,0.000000,0.000000,0.000000,0.000000,0.000000,0.000000,0.000000,1647755492.070181,0.000000
48.000000,10512.673618,9773.769650,39003.995240,34452.554220,33951.361054,56087.433527,27978.662011,33728.447107,0.038000,0.916000,0.366000,192.000000,0.000000,0.000000,0.000000,0.000000,0.000000,0.000000,0.000000,0.000000,0.000000,1647755492.076695,0.000000
49.000000,10516.741635,9777.278874,39006.565691,34457.583363,33959.474738,56085.868905,27975.845692,33724.222627,0.038000,0.916000,0.366000,192.000000,0.000000,0.000000,0.000000,0.000000,0.000000,0.000000,0.000000,0.000000,0.000000,1647755492.076716,0.000000
50.000000,10518.306258,9779.156420,39014.277043,34460.019703,33979.948936,56086.338292,27974.683401,33719.148781,0.038000,0.916000,0.366000,192.000000,0.000000,0.000000,0.000000,0.000000,0.000000,0.000000,0.000000,0.000000,0.000000,1647755492.084799,0.000000
51.000000,10520.183804,9781.257484,39009.292604,34454.454119,33972.729322,56081.175039,27965.183910,33707.168246,0.038000,0.916000,0.366000,192.000000,0.000000,0.000000,0.000000,0.000000,0.000000,0.000000,0.000000,0.000000,0.000000,1647755492.084815,0.000000
52.000000,10521.144929,9782.084499,39003.436447,34450.631970,33959.608848,56086.561809,27969.430741,33709.537531,0.038000,0.916000,0.366000,192.000000,0.000000,0.000000,0.000000,0.000000,0.000000,0.000000,0.000000,0.000000,0.000000,1647755492.092736,0.000000
53.000000,10526.397589,9786.063109,38996.797978,34450.609618,33945.236676,56090.719234,27974.839863,33714.276101,0.038000,0.916000,0.366000,192.000000,0.000000,0.000000,0.000000,0.000000,0.000000,0.000000,0.000000,0.000000,0.000000,1647755492.092747,0.000000
54.000000,10523.871842,9786.465441,38998.720229,34456.465776,33949.774080,56088.662873,27972.224709,33721.339252,0.038000,0.916000,0.366000,192.000000,0.000000,0.000000,0.000000,0.000000,0.000000,0.000000,0.000000,0.000000,0.000000,1647755492.099341,0.000000
55.000000,10520.541432,9784.453784,39003.257633,34460.109110,33968.862470,56089.758109,27970.660087,33723.797944,0.038000,0.916000,0.366000,192.000000,0.000000,0.000000,0.000000,0.000000,0.000000,0.000000,0.000000,0.000000,0.000000,1647755492.099351,0.000000
56.000000,10519.133272,9778.843496,38997.714400,34452.107185,33962.961610,56086.852382,27983.333526,33729.698805,0.042000,0.916000,0.366000,192.000000,1.000000,80.000000,28.000000,160.000000,11.000000,112.000000,0.000000,0.000000,0.000000,1647755492.107641,0.000000
57.000000,10517.032208,9774.998996,38997.960269,34447.748595,33950.578743,56084.840725,27980.003116,33720.467534,0.042000,0.916000,0.366000,192.000000,0.000000,0.000000,0.000000,0.000000,0.000000,0.000000,0.000000,0.000000,0.000000,1647755492.107658,0.000000
58.000000,10520.586135,9780.408118,39001.938880,34449.872011,33941.973322,56077.196428,27971.151825,33706.631804,0.042000,0.916000,0.366000,192.000000,0.000000,0.000000,0.000000,0.000000,0.000000,0.000000,0.000000,0.000000,0.000000,1647755492.115245,0.000000
59.000000,10523.648324,9783.492659,39015.081705,34454.364712,33957.753653,56078.984568,27972.515282,33710.968043,0.042000,0.916000,0.366000,192.000000,0.000000,0.000000,0.000000,0.000000,0.000000,0.000000,0.000000,0.000000,0.000000,1647755492.115254,0.000000
60.000000,10523.268345,9781.995092,39014.366450,34450.564915,33967.856642,56080.035100,27968.491968,33711.482133,0.042000,0.916000,0.366000,192.000000,0.000000,0.000000,0.000000,0.000000,0.000000,0.000000,0.000000,0.000000,0.000000,1647755492.122706,0.000000
61.000000,10522.664848,9782.308016,39010.119618,34449.693197,33971.030589,56086.159478,27980.494855,33729.430584,0.042000,0.916000,0.366000,192.000000,0.000000,0.000000,0.000000,0.000000,0.000000,0.000000,0.000000,0.000000,0.000000,1647755492.128988,0.000000
62.000000,10524.855319,9782.576237,39005.157531,34450.967246,33968.527194,56091.747414,27990.217863,33729.877619,0.042000,0.916000,0.366000,192.000000,0.000000,0.000000,0.000000,0.000000,0.000000,0.000000,0.000000,0.000000,0.000000,1647755492.129000,0.000000
63.000000,10519.803824,9777.971778,39001.693011,34450.833136,33970.918831,56092.328559,27989.390849,33733.051566,0.042000,0.916000,0.366000,192.000000,0.000000,0.000000,0.000000,0.000000,0.000000,0.000000,0.000000,0.000000,0.000000,1647755492.137308,0.000000
64.000000,10524.832967,9782.911513,39012.086572,34453.492994,33986.252127,56087.657045,27981.590090,33727.351871,0.042000,0.916000,0.366000,192.000000,0.000000,0.000000,0.000000,0.000000,0.000000,0.000000,0.000000,0.000000,0.000000,1647755492.137325,0.000000
65.000000,10522.418979,9779.357586,39017.741563,34450.676674,33997.852683,56075.497696,27978.036163,33714.074935,0.042000,0.916000,0.366000,192.000000,0.000000,0.000000,0.000000,0.000000,0.000000,0.000000,0.000000,0.000000,0.000000,1647755492.144986,0.000000
66.000000,10517.568650,9774.395499,39023.418906,34449.424976,34010.570825,56073.866019,27978.192625,33717.561807,0.042000,0.916000,0.366000,192.000000,0.000000,0.000000,0.000000,0.000000,0.000000,0.000000,0.000000,0.000000,0.000000,1647755492.144998,0.000000
67.000000,10523.983601,9781.525705,39015.707554,34448.352092,34004.804075,56073.575446,27978.058514,33713.426735,0.036000,0.914000,0.372000,192.000000,1.000000,32.000000,28.000000,144.000000,11.000000,160.000000,0.000000,0.000000,0.000000,1647755492.152259,0.000000
68.000000,10522.731903,9782.308016,39014.813485,34450.184935,34007.240415,56082.337330,27978.349087,33720.780459,0.036000,0.914000,0.372000,192.000000,0.000000,0.000000,0.000000,0.000000,0.000000,0.000000,0.000000,0.000000,0.000000,1647755492.152273,0.000000
69.000000,10520.474377,9778.687033,39025.296453,34450.564915,34027.178172,56082.806716,27968.424913,33707.190598,0.036000,0.914000,0.372000,192.000000,0.000000,0.000000,0.000000,0.000000,0.000000,0.000000,0.000000,0.000000,0.000000,1647755492.159804,0.000000
70.000000,10529.102150,9786.152516,39020.870807,34447.569781,34018.550398,56088.528763,27986.373363,33727.150706,0.036000,0.914000,0.372000,192.000000,0.000000,0.000000,0.000000,0.000000,0.000000,0.000000,0.000000,0.000000,0.000000,1647755492.159816,0.000000
71.000000,10525.458816,9782.710347,39021.809581,34447.413319,34019.109192,56088.327597,27971.285936,33712.353851,0.036000,0.914000,0.372000,192.000000,0.000000,0.000000,0.000000,0.000000,0.000000,0.000000,0.000000,0.000000,0.000000,1647755492.167740,0.000000
72.000000,10527.716342,9784.386728,39009.829046,34446.139270,33996.243357,56079.051623,27963.932212,33702.854359,0.036000,0.914000,0.372000,192.000000,0.000000,0.000000,0.000000,0.000000,0.000000,0.000000,0.000000,0.000000,0.000000,1647755492.167754,0.000000
73.000000,10529.973868,9785.593723,39020.401421,34452.576572,33998.433828,56086.338292,27972.448227,33717.472400,0.036000,0.914000,0.372000,192.000000,0.000000,0.000000,0.000000,0.000000,0.000000,0.000000,0.000000,0.000000,0.000000,1647755492.175622,0.000000
74.000000,10529.213909,9785.169039,39022.591892,34456.756348,34001.384258,56084.192524,27987.110971,33724.669662,0.036000,0.914000,0.372000,192.000000,0.000000,0.000000,0.000000,0.000000,0.000000,0.000000,0.000000,0.000000,0.000000,1647755492.175634,0.000000
75.000000,10532.566670,9790.131127,39030.504409,34466.166433,34011.330785,56085.980664,27993.503570,33730.257598,0.036000,0.914000,0.372000,192.000000,0.000000,0.000000,0.000000,0.000000,0.000000,0.000000,0.000000,0.000000,0.000000,1647755492.181844,0.000000
76.000000,10526.129368,9786.286627,39035.622959,34465.495880,34022.573712,56083.969007,27979.421971,33718.813505,0.036000,0.914000,0.372000,192.000000,0.000000,0.000000,0.000000,0.000000,0.000000,0.000000,0.000000,0.000000,0.000000,1647755492.189504,0.000000
77.000000,10521.591964,9782.151554,39021.541360,34454.431767,34001.294851,56070.043870,27976.650354,33717.427697,0.042000,0.918000,0.374000,192.000000,1.000000,80.000000,28.000000,176.000000,11.000000,176.000000,0.000000,0.000000,0.000000,1647755492.189521,0.000000
78.000000,10525.905851,9783.202086,39010.924281,34449.000293,33976.976153,56069.775649,27976.404485,33713.784363,0.042000,0.918000,0.374000,192.000000,0.000000,0.000000,0.000000,0.000000,0.000000,0.000000,0.000000,0.000000,0.000000,1647755492.197214,0.000000
79.000000,10519.759121,9777.725908,39019.775572,34448.754424,33993.739962,56074.916551,27971.487101,33701.267386,0.042000,0.918000,0.374000,192.000000,0.000000,0.000000,0.000000,0.000000,0.000000,0.000000,0.000000,0.000000,0.000000,1647755492.197223,0.000000
80.000000,10527.626935,9784.252618,39024.715307,34450.006121,34001.339555,56078.738699,27973.163482,33724.490848,0.042000,0.918000,0.374000,192.000000,0.000000,0.000000,0.000000,0.000000,0.000000,0.000000,0.000000,0.000000,0.000000,1647755492.204699,0.000000
81.000000,10530.219737,9783.179734,39037.254636,34454.454119,34006.905139,56092.887353,27978.952584,33730.369357,0.042000,0.918000,0.374000,192.000000,0.000000,0.000000,0.000000,0.000000,0.000000,0.000000,0.000000,0.000000,0.000000,1647755492.204716,0.000000
82.000000,10530.264441,9784.520839,39047.245866,34457.583363,34013.968291,56092.127394,27981.143055,33725.496677,0.042000,0.918000,0.374000,192.000000,0.000000,0.000000,0.000000,0.000000,0.000000,0.000000,0.000000,0.000000,0.000000,1647755492.211916,0.000000
83.000000,10538.892214,9795.562601,39039.288645,34457.046921,33999.730229,56084.326635,27985.032259,33738.795965,0.042000,0.918000,0.374000,192.000000,0.000000,0.000000,0.000000,0.000000,0.000000,0.000000,0.000000,0.000000,0.000000,1647755492.211928,0.000000
84.000000,10534.153644,9792.031025,39040.473287,34460.042055,34000.467837,56084.393690,27980.427799,33729.810563,0.042000,0.918000,0.374000,192.000000,0.000000,0.000000,0.000000,0.000000,0.000000,0.000000,0.000000,0.000000,0.000000,1647755492.219966,0.000000
85.000000,10534.220700,9791.427528,39044.630712,34462.567802,34005.564035,56089.489888,27979.936061,33717.584159,0.042000,0.918000,0.374000,192.000000,0.000000,0.000000,0.000000,0.000000,0.000000,0.000000,0.000000,0.000000,0.000000,1647755492.219978,0.000000
86.000000,10535.852377,9791.494583,39046.620017,34461.181994,34013.521256,56096.150708,27977.767942,33715.125467,0.042000,0.918000,0.374000,192.000000,0.000000,0.000000,0.000000,0.000000,0.000000,0.000000,0.000000,0.000000,0.000000,1647755492.228010,0.000000
87.000000,10531.404380,9787.180696,39039.020424,34457.002217,34010.101439,56101.112795,27985.971032,33719.819334,0.036000,0.918000,0.372000,192.000000,1.000000,32.000000,28.000000,176.000000,11.000000,160.000000,0.000000,0.000000,0.000000,1647755492.228022,0.000000
88.000000,10522.888365,9779.916379,39031.532589,34446.251028,34001.250148,56094.541382,27983.445285,33722.389784,0.036000,0.918000,0.372000,192.000000,0.000000,0.000000,0.000000,0.000000,0.000000,0.000000,0.000000,0.000000,0.000000,1647755492.234523,0.000000
89.000000,10523.961249,9780.721042,39038.595741,34449.737900,34004.178226,56099.212897,27990.463733,33736.180810,0.036000,0.918000,0.372000,192.000000,0.000000,0.000000,0.000000,0.000000,0.000000,0.000000,0.000000,0.000000,0.000000,1647755492.234530,0.000000
90.000000,10530.063275,9786.621903,39037.858133,34454.342360,34002.680660,56105.203164,28002.108991,33748.206049,0.036000,0.918000,0.372000,192.000000,0.000000,0.000000,0.000000,0.000000,0.000000,0.000000,0.000000,0.000000,0.000000,1647755492.241597,0.000000
91.000000,10529.146854,9784.543191,39037.411098,34459.170337,34005.675793,56109.539403,27997.973919,33744.093328,0.036000,0.918000,0.372000,192.000000,0.000000,0.000000,0.000000,0.000000,0.000000,0.000000,0.000000,0.000000,0.000000,1647755492.249601,0.000000
92.000000,10524.989429,9779.692862,39030.012671,34454.565877,33994.589328,56096.463632,27986.261605,33722.702709,0.036000,0.918000,0.372000,192.000000,0.000000,0.000000,0.000000,0.000000,0.000000,0.000000,0.000000,0.000000,0.000000,1647755492.249621,0.000000
93.000000,10525.950554,9783.760879,39021.429601,34453.470642,33978.026685,56092.663836,27991.156637,33727.620092,0.036000,0.918000,0.372000,192.000000,0.000000,0.000000,0.000000,0.000000,0.000000,0.000000,0.000000,0.000000,0.000000,1647755492.257569,0.000000
94.000000,10533.773665,9792.388653,39028.626863,34466.099377,33988.979040,56108.980609,28000.566721,33752.497584,0.036000,0.918000,0.372000,192.000000,0.000000,0.000000,0.000000,0.000000,0.000000,0.000000,0.000000,0.000000,0.000000,1647755492.257581,0.000000
95.000000,10538.646345,9797.507202,39029.900912,34468.803938,33993.874072,56109.718217,27990.419029,33731.263427,0.036000,0.918000,0.372000,192.000000,0.000000,0.000000,0.000000,0.000000,0.000000,0.000000,0.000000,0.000000,0.000000,1647755492.264162,0.000000
96.000000,10547.899967,9806.783176,39030.415002,34469.407436,33991.415380,56119.508281,28002.444268,33754.464537,0.036000,0.918000,0.372000,192.000000,0.000000,0.000000,0.000000,0.000000,0.000000,0.000000,0.000000,0.000000,0.000000,1647755492.264174,0.000000
97.000000,10555.566616,9812.728740,39042.328482,34473.788377,33996.735096,56127.845481,28006.109954,33763.494642,0.040000,0.922000,0.364000,192.000000,1.000000,64.000000,28.000000,208.000000,11.000000,96.000000,0.000000,0.000000,0.000000,1647755492.272475,0.000000
98.000000,10554.113752,9812.527575,39048.095232,34477.364657,34012.381317,56124.738589,27989.681421,33750.195354,0.040000,0.922000,0.364000,192.000000,0.000000,0.000000,0.000000,0.000000,0.000000,0.000000,0.000000,0.000000,0.000000,1647755492.272491,0.000000
99.000000,10551.900929,9808.727778,39039.869790,34476.135311,34017.857494,56109.986438,27977.589128,33734.392671,0.040000,0.922000,0.364000,192.000000,0.000000,0.000000,0.000000,0.000000,0.000000,0.000000,0.000000,0.000000,0.000000,1647755492.280222,0.000000
100.000000,10545.351868,9798.691845,39029.900912,34465.585287,34011.889578,56098.296475,27965.452130,33713.449086,0.040000,0.922000,0.364000,192.000000,0.000000,0.000000,0.000000,0.000000,0.000000,0.000000,0.000000,0.000000,0.000000,1647755492.280234,0.000000
101.000000,10533.706609,9784.632598,39024.335328,34456.063444,34007.776857,56091.590952,27955.215032,33700.909758,0.040000,0.922000,0.364000,192.000000,0.000000,0.000000,0.000000,0.000000,0.000000,0.000000,0.000000,0.000000,0.000000,1647755492.287439,0.000000
102.000000,10525.034133,9775.736603,39024.044755,34448.776775,34001.741886,56082.180867,27947.883659,33689.063333,0.040000,0.922000,0.364000,192.000000,0.000000,0.000000,0.000000,0.000000,0.000000,0.000000,0.000000,0.000000,0.000000,1647755492.287454,0.000000
103.000000,10523.894194,9777.949426,39018.166246,34441.378348,33984.084008,56075.832972,27950.297648,33697.981679,0.040000,0.922000,0.364000,192.000000,0.000000,0.000000,0.000000,0.000000,0.000000,0.000000,0.000000,0.000000,0.000000,1647755492.294895,0.000000
104.000000,10526.464644,9780.810449,39023.865941,34445.513421,33983.927546,56084.728966,27969.609555,33721.518066,0.040000,0.922000,0.364000,192.000000,0.000000,0.000000,0.000000,0.000000,0.000000,0.000000,0.000000,0.000000,0.000000,1647755492.294905,0.000000
105.000000,10529.012743,9783.157382,39031.554941,34446.228677,33982.653497,56083.678434,27973.141131,33720.601645,0.040000,0.922000,0.364000,192.000000,0.000000,0.000000,0.000000,0.000000,0.000000,0.000000,0.000000,0.000000,0.000000,1647755492.301875,0.000000
106.000000,10536.277060,9788.901781,39035.175924,34449.894363,33978.317258,56091.836821,27986.820398,33737.656026,0.040000,0.922000,0.364000,192.000000,0.000000,0.000000,0.000000,0.000000,0.000000,0.000000,0.000000,0.000000,0.000000,1647755492.301889,0.000000
107.000000,10530.219737,9785.616074,39027.621034,34450.073177,33971.723494,56093.937885,27982.282994,33733.006863,0.042000,0.916000,0.364000,192.000000,1.000000,80.000000,28.000000,160.000000,11.000000,96.000000,0.000000,0.000000,0.000000,1647755492.309985,0.000000
108.000000,10532.454912,9789.348816,39026.257578,34451.995427,33974.808034,56092.887353,27983.244119,33729.296473,0.042000,0.916000,0.364000,192.000000,0.000000,0.000000,0.000000,0.000000,0.000000,0.000000,0.000000,0.000000,0.000000,1647755492.316440,0.000000
109.000000,10532.767836,9791.628694,39029.297415,34459.036226,33982.675848,56095.122527,27979.109046,33727.687148,0.042000,0.916000,0.364000,192.000000,0.000000,0.000000,0.000000,0.000000,0.000000,0.000000,0.000000,0.000000,0.000000,1647755492.316451,0.000000
110.000000,10533.460740,9794.377958,39025.989357,34456.957514,33982.161758,56095.390748,27985.523997,33722.076860,0.042000,0.916000,0.364000,192.000000,0.000000,0.000000,0.000000,0.000000,0.000000,0.000000,0.000000,0.000000,0.000000,1647755492.324575,0.000000
111.000000,10534.555976,9794.713234,39024.871770,34458.186860,33979.300735,56102.386844,27986.351012,33733.140973,0.042000,0.916000,0.364000,192.000000,0.000000,0.000000,0.000000,0.000000,0.000000,0.000000,0.000000,0.000000,0.000000,1647755492.324593,0.000000
112.000000,10535.003011,9794.132089,39031.577293,34460.511441,33985.693334,56108.555926,27984.182892,33734.549133,0.042000,0.916000,0.364000,192.000000,0.000000,0.000000,0.000000,0.000000,0.000000,0.000000,0.000000,0.000000,0.000000,1647755492.332517,0.000000
113.000000,10533.304278,9793.103909,39034.393613,34458.633895,33988.688468,56101.023388,27987.356840,33731.039909,0.042000,0.916000,0.364000,192.000000,0.000000,0.000000,0.000000,0.000000,0.000000,0.000000,0.000000,0.000000,0.000000,1647755492.332542,0.000000
114.000000,10533.617202,9793.372130,39031.845514,34456.331665,33983.994601,56094.697844,27981.813607,33742.327540,0.042000,0.916000,0.364000,192.000000,0.000000,0.000000,0.000000,0.000000,0.000000,0.000000,0.000000,0.000000,0.000000,1647755492.339651,0.000000
115.000000,10531.426732,9792.902743,39036.181752,34456.622238,33986.341534,56092.172097,27971.151825,33729.519991,0.042000,0.916000,0.364000,192.000000,0.000000,0.000000,0.000000,0.000000,0.000000,0.000000,0.000000,0.000000,0.000000,1647755492.339662,0.000000
116.000000,10527.962211,9789.818202,39035.712366,34453.403587,33983.771084,56093.177926,27982.193587,33736.225514,0.042000,0.916000,0.364000,192.000000,0.000000,0.000000,0.000000,0.000000,0.000000,0.000000,0.000000,0.000000,0.000000,1647755492.347040,0.000000
117.000000,10527.336362,9787.471269,39026.726964,34452.911848,33969.890650,56095.234286,27987.490951,33737.164287,0.040000,0.920000,0.366000,192.000000,1.000000,64.000000,28.000000,192.000000,11.000000,112.000000,0.000000,0.000000,0.000000,1647755492.347049,0.000000
118.000000,10527.962211,9787.292455,39020.915511,34455.705816,33966.135557,56094.854307,27980.226634,33712.845589,0.040000,0.920000,0.366000,192.000000,0.000000,0.000000,0.000000,0.000000,0.000000,0.000000,0.000000,0.000000,0.000000,1647755492.355162,0.000000
119.000000,10524.140063,9783.380900,39024.156514,34455.012912,33978.406665,56096.284818,27979.220805,33724.714366,0.040000,0.920000,0.366000,192.000000,0.000000,0.000000,0.000000,0.000000,0.000000,0.000000,0.000000,0.000000,0.000000,1647755492.355175,0.000000
120.000000,10529.638592,9788.410042,39019.484999,34453.425938,33973.668095,56100.129318,27993.637680,33752.050549,0.040000,0.920000,0.366000,192.000000,0.000000,0.000000,0.000000,0.000000,0.000000,0.000000,0.000000,0.000000,0.000000,1647755492.363164,0.000000
121.000000,10541.954403,9799.652970,39020.669642,34455.750520,33961.821671,56100.106967,27990.933119,33745.546191,0.040000,0.920000,0.366000,192.000000,0.000000,0.000000,0.000000,0.000000,0.000000,0.000000,0.000000,0.000000,0.000000,1647755492.363175,0.000000
122.000000,10542.669659,9799.809432,39028.693918,34457.292790,33954.780871,56110.589935,27991.916596,33743.266313,0.040000,0.920000,0.366000,192.000000,0.000000,0.000000,0.000000,0.000000,0.000000,0.000000,0.000000,0.000000,0.000000,1647755492.369386,0.000000
123.000000,10540.389781,9794.109737,39034.550075,34458.477433,33961.329932,56111.215784,27997.549236,33743.825107,0.040000,0.920000,0.366000,192.000000,0.000000,0.000000,0.000000,0.000000,0.000000,0.000000,0.000000,0.000000,0.000000,1647755492.376748,0.000000
124.000000,10537.528758,9789.907609,39034.058337,34454.185898,33958.625371,56099.682283,27989.368497,33727.977720,0.040000,0.920000,0.366000,192.000000,0.000000,0.000000,0.000000,0.000000,0.000000,0.000000,0.000000,0.000000,0.000000,1647755492.376759,0.000000
125.000000,10533.393685,9785.549019,39024.603549,34451.928371,33954.892630,56095.703673,27980.226634,33718.522932,0.040000,0.920000,0.366000,192.000000,0.000000,0.000000,0.000000,0.000000,0.000000,0.000000,0.000000,0.000000,0.000000,1647755492.385045,0.000000
126.000000,10532.901947,9785.236095,39028.828028,34455.527002,33960.189993,56098.587048,27973.141131,33715.617206,0.040000,0.920000,0.366000,192.000000,0.000000,0.000000,0.000000,0.000000,0.000000,0.000000,0.000000,0.000000,0.000000,1647755492.385061,0.000000
127.000000,10533.572499,9788.231228,39025.139990,34452.777738,33951.405758,56099.592876,27976.896224,33727.351871,0.044000,0.918000,0.368000,192.000000,1.000000,96.000000,28.000000,176.000000,11.000000,128.000000,0.000000,0.000000,0.000000,1647755492.392775,0.000000
128.000000,10530.398551,9787.672435,39027.419868,34448.307389,33953.283304,56106.320751,27992.497741,33751.000017,0.044000,0.918000,0.368000,192.000000,0.000000,0.000000,0.000000,0.000000,0.000000,0.000000,0.000000,0.000000,0.000000,1647755492.392787,0.000000
129.000000,10530.890290,9788.946484,39033.164267,34453.381235,33965.755578,56101.179850,27979.198453,33728.737680,0.044000,0.918000,0.368000,192.000000,0.000000,0.000000,0.000000,0.000000,0.000000,0.000000,0.000000,0.000000,0.000000,1647755492.399327,0.000000
130.000000,10530.867938,9788.454746,39029.386822,34452.822441,33968.124863,56090.719234,27974.951622,33716.287758,0.044000,0.918000,0.368000,192.000000,0.000000,0.000000,0.000000,0.000000,0.000000,0.000000,0.000000,0.000000,0.000000,1647755492.399340,0.000000
131.000000,10536.120598,9793.640351,39020.736697,34454.074139,33958.290095,56092.663836,27980.226634,33736.829011,0.044000,0.918000,0.368000,192.000000,0.000000,0.000000,0.000000,0.000000,0.000000,0.000000,0.000000,0.000000,0.000000,1647755492.407516,0.000000
132.000000,10528.900984,9786.286627,39020.356717,34448.821479,33949.908191,56092.306208,27978.192625,33734.124450,0.044000,0.918000,0.368000,192.000000,0.000000,0.000000,0.000000,0.000000,0.000000,0.000000,0.000000,0.000000,0.000000,1647755492.407533,0.000000
133.000000,10532.119636,9786.219571,39024.938825,34448.150927,33938.955836,56089.266370,27969.676610,33724.826124,0.044000,0.918000,0.368000,192.000000,0.000000,0.000000,0.000000,0.000000,0.000000,0.000000,0.000000,0.000000,0.000000,1647755492.416825,0.000000
134.000000,10533.237223,9787.963007,39033.365432,34453.247124,33938.799374,56093.669664,27976.203320,33729.967026,0.044000,0.918000,0.368000,192.000000,0.000000,0.000000,0.000000,0.000000,0.000000,0.000000,0.000000,0.000000,0.000000,1647755492.416836,0.000000
135.000000,10533.639554,9789.013539,39037.545209,34451.615447,33940.252237,56099.101138,27992.430686,33745.836764,0.044000,0.918000,0.368000,192.000000,0.000000,0.000000,0.000000,0.000000,0.000000,0.000000,0.000000,0.000000,0.000000,1647755492.423400,0.000000
136.000000,10541.932051,9795.875525,39037.768726,34451.928371,33929.478697,56100.598705,27991.402506,33746.373206,0.044000,0.918000,0.368000,192.000000,0.000000,0.000000,0.000000,0.000000,0.000000,0.000000,0.000000,0.000000,0.000000,1647755492.423412,0.000000
137.000000,10535.293583,9788.924132,39039.534514,34446.966284,33925.231865,56095.502507,27973.364648,33730.324653,0.044000,0.922000,0.368000,192.000000,1.000000,96.000000,28.000000,208.000000,11.000000,128.000000,0.000000,0.000000,0.000000,1647755492.429458,0.000000
138.000000,10531.225566,9782.129202,39048.184639,34448.687368,33936.519496,56093.334388,27985.881625,33726.882485,0.044000,0.922000,0.368000,192.000000,0.000000,0.000000,0.000000,0.000000,0.000000,0.000000,0.000000,0.000000,0.000000,1647755492.437358,0.000000
139.000000,10539.495711,9793.953275,39041.322653,34450.140232,33925.544789,56084.505449,27992.363631,33734.616188,0.044000,0.922000,0.368000,192.000000,0.000000,0.000000,0.000000,0.000000,0.000000,0.000000,0.000000,0.000000,0.000000,1647755492.437376,0.000000
140.000000,10544.882482,9801.910496,39033.834819,34453.537697,33906.456400,56082.382033,27988.161503,33739.690034,0.044000,0.922000,0.368000,192.000000,0.000000,0.000000,0.000000,0.000000,0.000000,0.000000,0.000000,0.000000,0.000000,1647755492.445292,0.000000
141.000000,10538.333421,9794.221496,39037.500505,34453.470642,33908.266891,56079.275141,27985.948680,33728.536514,0.044000,0.922000,0.368000,192.000000,0.000000,0.000000,0.000000,0.000000,0.000000,0.000000,0.000000,0.000000,0.000000,1647755492.445305,0.000000
142.000000,10534.310107,9791.114603,39031.756107,34447.055691,33900.868464,56074.737737,27983.981727,33735.711424,0.044000,0.922000,0.368000,192.000000,0.000000,0.000000,0.000000,0.000000,0.000000,0.000000,0.000000,0.000000,0.000000,1647755492.451686,0.000000
143.000000,10543.854301,9799.049473,39040.830915,34457.248087,33912.044336,56086.762975,27997.772753,33750.128299,0.044000,0.922000,0.368000,192.000000,0.000000,0.000000,0.000000,0.000000,0.000000,0.000000,0.000000,0.000000,0.000000,1647755492.451696,0.000000
144.000000,10547.944671,9801.642275,39039.534514,34455.750520,33911.664356,56081.420908,27994.844674,33737.678377,0.044000,0.922000,0.368000,192.000000,0.000000,0.000000,0.000000,0.000000,0.000000,0.000000,0.000000,0.000000,0.000000,1647755492.459697,0.000000
145.000000,10546.044772,9797.238981,39038.238113,34452.844793,33910.658528,56081.197391,27995.403468,33728.692976,0.044000,0.922000,0.368000,192.000000,0.000000,0.000000,0.000000,0.000000,0.000000,0.000000,0.000000,0.000000,0.000000,1647755492.459707,0.000000
146.000000,10546.603566,9797.842478,39039.847438,34450.654322,33918.191066,56090.428661,27999.382079,33744.942694,0.044000,0.922000,0.368000,192.000000,0.000000,0.000000,0.000000,0.000000,0.000000,0.000000,0.000000,0.000000,0.000000,1647755492.467634,0.000000
147.000000,10548.861092,9799.742377,39035.779421,34448.977941,33917.609920,56097.715330,28003.405393,33752.229363,0.046000,0.914000,0.366000,192.000000,1.000000,112.000000,28.000000,144.000000,11.000000,112.000000,0.000000,0.000000,0.000000,1647755492.467646,0.000000
148.000000,10547.877615,9798.982417,39027.106944,34445.491069,33914.100696,56089.713405,27996.096372,33735.420851,0.046000,0.914000,0.366000,192.000000,0.000000,0.000000,0.000000,0.000000,0.000000,0.000000,0.000000,0.000000,0.000000,1647755492.474914,0.000000
149.000000,10550.783342,9804.257429,39026.928130,34451.056653,33912.916054,56090.965103,28009.239198,33747.893125,0.046000,0.914000,0.366000,192.000000,0.000000,0.000000,0.000000,0.000000,0.000000,0.000000,0.000000,0.000000,0.000000,1647755492.474931,0.000000
150.000000,10539.339249,9791.740452,39042.373185,34456.532831,33942.330950,56098.698807,28008.702756,33751.044721,0.046000,0.914000,0.366000,192.000000,0.000000,0.000000,0.000000,0.000000,0.000000,0.000000,0.000000,0.000000,0.000000,1647755492.482252,0.000000
151.000000,10537.774627,9792.723929,39034.885351,34446.631008,33935.915999,56084.304283,27998.108029,33735.800831,0.046000,0.914000,0.366000,192.000000,0.000000,0.000000,0.000000,0.000000,0.000000,0.000000,0.000000,0.000000,0.000000,1647755492.482263,0.000000
152.000000,10542.379086,9797.238981,39036.427621,34452.509517,33927.444688,56084.930132,28005.551160,33731.933979,0.046000,0.914000,0.366000,192.000000,0.000000,0.000000,0.000000,0.000000,0.000000,0.000000,0.000000,0.000000,0.000000,1647755492.489637,0.000000
153.000000,10545.307165,9799.697673,39036.852305,34454.588229,33921.208551,56090.585123,28006.378175,33745.099157,0.046000,0.914000,0.366000,192.000000,0.000000,0.000000,0.000000,0.000000,0.000000,0.000000,0.000000,0.000000,0.000000,1647755492.497335,0.000000
154.000000,10546.424752,9800.658798,39040.965026,34450.117880,33919.420412,56089.512240,28008.479239,33749.748319,0.046000,0.914000,0.366000,192.000000,0.000000,0.000000,0.000000,0.000000,0.000000,0.000000,0.000000,0.000000,0.000000,1647755492.497347,0.000000
155.000000,10546.938842,9800.904667,39041.993206,34445.379310,33918.973377,56086.695920,28003.181875,33738.863020,0.046000,0.914000,0.366000,192.000000,0.000000,0.000000,0.000000,0.000000,0.000000,0.000000,0.000000,0.000000,0.000000,1647755492.504788,0.000000
156.000000,10535.293583,9785.459612,39039.310996,34434.628121,33923.331967,56082.672606,27994.956433,33732.090441,0.046000,0.914000,0.366000,192.000000,0.000000,0.000000,0.000000,0.000000,0.000000,0.000000,0.000000,0.000000,0.000000,1647755492.504823,0.000000
157.000000,10531.203214,9778.798792,39031.756107,34426.268569,33916.961720,56079.252789,27996.878683,33741.858154,0.046000,0.914000,0.366000,192.000000,0.000000,0.000000,0.000000,0.000000,0.000000,0.000000,0.000000,0.000000,0.000000,1647755492.511928,0.000000
158.000000,10536.567633,9784.744356,39034.483020,34428.280226,33922.080269,56078.179905,27992.609500,33733.543305,0.044000,0.914000,0.362000,192.000000,1.000000,96.000000,28.000000,144.000000,11.000000,80.000000,0.000000,0.000000,0.000000,1647755492.511938,0.000000
159.000000,10538.042848,9784.833763,39038.394575,34426.022700,33926.796487,56079.185734,27998.711526,33730.771688,0.044000,0.914000,0.362000,192.000000,0.000000,0.000000,0.000000,0.000000,0.000000,0.000000,0.000000,0.000000,0.000000,1647755492.519932,0.000000
160.000000,10541.842644,9789.170002,39052.029139,34429.241351,33942.822688,56085.734795,28006.154657,33734.593837,0.044000,0.914000,0.362000,192.000000,0.000000,0.000000,0.000000,0.000000,0.000000,0.000000,0.000000,0.000000,0.000000,1647755492.519942,0.000000
161.000000,10544.636612,9793.439185,39045.882409,34426.089755,33932.473830,56084.505449,28002.220750,33727.821258,0.044000,0.914000,0.362000,192.000000,0.000000,0.000000,0.000000,0.000000,0.000000,0.000000,0.000000,0.000000,0.000000,1647755492.528281,0.000000
162.000000,10540.367429,9788.700615,39035.645310,34421.440592,33914.480676,56084.527801,28003.092468,33746.574372,0.044000,0.914000,0.362000,192.000000,0.000000,0.000000,0.000000,0.000000,0.000000,0.000000,0.000000,0.000000,0.000000,1647755492.528296,0.000000
163.000000,10535.047714,9781.011615,39040.361528,34425.642720,33918.325176,56082.359681,27995.381116,33745.635598,0.044000,0.914000,0.362000,192.000000,0.000000,0.000000,0.000000,0.000000,0.000000,0.000000,0.000000,0.000000,0.000000,1647755492.534642,0.000000
164.000000,10532.007877,9779.469345,39036.606435,34417.149057,33921.275606,56069.015690,27995.336413,33728.670624,0.044000,0.914000,0.362000,192.000000,0.000000,0.000000,0.000000,0.000000,0.000000,0.000000,0.000000,0.000000,0.000000,1647755492.534655,0.000000
165.000000,10532.566670,9782.464478,39033.208970,34413.930406,33920.806220,56068.479248,28000.656128,33724.021461,0.044000,0.914000,0.362000,192.000000,0.000000,0.000000,0.000000,0.000000,0.000000,0.000000,0.000000,0.000000,0.000000,1647755492.542496,0.000000
166.000000,10536.858205,9788.968836,39034.594778,34414.757420,33919.532170,56072.346100,27996.766924,33735.107927,0.044000,0.914000,0.362000,192.000000,0.000000,0.000000,0.000000,0.000000,0.000000,0.000000,0.000000,0.000000,0.000000,1647755492.542507,0.000000
167.000000,10540.501540,9792.098080,39028.001014,34411.695231,33901.069629,56068.859228,28009.842695,33744.853287,0.044000,0.914000,0.362000,192.000000,0.000000,0.000000,0.000000,0.000000,0.000000,0.000000,0.000000,0.000000,0.000000,1647755492.549562,0.000000
168.000000,10537.729923,9789.684092,39029.319767,34418.020775,33904.422391,56081.376205,28021.107974,33754.576296,0.044000,0.908000,0.364000,192.000000,1.000000,96.000000,28.000000,96.000000,11.000000,96.000000,0.000000,0.000000,0.000000,1647755492.549573,0.000000
169.000000,10538.109903,9791.293417,39031.756107,34419.875970,33915.866484,56080.839763,28006.624044,33736.381976,0.044000,0.908000,0.364000,192.000000,0.000000,0.000000,0.000000,0.000000,0.000000,0.000000,0.000000,0.000000,0.000000,1647755492.557082,0.000000
170.000000,10542.334383,9793.260371,39034.393613,34420.233598,33921.320310,56073.329577,28001.080811,33731.196371,0.044000,0.908000,0.364000,192.000000,0.000000,0.000000,0.000000,0.000000,0.000000,0.000000,0.000000,0.000000,0.000000,1647755492.564211,0.000000
171.000000,10540.054505,9789.371167,39039.020424,34423.385194,33923.555484,56070.110925,27998.778581,33742.774575,0.044000,0.908000,0.364000,192.000000,0.000000,0.000000,0.000000,0.000000,0.000000,0.000000,0.000000,0.000000,0.000000,1647755492.564221,0.000000
172.000000,10541.529720,9791.449880,39037.522857,34422.357014,33918.414583,56072.815487,27999.337375,33740.025311,0.044000,0.908000,0.364000,192.000000,0.000000,0.000000,0.000000,0.000000,0.000000,0.000000,0.000000,0.000000,0.000000,1647755492.572348,0.000000
173.000000,10545.083647,9796.143746,39029.789153,34419.071307,33907.439876,56070.110925,27990.329622,33734.973816,0.044000,0.908000,0.364000,192.000000,0.000000,0.000000,0.000000,0.000000,0.000000,0.000000,0.000000,0.000000,0.000000,1647755492.572365,0.000000
174.000000,10541.082685,9792.008673,39033.991281,34421.865275,33922.326138,56071.183809,27981.344221,33721.361604,0.044000,0.908000,0.364000,192.000000,0.000000,0.000000,0.000000,0.000000,0.000000,0.000000,0.000000,0.000000,0.000000,1647755492.580184,0.000000
175.000000,10536.522929,9789.795850,39031.487886,34415.450324,33925.388327,56071.295568,27998.711526,33728.916494,0.044000,0.908000,0.364000,192.000000,0.000000,0.000000,0.000000,0.000000,0.000000,0.000000,0.000000,0.000000,0.000000,1647755492.580194,0.000000
176.000000,10538.311069,9791.494583,39024.782363,34407.135476,33905.763496,56075.654158,28005.014718,33743.199258,0.044000,0.908000,0.364000,192.000000,0.000000,0.000000,0.000000,0.000000,0.000000,0.000000,0.000000,0.000000,0.000000,1647755492.586843,0.000000
177.000000,10537.864034,9788.700615,39018.523874,34403.268624,33888.239728,56071.407327,27998.979747,33728.111831,0.044000,0.908000,0.364000,192.000000,0.000000,0.000000,0.000000,0.000000,0.000000,0.000000,0.000000,0.000000,0.000000,1647755492.586871,0.000000
178.000000,10536.053543,9789.706444,39022.055450,34406.241406,33887.457417,56072.726080,27997.884512,33730.458764,0.036000,0.914000,0.358000,192.000000,1.000000,32.000000,28.000000,144.000000,11.000000,48.000000,0.000000,0.000000,0.000000,1647755492.595026,0.000000
179.000000,10531.493787,9783.313845,39026.794020,34409.907092,33901.896644,56076.369414,28002.801895,33749.569505,0.036000,0.914000,0.358000,192.000000,0.000000,0.000000,0.000000,0.000000,0.000000,0.000000,0.000000,0.000000,0.000000,1647755492.595038,0.000000
180.000000,10533.751313,9784.163211,39026.346985,34412.231673,33901.986051,56078.872809,28008.993329,33752.743453,0.036000,0.914000,0.358000,192.000000,0.000000,0.000000,0.000000,0.000000,0.000000,0.000000,0.000000,0.000000,0.000000,1647755492.602877,0.000000
181.000000,10537.729923,9789.997016,39026.972834,34410.421182,33890.743123,56078.626940,28005.349994,33749.144822,0.036000,0.914000,0.358000,192.000000,0.000000,0.000000,0.000000,0.000000,0.000000,0.000000,0.000000,0.000000,0.000000,1647755492.602890,0.000000
182.000000,10534.265403,9789.415871,39021.675470,34402.754534,33869.620725,56073.329577,28001.505494,33739.131241,0.036000,0.914000,0.358000,192.000000,0.000000,0.000000,0.000000,0.000000,0.000000,0.000000,0.000000,0.000000,0.000000,1647755492.609918,0.000000
183.000000,10532.499615,9786.867772,39025.519970,34410.085906,33870.268925,56072.681376,27992.408334,33725.295511,0.036000,0.914000,0.358000,192.000000,0.000000,0.000000,0.000000,0.000000,0.000000,0.000000,0.000000,0.000000,0.000000,1647755492.609929,0.000000
184.000000,10525.615278,9778.843496,39030.146781,34411.874045,33880.796597,56067.473420,27991.871892,33727.910665,0.036000,0.914000,0.358000,192.000000,0.000000,0.000000,0.000000,0.000000,0.000000,0.000000,0.000000,0.000000,0.000000,1647755492.616480,0.000000
185.000000,10530.845586,9785.683130,39025.989357,34407.247234,33879.969583,56059.873826,27988.183855,33722.076860,0.036000,0.914000,0.358000,192.000000,0.000000,0.000000,0.000000,0.000000,0.000000,0.000000,0.000000,0.000000,0.000000,1647755492.624531,0.000000
186.000000,10530.376200,9783.783231,39024.514142,34406.710792,33879.947231,56071.541437,27993.078887,33734.102098,0.036000,0.914000,0.358000,192.000000,0.000000,0.000000,0.000000,0.000000,0.000000,0.000000,0.000000,0.000000,0.000000,1647755492.624543,0.000000
187.000000,10532.723133,9785.973702,39023.329499,34405.034412,33872.571155,56070.110925,27989.144980,33730.995206,0.036000,0.914000,0.358000,192.000000,0.000000,0.000000,0.000000,0.000000,0.000000,0.000000,0.000000,0.000000,0.000000,1647755492.632393,0.000000
188.000000,10532.052580,9785.794888,39036.762898,34409.884740,33888.507949,56069.462725,27987.803875,33725.027290,0.036000,0.914000,0.362000,192.000000,1.000000,32.000000,28.000000,144.000000,11.000000,80.000000,0.000000,0.000000,0.000000,1647755492.632404,0.000000
189.000000,10534.444217,9786.890124,39041.076784,34414.265682,33905.182350,56067.741641,27992.520093,33724.066165,0.036000,0.914000,0.362000,192.000000,0.000000,0.000000,0.000000,0.000000,0.000000,0.000000,0.000000,0.000000,0.000000,1647755492.639865,0.000000
190.000000,10538.154607,9789.907609,39025.877598,34408.901263,33893.760609,56063.047774,27985.456942,33719.349947,0.036000,0.914000,0.362000,192.000000,0.000000,0.000000,0.000000,0.000000,0.000000,0.000000,0.000000,0.000000,0.000000,1647755492.639882,0.000000
191.000000,10540.590947,9790.153478,39018.993261,34408.700098,33884.372876,56071.049699,27990.106105,33727.284816,0.036000,0.914000,0.362000,192.000000,0.000000,0.000000,0.000000,0.000000,0.000000,0.000000,0.000000,0.000000,0.000000,1647755492.646997,0.000000
192.000000,10535.897080,9783.827935,39027.062240,34408.901263,33905.204702,56081.979702,27994.509398,33731.911627,0.036000,0.914000,0.362000,192.000000,0.000000,0.000000,0.000000,0.000000,0.000000,0.000000,0.000000,0.000000,0.000000,1647755492.647008,0.000000
193.000000,10540.814464,9787.828897,39025.341156,34405.056763,33909.071554,56073.664853,27986.865102,33713.046755,0.036000,0.914000,0.362000,192.000000,0.000000,0.000000,0.000000,0.000000,0.000000,0.000000,0.000000,0.000000,0.000000,1647755492.655193,0.000000
194.000000,10539.495711,9787.739490,39030.794982,34410.376478,33918.079307,56071.384975,27988.429724,33712.644424,0.036000,0.914000,0.362000,192.000000,0.000000,0.000000,0.000000,0.000000,0.000000,0.000000,0.000000,0.000000,0.000000,1647755492.655210,0.000000
195.000000,10542.267328,9791.360473,39029.699746,34410.354127,33916.559388,56074.290702,27996.096372,33726.904837,0.036000,0.914000,0.362000,192.000000,0.000000,0.000000,0.000000,0.000000,0.000000,0.000000,0.000000,0.000000,0.000000,1647755492.662135,0.000000
196.000000,10541.485017,9791.919266,39018.747392,34407.157827,33898.208606,56078.246960,28004.634739,33729.587046,0.036000,0.914000,0.362000,192.000000,0.000000,0.000000,0.000000,0.000000,0.000000,0.000000,0.000000,0.000000,0.000000,1647755492.662145,0.000000
197.000000,10539.652173,9789.639388,39017.339232,34411.270548,33893.112408,56076.838801,27994.375288,33725.943712,0.036000,0.914000,0.362000,192.000000,0.000000,0.000000,0.000000,0.000000,0.000000,0.000000,0.000000,0.000000,0.000000,1647755492.669750,0.000000
198.000000,10540.993278,9791.583990,39016.065182,34414.377441,33895.101714,56077.129373,27996.856331,33736.493735,0.036000,0.916000,0.364000,192.000000,1.000000,32.000000,28.000000,160.000000,11.000000,96.000000,0.000000,0.000000,0.000000,1647755492.669762,0.000000
199.000000,10542.110865,9793.953275,39025.654081,34422.044089,33907.663394,56079.521010,27992.944776,33741.947561,0.036000,0.916000,0.364000,192.000000,0.000000,0.000000,0.000000,0.000000,0.000000,0.000000,0.000000,0.000000,0.000000,1647755492.676797,0.000000
200.000000,10539.294546,9791.204010,39031.823162,34426.089755,33913.251330,56077.755222,27990.933119,33738.170116,0.036000,0.916000,0.364000,192.000000,0.000000,0.000000,0.000000,0.000000,0.000000,0.000000,0.000000,0.000000,0.000000,1647755492.684801,0.000000
201.000000,10542.043810,9794.422662,39024.782363,34421.015909,33899.057972,56067.808696,27989.077924,33732.492773,0.036000,0.916000,0.364000,192.000000,0.000000,0.000000,0.000000,0.000000,0.000000,0.000000,0.000000,0.000000,0.000000,1647755492.684817,0.000000
202.000000,10548.369354,9802.759862,39015.998127,34421.999386,33874.627516,56065.506466,27997.683346,33729.519991,0.036000,0.916000,0.364000,192.000000,0.000000,0.000000,0.000000,0.000000,0.000000,0.000000,0.000000,0.000000,0.000000,1647755492.691855,0.000000
203.000000,10545.575386,9800.256467,39024.424735,34423.966339,33882.741199,56074.000129,27994.285881,33728.894142,0.036000,0.916000,0.364000,192.000000,0.000000,0.000000,0.000000,0.000000,0.000000,0.000000,0.000000,0.000000,0.000000,1647755492.691867,0.000000
204.000000,10541.596775,9796.791947,39031.577293,34425.575665,33904.310632,56072.949597,27988.586186,33729.184714,0.036000,0.916000,0.364000,192.000000,0.000000,0.000000,0.000000,0.000000,0.000000,0.000000,0.000000,0.000000,0.000000,1647755492.699333,0.000000
205.000000,10536.835854,9789.751147,39033.566598,34422.133496,33922.192028,56071.183809,27988.139151,33724.401441,0.036000,0.916000,0.364000,192.000000,0.000000,0.000000,0.000000,0.000000,0.000000,0.000000,0.000000,0.000000,0.000000,1647755492.699342,0.000000
206.000000,10542.334383,9793.863868,39017.853322,34411.941101,33903.461266,56069.798001,27995.917558,33727.888313,0.036000,0.916000,0.364000,192.000000,0.000000,0.000000,0.000000,0.000000,0.000000,0.000000,0.000000,0.000000,0.000000,1647755492.707534,0.000000
207.000000,10533.773665,9783.067975,39008.711458,34404.833246,33892.508911,56066.624053,27984.741686,33715.237226,0.036000,0.916000,0.364000,192.000000,0.000000,0.000000,0.000000,0.000000,0.000000,0.000000,0.000000,0.000000,0.000000,1647755492.707550,0.000000
208.000000,10538.869862,9789.013539,39010.074915,34408.521284,33889.290260,56063.293643,27984.786389,33717.695918,0.044000,0.920000,0.356000,192.000000,1.000000,96.000000,28.000000,192.000000,11.000000,32.000000,0.000000,0.000000,0.000000,1647755492.715261,0.000000
209.000000,10545.307165,9795.383787,39025.497618,34422.714641,33905.651737,56080.325673,28006.087602,33743.601590,0.044000,0.920000,0.356000,192.000000,0.000000,0.000000,0.000000,0.000000,0.000000,0.000000,0.000000,0.000000,0.000000,1647755492.715270,0.000000
210.000000,10544.591909,9795.495545,39030.459706,34422.826400,33916.291167,56078.246960,28006.132305,33737.477212,0.044000,0.920000,0.356000,192.000000,0.000000,0.000000,0.000000,0.000000,0.000000,0.000000,0.000000,0.000000,0.000000,1647755492.722014,0.000000
211.000000,10551.990336,9803.899801,39021.027269,34415.740897,33892.844187,56070.826181,28011.004986,33740.494697,0.044000,0.920000,0.356000,192.000000,0.000000,0.000000,0.000000,0.000000,0.000000,0.000000,0.000000,0.000000,0.000000,1647755492.722027,0.000000
212.000000,10546.134179,9798.423624,39027.017537,34410.912920,33880.975411,56071.206161,27998.443305,33733.588008,0.044000,0.920000,0.356000,192.000000,0.000000,0.000000,0.000000,0.000000,0.000000,0.000000,0.000000,0.000000,0.000000,1647755492.730103,0.000000
213.000000,10541.797941,9793.841516,39037.835781,34411.874045,33890.318440,56071.496734,27992.944776,33715.103115,0.044000,0.920000,0.356000,192.000000,0.000000,0.000000,0.000000,0.000000,0.000000,0.000000,0.000000,0.000000,0.000000,1647755492.730120,0.000000
214.000000,10543.742543,9796.389615,39041.210895,34414.444496,33899.996746,56075.564751,28004.254759,33726.502505,0.044000,0.920000,0.356000,192.000000,0.000000,0.000000,0.000000,0.000000,0.000000,0.000000,0.000000,0.000000,0.000000,1647755492.737064,0.000000
215.000000,10541.328554,9795.629656,39038.975720,34413.349260,33905.249406,56081.376205,28007.160486,33752.631694,0.044000,0.920000,0.356000,192.000000,0.000000,0.000000,0.000000,0.000000,0.000000,0.000000,0.000000,0.000000,0.000000,1647755492.745134,0.000000
216.000000,10538.109903,9791.829859,39034.170095,34406.688441,33903.774190,56075.363585,27999.426782,33740.941732,0.044000,0.920000,0.356000,192.000000,0.000000,0.000000,0.000000,0.000000,0.000000,0.000000,0.000000,0.000000,0.000000,1647755492.745144,0.000000
217.000000,10545.240110,9797.507202,39032.024328,34409.862388,33894.699382,56076.682338,28001.796067,33746.462613,0.044000,0.920000,0.356000,192.000000,0.000000,0.000000,0.000000,0.000000,0.000000,0.000000,0.000000,0.000000,0.000000,1647755492.751583,0.000000
218.000000,10542.334383,9793.282723,39030.526761,34406.219054,33889.893757,56073.284873,27996.297538,33733.319787,0.040000,0.922000,0.356000,192.000000,1.000000,64.000000,28.000000,208.000000,11.000000,32.000000,0.000000,0.000000,0.000000,1647755492.751596,0.000000
219.000000,10540.210967,9791.583990,39038.238113,34408.633042,33902.857769,56077.218780,28001.237273,33737.410156,0.040000,0.922000,0.356000,192.000000,0.000000,0.000000,0.000000,0.000000,0.000000,0.000000,0.000000,0.000000,0.000000,1647755492.759637,0.000000
220.000000,10537.640516,9788.007711,39037.969892,34409.370650,33913.921882,56076.525876,27996.655166,33731.866924,0.040000,0.922000,0.356000,192.000000,0.000000,0.000000,0.000000,0.000000,0.000000,0.000000,0.000000,0.000000,0.000000,1647755492.759659,0.000000
221.000000,10535.941784,9786.420737,39023.955348,34402.441609,33901.270795,56070.379146,27990.217863,33722.479191,0.040000,0.922000,0.356000,192.000000,0.000000,0.000000,0.000000,0.000000,0.000000,0.000000,0.000000,0.000000,0.000000,1647755492.767560,0.000000
222.000000,10536.008839,9787.270103,39032.806639,34407.157827,33905.472923,56079.878638,28000.767887,33734.102098,0.040000,0.922000,0.356000,192.000000,0.000000,0.000000,0.000000,0.000000,0.000000,0.000000,0.000000,0.000000,0.000000,1647755492.767568,0.000000
223.000000,10536.232357,9787.784193,39039.825087,34408.834208,33915.777077,56080.258617,28008.501590,33730.704633,0.040000,0.922000,0.356000,192.000000,0.000000,0.000000,0.000000,0.000000,0.000000,0.000000,0.000000,0.000000,0.000000,1647755492.774878,0.000000
224.000000,10542.535549,9794.959103,39039.892142,34410.644699,33920.202723,56086.584161,28017.218771,33743.333369,0.040000,0.922000,0.356000,192.000000,0.000000,0.000000,0.000000,0.000000,0.000000,0.000000,0.000000,0.000000,0.000000,1647755492.774889,0.000000
225.000000,10543.295508,9796.948409,39043.557828,34410.264720,33927.645853,56086.852382,28016.928198,33746.194392,0.040000,0.922000,0.356000,192.000000,0.000000,0.000000,0.000000,0.000000,0.000000,0.000000,0.000000,0.000000,0.000000,1647755492.782229,0.000000
226.000000,10543.876653,9800.167060,39032.806639,34412.812819,33920.850923,56077.643463,28011.720242,33742.551058,0.040000,0.922000,0.356000,192.000000,0.000000,0.000000,0.000000,0.000000,0.000000,0.000000,0.000000,0.000000,0.000000,1647755492.782240,0.000000
227.000000,10542.960232,9797.864830,39040.853267,34417.506685,33926.774135,56082.292626,28006.355823,33741.388767,0.040000,0.922000,0.356000,192.000000,0.000000,0.000000,0.000000,0.000000,0.000000,0.000000,0.000000,0.000000,0.000000,1647755492.790590,0.000000
228.000000,10539.227490,9791.762804,39040.249770,34408.141304,33928.338758,56076.637635,28000.767887,33743.512183,0.040000,0.922000,0.354000,192.000000,1.000000,64.000000,28.000000,208.000000,11.000000,16.000000,0.000000,0.000000,0.000000,1647755492.790606,0.000000
229.000000,10534.466569,9783.984397,39041.635578,34408.208359,33936.430089,56078.939865,28004.858256,33741.679340,0.040000,0.922000,0.354000,192.000000,0.000000,0.000000,0.000000,0.000000,0.000000,0.000000,0.000000,0.000000,0.000000,1647755492.797438,0.000000
230.000000,10538.914566,9788.633560,39044.474249,34403.715659,33932.362072,56072.904894,27997.303366,33726.390746,0.040000,0.922000,0.354000,192.000000,0.000000,0.000000,0.000000,0.000000,0.000000,0.000000,0.000000,0.000000,0.000000,1647755492.797448,0.000000
231.000000,10538.892214,9788.164173,39054.152555,34403.894473,33928.964606,56075.855324,27995.090544,33723.619130,0.040000,0.922000,0.354000,192.000000,0.000000,0.000000,0.000000,0.000000,0.000000,0.000000,0.000000,0.000000,0.000000,1647755492.803936,0.000000
232.000000,10537.796979,9786.107813,39049.190467,34397.792446,33916.715850,56071.362623,28008.881570,33740.897029,0.040000,0.922000,0.354000,192.000000,0.000000,0.000000,0.000000,0.000000,0.000000,0.000000,0.000000,0.000000,0.000000,1647755492.813553,0.000000
233.000000,10543.675487,9793.327426,39054.487831,34408.834208,33914.033641,56082.270274,28020.705643,33761.214764,0.040000,0.922000,0.354000,192.000000,0.000000,0.000000,0.000000,0.000000,0.000000,0.000000,0.000000,0.000000,0.000000,1647755492.813570,0.000000
234.000000,10541.149740,9790.689920,39059.181697,34410.532941,33925.209513,56076.078841,28008.456887,33746.104985,0.040000,0.922000,0.354000,192.000000,0.000000,0.000000,0.000000,0.000000,0.000000,0.000000,0.000000,0.000000,0.000000,1647755492.819953,0.000000
235.000000,10540.188615,9791.315769,39052.520877,34412.902226,33926.327101,56077.531705,28008.725108,33740.315883,0.040000,0.922000,0.354000,192.000000,0.000000,0.000000,0.000000,0.000000,0.000000,0.000000,0.000000,0.000000,0.000000,1647755492.819964,0.000000
236.000000,10537.327592,9790.108775,39044.563656,34410.264720,33927.847019,56083.276103,28010.200323,33745.345026,0.040000,0.922000,0.354000,192.000000,0.000000,0.000000,0.000000,0.000000,0.000000,0.000000,0.000000,0.000000,0.000000,1647755492.827090,0.000000
237.000000,10540.501540,9792.478060,39035.444145,34405.772019,33918.191066,56088.774632,28009.395660,33750.575334,0.040000,0.922000,0.354000,192.000000,0.000000,0.000000,0.000000,0.000000,0.000000,0.000000,0.000000,0.000000,0.000000,1647755492.827097,0.000000
238.000000,10552.213854,9804.950333,39032.270197,34409.929444,33909.876217,56093.624961,28010.468544,33745.076805,0.040000,0.922000,0.354000,192.000000,0.000000,0.000000,0.000000,0.000000,0.000000,0.000000,0.000000,0.000000,0.000000,1647755492.834832,0.000000
239.000000,10553.845531,9807.140804,39051.403290,34423.049918,33929.881028,56109.852327,28022.024396,33763.002904,0.040000,0.922000,0.364000,192.000000,1.000000,64.000000,28.000000,208.000000,11.000000,96.000000,0.000000,0.000000,0.000000,1647755492.834848,0.000000
240.000000,10552.012688,9808.034874,39062.780328,34421.239426,33939.648740,56109.941734,28006.266416,33754.285723,0.040000,0.922000,0.364000,192.000000,0.000000,0.000000,0.000000,0.000000,0.000000,0.000000,0.000000,0.000000,0.000000,1647755492.842552,0.000000
241.000000,10561.311014,9819.635429,39058.868773,34417.618444,33923.041394,56100.799871,28002.466619,33738.863020,0.040000,0.922000,0.364000,192.000000,0.000000,0.000000,0.000000,0.000000,0.000000,0.000000,0.000000,0.000000,0.000000,1647755492.842572,0.000000
242.000000,10564.261444,9821.892956,39075.453767,34429.420165,33934.038452,56113.830938,28017.531695,33758.465500,0.040000,0.922000,0.364000,192.000000,0.000000,0.000000,0.000000,0.000000,0.000000,0.000000,0.000000,0.000000,0.000000,1647755492.850850,0.000000
243.000000,10567.770668,9825.648049,39071.452805,34431.700043,33928.852848,56105.538440,28012.793125,33759.247811,0.040000,0.922000,0.364000,192.000000,0.000000,0.000000,0.000000,0.000000,0.000000,0.000000,0.000000,0.000000,0.000000,1647755492.850867,0.000000
244.000000,10560.104020,9815.410950,39064.434357,34425.665072,33923.935464,56094.854307,27993.414163,33742.908686,0.040000,0.922000,0.364000,192.000000,0.000000,0.000000,0.000000,0.000000,0.000000,0.000000,0.000000,0.000000,0.000000,1647755492.857216,0.000000
245.000000,10548.168188,9801.888144,39063.987322,34415.003290,33932.250313,56082.940827,27978.706715,33716.891255,0.040000,0.922000,0.364000,192.000000,0.000000,0.000000,0.000000,0.000000,0.000000,0.000000,0.000000,0.000000,0.000000,1647755492.857232,0.000000
246.000000,10534.019534,9786.577199,39049.771613,34395.669031,33923.399022,56073.329577,27978.438494,33713.113810,0.040000,0.922000,0.364000,192.000000,0.000000,0.000000,0.000000,0.000000,0.000000,0.000000,0.000000,0.000000,0.000000,1647755492.864122,0.000000
247.000000,10541.552072,9793.014502,39042.395537,34396.183121,33917.364051,56080.526838,27992.855369,33718.813505,0.040000,0.922000,0.364000,192.000000,0.000000,0.000000,0.000000,0.000000,0.000000,0.000000,0.000000,0.000000,0.000000,1647755492.872494,0.000000
248.000000,10548.414057,9797.641313,39039.601569,34399.893510,33913.251330,56076.704690,27985.546349,33724.446145,0.040000,0.922000,0.364000,192.000000,0.000000,0.000000,0.000000,0.000000,0.000000,0.000000,0.000000,0.000000,0.000000,1647755492.872510,0.000000
249.000000,10550.716287,9797.462499,39044.675415,34398.641813,33921.074441,56074.558923,27991.514265,33717.070069,0.044000,0.918000,0.364000,192.000000,1.000000,96.000000,28.000000,176.000000,11.000000,96.000000,0.000000,0.000000,0.000000,1647755492.880265,0.000000
250.000000,10553.040868,9798.244810,39055.516011,34398.686516,33930.752746,56080.884466,28007.160486,33728.290645,0.044000,0.918000,0.364000,192.000000,0.000000,0.000000,0.000000,0.000000,0.000000,0.000000,0.000000,0.000000,0.000000,1647755492.880277,0.000000
251.000000,10545.664793,9791.181659,39057.974703,34392.875063,33932.429127,56075.967082,27989.100276,33723.037985,0.044000,0.918000,0.364000,192.000000,0.000000,0.000000,0.000000,0.000000,0.000000,0.000000,0.000000,0.000000,0.000000,1647755492.887051,0.000000
252.000000,10544.837778,9791.204010,39060.254581,34396.719563,33933.367900,56085.198353,27996.901035,33735.376148,0.044000,0.918000,0.364000,192.000000,0.000000,0.000000,0.000000,0.000000,0.000000,0.000000,0.000000,0.000000,0.000000,1647755492.887068,0.000000
253.000000,10544.301336,9793.483888,39053.079671,34398.619461,33937.502973,56090.160440,28004.880608,33746.507316,0.044000,0.918000,0.364000,192.000000,0.000000,0.000000,0.000000,0.000000,0.000000,0.000000,0.000000,0.000000,0.000000,1647755492.894831,0.000000
254.000000,10548.525816,9799.764729,39043.446069,34402.620423,33939.514630,56088.461708,27999.896169,33736.426680,0.044000,0.918000,0.364000,192.000000,0.000000,0.000000,0.000000,0.000000,0.000000,0.000000,0.000000,0.000000,0.000000,1647755492.894842,0.000000
255.000000,10551.789171,9802.826918,39044.161325,34413.215150,33940.855734,56090.920400,28002.354861,33740.137069,0.044000,0.918000,0.364000,192.000000,0.000000,0.000000,0.000000,0.000000,0.000000,0.000000,0.000000,0.000000,0.000000,1647755492.903073,0.000000
0.000000,10553.644366,9805.687941,39040.853267,34416.120877,33933.524362,56085.466574,27995.559930,33733.230380,0.044000,0.918000,0.364000,192.000000,0.000000,0.000000,0.000000,0.000000,0.000000,0.000000,0.000000,0.000000,0.000000,1647755492.903091,0.000000
1.000000,10549.598700,9805.665589,39037.075822,34406.576682,33929.568104,56082.158516,27994.330584,33728.648273,0.044000,0.918000,0.364000,192.000000,0.000000,0.000000,0.000000,0.000000,0.000000,0.000000,0.000000,0.000000,0.000000,1647755492.909480,0.000000
2.000000,10559.277005,9814.315714,39047.089404,34414.623310,33937.234752,56090.808641,28003.450096,33751.648218,0.044000,0.918000,0.364000,192.000000,0.000000,0.000000,0.000000,0.000000,0.000000,0.000000,0.000000,0.000000,0.000000,1647755492.909491,0.000000
3.000000,10562.495656,9813.935735,39053.325540,34417.953720,33946.443671,56083.857248,28000.007927,33741.299360,0.044000,0.920000,0.366000,192.000000,1.000000,96.000000,28.000000,192.000000,11.000000,112.000000,0.000000,0.000000,0.000000,1647755492.917376,0.000000
4.000000,10557.332403,9808.146633,39054.174907,34419.026604,33951.986903,56082.784365,27996.521055,33731.174020,0.044000,0.920000,0.366000,192.000000,0.000000,0.000000,0.000000,0.000000,0.000000,0.000000,0.000000,0.000000,0.000000,1647755492.917387,0.000000
5.000000,10549.151665,9801.776386,39052.409119,34410.868217,33952.121014,56076.302359,27991.268395,33728.692976,0.044000,0.920000,0.366000,192.000000,0.000000,0.000000,0.000000,0.000000,0.000000,0.000000,0.000000,0.000000,0.000000,1647755492.924636,0.000000
