%OpenBCI Raw EEG Data
%Number of channels = 8
%Sample Rate = 256 Hz
%Board = OpenBCI_GUI$BoardCytonSerial
%Channels = Fp1, Fp2, F3, F4, Fz, Pz, O1, O2
%Data recorded at AIMS Lab (http://aimsl.uiu.ac.bd) by Rana Depto (mail@ranadepto.com)
%Brainwaves were obtained via the Ultracortex Mark IV Headset using the OpenBCI Cyton Board
%Recording Application = ConcentrateToday (https://concentrate.today)
%Data type = RAW data with noise
%Day No = 5
%Subject ID = 7
%Session ID = 7
%Record starting timestamp (UTC+6) = 2022-03-22T12:51:27.415640
%Record ending timestamp (UTC+6)   = 2022-03-22T12:51:58.435783
%Recorded durations = ~31 seconds
Sample Index, EXG Channel 0, EXG Channel 1, EXG Channel 2, EXG Channel 3, EXG Channel 4, EXG Channel 5, EXG Channel 6, EXG Channel 7, Accel Channel 0, Accel Channel 1, Accel Channel 2, Other, Other, Other, Other, Other, Other, Other, Analog Channel 0, Analog Channel 1, Analog Channel 2, Timestamp, Timestamp (Formatted)
219.000000,-168656.585354,26627.566114,-8966.849323,15857.690973,-10505.543411,34476.425883,46582.600067,29882.673011,-0.112000,0.978000,0.014000,192.000000,0.000000,0.000000,0.000000,0.000000,0.000000,0.000000,0.000000,0.000000,0.000000,1647931887.415870,0.000000
220.000000,-168598.671985,26631.947056,-8964.144762,15861.647232,-10503.889382,34478.772817,46571.357140,29874.738142,-0.112000,0.978000,0.014000,192.000000,0.000000,0.000000,0.000000,0.000000,0.000000,0.000000,0.000000,0.000000,0.000000,1647931887.415878,0.000000
221.000000,-168537.696426,26641.357141,-8953.751201,15874.633595,-10492.937028,34487.311183,46569.703110,29871.921822,-0.112000,0.978000,0.014000,192.000000,0.000000,0.000000,0.000000,0.000000,0.000000,0.000000,0.000000,0.000000,0.000000,1647931887.422399,0.000000
222.000000,-168454.793805,26643.257039,-8951.337212,15877.092287,-10490.612446,34487.579404,46578.330884,29875.296935,-0.112000,0.978000,0.014000,192.000000,0.000000,0.000000,0.000000,0.000000,0.000000,0.000000,0.000000,0.000000,0.000000,1647931887.422405,0.000000
223.000000,-168362.861081,26636.819737,-8959.875579,15868.956252,-10498.994350,34478.482244,46582.465957,29873.978183,-0.108000,0.978000,0.012000,192.000000,252.000000,160.000000,30.000000,144.000000,0.000000,96.000000,0.000000,0.000000,0.000000,1647931887.429073,0.000000
224.000000,-168262.054713,26625.800327,-8970.269140,15853.712362,-10511.712493,34466.881688,46593.351256,29886.316345,-0.108000,0.978000,0.012000,192.000000,0.000000,0.000000,0.000000,0.000000,0.000000,0.000000,0.000000,0.000000,0.000000,1647931887.429079,0.000000
225.000000,-168211.450364,26637.892620,-8955.271120,15868.308052,-10498.323798,34473.386046,46576.878020,29868.233784,-0.108000,0.978000,0.012000,192.000000,0.000000,0.000000,0.000000,0.000000,0.000000,0.000000,0.000000,0.000000,0.000000,1647931887.437077,0.000000
226.000000,-168138.360159,26645.268696,-8955.092306,15867.458685,-10496.848583,34472.827252,46580.387244,29870.401903,-0.108000,0.978000,0.012000,192.000000,0.000000,0.000000,0.000000,0.000000,0.000000,0.000000,0.000000,0.000000,0.000000,1647931887.437083,0.000000
227.000000,-168076.267013,26659.886737,-8940.630727,15875.393555,-10481.984673,34487.266479,46565.031596,29847.580772,-0.108000,0.978000,0.012000,192.000000,0.000000,0.000000,0.000000,0.000000,0.000000,0.000000,0.000000,0.000000,0.000000,1647931887.444980,0.000000
228.000000,-167986.167131,26652.175385,-8949.392611,15869.068011,-10490.344225,34479.353962,46568.876096,29845.770281,-0.108000,0.978000,0.012000,192.000000,0.000000,0.000000,0.000000,0.000000,0.000000,0.000000,0.000000,0.000000,0.000000,1647931887.444985,0.000000
229.000000,-167896.156656,26640.664237,-8957.752163,15868.710383,-10498.390853,34472.044941,46580.096672,29856.923802,-0.108000,0.978000,0.012000,192.000000,0.000000,0.000000,0.000000,0.000000,0.000000,0.000000,0.000000,0.000000,0.000000,1647931887.452101,0.000000
230.000000,-167835.449318,26637.110309,-8953.728849,15872.756049,-10494.456946,34482.572613,46579.314361,29856.409711,-0.108000,0.978000,0.012000,192.000000,0.000000,0.000000,0.000000,0.000000,0.000000,0.000000,0.000000,0.000000,0.000000,1647931887.452107,0.000000
231.000000,-167774.026725,26641.960638,-8946.665698,15877.472267,-10486.835001,34490.172206,46575.603971,29848.430139,-0.108000,0.978000,0.012000,192.000000,0.000000,0.000000,0.000000,0.000000,0.000000,0.000000,0.000000,0.000000,0.000000,1647931887.458705,0.000000
232.000000,-167685.558520,26644.709902,-8943.424695,15880.757973,-10481.805859,34487.758218,46575.961599,29843.959790,-0.108000,0.978000,0.012000,192.000000,0.000000,0.000000,0.000000,0.000000,0.000000,0.000000,0.000000,0.000000,0.000000,1647931887.458711,0.000000
233.000000,-167586.026202,26648.576754,-8945.525759,15879.170999,-10481.448231,34485.187767,46585.684608,29847.156089,-0.104000,0.982000,0.002000,192.000000,252.000000,192.000000,30.000000,176.000000,0.000000,16.000000,0.000000,0.000000,0.000000,1647931887.466722,0.000000
234.000000,-167509.516181,26643.346446,-8948.789114,15871.280834,-10486.499725,34480.002162,46586.668084,29843.848031,-0.104000,0.982000,0.002000,192.000000,0.000000,0.000000,0.000000,0.000000,0.000000,0.000000,0.000000,0.000000,0.000000,1647931887.474637,0.000000
235.000000,-167431.821517,26629.644827,-8962.803657,15857.914490,-10501.318932,34463.506575,46597.709846,29855.001552,-0.104000,0.982000,0.002000,192.000000,0.000000,0.000000,0.000000,0.000000,0.000000,0.000000,0.000000,0.000000,0.000000,1647931887.474644,0.000000
236.000000,-167350.796443,26635.076301,-8961.909588,15864.798828,-10498.569667,34467.462834,46605.421198,29861.125929,-0.104000,0.982000,0.002000,192.000000,0.000000,0.000000,0.000000,0.000000,0.000000,0.000000,0.000000,0.000000,0.000000,1647931887.481752,0.000000
237.000000,-167278.421495,26650.141376,-8938.373201,15878.992185,-10481.180010,34485.590099,46591.496061,29840.763490,-0.104000,0.982000,0.002000,192.000000,0.000000,0.000000,0.000000,0.000000,0.000000,0.000000,0.000000,0.000000,0.000000,1647931887.481767,0.000000
238.000000,-167202.917302,26657.964487,-8932.338230,15880.646215,-10476.284978,34490.395724,46584.969352,29823.932627,-0.104000,0.982000,0.002000,192.000000,0.000000,0.000000,0.000000,0.000000,0.000000,0.000000,0.000000,0.000000,0.000000,1647931887.489919,0.000000
239.000000,-167108.905865,26636.372702,-8953.460628,15862.474246,-10497.787356,34468.647476,46599.542689,29837.433080,-0.104000,0.982000,0.002000,192.000000,0.000000,0.000000,0.000000,0.000000,0.000000,0.000000,0.000000,0.000000,0.000000,1647931887.489927,0.000000
240.000000,-167046.589201,26637.467937,-8941.882425,15878.880427,-10485.628007,34489.121674,46592.747759,29831.196944,-0.104000,0.982000,0.002000,192.000000,0.000000,0.000000,0.000000,0.000000,0.000000,0.000000,0.000000,0.000000,0.000000,1647931887.497434,0.000000
241.000000,-166977.321145,26641.066568,-8942.485922,15883.574293,-10485.225676,34490.954517,46591.406654,29826.391319,-0.104000,0.982000,0.002000,192.000000,0.000000,0.000000,0.000000,0.000000,0.000000,0.000000,0.000000,0.000000,0.000000,1647931887.497441,0.000000
242.000000,-166884.695516,26637.691455,-8950.867826,15875.326499,-10494.412243,34482.773779,46596.011114,29826.659540,-0.104000,0.982000,0.002000,192.000000,0.000000,0.000000,0.000000,0.000000,0.000000,0.000000,0.000000,0.000000,0.000000,1647931887.505346,0.000000
243.000000,-166786.437248,26640.887754,-8951.359564,15878.366337,-10493.987560,34483.109055,46607.499910,29832.962731,-0.110000,0.982000,0.002000,192.000000,252.000000,144.000000,30.000000,176.000000,0.000000,16.000000,0.000000,0.000000,0.000000,1647931887.505353,0.000000
244.000000,-166720.812526,26632.461146,-8952.633614,15876.175866,-10497.765004,34478.415189,46602.068436,29821.965673,-0.110000,0.982000,0.002000,192.000000,0.000000,0.000000,0.000000,0.000000,0.000000,0.000000,0.000000,0.000000,0.000000,1647931887.511948,0.000000
245.000000,-166663.815577,26636.998551,-8949.012631,15881.160305,-10493.607580,34480.449197,46596.636962,29810.812153,-0.110000,0.982000,0.002000,192.000000,0.000000,0.000000,0.000000,0.000000,0.000000,0.000000,0.000000,0.000000,0.000000,1647931887.511954,0.000000
246.000000,-166587.082039,26642.228859,-8948.677355,15883.686052,-10492.601751,34479.063389,46603.543652,29810.409821,-0.110000,0.982000,0.002000,192.000000,0.000000,0.000000,0.000000,0.000000,0.000000,0.000000,0.000000,0.000000,0.000000,1647931887.520005,0.000000
247.000000,-166471.948203,26634.875135,-8957.707460,15875.862941,-10501.609504,34470.569726,46624.755457,29828.112403,-0.110000,0.982000,0.002000,192.000000,0.000000,0.000000,0.000000,0.000000,0.000000,0.000000,0.000000,0.000000,0.000000,1647931887.520009,0.000000
248.000000,-166370.359525,26634.070472,-8954.131181,15879.550979,-10498.994350,34476.202366,46634.478466,29835.421423,-0.110000,0.982000,0.002000,192.000000,0.000000,0.000000,0.000000,0.000000,0.000000,0.000000,0.000000,0.000000,0.000000,1647931887.527110,0.000000
249.000000,-166288.708602,26638.317303,-8947.313898,15888.692843,-10489.204286,34483.980773,46645.341414,29843.803328,-0.110000,0.982000,0.002000,192.000000,0.000000,0.000000,0.000000,0.000000,0.000000,0.000000,0.000000,0.000000,0.000000,1647931887.534223,0.000000
250.000000,-166231.734005,26618.513658,-8963.921245,15872.800752,-10503.509403,34466.680523,46641.742783,29836.740176,-0.110000,0.982000,0.002000,192.000000,0.000000,0.000000,0.000000,0.000000,0.000000,0.000000,0.000000,0.000000,0.000000,1647931887.534230,0.000000
251.000000,-166151.915926,26624.146297,-8960.210855,15874.790058,-10498.614371,34468.714532,46646.928388,29837.880115,-0.110000,0.982000,0.002000,192.000000,0.000000,0.000000,0.000000,0.000000,0.000000,0.000000,0.000000,0.000000,0.000000,1647931887.541694,0.000000
252.000000,-166036.111538,26636.707978,-8961.663718,15874.924168,-10498.457908,34467.641648,46672.409376,29859.002514,-0.110000,0.982000,0.002000,192.000000,0.000000,0.000000,0.000000,0.000000,0.000000,0.000000,0.000000,0.000000,0.000000,1647931887.541701,0.000000
253.000000,-165932.622961,26642.608838,-8957.036907,15875.728831,-10494.702815,34474.905965,46684.836946,29869.932517,-0.104000,0.974000,0.008000,192.000000,252.000000,192.000000,30.000000,112.000000,0.000000,64.000000,0.000000,0.000000,0.000000,1647931887.549775,0.000000
254.000000,-165861.991449,26634.249286,-8954.935843,15872.085496,-10494.479298,34481.544433,46680.143080,29868.278488,-0.104000,0.974000,0.008000,192.000000,0.000000,0.000000,0.000000,0.000000,0.000000,0.000000,0.000000,0.000000,0.000000,1647931887.549779,0.000000
255.000000,-165801.798201,26629.309550,-8946.911567,15875.594720,-10485.672711,34491.222738,46674.085757,29858.980162,-0.104000,0.974000,0.008000,192.000000,0.000000,0.000000,0.000000,0.000000,0.000000,0.000000,0.000000,0.000000,0.000000,1647931887.557681,0.000000
0.000000,-165732.731310,26636.037426,-8937.725000,15888.603436,-10476.910827,34495.827198,46666.799088,29846.530240,-0.104000,0.974000,0.008000,192.000000,0.000000,0.000000,0.000000,0.000000,0.000000,0.000000,0.000000,0.000000,0.000000,1647931887.557687,0.000000
1.000000,-165637.289362,26634.986894,-8937.434427,15891.844439,-10476.910827,34494.284927,46670.710644,29847.312551,-0.104000,0.974000,0.008000,192.000000,0.000000,0.000000,0.000000,0.000000,0.000000,0.000000,0.000000,0.000000,0.000000,1647931887.564329,0.000000
2.000000,-165552.710361,26636.305646,-8934.372238,15895.577180,-10471.769926,34496.475398,46667.022606,29839.087109,-0.104000,0.974000,0.008000,192.000000,0.000000,0.000000,0.000000,0.000000,0.000000,0.000000,0.000000,0.000000,0.000000,1647931887.564336,0.000000
3.000000,-165487.197398,26644.195812,-8928.046695,15896.515953,-10466.405507,34501.504541,46661.077042,29832.895676,-0.104000,0.974000,0.008000,192.000000,0.000000,0.000000,0.000000,0.000000,0.000000,0.000000,0.000000,0.000000,0.000000,1647931887.573719,0.000000
4.000000,-165429.999284,26647.034484,-8929.007820,15889.653968,-10467.970129,34501.325727,46658.126611,29826.637188,-0.104000,0.974000,0.008000,192.000000,0.000000,0.000000,0.000000,0.000000,0.000000,0.000000,0.000000,0.000000,0.000000,1647931887.573727,0.000000
5.000000,-165324.811974,26632.237629,-8953.661794,15866.989299,-10491.886496,34478.884575,46681.350074,29850.553554,-0.104000,0.974000,0.008000,192.000000,0.000000,0.000000,0.000000,0.000000,0.000000,0.000000,0.000000,0.000000,0.000000,1647931887.580256,0.000000
6.000000,-165203.397298,26627.722577,-8966.022309,15855.120522,-10505.744577,34463.171299,46702.807749,29877.621517,-0.104000,0.974000,0.008000,192.000000,0.000000,0.000000,0.000000,0.000000,0.000000,0.000000,0.000000,0.000000,0.000000,1647931887.580263,0.000000
7.000000,-165099.640501,26625.018016,-8964.591797,15853.265328,-10505.319894,34463.216002,46708.485092,29886.182235,-0.106000,0.980000,0.006000,192.000000,252.000000,176.000000,30.000000,160.000000,0.000000,48.000000,0.000000,0.000000,0.000000,1647931887.587344,0.000000
8.000000,-165009.607674,26613.350405,-8964.100059,15852.840644,-10504.336417,34467.485186,46717.023458,29899.906206,-0.106000,0.980000,0.006000,192.000000,0.000000,0.000000,0.000000,0.000000,0.000000,0.000000,0.000000,0.000000,0.000000,1647931887.593935,0.000000
9.000000,-164959.986801,26615.764393,-8959.339137,15864.061220,-10498.793185,34475.017723,46693.420016,29878.984973,-0.106000,0.980000,0.006000,192.000000,0.000000,0.000000,0.000000,0.000000,0.000000,0.000000,0.000000,0.000000,0.000000,1647931887.593943,0.000000
10.000000,-164866.288288,26622.738138,-8958.109791,15876.667604,-10494.076967,34478.750465,46702.047789,29885.936366,-0.106000,0.980000,0.006000,192.000000,0.000000,0.000000,0.000000,0.000000,0.000000,0.000000,0.000000,0.000000,0.000000,1647931887.601976,0.000000
11.000000,-164747.309953,26617.820754,-8968.145724,15859.546168,-10505.521060,34467.194613,46724.801865,29907.885779,-0.106000,0.980000,0.006000,192.000000,0.000000,0.000000,0.000000,0.000000,0.000000,0.000000,0.000000,0.000000,0.000000,1647931887.601987,0.000000
12.000000,-164642.435568,26616.881981,-8967.653986,15851.343078,-10506.929220,34470.703837,46735.441296,29923.353186,-0.106000,0.980000,0.006000,192.000000,0.000000,0.000000,0.000000,0.000000,0.000000,0.000000,0.000000,0.000000,0.000000,1647931887.609926,0.000000
13.000000,-164563.600965,26614.467992,-8961.283739,15853.600604,-10500.536621,34478.370485,46735.620110,29929.522268,-0.106000,0.980000,0.006000,192.000000,0.000000,0.000000,0.000000,0.000000,0.000000,0.000000,0.000000,0.000000,0.000000,1647931887.609932,0.000000
14.000000,-164504.659415,26625.889734,-8947.559768,15871.996089,-10485.985635,34492.608546,46723.036077,29918.771078,-0.106000,0.980000,0.006000,192.000000,0.000000,0.000000,0.000000,0.000000,0.000000,0.000000,0.000000,0.000000,0.000000,1647931887.616988,0.000000
15.000000,-164408.770431,26617.217257,-8957.595701,15865.201159,-10493.808746,34482.080875,46725.628880,29924.359015,-0.106000,0.980000,0.006000,192.000000,0.000000,0.000000,0.000000,0.000000,0.000000,0.000000,0.000000,0.000000,0.000000,1647931887.616992,0.000000
16.000000,-164296.408212,26613.350405,-8960.769649,15865.491732,-10495.507478,34479.041037,46733.295528,29935.736052,-0.106000,0.980000,0.006000,192.000000,0.000000,0.000000,0.000000,0.000000,0.000000,0.000000,0.000000,0.000000,0.000000,1647931887.624684,0.000000
17.000000,-164211.628045,26619.631245,-8952.924186,15870.431467,-10489.740728,34485.634802,46727.461723,29932.048015,-0.106000,0.980000,0.006000,192.000000,0.000000,0.000000,0.000000,0.000000,0.000000,0.000000,0.000000,0.000000,0.000000,1647931887.624711,0.000000
18.000000,-164155.949850,26619.318321,-8952.879483,15872.487828,-10490.098356,34484.919546,46709.937955,29915.865352,-0.102000,0.976000,0.004000,192.000000,252.000000,208.000000,30.000000,128.000000,0.000000,32.000000,0.000000,0.000000,0.000000,1647931887.632550,0.000000
19.000000,-164084.290157,26627.722577,-8947.939747,15876.801715,-10483.705757,34488.048790,46707.881595,29911.953796,-0.102000,0.976000,0.004000,192.000000,0.000000,0.000000,0.000000,0.000000,0.000000,0.000000,0.000000,0.000000,0.000000,1647931887.632555,0.000000
20.000000,-163973.559615,26628.035501,-8956.500465,15867.793962,-10491.618275,34480.337439,46724.801865,29928.628198,-0.102000,0.976000,0.004000,192.000000,0.000000,0.000000,0.000000,0.000000,0.000000,0.000000,0.000000,0.000000,0.000000,1647931887.639638,0.000000
21.000000,-163855.698866,26614.423289,-8970.269140,15856.483979,-10506.258667,34468.781587,46737.274139,29943.872087,-0.102000,0.976000,0.004000,192.000000,0.000000,0.000000,0.000000,0.000000,0.000000,0.000000,0.000000,0.000000,0.000000,1647931887.639644,0.000000
22.000000,-163779.077086,26611.674024,-8967.296358,15862.317784,-10503.911734,34475.330648,46725.450066,29932.629160,-0.102000,0.976000,0.004000,192.000000,0.000000,0.000000,0.000000,0.000000,0.000000,0.000000,0.000000,0.000000,0.000000,1647931887.646147,0.000000
23.000000,-163698.789620,26612.568094,-8967.788096,15864.217682,-10502.615333,34480.426846,46730.546264,29938.865297,-0.102000,0.976000,0.004000,192.000000,0.000000,0.000000,0.000000,0.000000,0.000000,0.000000,0.000000,0.000000,0.000000,1647931887.654185,0.000000
24.000000,-163607.125116,26601.861608,-8976.818201,15854.226453,-10512.494804,34474.302468,46741.073935,29951.270515,-0.102000,0.976000,0.004000,192.000000,0.000000,0.000000,0.000000,0.000000,0.000000,0.000000,0.000000,0.000000,0.000000,1647931887.654190,0.000000
25.000000,-163512.443127,26609.796478,-8963.384803,15866.899892,-10501.631856,34484.159587,46739.084630,29951.046997,-0.102000,0.976000,0.004000,192.000000,0.000000,0.000000,0.000000,0.000000,0.000000,0.000000,0.000000,0.000000,0.000000,1647931887.662272,0.000000
26.000000,-163415.414204,26625.532106,-8949.549073,15879.573331,-10488.041996,34491.826235,46734.480171,29946.286076,-0.102000,0.976000,0.004000,192.000000,0.000000,0.000000,0.000000,0.000000,0.000000,0.000000,0.000000,0.000000,0.000000,1647931887.662276,0.000000
27.000000,-163327.303627,26624.012187,-8954.757029,15872.085496,-10494.345187,34478.661058,46732.379107,29944.296771,-0.102000,0.976000,0.004000,192.000000,0.000000,0.000000,0.000000,0.000000,0.000000,0.000000,0.000000,0.000000,0.000000,1647931887.669388,0.000000
28.000000,-163261.589499,26625.800327,-8953.907663,15871.593758,-10493.406414,34472.603735,46724.399534,29935.892515,-0.106000,0.976000,0.010000,192.000000,252.000000,176.000000,30.000000,128.000000,0.000000,80.000000,0.000000,0.000000,0.000000,1647931887.669392,0.000000
29.000000,-163186.755858,26634.383396,-8946.531587,15872.063145,-10488.086699,34472.491976,46722.209063,29932.316236,-0.106000,0.976000,0.010000,192.000000,0.000000,0.000000,0.000000,0.000000,0.000000,0.000000,0.000000,0.000000,0.000000,1647931887.676848,0.000000
30.000000,-163072.337278,26620.368853,-8964.412983,15860.261424,-10504.090548,34453.448290,46740.917473,29950.689370,-0.106000,0.976000,0.010000,192.000000,0.000000,0.000000,0.000000,0.000000,0.000000,0.000000,0.000000,0.000000,0.000000,1647931887.676853,0.000000
31.000000,-162951.235527,26622.045233,-8962.624843,15870.878502,-10498.971999,34460.690255,46754.239113,29963.139291,-0.106000,0.976000,0.010000,192.000000,0.000000,0.000000,0.000000,0.000000,0.000000,0.000000,0.000000,0.000000,0.000000,1647931887.684907,0.000000
32.000000,-162861.225052,26623.073414,-8961.797829,15878.969834,-10496.937990,34466.457005,46754.060299,29961.999352,-0.106000,0.976000,0.010000,192.000000,0.000000,0.000000,0.000000,0.000000,0.000000,0.000000,0.000000,0.000000,0.000000,1647931887.684912,0.000000
33.000000,-162802.708185,26628.281370,-8953.326518,15884.423659,-10490.455984,34476.090607,46739.710479,29946.509593,-0.106000,0.976000,0.010000,192.000000,0.000000,0.000000,0.000000,0.000000,0.000000,0.000000,0.000000,0.000000,0.000000,1647931887.692898,0.000000
34.000000,-162735.138862,26630.717710,-8950.487846,15886.725889,-10488.757251,34480.002162,46726.522950,29929.634026,-0.106000,0.976000,0.010000,192.000000,0.000000,0.000000,0.000000,0.000000,0.000000,0.000000,0.000000,0.000000,0.000000,1647931887.692902,0.000000
35.000000,-162617.144003,26625.040367,-8963.116582,15875.706479,-10501.385987,34468.535718,46745.745450,29946.263724,-0.106000,0.976000,0.010000,192.000000,0.000000,0.000000,0.000000,0.000000,0.000000,0.000000,0.000000,0.000000,0.000000,1647931887.699465,0.000000
36.000000,-162499.126792,26621.687606,-8968.391594,15870.900854,-10506.660999,34460.109110,46758.821220,29958.221907,-0.106000,0.976000,0.010000,192.000000,0.000000,0.000000,0.000000,0.000000,0.000000,0.000000,0.000000,0.000000,0.000000,1647931887.699469,0.000000
37.000000,-162423.019102,26627.543763,-8958.087439,15882.367299,-10495.730996,34466.211136,46749.455839,29946.576649,-0.106000,0.976000,0.010000,192.000000,0.000000,0.000000,0.000000,0.000000,0.000000,0.000000,0.000000,0.000000,0.000000,1647931887.706475,0.000000
38.000000,-162342.910450,26625.219181,-8962.446029,15880.757973,-10498.592019,34459.215040,46753.725023,29953.997428,-0.112000,0.972000,0.014000,192.000000,252.000000,128.000000,30.000000,96.000000,0.000000,112.000000,0.000000,0.000000,0.000000,1647931887.706480,0.000000
39.000000,-162251.715332,26630.516545,-8960.210855,15882.434354,-10495.127499,34463.461872,46753.009767,29957.640762,-0.112000,0.972000,0.014000,192.000000,0.000000,0.000000,0.000000,0.000000,0.000000,0.000000,0.000000,0.000000,0.000000,1647931887.714621,0.000000
40.000000,-162139.375465,26628.147260,-8962.893064,15876.645252,-10499.039054,34459.304447,46758.038909,29963.161643,-0.112000,0.972000,0.014000,192.000000,0.000000,0.000000,0.000000,0.000000,0.000000,0.000000,0.000000,0.000000,0.000000,1647931887.722604,0.000000
41.000000,-162043.307667,26630.069510,-8962.289567,15875.862941,-10498.033225,34464.691218,46749.634653,29953.192765,-0.112000,0.972000,0.014000,192.000000,0.000000,0.000000,0.000000,0.000000,0.000000,0.000000,0.000000,0.000000,0.000000,1647931887.722609,0.000000
42.000000,-161951.553756,26627.364949,-8970.693823,15863.770647,-10506.862164,34458.186860,46753.434450,29959.630067,-0.112000,0.972000,0.014000,192.000000,0.000000,0.000000,0.000000,0.000000,0.000000,0.000000,0.000000,0.000000,0.000000,1647931887.729166,0.000000
43.000000,-161874.864921,26619.586542,-8975.678262,15864.351793,-10510.706664,34456.264610,46750.707537,29963.385160,-0.112000,0.972000,0.014000,192.000000,0.000000,0.000000,0.000000,0.000000,0.000000,0.000000,0.000000,0.000000,0.000000,1647931887.729171,0.000000
44.000000,-161788.207208,26624.615684,-8965.754088,15881.696747,-10501.877725,34461.651380,46750.707537,29964.994486,-0.112000,0.972000,0.014000,192.000000,0.000000,0.000000,0.000000,0.000000,0.000000,0.000000,0.000000,0.000000,0.000000,1647931887.737101,0.000000
45.000000,-161689.300738,26628.728405,-8961.529608,15884.870694,-10499.217868,34462.903078,46748.204142,29962.602849,-0.112000,0.972000,0.014000,192.000000,0.000000,0.000000,0.000000,0.000000,0.000000,0.000000,0.000000,0.000000,0.000000,1647931887.737106,0.000000
46.000000,-161590.304862,26634.584562,-8953.147704,15892.917322,-10490.925371,34470.927354,46748.427659,29963.698085,-0.112000,0.972000,0.014000,192.000000,0.000000,0.000000,0.000000,0.000000,0.000000,0.000000,0.000000,0.000000,0.000000,1647931887.746708,0.000000
47.000000,-161522.802594,26639.345484,-8946.084553,15898.840535,-10483.281074,34480.717418,46732.669679,29946.420186,-0.112000,0.972000,0.014000,192.000000,0.000000,0.000000,0.000000,0.000000,0.000000,0.000000,0.000000,0.000000,0.000000,1647931887.746713,0.000000
48.000000,-161436.949544,26618.111326,-8968.883332,15871.504351,-10505.096377,34458.142156,46737.117676,29956.389064,-0.112000,0.976000,0.018000,192.000000,252.000000,128.000000,30.000000,128.000000,0.000000,144.000000,0.000000,0.000000,0.000000,1647931887.752749,0.000000
49.000000,-161336.701970,26609.640015,-8975.275931,15857.802732,-10512.673618,34449.000293,46742.057412,29966.380294,-0.112000,0.976000,0.018000,192.000000,0.000000,0.000000,0.000000,0.000000,0.000000,0.000000,0.000000,0.000000,0.000000,1647931887.752755,0.000000
50.000000,-161231.537012,26627.096728,-8965.038832,15870.297357,-10501.564801,34456.845755,46743.845551,29969.308373,-0.112000,0.976000,0.018000,192.000000,0.000000,0.000000,0.000000,0.000000,0.000000,0.000000,0.000000,0.000000,0.000000,1647931887.759897,0.000000
51.000000,-161106.255484,26620.346501,-8977.220533,15862.921281,-10512.919487,34443.725281,46764.073880,29994.319975,-0.112000,0.976000,0.018000,192.000000,0.000000,0.000000,0.000000,0.000000,0.000000,0.000000,0.000000,0.000000,0.000000,1647931887.759901,0.000000
52.000000,-161028.270248,26622.559324,-8966.514047,15869.649156,-10503.755272,34449.380273,46754.060299,29992.576539,-0.112000,0.976000,0.018000,192.000000,0.000000,0.000000,0.000000,0.000000,0.000000,0.000000,0.000000,0.000000,0.000000,1647931887.767896,0.000000
53.000000,-160969.842788,26632.975237,-8954.488808,15881.205008,-10490.947722,34465.629991,46737.072973,29979.567823,-0.112000,0.976000,0.018000,192.000000,0.000000,0.000000,0.000000,0.000000,0.000000,0.000000,0.000000,0.000000,0.000000,1647931887.767900,0.000000
54.000000,-160889.130639,26637.423234,-8953.348869,15883.887218,-10487.349091,34471.508500,46732.133237,29976.729152,-0.112000,0.976000,0.018000,192.000000,0.000000,0.000000,0.000000,0.000000,0.000000,0.000000,0.000000,0.000000,0.000000,1647931887.775014,0.000000
55.000000,-160781.506989,26637.087958,-8959.942634,15882.032023,-10491.461812,34471.307334,46732.602624,29979.679582,-0.112000,0.976000,0.018000,192.000000,0.000000,0.000000,0.000000,0.000000,0.000000,0.000000,0.000000,0.000000,0.000000,1647931887.781624,0.000000
56.000000,-160676.699659,26634.182231,-8964.301224,15872.957214,-10497.072100,34469.586250,46736.335365,29984.239338,-0.112000,0.976000,0.018000,192.000000,0.000000,0.000000,0.000000,0.000000,0.000000,0.000000,0.000000,0.000000,0.000000,1647931887.781628,0.000000
57.000000,-160576.921472,26621.687606,-8973.733660,15864.575310,-10507.555068,34460.891421,46751.534552,30002.835989,-0.112000,0.976000,0.018000,192.000000,0.000000,0.000000,0.000000,0.000000,0.000000,0.000000,0.000000,0.000000,0.000000,1647931887.789570,0.000000
58.000000,-160497.237503,26629.376606,-8964.860018,15873.314842,-10500.447214,34467.149909,46753.188581,30005.652309,-0.110000,0.974000,0.014000,192.000000,252.000000,144.000000,30.000000,112.000000,0.000000,112.000000,0.000000,0.000000,0.000000,1647931887.789574,0.000000
59.000000,-160405.193020,26637.199716,-8960.121448,15871.258482,-10497.429728,34466.680523,46754.060299,30007.060469,-0.110000,0.974000,0.014000,192.000000,0.000000,0.000000,0.000000,0.000000,0.000000,0.000000,0.000000,0.000000,0.000000,1647931887.797452,0.000000
60.000000,-160285.007690,26625.621513,-8975.074765,15860.529645,-10510.483147,34450.699025,46767.828973,30022.483173,-0.110000,0.974000,0.014000,192.000000,0.000000,0.000000,0.000000,0.000000,0.000000,0.000000,0.000000,0.000000,0.000000,1647931887.797457,0.000000
61.000000,-160178.725145,26618.983045,-8973.599550,15862.898929,-10510.952534,34453.113014,46773.036930,30030.976836,-0.110000,0.974000,0.014000,192.000000,0.000000,0.000000,0.000000,0.000000,0.000000,0.000000,0.000000,0.000000,0.000000,1647931887.804832,0.000000
62.000000,-160124.611571,26622.671082,-8960.389669,15870.476171,-10498.547315,34457.404549,46748.137086,30006.009937,-0.110000,0.974000,0.014000,192.000000,0.000000,0.000000,0.000000,0.000000,0.000000,0.000000,0.000000,0.000000,0.000000,1647931887.804838,0.000000
63.000000,-160043.273573,26623.252228,-8960.948463,15869.738563,-10498.703778,34455.527002,46745.052546,30004.199446,-0.110000,0.974000,0.014000,192.000000,0.000000,0.000000,0.000000,0.000000,0.000000,0.000000,0.000000,0.000000,0.000000,1647931887.812206,0.000000
64.000000,-159948.055142,26637.155013,-8950.934881,15880.221531,-10489.003121,34465.138252,46746.974796,30004.713536,-0.110000,0.974000,0.014000,192.000000,0.000000,0.000000,0.000000,0.000000,0.000000,0.000000,0.000000,0.000000,0.000000,1647931887.812210,0.000000
65.000000,-159845.684152,26647.369760,-8947.582119,15885.116563,-10484.108089,34466.926392,46746.863037,30002.120734,-0.110000,0.974000,0.014000,192.000000,0.000000,0.000000,0.000000,0.000000,0.000000,0.000000,0.000000,0.000000,0.000000,1647931887.820128,0.000000
66.000000,-159751.292735,26653.874118,-8944.452875,15887.172924,-10481.984673,34466.769930,46742.817371,29999.013841,-0.110000,0.974000,0.014000,192.000000,0.000000,0.000000,0.000000,0.000000,0.000000,0.000000,0.000000,0.000000,0.000000,1647931887.820133,0.000000
67.000000,-159680.907092,26661.473711,-8938.775532,15892.716157,-10474.429783,34478.772817,46738.458781,29993.269443,-0.110000,0.974000,0.014000,192.000000,0.000000,0.000000,0.000000,0.000000,0.000000,0.000000,0.000000,0.000000,0.000000,1647931887.828199,0.000000
68.000000,-159597.423327,26637.669103,-8965.575274,15871.258482,-10499.262571,34460.578497,46743.331461,29999.907911,-0.110000,0.986000,0.020000,192.000000,252.000000,144.000000,30.000000,208.000000,0.000000,160.000000,0.000000,0.000000,0.000000,1647931887.828203,0.000000
69.000000,-159487.564503,26628.281370,-8975.253579,15869.425639,-10509.633781,34453.940028,46755.557866,30014.972987,-0.110000,0.986000,0.020000,192.000000,0.000000,0.000000,0.000000,0.000000,0.000000,0.000000,0.000000,0.000000,0.000000,1647931887.834215,0.000000
70.000000,-159374.218807,26629.130736,-8977.511105,15864.418848,-10514.215888,34444.127613,46763.157459,30024.494830,-0.110000,0.986000,0.020000,192.000000,0.000000,0.000000,0.000000,0.000000,0.000000,0.000000,0.000000,0.000000,0.000000,1647931887.841938,0.000000
71.000000,-159281.593178,26634.137527,-8964.390631,15871.057316,-10504.895211,34455.079967,46756.586046,30017.141106,-0.110000,0.986000,0.020000,192.000000,0.000000,0.000000,0.000000,0.000000,0.000000,0.000000,0.000000,0.000000,0.000000,1647931887.841942,0.000000
72.000000,-159210.179354,26637.311475,-8963.273044,15872.733697,-10501.229525,34458.097453,46748.450011,30008.379222,-0.110000,0.986000,0.020000,192.000000,0.000000,0.000000,0.000000,0.000000,0.000000,0.000000,0.000000,0.000000,0.000000,1647931887.849831,0.000000
73.000000,-159132.216469,26637.825565,-8964.524742,15872.845456,-10501.318932,34453.738863,46739.822237,30000.801981,-0.110000,0.986000,0.020000,192.000000,0.000000,0.000000,0.000000,0.000000,0.000000,0.000000,0.000000,0.000000,0.000000,1647931887.849836,0.000000
74.000000,-159031.588916,26641.401844,-8964.636500,15876.466438,-10499.575496,34455.057616,46741.208046,30001.092553,-0.110000,0.986000,0.020000,192.000000,0.000000,0.000000,0.000000,0.000000,0.000000,0.000000,0.000000,0.000000,0.000000,1647931887.857928,0.000000
75.000000,-158900.808859,26635.456280,-8975.946483,15867.078706,-10509.678484,34445.066386,46762.531610,30022.818449,-0.110000,0.986000,0.020000,192.000000,0.000000,0.000000,0.000000,0.000000,0.000000,0.000000,0.000000,0.000000,0.000000,1647931887.857932,0.000000
76.000000,-158792.447602,26644.441681,-8966.268178,15876.086459,-10501.117766,34457.918639,46773.416909,30034.039025,-0.110000,0.986000,0.020000,192.000000,0.000000,0.000000,0.000000,0.000000,0.000000,0.000000,0.000000,0.000000,0.000000,1647931887.864513,0.000000
77.000000,-158731.181470,26642.251210,-8961.753125,15873.270139,-10498.301446,34466.568764,46757.077784,30015.487077,-0.110000,0.986000,0.020000,192.000000,0.000000,0.000000,0.000000,0.000000,0.000000,0.000000,0.000000,0.000000,0.000000,1647931887.864516,0.000000
78.000000,-158647.474187,26623.788670,-8969.665643,15859.322650,-10507.420958,34454.118842,46761.011691,30014.548303,-0.110000,0.986000,0.024000,192.000000,252.000000,144.000000,30.000000,208.000000,0.000000,192.000000,0.000000,0.000000,0.000000,1647931887.872500,0.000000
79.000000,-158535.916631,26628.326074,-8964.904721,15865.782304,-10503.174127,34454.789395,46771.271142,30016.738774,-0.110000,0.986000,0.024000,192.000000,0.000000,0.000000,0.000000,0.000000,0.000000,0.000000,0.000000,0.000000,0.000000,1647931887.872504,0.000000
80.000000,-158406.745900,26632.237629,-8967.810448,15868.844493,-10505.074025,34455.303485,46793.466424,30035.268371,-0.110000,0.986000,0.024000,192.000000,0.000000,0.000000,0.000000,0.000000,0.000000,0.000000,0.000000,0.000000,0.000000,1647931887.880612,0.000000
81.000000,-158293.869590,26623.252228,-8979.634521,15861.423714,-10515.959324,34447.458023,46805.022276,30049.595839,-0.110000,0.986000,0.024000,192.000000,0.000000,0.000000,0.000000,0.000000,0.000000,0.000000,0.000000,0.000000,0.000000,1647931887.880616,0.000000
82.000000,-158210.989322,26630.069510,-8974.180695,15868.039831,-10510.594906,34449.737900,46801.289535,30046.913629,-0.110000,0.986000,0.024000,192.000000,0.000000,0.000000,0.000000,0.000000,0.000000,0.000000,0.000000,0.000000,0.000000,1647931887.888437,0.000000
83.000000,-158139.173167,26633.981065,-8970.157381,15869.470342,-10507.018627,34451.615447,46784.793947,30029.456917,-0.110000,0.986000,0.024000,192.000000,0.000000,0.000000,0.000000,0.000000,0.000000,0.000000,0.000000,0.000000,0.000000,1647931887.888441,0.000000
84.000000,-158033.091787,26634.361045,-8971.409079,15872.778401,-10506.638647,34456.756348,46786.827956,30028.160516,-0.110000,0.986000,0.024000,192.000000,0.000000,0.000000,0.000000,0.000000,0.000000,0.000000,0.000000,0.000000,0.000000,1647931887.894639,0.000000
85.000000,-157914.359321,26635.925667,-8970.380899,15872.063145,-10505.498708,34455.504651,46797.065055,30035.022501,-0.110000,0.986000,0.024000,192.000000,0.000000,0.000000,0.000000,0.000000,0.000000,0.000000,0.000000,0.000000,0.000000,1647931887.902203,0.000000
86.000000,-157816.883363,26636.864440,-8967.072841,15869.246825,-10502.570629,34451.570744,46799.121416,30035.938923,-0.110000,0.986000,0.024000,192.000000,0.000000,0.000000,0.000000,0.000000,0.000000,0.000000,0.000000,0.000000,0.000000,1647931887.902208,0.000000
87.000000,-157728.415159,26634.629266,-8968.659814,15869.224473,-10503.643513,34446.742767,46799.590802,30035.625998,-0.110000,0.986000,0.024000,192.000000,0.000000,0.000000,0.000000,0.000000,0.000000,0.000000,0.000000,0.000000,0.000000,1647931887.910279,0.000000
88.000000,-157635.923640,26634.785728,-8967.788096,15870.386764,-10502.503574,34446.161621,46800.127244,30035.983626,-0.108000,0.984000,0.022000,192.000000,252.000000,160.000000,30.000000,192.000000,0.000000,176.000000,0.000000,0.000000,0.000000,1647931887.910307,0.000000
89.000000,-157518.241706,26634.070472,-8970.045623,15871.303185,-10504.537583,34446.966284,46809.492625,30043.650275,-0.108000,0.984000,0.022000,192.000000,0.000000,0.000000,0.000000,0.000000,0.000000,0.000000,0.000000,0.000000,0.000000,1647931887.916868,0.000000
90.000000,-157392.580198,26634.673969,-8970.269140,15869.760915,-10506.817461,34444.261723,46824.445942,30057.240135,-0.108000,0.984000,0.022000,192.000000,0.000000,0.000000,0.000000,0.000000,0.000000,0.000000,0.000000,0.000000,0.000000,1647931887.916874,0.000000
91.000000,-157311.644532,26639.166670,-8961.127277,15875.617072,-10499.150813,34453.291828,46811.169006,30043.314999,-0.108000,0.984000,0.022000,192.000000,0.000000,0.000000,0.000000,0.000000,0.000000,0.000000,0.000000,0.000000,0.000000,1647931887.924776,0.000000
92.000000,-157239.358990,26645.939248,-8960.993166,15878.209874,-10496.468603,34458.902116,46802.921212,30032.027368,-0.108000,0.984000,0.022000,192.000000,0.000000,0.000000,0.000000,0.000000,0.000000,0.000000,0.000000,0.000000,0.000000,1647931887.924780,0.000000
93.000000,-157122.638181,26649.515527,-8977.891085,15865.245863,-10509.186746,34450.877839,46828.491608,30056.882507,-0.108000,0.984000,0.022000,192.000000,0.000000,0.000000,0.000000,0.000000,0.000000,0.000000,0.000000,0.000000,0.000000,1647931887.932829,0.000000
94.000000,-156992.640435,26637.333827,-8991.838573,15851.030153,-10524.788263,34438.360863,46847.848218,30076.484987,-0.108000,0.984000,0.022000,192.000000,0.000000,0.000000,0.000000,0.000000,0.000000,0.000000,0.000000,0.000000,0.000000,1647931887.932833,0.000000
95.000000,-156900.797117,26647.548574,-8959.875579,15882.456706,-10495.641589,34468.423959,46830.235044,30055.362589,-0.108000,0.984000,0.022000,192.000000,0.000000,0.000000,0.000000,0.000000,0.000000,0.000000,0.000000,0.000000,0.000000,1647931887.939858,0.000000
96.000000,-156820.062616,26647.705036,-8953.035945,15884.356604,-10488.712548,34468.468662,46822.434285,30044.656103,-0.108000,0.984000,0.022000,192.000000,0.000000,0.000000,0.000000,0.000000,0.000000,0.000000,0.000000,0.000000,0.000000,1647931887.939862,0.000000
97.000000,-156720.731464,26640.351312,-8961.462553,15871.146723,-10496.736824,34458.164508,46836.985271,30062.291630,-0.108000,0.984000,0.022000,192.000000,0.000000,0.000000,0.000000,0.000000,0.000000,0.000000,0.000000,0.000000,0.000000,1647931887.947423,0.000000
98.000000,-156610.380901,26634.763376,-8962.021346,15867.391630,-10499.195516,34452.800089,46848.317605,30077.066133,-0.106000,0.984000,0.018000,192.000000,252.000000,176.000000,30.000000,192.000000,0.000000,144.000000,0.000000,0.000000,0.000000,1647931887.947427,0.000000
99.000000,-156493.146001,26633.489327,-8962.110753,15870.856150,-10498.703778,34451.838964,46852.877361,30082.475255,-0.106000,0.984000,0.018000,192.000000,0.000000,0.000000,0.000000,0.000000,0.000000,0.000000,0.000000,0.000000,0.000000,1647931887.954692,0.000000
100.000000,-156383.622454,26634.673969,-8965.418811,15871.839627,-10498.971999,34448.799127,46850.843352,30080.754171,-0.106000,0.984000,0.018000,192.000000,0.000000,0.000000,0.000000,0.000000,0.000000,0.000000,0.000000,0.000000,0.000000,1647931887.954698,0.000000
101.000000,-156277.943406,26620.927646,-8978.226361,15868.576273,-10509.879650,34438.986711,46861.795707,30097.070944,-0.106000,0.984000,0.018000,192.000000,0.000000,0.000000,0.000000,0.000000,0.000000,0.000000,0.000000,0.000000,0.000000,1647931887.962574,0.000000
102.000000,-156206.551934,26626.940266,-8970.671471,15876.488790,-10503.889382,34452.062482,46849.278730,30086.744438,-0.106000,0.984000,0.018000,192.000000,0.000000,0.000000,0.000000,0.000000,0.000000,0.000000,0.000000,0.000000,0.000000,1647931887.969747,0.000000
103.000000,-156120.609477,26644.955772,-8958.422715,15886.636482,-10491.931199,34470.189747,46839.421611,30073.400447,-0.106000,0.984000,0.018000,192.000000,0.000000,0.000000,0.000000,0.000000,0.000000,0.000000,0.000000,0.000000,0.000000,1647931887.969758,0.000000
104.000000,-156007.844926,26644.084054,-8966.446992,15881.003842,-10496.759176,34465.697046,46844.249588,30074.965069,-0.106000,0.984000,0.018000,192.000000,0.000000,0.000000,0.000000,0.000000,0.000000,0.000000,0.000000,0.000000,0.000000,1647931887.977489,0.000000
105.000000,-155868.459447,26626.023844,-8987.234114,15856.796903,-10518.328609,34448.910886,46870.736405,30102.524770,-0.106000,0.984000,0.018000,192.000000,0.000000,0.000000,0.000000,0.000000,0.000000,0.000000,0.000000,0.000000,0.000000,1647931887.977501,0.000000
106.000000,-155777.823124,26635.903315,-8971.722003,15866.788133,-10504.694045,34473.296639,46868.255361,30100.110781,-0.106000,0.984000,0.018000,192.000000,0.000000,0.000000,0.000000,0.000000,0.000000,0.000000,0.000000,0.000000,0.000000,1647931887.985318,0.000000
107.000000,-155706.990445,26645.045179,-8960.099096,15878.746316,-10491.931199,34488.317011,46855.425460,30082.966993,-0.106000,0.984000,0.018000,192.000000,0.000000,0.000000,0.000000,0.000000,0.000000,0.000000,0.000000,0.000000,0.000000,1647931887.985336,0.000000
108.000000,-155601.177287,26642.407673,-8962.960120,15873.448953,-10493.741690,34480.963287,46860.923989,30087.862025,-0.106000,0.982000,0.024000,192.000000,252.000000,176.000000,30.000000,176.000000,0.000000,192.000000,0.000000,0.000000,0.000000,1647931887.992468,0.000000
109.000000,-155492.905437,26652.018923,-8950.733715,15886.234151,-10482.677577,34487.914680,46860.946341,30085.269223,-0.106000,0.982000,0.024000,192.000000,0.000000,0.000000,0.000000,0.000000,0.000000,0.000000,0.000000,0.000000,0.000000,1647931887.992485,0.000000
110.000000,-155382.554875,26653.091807,-8953.393573,15882.724927,-10485.672711,34482.952593,46866.199001,30086.945604,-0.106000,0.982000,0.024000,192.000000,0.000000,0.000000,0.000000,0.000000,0.000000,0.000000,0.000000,0.000000,0.000000,1647931887.999900,0.000000
111.000000,-155279.312167,26648.107368,-8953.751201,15884.803639,-10485.538600,34484.025476,46870.892867,30093.204092,-0.106000,0.982000,0.024000,192.000000,0.000000,0.000000,0.000000,0.000000,0.000000,0.000000,0.000000,0.000000,0.000000,1647931887.999915,0.000000
112.000000,-155189.659320,26654.857594,-8952.030117,15891.397404,-10480.509458,34492.340325,46869.283541,30091.751229,-0.106000,0.982000,0.024000,192.000000,0.000000,0.000000,0.000000,0.000000,0.000000,0.000000,0.000000,0.000000,0.000000,1647931888.007747,0.000000
113.000000,-155081.588636,26653.203565,-8959.987338,15881.227360,-10487.170277,34489.032267,46872.435137,30092.980575,-0.106000,0.982000,0.024000,192.000000,0.000000,0.000000,0.000000,0.000000,0.000000,0.000000,0.000000,0.000000,0.000000,1647931888.007756,0.000000
114.000000,-154982.391594,26658.478577,-8950.286680,15882.412002,-10480.844734,34499.448180,46860.320492,30076.753208,-0.106000,0.982000,0.024000,192.000000,0.000000,0.000000,0.000000,0.000000,0.000000,0.000000,0.000000,0.000000,0.000000,1647931888.015975,0.000000
115.000000,-154884.043918,26665.809949,-8944.765800,15885.384784,-10474.116859,34505.796076,46855.157239,30065.733798,-0.106000,0.982000,0.024000,192.000000,0.000000,0.000000,0.000000,0.000000,0.000000,0.000000,0.000000,0.000000,0.000000,1647931888.015987,0.000000
116.000000,-154795.396900,26657.025714,-8950.130218,15883.641348,-10481.135306,34497.078895,46851.960939,30061.263449,-0.106000,0.982000,0.024000,192.000000,0.000000,0.000000,0.000000,0.000000,0.000000,0.000000,0.000000,0.000000,0.000000,1647931888.022238,0.000000
117.000000,-154700.401986,26647.503870,-8959.003861,15879.975662,-10489.740728,34488.518177,46855.604274,30069.533595,-0.106000,0.982000,0.024000,192.000000,0.000000,0.000000,0.000000,0.000000,0.000000,0.000000,0.000000,0.000000,0.000000,1647931888.029727,0.000000
118.000000,-154591.437231,26651.884812,-8953.125352,15883.686052,-10484.711586,34493.368506,46858.577056,30074.495682,-0.106000,0.982000,0.024000,192.000000,0.000000,0.000000,0.000000,0.000000,0.000000,0.000000,0.000000,0.000000,0.000000,1647931888.029738,0.000000
119.000000,-154470.268425,26655.729312,-8949.504369,15888.044642,-10480.621216,34495.648384,46862.287445,30074.696848,-0.112000,0.982000,0.020000,192.000000,252.000000,128.000000,30.000000,176.000000,0.000000,160.000000,0.000000,0.000000,0.000000,1647931888.037858,0.000000
120.000000,-154357.146246,26648.152071,-8956.969852,15882.680223,-10487.349091,34489.322840,46868.233009,30076.082656,-0.112000,0.982000,0.020000,192.000000,0.000000,0.000000,0.000000,0.000000,0.000000,0.000000,0.000000,0.000000,0.000000,1647931888.037875,0.000000
121.000000,-154257.680983,26639.770167,-8965.597625,15875.058278,-10496.490955,34483.600793,46875.139698,30084.531615,-0.112000,0.982000,0.020000,192.000000,0.000000,0.000000,0.000000,0.000000,0.000000,0.000000,0.000000,0.000000,0.000000,1647931888.045497,0.000000
122.000000,-154177.058241,26647.660333,-8959.227378,15879.550979,-10488.377272,34494.374334,46864.701434,30073.959240,-0.112000,0.982000,0.020000,192.000000,0.000000,0.000000,0.000000,0.000000,0.000000,0.000000,0.000000,0.000000,0.000000,1647931888.045513,0.000000
123.000000,-154061.946757,26650.431949,-8960.747297,15876.198217,-10488.041996,34490.552186,46873.508021,30078.407237,-0.112000,0.982000,0.020000,192.000000,0.000000,0.000000,0.000000,0.000000,0.000000,0.000000,0.000000,0.000000,0.000000,1647931888.052347,0.000000
124.000000,-153909.060825,26636.238591,-8977.242884,15862.854226,-10504.694045,34469.362732,46902.162957,30108.447982,-0.112000,0.982000,0.020000,192.000000,0.000000,0.000000,0.000000,0.000000,0.000000,0.000000,0.000000,0.000000,0.000000,1647931888.052363,0.000000
125.000000,-153814.915277,26644.575792,-8966.178771,15876.354680,-10493.361711,34480.493901,46888.930725,30096.690964,-0.112000,0.982000,0.020000,192.000000,0.000000,0.000000,0.000000,0.000000,0.000000,0.000000,0.000000,0.000000,0.000000,1647931888.060500,0.000000
126.000000,-153737.578242,26650.476652,-8960.233207,15882.613168,-10486.812650,34490.328668,46878.581867,30085.582147,-0.112000,0.982000,0.020000,192.000000,0.000000,0.000000,0.000000,0.000000,0.000000,0.000000,0.000000,0.000000,0.000000,1647931888.060515,0.000000
127.000000,-153638.895290,26649.783748,-8964.569445,15874.074802,-10489.606618,34484.897194,46879.967675,30086.744438,-0.112000,0.982000,0.020000,192.000000,0.000000,0.000000,0.000000,0.000000,0.000000,0.000000,0.000000,0.000000,0.000000,1647931888.068185,0.000000
128.000000,-153531.875137,26640.820699,-8973.688957,15860.596700,-10499.262571,34477.185843,46874.446794,30082.542310,-0.112000,0.982000,0.020000,192.000000,0.000000,0.000000,0.000000,0.000000,0.000000,0.000000,0.000000,0.000000,0.000000,1647931888.068195,0.000000
129.000000,-153422.686866,26644.888716,-8963.653024,15868.531569,-10489.070176,34489.702820,46867.428347,30074.674496,-0.118000,0.988000,0.020000,192.000000,252.000000,80.000000,30.000000,224.000000,0.000000,160.000000,0.000000,0.000000,0.000000,1647931888.075156,0.000000
130.000000,-153317.320742,26648.375588,-8959.652061,15868.889197,-10486.030339,34494.575500,46866.713091,30073.176929,-0.118000,0.988000,0.020000,192.000000,0.000000,0.000000,0.000000,0.000000,0.000000,0.000000,0.000000,0.000000,0.000000,1647931888.075164,0.000000
131.000000,-153237.323849,26649.336713,-8956.701631,15868.531569,-10486.164449,34504.454971,46857.101841,30063.655086,-0.118000,0.988000,0.020000,192.000000,0.000000,0.000000,0.000000,0.000000,0.000000,0.000000,0.000000,0.000000,0.000000,1647931888.082034,0.000000
132.000000,-153144.742923,26649.671990,-8955.896968,15868.956252,-10486.253856,34504.119695,46853.771431,30061.442263,-0.118000,0.988000,0.020000,192.000000,0.000000,0.000000,0.000000,0.000000,0.000000,0.000000,0.000000,0.000000,0.000000,1647931888.089813,0.000000
133.000000,-153036.895756,26652.130682,-8952.521855,15879.550979,-10481.336472,34509.215892,46850.351614,30056.815452,-0.118000,0.988000,0.020000,192.000000,0.000000,0.000000,0.000000,0.000000,0.000000,0.000000,0.000000,0.000000,0.000000,1647931888.089824,0.000000
134.000000,-152921.247831,26655.997533,-8955.986375,15881.540284,-10482.454059,34504.343212,46849.166971,30053.060359,-0.118000,0.988000,0.020000,192.000000,0.000000,0.000000,0.000000,0.000000,0.000000,0.000000,0.000000,0.000000,0.000000,1647931888.097885,0.000000
135.000000,-152815.546431,26647.302705,-8964.211817,15871.660813,-10490.210115,34496.698916,46848.474067,30053.507394,-0.118000,0.988000,0.020000,192.000000,0.000000,0.000000,0.000000,0.000000,0.000000,0.000000,0.000000,0.000000,0.000000,1647931888.097900,0.000000
136.000000,-152728.061703,26653.583545,-8958.221550,15880.221531,-10482.074080,34504.276157,46848.719936,30053.686208,-0.118000,0.988000,0.020000,192.000000,0.000000,0.000000,0.000000,0.000000,0.000000,0.000000,0.000000,0.000000,0.000000,1647931888.104625,0.000000
137.000000,-152631.882147,26656.265754,-8959.160323,15884.960101,-10479.011891,34509.685279,46850.016338,30054.915554,-0.118000,0.988000,0.020000,192.000000,0.000000,0.000000,0.000000,0.000000,0.000000,0.000000,0.000000,0.000000,0.000000,1647931888.104642,0.000000
138.000000,-152529.175881,26657.360990,-8952.320689,15888.782250,-10471.971091,34517.821314,46844.495457,30044.991379,-0.118000,0.988000,0.020000,192.000000,0.000000,0.000000,0.000000,0.000000,0.000000,0.000000,0.000000,0.000000,0.000000,1647931888.112446,0.000000
139.000000,-152404.833127,26654.701132,-8950.554901,15890.033947,-10470.965263,34518.000128,46854.732556,30052.278048,-0.106000,0.980000,0.022000,192.000000,252.000000,176.000000,30.000000,160.000000,0.000000,176.000000,0.000000,0.000000,0.000000,1647931888.112455,0.000000
140.000000,-152290.571009,26647.213298,-8957.908625,15881.339119,-10478.989539,34507.070125,46866.623684,30063.230403,-0.106000,0.980000,0.022000,192.000000,0.000000,0.000000,0.000000,0.000000,0.000000,0.000000,0.000000,0.000000,0.000000,1647931888.120646,0.000000
141.000000,-152206.103767,26647.101539,-8954.488808,15880.981491,-10477.514324,34505.818427,46863.360329,30061.777539,-0.106000,0.980000,0.022000,192.000000,0.000000,0.000000,0.000000,0.000000,0.000000,0.000000,0.000000,0.000000,0.000000,1647931888.120662,0.000000
142.000000,-152141.037839,26670.392057,-8929.097227,15906.127203,-10451.921576,34527.767840,46838.885169,30033.100251,-0.106000,0.980000,0.022000,192.000000,0.000000,0.000000,0.000000,0.000000,0.000000,0.000000,0.000000,0.000000,0.000000,1647931888.127584,0.000000
143.000000,-152010.347189,26661.585469,-8948.878521,15888.245808,-10469.422992,34505.639613,46856.833620,30048.321789,-0.106000,0.980000,0.022000,192.000000,0.000000,0.000000,0.000000,0.000000,0.000000,0.000000,0.000000,0.000000,0.000000,1647931888.127595,0.000000
144.000000,-151872.816905,26647.213298,-8965.105887,15870.207950,-10486.835001,34491.781532,46875.206754,30068.103083,-0.106000,0.980000,0.022000,192.000000,0.000000,0.000000,0.000000,0.000000,0.000000,0.000000,0.000000,0.000000,0.000000,1647931888.135030,0.000000
145.000000,-151791.233038,26652.197737,-8957.841570,15874.454781,-10480.308292,34500.409305,46859.873457,30049.774653,-0.106000,0.980000,0.022000,192.000000,0.000000,0.000000,0.000000,0.000000,0.000000,0.000000,0.000000,0.000000,0.000000,1647931888.135041,0.000000
146.000000,-151707.503403,26660.892565,-8953.415925,15883.686052,-10473.625120,34505.013765,46858.822925,30045.125490,-0.106000,0.980000,0.022000,192.000000,0.000000,0.000000,0.000000,0.000000,0.000000,0.000000,0.000000,0.000000,0.000000,1647931888.142280,0.000000
147.000000,-151591.028463,26646.363931,-8970.492657,15867.570444,-10489.763080,34485.545395,46876.279637,30061.218746,-0.106000,0.980000,0.022000,192.000000,0.000000,0.000000,0.000000,0.000000,0.000000,0.000000,0.000000,0.000000,0.000000,1647931888.150173,0.000000
148.000000,-151460.382516,26648.643809,-8963.608320,15876.153514,-10482.454059,34490.641593,46892.439949,30074.562737,-0.106000,0.980000,0.022000,192.000000,0.000000,0.000000,0.000000,0.000000,0.000000,0.000000,0.000000,0.000000,0.000000,1647931888.150182,0.000000
149.000000,-151341.806512,26655.975182,-8954.824085,15886.927055,-10473.781583,34493.748485,46901.492405,30078.653107,-0.108000,0.976000,0.034000,192.000000,252.000000,160.000000,30.000000,128.000000,1.000000,16.000000,0.000000,0.000000,0.000000,1647931888.157516,0.000000
150.000000,-151232.282964,26653.740007,-8961.887236,15875.460610,-10481.872914,34482.572613,46910.053123,30087.437342,-0.108000,0.976000,0.034000,192.000000,0.000000,0.000000,0.000000,0.000000,0.000000,0.000000,0.000000,0.000000,0.000000,1647931888.157528,0.000000
151.000000,-151150.430876,26652.890641,-8962.222512,15877.673433,-10480.621216,34484.718381,46899.056065,30076.976726,-0.108000,0.976000,0.034000,192.000000,0.000000,0.000000,0.000000,0.000000,0.000000,0.000000,0.000000,0.000000,0.000000,1647931888.164962,0.000000
152.000000,-151040.929680,26647.056836,-8975.141820,15862.317784,-10493.406414,34470.659133,46905.716885,30083.458732,-0.108000,0.976000,0.034000,192.000000,0.000000,0.000000,0.000000,0.000000,0.000000,0.000000,0.000000,0.000000,0.000000,1647931888.164979,0.000000
153.000000,-150923.806539,26652.957696,-8966.715213,15869.313880,-10487.997292,34478.549299,46906.700362,30081.380019,-0.108000,0.976000,0.034000,192.000000,0.000000,0.000000,0.000000,0.000000,0.000000,0.000000,0.000000,0.000000,0.000000,1647931888.172945,0.000000
154.000000,-150824.006000,26659.126778,-8960.210855,15882.143781,-10480.509458,34484.964250,46898.765492,30067.767807,-0.108000,0.976000,0.034000,192.000000,0.000000,0.000000,0.000000,0.000000,0.000000,0.000000,0.000000,0.000000,0.000000,1647931888.172956,0.000000
155.000000,-150732.319144,26670.190891,-8951.516026,15896.493601,-10470.942911,34492.988526,46898.273754,30065.085598,-0.108000,0.976000,0.034000,192.000000,0.000000,0.000000,0.000000,0.000000,0.000000,0.000000,0.000000,0.000000,0.000000,1647931888.181030,0.000000
156.000000,-150642.733353,26663.083036,-8957.081611,15889.184581,-10475.770888,34484.718381,46898.273754,30065.175005,-0.108000,0.976000,0.034000,192.000000,0.000000,0.000000,0.000000,0.000000,0.000000,0.000000,0.000000,0.000000,0.000000,1647931888.181046,0.000000
157.000000,-150517.518880,26652.600068,-8966.156419,15875.907645,-10484.488068,34469.206270,46921.631327,30088.420819,-0.108000,0.976000,0.034000,192.000000,0.000000,0.000000,0.000000,0.000000,0.000000,0.000000,0.000000,0.000000,0.000000,1647931888.187435,0.000000
158.000000,-150401.468623,26665.497025,-8952.454800,15890.101002,-10470.451173,34482.371447,46921.631327,30084.732781,-0.108000,0.976000,0.034000,192.000000,0.000000,0.000000,0.000000,0.000000,0.000000,0.000000,0.000000,0.000000,0.000000,1647931888.187446,0.000000
159.000000,-150262.664290,26645.939248,-8982.361434,15860.529645,-10500.491917,34452.196592,46939.311557,30103.865874,-0.112000,0.978000,0.032000,192.000000,252.000000,128.000000,30.000000,144.000000,1.000000,0.000000,0.000000,0.000000,0.000000,1647931888.195692,0.000000
160.000000,-150155.599434,26647.436815,-8978.986320,15857.333345,-10500.067234,34453.269476,46943.424278,30113.119496,-0.112000,0.978000,0.032000,192.000000,0.000000,0.000000,0.000000,0.000000,0.000000,0.000000,0.000000,0.000000,0.000000,1647931888.195721,0.000000
161.000000,-150074.194381,26657.562155,-8966.648157,15863.234206,-10489.494859,34464.043017,46931.868426,30103.485895,-0.112000,0.978000,0.032000,192.000000,0.000000,0.000000,0.000000,0.000000,0.000000,0.000000,0.000000,0.000000,0.000000,1647931888.202766,0.000000
162.000000,-149979.534743,26674.325964,-8947.224492,15889.385747,-10469.110068,34481.298564,46923.978260,30090.745400,-0.112000,0.978000,0.032000,192.000000,0.000000,0.000000,0.000000,0.000000,0.000000,0.000000,0.000000,0.000000,0.000000,1647931888.202782,0.000000
163.000000,-149856.533093,26682.953737,-8945.749276,15903.109718,-10462.315138,34488.473474,46932.114295,30093.986403,-0.112000,0.978000,0.032000,192.000000,0.000000,0.000000,0.000000,0.000000,0.000000,0.000000,0.000000,0.000000,0.000000,1647931888.210950,0.000000
164.000000,-149727.719990,26665.251156,-8961.082573,15886.792944,-10477.760193,34472.179052,46946.084135,30109.967901,-0.112000,0.978000,0.032000,192.000000,0.000000,0.000000,0.000000,0.000000,0.000000,0.000000,0.000000,0.000000,0.000000,1647931888.217141,0.000000
165.000000,-149641.554015,26654.947001,-8967.832800,15876.891121,-10485.404490,34467.418130,46938.909225,30105.855180,-0.112000,0.978000,0.032000,192.000000,0.000000,0.000000,0.000000,0.000000,0.000000,0.000000,0.000000,0.000000,0.000000,1647931888.217152,0.000000
166.000000,-149534.600918,26649.761397,-8977.287588,15862.451895,-10496.200382,34457.628066,46948.341661,30118.260398,-0.112000,0.978000,0.032000,192.000000,0.000000,0.000000,0.000000,0.000000,0.000000,0.000000,0.000000,0.000000,0.000000,1647931888.225135,0.000000
167.000000,-149408.358265,26654.365856,-8977.444050,15858.629746,-10496.066272,34459.662075,46960.880990,30133.638398,-0.112000,0.978000,0.032000,192.000000,0.000000,0.000000,0.000000,0.000000,0.000000,0.000000,0.000000,0.000000,0.000000,1647931888.225147,0.000000
168.000000,-149294.118499,26658.612687,-8976.505277,15862.854226,-10495.529830,34462.210174,46956.567103,30128.184572,-0.112000,0.978000,0.032000,192.000000,0.000000,0.000000,0.000000,0.000000,0.000000,0.000000,0.000000,0.000000,0.000000,1647931888.233395,0.000000
169.000000,-149196.240210,26656.869251,-8970.291492,15867.905720,-10492.177068,34463.864203,46944.407754,30115.309967,-0.114000,0.980000,0.024000,192.000000,252.000000,112.000000,30.000000,160.000000,0.000000,192.000000,0.000000,0.000000,0.000000,1647931888.233412,0.000000
170.000000,-149106.721474,26655.863423,-8965.865846,15875.170037,-10488.377272,34468.535718,46939.177446,30113.588883,-0.114000,0.980000,0.024000,192.000000,0.000000,0.000000,0.000000,0.000000,0.000000,0.000000,0.000000,0.000000,0.000000,1647931888.239857,0.000000
171.000000,-149017.895641,26664.759417,-8955.002899,15887.172924,-10477.849600,34483.667849,46936.159961,30110.683156,-0.114000,0.980000,0.024000,192.000000,0.000000,0.000000,0.000000,0.000000,0.000000,0.000000,0.000000,0.000000,0.000000,1647931888.239874,0.000000
172.000000,-148892.055320,26655.818719,-8968.324538,15874.566540,-10488.131403,34473.117825,46952.610845,30125.882343,-0.114000,0.980000,0.024000,192.000000,0.000000,0.000000,0.000000,0.000000,0.000000,0.000000,0.000000,0.000000,0.000000,1647931888.247979,0.000000
173.000000,-148761.007042,26648.152071,-8976.125297,15864.351793,-10497.317969,34469.943877,46961.842115,30137.326436,-0.114000,0.980000,0.024000,192.000000,0.000000,0.000000,0.000000,0.000000,0.000000,0.000000,0.000000,0.000000,0.000000,1647931888.247990,0.000000
174.000000,-148653.182227,26655.684609,-8968.324538,15876.198217,-10488.466679,34478.348133,46956.187124,30133.683101,-0.114000,0.980000,0.024000,192.000000,0.000000,0.000000,0.000000,0.000000,0.000000,0.000000,0.000000,0.000000,0.000000,1647931888.256066,0.000000
175.000000,-148544.932728,26654.209394,-8972.303149,15867.861017,-10491.618275,34471.307334,46964.345511,30145.753043,-0.114000,0.980000,0.024000,192.000000,0.000000,0.000000,0.000000,0.000000,0.000000,0.000000,0.000000,0.000000,0.000000,1647931888.256078,0.000000
176.000000,-148429.418913,26636.886792,-8989.223419,15848.526758,-10510.594906,34448.754424,46972.772118,30162.315686,-0.114000,0.980000,0.024000,192.000000,0.000000,0.000000,0.000000,0.000000,0.000000,0.000000,0.000000,0.000000,0.000000,1647931888.263211,0.000000
177.000000,-148310.999371,26641.446548,-8984.686015,15859.702630,-10504.917563,34447.390967,46971.386310,30165.489634,-0.114000,0.980000,0.024000,192.000000,0.000000,0.000000,0.000000,0.000000,0.000000,0.000000,0.000000,0.000000,0.000000,1647931888.263228,0.000000
178.000000,-148191.328131,26649.180251,-8975.767669,15866.274043,-10496.133327,34455.795223,46970.358130,30164.416750,-0.114000,0.980000,0.024000,192.000000,0.000000,0.000000,0.000000,0.000000,0.000000,0.000000,0.000000,0.000000,0.000000,1647931888.269419,0.000000
179.000000,-148071.835705,26651.281315,-8978.159306,15862.586005,-10498.770833,34454.990560,46977.398929,30176.374933,-0.124000,0.982000,0.016000,192.000000,252.000000,32.000000,30.000000,176.000000,0.000000,128.000000,0.000000,0.000000,0.000000,1647931888.277476,0.000000
180.000000,-147992.084681,26665.765246,-8961.395497,15881.920264,-10481.403527,34471.664962,46962.132688,30163.656791,-0.124000,0.982000,0.016000,192.000000,0.000000,0.000000,0.000000,0.000000,0.000000,0.000000,0.000000,0.000000,0.000000,1647931888.277488,0.000000
181.000000,-147919.821491,26675.532958,-8958.109791,15890.101002,-10476.866123,34478.996334,46944.050127,30145.060139,-0.124000,0.982000,0.016000,192.000000,0.000000,0.000000,0.000000,0.000000,0.000000,0.000000,0.000000,0.000000,0.000000,1647931888.285599,0.000000
182.000000,-147775.786850,26660.043199,-8984.350739,15867.436334,-10502.905906,34455.616409,46967.295941,30173.200986,-0.124000,0.982000,0.016000,192.000000,0.000000,0.000000,0.000000,0.000000,0.000000,0.000000,0.000000,0.000000,0.000000,1647931888.285616,0.000000
183.000000,-147644.090372,26659.126778,-8973.867771,15873.381898,-10495.373368,34465.473529,46975.387272,30185.270928,-0.124000,0.982000,0.016000,192.000000,0.000000,0.000000,0.000000,0.000000,0.000000,0.000000,0.000000,0.000000,0.000000,1647931888.292905,0.000000
184.000000,-147548.111981,26652.957696,-8974.247751,15872.219607,-10496.110975,34467.082854,46965.619560,30179.370067,-0.124000,0.982000,0.016000,192.000000,0.000000,0.000000,0.000000,0.000000,0.000000,0.000000,0.000000,0.000000,0.000000,1647931888.292916,0.000000
185.000000,-147461.342509,26646.922725,-8979.790983,15872.711345,-10500.447214,34463.841851,46960.858638,30178.297183,-0.124000,0.982000,0.016000,192.000000,0.000000,0.000000,0.000000,0.000000,0.000000,0.000000,0.000000,0.000000,0.000000,1647931888.300145,0.000000
186.000000,-147367.554589,26645.894545,-8975.588855,15876.019403,-10497.362673,34468.043979,46955.069537,30175.659677,-0.124000,0.982000,0.016000,192.000000,0.000000,0.000000,0.000000,0.000000,0.000000,0.000000,0.000000,0.000000,0.000000,1647931888.300161,0.000000
187.000000,-147241.356640,26654.388208,-8965.977605,15879.863904,-10487.751423,34477.655229,46966.848906,30188.310765,-0.124000,0.982000,0.016000,192.000000,0.000000,0.000000,0.000000,0.000000,0.000000,0.000000,0.000000,0.000000,0.000000,1647931888.308293,0.000000
188.000000,-147113.169386,26652.868289,-8969.263312,15879.260406,-10489.919542,34472.313162,46974.694368,30198.458457,-0.124000,0.982000,0.016000,192.000000,0.000000,0.000000,0.000000,0.000000,0.000000,0.000000,0.000000,0.000000,0.000000,1647931888.308305,0.000000
189.000000,-147001.410663,26648.353237,-8978.829858,15871.057316,-10497.563839,34465.026494,46979.522345,30208.941425,-0.124000,0.976000,0.018000,192.000000,252.000000,32.000000,30.000000,128.000000,0.000000,144.000000,0.000000,0.000000,0.000000,1647931888.316262,0.000000
190.000000,-146910.148491,26651.080150,-8980.014501,15871.392592,-10496.893286,34470.390912,46971.632179,30207.846189,-0.124000,0.976000,0.018000,192.000000,0.000000,0.000000,0.000000,0.000000,0.000000,0.000000,0.000000,0.000000,0.000000,1647931888.316274,0.000000
191.000000,-146815.175928,26649.671990,-8983.613131,15861.758990,-10501.542449,34461.539622,46963.496144,30200.648928,-0.124000,0.976000,0.018000,192.000000,0.000000,0.000000,0.000000,0.000000,0.000000,0.000000,0.000000,0.000000,0.000000,1647931888.322889,0.000000
192.000000,-146685.535811,26650.633115,-8979.120431,15865.983470,-10497.988522,34461.271401,46973.353264,30210.371937,-0.124000,0.976000,0.018000,192.000000,0.000000,0.000000,0.000000,0.000000,0.000000,0.000000,0.000000,0.000000,0.000000,1647931888.322899,0.000000
193.000000,-146556.409783,26656.556327,-8968.078669,15874.834761,-10487.751423,34470.726189,46978.270647,30214.305844,-0.124000,0.976000,0.018000,192.000000,0.000000,0.000000,0.000000,0.000000,0.000000,0.000000,0.000000,0.000000,0.000000,1647931888.329590,0.000000
194.000000,-146432.357601,26640.775995,-8988.619922,15853.153569,-10507.823289,34448.687368,46987.300752,30231.315521,-0.124000,0.976000,0.018000,192.000000,0.000000,0.000000,0.000000,0.000000,0.000000,0.000000,0.000000,0.000000,0.000000,1647931888.337707,0.000000
195.000000,-146345.610481,26648.934382,-8977.131126,15858.093304,-10497.228563,34460.712607,46974.828479,30226.576951,-0.124000,0.976000,0.018000,192.000000,0.000000,0.000000,0.000000,0.000000,0.000000,0.000000,0.000000,0.000000,0.000000,1647931888.337716,0.000000
196.000000,-146249.386221,26655.237574,-8973.688957,15858.607395,-10492.154717,34465.719398,46970.983979,30225.280550,-0.124000,0.976000,0.018000,192.000000,0.000000,0.000000,0.000000,0.000000,0.000000,0.000000,0.000000,0.000000,0.000000,1647931888.344803,0.000000
197.000000,-146136.420505,26654.879946,-8973.085460,15859.747333,-10493.585228,34464.110072,46968.480583,30222.732451,-0.124000,0.976000,0.018000,192.000000,0.000000,0.000000,0.000000,0.000000,0.000000,0.000000,0.000000,0.000000,0.000000,1647931888.344814,0.000000
198.000000,-146008.836747,26653.516490,-8978.896913,15860.864921,-10498.256743,34455.661113,46970.827516,30226.889876,-0.124000,0.976000,0.018000,192.000000,0.000000,0.000000,0.000000,0.000000,0.000000,0.000000,0.000000,0.000000,0.000000,1647931888.352718,0.000000
199.000000,-145895.111071,26647.727388,-8986.205934,15856.931014,-10503.710568,34452.062482,46975.387272,30238.244562,-0.124000,0.972000,0.022000,192.000000,252.000000,32.000000,30.000000,96.000000,0.000000,176.000000,0.000000,0.000000,0.000000,1647931888.352734,0.000000
200.000000,-145790.884887,26653.181214,-8983.166097,15859.322650,-10499.977827,34453.940028,46980.081139,30248.973399,-0.124000,0.972000,0.022000,192.000000,0.000000,0.000000,0.000000,0.000000,0.000000,0.000000,0.000000,0.000000,0.000000,1647931888.360709,0.000000
201.000000,-145683.037720,26645.961600,-8987.368225,15859.188540,-10504.247010,34454.074139,46980.081139,30251.454443,-0.124000,0.972000,0.022000,192.000000,0.000000,0.000000,0.000000,0.000000,0.000000,0.000000,0.000000,0.000000,0.000000,1647931888.360724,0.000000
202.000000,-145554.872817,26642.877059,-8993.984341,15856.081647,-10509.790243,34454.655284,46985.289095,30258.294077,-0.124000,0.972000,0.022000,192.000000,0.000000,0.000000,0.000000,0.000000,0.000000,0.000000,0.000000,0.000000,0.000000,1647931888.368407,0.000000
203.000000,-145439.783685,26661.786635,-8973.912474,15874.901816,-10488.846658,34475.665924,46978.985903,30253.779024,-0.124000,0.972000,0.022000,192.000000,0.000000,0.000000,0.000000,0.000000,0.000000,0.000000,0.000000,0.000000,0.000000,1647931888.368417,0.000000
204.000000,-145325.923899,26651.281315,-8985.624788,15862.273081,-10496.468603,34461.472566,46985.669075,30265.245469,-0.124000,0.972000,0.022000,192.000000,0.000000,0.000000,0.000000,0.000000,0.000000,0.000000,0.000000,0.000000,0.000000,1647931888.375119,0.000000
205.000000,-145219.931927,26652.130682,-8981.713233,15865.402325,-10491.595923,34462.724264,46991.949915,30277.896557,-0.124000,0.972000,0.022000,192.000000,0.000000,0.000000,0.000000,0.000000,0.000000,0.000000,0.000000,0.000000,0.000000,1647931888.375131,0.000000
206.000000,-145104.976905,26667.419275,-8968.212780,15876.555845,-10476.173219,34476.671753,46991.234659,30281.741057,-0.124000,0.972000,0.022000,192.000000,0.000000,0.000000,0.000000,0.000000,0.000000,0.000000,0.000000,0.000000,0.000000,1647931888.383096,0.000000
207.000000,-144986.512659,26660.847862,-8973.018405,15871.839627,-10481.403527,34467.865165,46984.752653,30276.801321,-0.124000,0.972000,0.022000,192.000000,0.000000,0.000000,0.000000,0.000000,0.000000,0.000000,0.000000,0.000000,0.000000,1647931888.383113,0.000000
208.000000,-144872.697577,26659.462054,-8973.912474,15873.694822,-10483.526943,34464.691218,46981.086967,30272.442731,-0.124000,0.972000,0.022000,192.000000,0.000000,0.000000,0.000000,0.000000,0.000000,0.000000,0.000000,0.000000,0.000000,1647931888.390248,0.000000
209.000000,-144764.559837,26657.830376,-8977.935788,15863.010688,-10487.974940,34460.533793,46985.445557,30278.432998,-0.124000,0.972000,0.022000,192.000000,0.000000,0.000000,0.000000,0.000000,0.000000,0.000000,0.000000,0.000000,0.000000,1647931888.398073,0.000000
210.000000,-144662.144144,26660.289068,-8975.611207,15860.015554,-10485.963283,34464.512404,46987.077235,30284.847949,-0.120000,0.976000,0.030000,192.000000,252.000000,64.000000,30.000000,128.000000,0.000000,240.000000,0.000000,0.000000,0.000000,1647931888.398084,0.000000
211.000000,-144551.458305,26659.149129,-8980.193315,15863.614185,-10489.584266,34462.098415,46982.651589,30285.160874,-0.120000,0.976000,0.030000,192.000000,0.000000,0.000000,0.000000,0.000000,0.000000,0.000000,0.000000,0.000000,0.000000,1647931888.404894,0.000000
212.000000,-144414.218594,26651.616591,-8990.296303,15856.618089,-10499.530792,34453.068310,46991.726397,30295.576786,-0.120000,0.976000,0.030000,192.000000,0.000000,0.000000,0.000000,0.000000,0.000000,0.000000,0.000000,0.000000,0.000000,1647931888.404911,0.000000
213.000000,-144309.478320,26665.139397,-8975.611207,15869.984432,-10487.863182,34465.227659,46979.276476,30282.456312,-0.120000,0.976000,0.030000,192.000000,0.000000,0.000000,0.000000,0.000000,0.000000,0.000000,0.000000,0.000000,0.000000,1647931888.412817,0.000000
214.000000,-144222.328868,26661.138435,-8980.573294,15867.034002,-10491.171240,34468.692180,46966.468926,30268.777045,-0.120000,0.976000,0.030000,192.000000,0.000000,0.000000,0.000000,0.000000,0.000000,0.000000,0.000000,0.000000,0.000000,1647931888.412829,0.000000
215.000000,-144107.418550,26660.646696,-8984.484850,15861.222549,-10491.037129,34471.284982,46980.528174,30289.251243,-0.120000,0.976000,0.030000,192.000000,0.000000,0.000000,0.000000,0.000000,0.000000,0.000000,0.000000,0.000000,0.000000,1647931888.420795,0.000000
216.000000,-143991.994142,26662.814815,-8980.640349,15865.335270,-10485.136269,34474.503633,46979.634104,30292.067563,-0.120000,0.976000,0.030000,192.000000,0.000000,0.000000,0.000000,0.000000,0.000000,0.000000,0.000000,0.000000,0.000000,1647931888.420807,0.000000
217.000000,-143872.971102,26664.245327,-8978.963969,15867.436334,-10485.292731,34468.178090,46972.839173,30284.892653,-0.120000,0.976000,0.030000,192.000000,0.000000,0.000000,0.000000,0.000000,0.000000,0.000000,0.000000,0.000000,0.000000,1647931888.427718,0.000000
218.000000,-143738.905339,26660.177310,-8986.161230,15863.167150,-10491.797089,34458.253915,46985.065578,30298.303699,-0.120000,0.976000,0.030000,192.000000,0.000000,0.000000,0.000000,0.000000,0.000000,0.000000,0.000000,0.000000,0.000000,1647931888.427727,0.000000
219.000000,-143627.839521,26659.216185,-8985.378919,15861.490770,-10489.628969,34459.773834,46990.139424,30307.624377,-0.120000,0.976000,0.030000,192.000000,0.000000,0.000000,0.000000,0.000000,0.000000,0.000000,0.000000,0.000000,0.000000,1647931888.435329,0.000000
220.000000,-143551.888293,26662.233670,-8978.181658,15868.173941,-10482.454059,34469.228622,46965.865429,30286.345516,-0.118000,0.982000,0.030000,192.000000,252.000000,80.000000,30.000000,176.000000,0.000000,240.000000,0.000000,0.000000,0.000000,1647931888.435339,0.000000
221.000000,-143430.160693,26666.994592,-8982.920227,15859.300299,-10486.857353,34463.171299,46972.772118,30295.845007,-0.118000,0.982000,0.030000,192.000000,0.000000,0.000000,0.000000,0.000000,0.000000,0.000000,0.000000,0.000000,0.000000,1647931888.443494,0.000000
222.000000,-143284.784947,26676.114103,-8974.739489,15863.323613,-10479.280112,34473.743674,46989.826499,30312.653519,-0.118000,0.982000,0.030000,192.000000,0.000000,0.000000,0.000000,0.000000,0.000000,0.000000,0.000000,0.000000,0.000000,1647931888.443507,0.000000
223.000000,-143151.568550,26671.643754,-8977.153477,15863.122447,-10481.872914,34465.875860,47002.499938,30327.360967,-0.118000,0.982000,0.030000,192.000000,0.000000,0.000000,0.000000,0.000000,0.000000,0.000000,0.000000,0.000000,0.000000,1647931888.450259,0.000000
224.000000,-143056.439526,26664.580603,-8978.069899,15864.172979,-10483.214019,34458.432729,46992.665171,30324.499944,-0.118000,0.982000,0.030000,192.000000,0.000000,0.000000,0.000000,0.000000,0.000000,0.000000,0.000000,0.000000,0.000000,1647931888.450265,0.000000
225.000000,-142968.440708,26661.451359,-8977.220533,15866.363450,-10482.185838,34455.124671,46978.784737,30316.475668,-0.118000,0.982000,0.030000,192.000000,0.000000,0.000000,0.000000,0.000000,0.000000,0.000000,0.000000,0.000000,0.000000,1647931888.457380,0.000000
226.000000,-142840.141695,26654.097635,-8981.892047,15861.200197,-10486.186801,34453.135366,46991.257011,30331.004301,-0.118000,0.982000,0.030000,192.000000,0.000000,0.000000,0.000000,0.000000,0.000000,0.000000,0.000000,0.000000,0.000000,1647931888.464909,0.000000
227.000000,-142710.032190,26657.584507,-8980.148611,15861.937804,-10482.655225,34458.298619,46996.777892,30337.978046,-0.118000,0.982000,0.030000,192.000000,0.000000,0.000000,0.000000,0.000000,0.000000,0.000000,0.000000,0.000000,0.000000,1647931888.464915,0.000000
228.000000,-142589.511584,26653.717655,-8988.888143,15851.141912,-10492.489993,34453.492994,47000.443578,30345.398825,-0.118000,0.982000,0.030000,192.000000,0.000000,0.000000,0.000000,0.000000,0.000000,0.000000,0.000000,0.000000,0.000000,1647931888.472883,0.000000
229.000000,-142485.330103,26651.504833,-8992.799698,15850.538415,-10496.803879,34452.330703,47006.858528,30354.853613,-0.118000,0.982000,0.030000,192.000000,0.000000,0.000000,0.000000,0.000000,0.000000,0.000000,0.000000,0.000000,0.000000,1647931888.472890,0.000000
230.000000,-142368.631645,26651.594240,-8993.246733,15853.958232,-10496.625065,34452.263648,47014.525177,30366.364761,-0.108000,0.978000,0.030000,192.000000,252.000000,160.000000,30.000000,144.000000,0.000000,240.000000,0.000000,0.000000,0.000000,1647931888.479929,0.000000
231.000000,-142261.455031,26648.800272,-8994.923114,15849.867862,-10498.815536,34457.024569,47005.428017,30355.144185,-0.108000,0.978000,0.030000,192.000000,0.000000,0.000000,0.000000,0.000000,0.000000,0.000000,0.000000,0.000000,0.000000,1647931888.479934,0.000000
232.000000,-142137.626366,26655.192871,-8991.726815,15851.924223,-10498.033225,34465.853508,47007.842005,30356.753511,-0.108000,0.978000,0.030000,192.000000,0.000000,0.000000,0.000000,0.000000,0.000000,0.000000,0.000000,0.000000,0.000000,1647931888.487493,0.000000
233.000000,-142034.629528,26665.519376,-8984.708367,15862.764819,-10489.137231,34470.167395,47005.964459,30351.076168,-0.108000,0.978000,0.030000,192.000000,0.000000,0.000000,0.000000,0.000000,0.000000,0.000000,0.000000,0.000000,0.000000,1647931888.487497,0.000000
234.000000,-141915.673544,26655.394036,-8997.247696,15844.212871,-10500.894249,34449.939066,47026.550415,30374.031410,-0.108000,0.978000,0.030000,192.000000,0.000000,0.000000,0.000000,0.000000,0.000000,0.000000,0.000000,0.000000,0.000000,1647931888.495523,0.000000
235.000000,-141819.002249,26647.146243,-8991.659759,15834.176938,-10498.346150,34448.709720,47021.387162,30370.432779,-0.108000,0.978000,0.030000,192.000000,0.000000,0.000000,0.000000,0.000000,0.000000,0.000000,0.000000,0.000000,0.000000,1647931888.495529,0.000000
236.000000,-141700.359190,26656.601030,-8979.858038,15845.375162,-10483.459888,34472.223755,47024.561110,30374.031410,-0.108000,0.978000,0.030000,192.000000,0.000000,0.000000,0.000000,0.000000,0.000000,0.000000,0.000000,0.000000,0.000000,1647931888.503810,0.000000
237.000000,-141556.950397,26651.929516,-8993.045568,15839.563708,-10494.971036,34458.075101,47046.085840,30395.422029,-0.108000,0.978000,0.030000,192.000000,0.000000,0.000000,0.000000,0.000000,0.000000,0.000000,0.000000,0.000000,0.000000,1647931888.503819,0.000000
238.000000,-141425.052753,26643.189984,-9001.427472,15841.262441,-10503.196478,34446.563953,47058.669872,30412.543465,-0.108000,0.978000,0.030000,192.000000,0.000000,0.000000,0.000000,0.000000,0.000000,0.000000,0.000000,0.000000,0.000000,1647931888.510207,0.000000
239.000000,-141316.020944,26637.155013,-9006.210745,15846.358639,-10506.303371,34439.657264,47063.699015,30425.082794,-0.108000,0.978000,0.030000,192.000000,0.000000,0.000000,0.000000,0.000000,0.000000,0.000000,0.000000,0.000000,0.000000,1647931888.510217,0.000000
240.000000,-141218.232062,26652.242440,-8988.329350,15855.612261,-10488.936065,34456.197555,47057.664044,30421.752384,-0.110000,0.986000,0.026000,192.000000,252.000000,144.000000,30.000000,208.000000,0.000000,208.000000,0.000000,0.000000,0.000000,1647931888.517459,0.000000
241.000000,-141107.926203,26666.055818,-8973.532495,15865.804656,-10476.240274,34471.352037,47054.534799,30414.197494,-0.110000,0.986000,0.026000,192.000000,0.000000,0.000000,0.000000,0.000000,0.000000,0.000000,0.000000,0.000000,0.000000,1647931888.525250,0.000000
242.000000,-140977.526126,26655.058760,-8988.284646,15849.487883,-10494.099318,34456.085796,47066.470631,30423.495820,-0.110000,0.986000,0.026000,192.000000,0.000000,0.000000,0.000000,0.000000,0.000000,0.000000,0.000000,0.000000,0.000000,1647931888.525260,0.000000
243.000000,-140869.410738,26651.705998,-8984.864829,15848.884386,-10493.138193,34459.483261,47070.046910,30426.155678,-0.110000,0.986000,0.026000,192.000000,0.000000,0.000000,0.000000,0.000000,0.000000,0.000000,0.000000,0.000000,0.000000,1647931888.533175,0.000000
244.000000,-140790.822004,26659.886737,-8971.230265,15864.105924,-10478.430745,34474.168357,47056.501753,30408.453096,-0.110000,0.986000,0.026000,192.000000,0.000000,0.000000,0.000000,0.000000,0.000000,0.000000,0.000000,0.000000,0.000000,1647931888.533181,0.000000
245.000000,-140688.898049,26656.288106,-8978.293416,15861.267252,-10481.492934,34467.552241,47059.206314,30412.766983,-0.110000,0.986000,0.026000,192.000000,0.000000,0.000000,0.000000,0.000000,0.000000,0.000000,0.000000,0.000000,0.000000,1647931888.539832,0.000000
246.000000,-140543.790524,26651.884812,-8990.363358,15847.632688,-10492.355882,34456.063444,47081.870983,30437.465660,-0.110000,0.986000,0.026000,192.000000,0.000000,0.000000,0.000000,0.000000,0.000000,0.000000,0.000000,0.000000,0.000000,1647931888.539838,0.000000
247.000000,-140399.510014,26651.683647,-8994.364321,15841.396551,-10496.513307,34459.438558,47099.953544,30456.777567,-0.110000,0.986000,0.026000,192.000000,0.000000,0.000000,0.000000,0.000000,0.000000,0.000000,0.000000,0.000000,0.000000,1647931888.547840,0.000000
248.000000,-140295.596754,26661.965449,-8980.215666,15854.002935,-10481.895266,34477.543471,47096.824300,30456.464643,-0.110000,0.986000,0.026000,192.000000,0.000000,0.000000,0.000000,0.000000,0.000000,0.000000,0.000000,0.000000,0.000000,1647931888.547846,0.000000
249.000000,-140198.210203,26659.439702,-8982.786117,15852.751237,-10483.012853,34470.592078,47099.394751,30462.834890,-0.110000,0.986000,0.026000,192.000000,0.000000,0.000000,0.000000,0.000000,0.000000,0.000000,0.000000,0.000000,0.000000,1647931888.555871,0.000000
250.000000,-140106.210423,26671.442589,-8968.168076,15870.699688,-10466.427859,34480.493901,47088.174175,30452.307219,-0.104000,0.992000,0.032000,192.000000,252.000000,192.000000,31.000000,0.000000,1.000000,0.000000,0.000000,0.000000,0.000000,1647931888.555878,0.000000
251.000000,-139973.709282,26676.605842,-8973.934826,15855.455799,-10471.077021,34472.156700,47100.847614,30466.589983,-0.104000,0.992000,0.032000,192.000000,0.000000,0.000000,0.000000,0.000000,0.000000,0.000000,0.000000,0.000000,0.000000,1647931888.563757,0.000000
252.000000,-139827.059487,26670.190891,-8982.093213,15847.006839,-10479.011891,34463.953610,47121.254757,30493.456780,-0.104000,0.992000,0.032000,192.000000,0.000000,0.000000,0.000000,0.000000,0.000000,0.000000,0.000000,0.000000,0.000000,1647931888.563761,0.000000
253.000000,-139719.435837,26667.374571,-8981.869695,15856.394572,-10478.877780,34471.262630,47120.964184,30501.056373,-0.104000,0.992000,0.032000,192.000000,0.000000,0.000000,0.000000,0.000000,0.000000,0.000000,0.000000,0.000000,0.000000,1647931888.571187,0.000000
254.000000,-139614.494397,26651.348370,-8990.095137,15849.219662,-10490.053653,34468.915697,47121.210053,30509.304167,-0.104000,0.992000,0.032000,192.000000,0.000000,0.000000,0.000000,0.000000,0.000000,0.000000,0.000000,0.000000,0.000000,1647931888.571192,0.000000
255.000000,-139520.237091,26656.779844,-8978.405175,15857.199235,-10479.771850,34476.180014,47108.178986,30500.877559,-0.104000,0.992000,0.032000,192.000000,0.000000,0.000000,0.000000,0.000000,0.000000,0.000000,0.000000,0.000000,0.000000,1647931888.577462,0.000000
0.000000,-139385.456072,26659.551461,-8981.445012,15855.567557,-10480.263588,34466.233488,47120.472446,30520.949426,-0.104000,0.992000,0.032000,192.000000,0.000000,0.000000,0.000000,0.000000,0.000000,0.000000,0.000000,0.000000,0.000000,1647931888.585067,0.000000
1.000000,-139224.076477,26647.705036,-8994.833707,15841.485958,-10491.908847,34454.677636,47154.111821,30566.904612,-0.104000,0.992000,0.032000,192.000000,0.000000,0.000000,0.000000,0.000000,0.000000,0.000000,0.000000,0.000000,0.000000,1647931888.585077,0.000000
2.000000,-139120.476141,26652.667123,-8983.210800,15851.186615,-10480.710623,34470.368561,47150.624949,30573.945412,-0.104000,0.992000,0.032000,192.000000,0.000000,0.000000,0.000000,0.000000,0.000000,0.000000,0.000000,0.000000,0.000000,1647931888.592977,0.000000
3.000000,-139026.263538,26660.065551,-8976.013538,15861.893101,-10472.976920,34476.112959,47150.513190,30583.534310,-0.104000,0.992000,0.032000,192.000000,0.000000,0.000000,0.000000,0.000000,0.000000,0.000000,0.000000,0.000000,0.000000,1647931888.592988,0.000000
4.000000,-138925.412467,26670.682629,-8973.644253,15863.658889,-10467.634853,34477.901098,47147.495705,30589.166950,-0.104000,1.004000,0.036000,192.000000,252.000000,192.000000,31.000000,96.000000,1.000000,32.000000,0.000000,0.000000,0.000000,1647931888.601005,0.000000
5.000000,-138790.854966,26673.767170,-8981.243847,15864.061220,-10468.975958,34474.637744,47161.398490,30614.804401,-0.104000,1.004000,0.036000,192.000000,0.000000,0.000000,0.000000,0.000000,0.000000,0.000000,0.000000,0.000000,0.000000,1647931888.601016,0.000000
6.000000,-138654.889304,26670.101484,-8981.780288,15870.118543,-10466.316100,34475.643572,47173.557839,30642.073529,-0.104000,1.004000,0.036000,192.000000,0.000000,0.000000,0.000000,0.000000,0.000000,0.000000,0.000000,0.000000,0.000000,1647931888.607606,0.000000
7.000000,-138557.905085,26668.760379,-8978.673396,15881.830857,-10459.655280,34481.924412,47173.893115,30658.032675,-0.104000,1.004000,0.036000,192.000000,0.000000,0.000000,0.000000,0.000000,0.000000,0.000000,0.000000,0.000000,0.000000,1647931888.607616,0.000000
8.000000,-138449.253255,26658.523280,-8990.743338,15876.734659,-10469.311234,34468.826290,47185.292504,30692.521416,-0.104000,1.004000,0.036000,192.000000,0.000000,0.000000,0.000000,0.000000,0.000000,0.000000,0.000000,0.000000,0.000000,1647931888.615855,0.000000
9.000000,-138325.961033,26663.038333,-8992.866754,15874.723002,-10470.697042,34462.791319,47195.686066,30721.824553,-0.104000,1.004000,0.036000,192.000000,0.000000,0.000000,0.000000,0.000000,0.000000,0.000000,0.000000,0.000000,0.000000,1647931888.615867,0.000000
10.000000,-138186.843775,26666.636964,-8998.298228,15865.894063,-10475.413260,34464.847680,47210.728790,30754.636914,-0.104000,1.004000,0.036000,192.000000,0.000000,0.000000,0.000000,0.000000,0.000000,0.000000,0.000000,0.000000,0.000000,1647931888.623796,0.000000
11.000000,-138070.212373,26673.655411,-8991.637408,15866.028174,-10472.842809,34477.364657,47208.515967,30771.959516,-0.104000,1.004000,0.036000,192.000000,0.000000,0.000000,0.000000,0.000000,0.000000,0.000000,0.000000,0.000000,0.000000,1647931888.623812,0.000000
12.000000,-137990.528404,26677.276394,-8980.461536,15872.957214,-10465.511437,34490.731000,47191.215717,30772.473606,-0.104000,1.004000,0.036000,192.000000,0.000000,0.000000,0.000000,0.000000,0.000000,0.000000,0.000000,0.000000,0.000000,1647931888.630412,0.000000
13.000000,-137897.120464,26677.388153,-8984.104870,15869.827970,-10468.595978,34486.193596,47189.740502,30788.388048,-0.104000,1.004000,0.036000,192.000000,0.000000,0.000000,0.000000,0.000000,0.000000,0.000000,0.000000,0.000000,0.000000,1647931888.630423,0.000000
14.000000,-137763.837011,26666.547557,-8993.738472,15864.508255,-10476.016757,34476.895270,47204.112673,30821.066299,-0.106000,1.000000,0.040000,192.000000,252.000000,176.000000,31.000000,64.000000,1.000000,64.000000,0.000000,0.000000,0.000000,1647931888.637465,0.000000
15.000000,-137615.332021,26660.803158,-8997.381806,15854.874653,-10479.883609,34472.335514,47223.134008,30858.438415,-0.106000,1.000000,0.040000,192.000000,0.000000,0.000000,0.000000,0.000000,0.000000,0.000000,0.000000,0.000000,0.000000,1647931888.645401,0.000000
16.000000,-137494.006752,26667.955717,-8985.513030,15861.669584,-10468.618330,34483.511386,47220.094171,30875.224575,-0.106000,1.000000,0.040000,192.000000,0.000000,0.000000,0.000000,0.000000,0.000000,0.000000,0.000000,0.000000,0.000000,1647931888.645412,0.000000
17.000000,-137389.892327,26668.223938,-8983.389614,15860.820217,-10465.533789,34487.177072,47218.127217,30894.335317,-0.106000,1.000000,0.040000,192.000000,0.000000,0.000000,0.000000,0.000000,0.000000,0.000000,0.000000,0.000000,0.000000,1647931888.653604,0.000000
18.000000,-137295.366799,26670.660278,-8978.852210,15857.266290,-10461.890455,34493.122636,47211.019362,30903.611291,-0.106000,1.000000,0.040000,192.000000,0.000000,0.000000,0.000000,0.000000,0.000000,0.000000,0.000000,0.000000,0.000000,1647931888.653620,0.000000
19.000000,-137166.866620,26668.313345,-8985.311864,15858.093304,-10464.684423,34488.920508,47222.374049,30927.952341,-0.106000,1.000000,0.040000,192.000000,0.000000,0.000000,0.000000,0.000000,0.000000,0.000000,0.000000,0.000000,0.000000,1647931888.660065,0.000000
20.000000,-137040.758078,26676.002345,-8975.700614,15877.874598,-10450.155789,34497.771799,47226.397363,30942.369216,-0.106000,1.000000,0.040000,192.000000,0.000000,0.000000,0.000000,0.000000,0.000000,0.000000,0.000000,0.000000,0.000000,1647931888.660076,0.000000
21.000000,-136922.226777,26666.905185,-8983.836649,15871.549055,-10459.185893,34485.478340,47228.699592,30955.824966,-0.106000,1.000000,0.040000,192.000000,0.000000,0.000000,0.000000,0.000000,0.000000,0.000000,0.000000,0.000000,0.000000,1647931888.667887,0.000000
22.000000,-136830.271701,26665.608783,-8984.082518,15870.409116,-10461.175199,34488.696991,47215.176787,30959.580059,-0.106000,1.000000,0.040000,192.000000,0.000000,0.000000,0.000000,0.000000,0.000000,0.000000,0.000000,0.000000,0.000000,1647931888.667899,0.000000
23.000000,-136731.968729,26665.362914,-8988.888143,15870.811447,-10464.796181,34486.148892,47211.376990,30974.131045,-0.106000,1.000000,0.040000,192.000000,0.000000,0.000000,0.000000,0.000000,0.000000,0.000000,0.000000,0.000000,0.000000,1647931888.676019,0.000000
24.000000,-136601.635707,26662.479539,-9000.756919,15862.407191,-10475.234446,34475.643572,47223.156360,30999.254405,-0.112000,0.998000,0.050000,192.000000,252.000000,128.000000,31.000000,48.000000,1.000000,144.000000,0.000000,0.000000,0.000000,1647931888.676030,0.000000
25.000000,-136458.539839,26665.608783,-9006.277800,15863.100095,-10479.593036,34474.168357,47237.036793,31027.842287,-0.112000,0.998000,0.050000,192.000000,0.000000,0.000000,0.000000,0.000000,0.000000,0.000000,0.000000,0.000000,0.000000,1647931888.683166,0.000000
26.000000,-136334.264139,26667.061647,-9007.551850,15862.474246,-10481.559990,34475.710628,47239.204912,31052.518612,-0.112000,0.998000,0.050000,192.000000,0.000000,0.000000,0.000000,0.000000,0.000000,0.000000,0.000000,0.000000,0.000000,1647931888.683182,0.000000
27.000000,-136224.762943,26658.344466,-9020.292344,15849.733752,-10496.915638,34455.303485,47242.177694,31078.826616,-0.112000,0.998000,0.050000,192.000000,0.000000,0.000000,0.000000,0.000000,0.000000,0.000000,0.000000,0.000000,0.000000,1647931888.690516,0.000000
28.000000,-136139.558093,26668.045124,-9006.724835,15865.849360,-10483.996330,34465.987619,47231.985299,31083.721648,-0.112000,0.998000,0.050000,192.000000,0.000000,0.000000,0.000000,0.000000,0.000000,0.000000,0.000000,0.000000,0.000000,1647931888.690527,0.000000
29.000000,-136008.375705,26667.083999,-9012.402178,15864.888235,-10489.316045,34457.829232,47249.956101,31117.405727,-0.112000,0.998000,0.050000,192.000000,0.000000,0.000000,0.000000,0.000000,0.000000,0.000000,0.000000,0.000000,0.000000,1647931888.697780,0.000000
30.000000,-135868.006750,26669.743856,-9012.715103,15864.552959,-10491.841792,34456.041092,47263.389500,31145.479518,-0.112000,0.998000,0.050000,192.000000,0.000000,0.000000,0.000000,0.000000,0.000000,0.000000,0.000000,0.000000,0.000000,1647931888.697791,0.000000
31.000000,-135759.690196,26671.755513,-9004.891992,15868.978604,-10485.270379,34460.958476,47261.601360,31157.996495,-0.112000,0.998000,0.050000,192.000000,0.000000,0.000000,0.000000,0.000000,0.000000,0.000000,0.000000,0.000000,0.000000,1647931888.705697,0.000000
32.000000,-135673.904201,26676.963470,-8997.448861,15881.026194,-10476.419088,34471.039113,47256.751031,31167.272468,-0.112000,0.998000,0.050000,192.000000,0.000000,0.000000,0.000000,0.000000,0.000000,0.000000,0.000000,0.000000,0.000000,1647931888.712893,0.000000
33.000000,-135594.868433,26690.262758,-8984.775422,15898.773479,-10462.113972,34483.019648,47244.390517,31165.685495,-0.112000,0.998000,0.050000,192.000000,0.000000,0.000000,0.000000,0.000000,0.000000,0.000000,0.000000,0.000000,0.000000,1647931888.712910,0.000000
34.000000,-135458.053405,26676.851711,-9004.534364,15879.774497,-10481.224713,34462.076063,47266.697558,31198.475504,-0.116000,0.982000,0.052000,192.000000,252.000000,96.000000,30.000000,176.000000,1.000000,160.000000,0.000000,0.000000,0.000000,1647931888.720517,0.000000
35.000000,-135322.043040,26679.332755,-9001.427472,15882.277892,-10475.547370,34468.043979,47278.700445,31223.554161,-0.116000,0.982000,0.052000,192.000000,0.000000,0.000000,0.000000,0.000000,0.000000,0.000000,0.000000,0.000000,0.000000,1647931888.720533,0.000000
36.000000,-135216.296937,26686.865292,-8997.493565,15891.844439,-10466.293748,34478.772817,47279.438052,31237.300484,-0.116000,0.982000,0.052000,192.000000,0.000000,0.000000,0.000000,0.000000,0.000000,0.000000,0.000000,0.000000,0.000000,1647931888.728229,0.000000
37.000000,-135105.834616,26670.280298,-9016.112568,15869.872674,-10488.533734,34458.477433,47295.330142,31268.078836,-0.116000,0.982000,0.052000,192.000000,0.000000,0.000000,0.000000,0.000000,0.000000,0.000000,0.000000,0.000000,0.000000,1647931888.728241,0.000000
38.000000,-134990.119635,26660.691400,-9023.086312,15861.379011,-10498.122632,34450.699025,47313.747980,31291.011726,-0.116000,0.982000,0.052000,192.000000,0.000000,0.000000,0.000000,0.000000,0.000000,0.000000,0.000000,0.000000,0.000000,1647931888.736560,0.000000
39.000000,-134864.122851,26671.420237,-9018.615963,15870.722040,-10492.668807,34453.045959,47326.890806,31309.362508,-0.116000,0.982000,0.052000,192.000000,0.000000,0.000000,0.000000,0.000000,0.000000,0.000000,0.000000,0.000000,0.000000,1647931888.736576,0.000000
40.000000,-134730.370013,26684.652470,-9016.604306,15871.861979,-10488.354920,34457.717473,47336.010317,31328.227380,-0.116000,0.982000,0.052000,192.000000,0.000000,0.000000,0.000000,0.000000,0.000000,0.000000,0.000000,0.000000,0.000000,1647931888.742961,0.000000
41.000000,-134623.595729,26686.842941,-9014.257373,15874.052450,-10481.984673,34464.892383,47330.891768,31335.089366,-0.116000,0.982000,0.052000,192.000000,0.000000,0.000000,0.000000,0.000000,0.000000,0.000000,0.000000,0.000000,0.000000,1647931888.742977,0.000000
42.000000,-134503.276289,26673.923632,-9020.135882,15861.893101,-10486.030339,34461.696084,47341.844123,31362.380846,-0.116000,0.982000,0.052000,192.000000,0.000000,0.000000,0.000000,0.000000,0.000000,0.000000,0.000000,0.000000,0.000000,1647931888.750829,0.000000
43.000000,-134423.927596,26684.853635,-8999.192297,15882.210837,-10465.578492,34483.444331,47309.903480,31337.436299,-0.116000,0.982000,0.052000,192.000000,0.000000,0.000000,0.000000,0.000000,0.000000,0.000000,0.000000,0.000000,0.000000,1647931888.750840,0.000000
44.000000,-134305.843330,26690.307461,-9009.451748,15883.775459,-10470.205303,34476.403532,47306.528366,31337.279837,-0.126000,0.970000,0.056000,192.000000,252.000000,16.000000,30.000000,80.000000,1.000000,192.000000,0.000000,0.000000,0.000000,1647931888.758994,0.000000
45.000000,-134162.859221,26682.461999,-9023.868623,15872.957214,-10484.175144,34466.389950,47318.397143,31359.832747,-0.126000,0.970000,0.056000,192.000000,0.000000,0.000000,0.000000,0.000000,0.000000,0.000000,0.000000,0.000000,0.000000,1647931888.759010,0.000000
46.000000,-134055.615551,26688.988708,-9013.922097,15882.523761,-10476.262626,34476.470587,47308.405913,31362.760825,-0.126000,0.970000,0.056000,192.000000,0.000000,0.000000,0.000000,0.000000,0.000000,0.000000,0.000000,0.000000,0.000000,1647931888.766131,0.000000
47.000000,-133954.652721,26691.425048,-9016.872527,15874.343023,-10479.838905,34472.022590,47304.092026,31372.886166,-0.126000,0.970000,0.056000,192.000000,0.000000,0.000000,0.000000,0.000000,0.000000,0.000000,0.000000,0.000000,0.000000,1647931888.772667,0.000000
48.000000,-133843.050461,26691.849731,-9013.452710,15866.363450,-10475.882647,34477.632878,47297.587669,31380.999849,-0.126000,0.970000,0.056000,192.000000,0.000000,0.000000,0.000000,0.000000,0.000000,0.000000,0.000000,0.000000,0.000000,1647931888.772677,0.000000
49.000000,-133711.353983,26694.286072,-9016.559603,15864.798828,-10477.447269,34475.263593,47297.230041,31392.846274,-0.126000,0.970000,0.056000,192.000000,0.000000,0.000000,0.000000,0.000000,0.000000,0.000000,0.000000,0.000000,0.000000,1647931888.780746,0.000000
50.000000,-133565.285333,26694.040202,-9024.338010,15858.070953,-10481.291769,34470.100340,47307.422436,31417.410841,-0.126000,0.970000,0.056000,192.000000,0.000000,0.000000,0.000000,0.000000,0.000000,0.000000,0.000000,0.000000,0.000000,1647931888.780762,0.000000
51.000000,-133436.092250,26680.696211,-9034.440998,15842.871766,-10489.293693,34457.091624,47314.776160,31441.751890,-0.126000,0.970000,0.056000,192.000000,0.000000,0.000000,0.000000,0.000000,0.000000,0.000000,0.000000,0.000000,0.000000,1647931888.788559,0.000000
52.000000,-133331.106106,26685.390077,-9024.226251,15849.599642,-10479.861257,34462.746616,47311.177529,31451.497251,-0.126000,0.970000,0.056000,192.000000,0.000000,0.000000,0.000000,0.000000,0.000000,0.000000,0.000000,0.000000,0.000000,1647931888.788569,0.000000
53.000000,-133208.059753,26684.048973,-9028.897766,15854.494674,-10482.319949,34453.358883,47312.429227,31464.237745,-0.126000,0.970000,0.056000,192.000000,0.000000,0.000000,0.000000,0.000000,0.000000,0.000000,0.000000,0.000000,0.000000,1647931888.795136,0.000000
54.000000,-133047.753042,26677.030525,-9034.597461,15855.858130,-10488.980769,34446.787470,47331.919948,31500.067592,-0.126000,0.970000,0.056000,192.000000,0.000000,0.000000,0.000000,0.000000,0.000000,0.000000,0.000000,0.000000,0.000000,1647931888.795147,0.000000
55.000000,-132927.053622,26688.206397,-9020.269992,15867.369278,-10475.301501,34458.656247,47323.381582,31500.604034,-0.128000,0.972000,0.048000,192.000000,252.000000,0.000000,30.000000,96.000000,1.000000,128.000000,0.000000,0.000000,0.000000,1647931888.803214,0.000000
56.000000,-132839.814763,26693.861388,-9006.613077,15880.690918,-10459.878798,34471.150872,47303.130901,31484.197853,-0.128000,0.972000,0.048000,192.000000,0.000000,0.000000,0.000000,0.000000,0.000000,0.000000,0.000000,0.000000,0.000000,1647931888.803226,0.000000
57.000000,-132745.065718,26695.023679,-9004.824937,15883.551941,-10455.810780,34477.007029,47296.760654,31481.850920,-0.128000,0.972000,0.048000,192.000000,0.000000,0.000000,0.000000,0.000000,0.000000,0.000000,0.000000,0.000000,0.000000,1647931888.811222,0.000000
58.000000,-132629.261330,26698.801124,-9003.349722,15889.251636,-10451.876873,34481.879709,47299.711084,31491.015135,-0.128000,0.972000,0.048000,192.000000,0.000000,0.000000,0.000000,0.000000,0.000000,0.000000,0.000000,0.000000,0.000000,1647931888.811233,0.000000
59.000000,-132504.136265,26704.947854,-9000.958085,15890.883314,-10446.691268,34488.093494,47299.845195,31500.492275,-0.128000,0.972000,0.048000,192.000000,0.000000,0.000000,0.000000,0.000000,0.000000,0.000000,0.000000,0.000000,0.000000,1647931888.818310,0.000000
60.000000,-132362.761481,26700.365746,-9014.838518,15876.444087,-10460.705812,34474.861261,47318.710067,31531.583551,-0.128000,0.972000,0.048000,192.000000,0.000000,0.000000,0.000000,0.000000,0.000000,0.000000,0.000000,0.000000,0.000000,1647931888.818321,0.000000
61.000000,-132248.655826,26699.359918,-9029.881242,15858.428581,-10475.927350,34459.147985,47323.716858,31549.219078,-0.128000,0.972000,0.048000,192.000000,0.000000,0.000000,0.000000,0.000000,0.000000,0.000000,0.000000,0.000000,0.000000,1647931888.824997,0.000000
62.000000,-132143.267351,26696.521246,-9036.095027,15851.097208,-10480.442402,34454.722339,47324.163893,31558.942087,-0.128000,0.972000,0.048000,192.000000,0.000000,0.000000,0.000000,0.000000,0.000000,0.000000,0.000000,0.000000,0.000000,1647931888.832916,0.000000
63.000000,-132030.391041,26702.511514,-9034.083370,15852.885348,-10475.904998,34462.076063,47324.789742,31568.687447,-0.128000,0.972000,0.048000,192.000000,0.000000,0.000000,0.000000,0.000000,0.000000,0.000000,0.000000,0.000000,0.000000,1647931888.832932,0.000000
64.000000,-131866.284533,26693.883740,-9051.271862,15835.495691,-10492.981731,34445.915752,47364.553495,31622.957483,-0.128000,0.972000,0.048000,192.000000,0.000000,0.000000,0.000000,0.000000,0.000000,0.000000,0.000000,0.000000,0.000000,1647931888.841022,0.000000
65.000000,-131736.063270,26696.275377,-9035.156254,15853.287679,-10480.442402,34454.789395,47373.024806,31648.282009,-0.114000,0.954000,0.042000,192.000000,252.000000,112.000000,29.000000,208.000000,1.000000,80.000000,0.000000,0.000000,0.000000,1647931888.841039,0.000000
66.000000,-131633.915798,26697.951758,-9027.981344,15858.853264,-10473.714527,34455.392892,47369.493231,31661.201317,-0.114000,0.954000,0.042000,192.000000,0.000000,0.000000,0.000000,0.000000,0.000000,0.000000,0.000000,0.000000,0.000000,1647931888.847902,0.000000
67.000000,-131545.626407,26706.266607,-9012.960972,15870.386764,-10459.364707,34463.305409,47353.310568,31657.312114,-0.114000,0.954000,0.042000,192.000000,0.000000,0.000000,0.000000,0.000000,0.000000,0.000000,0.000000,0.000000,0.000000,1647931888.847913,0.000000
68.000000,-131430.537275,26711.362804,-9010.926963,15870.252653,-10456.570739,34460.310276,47350.404841,31665.425797,-0.114000,0.954000,0.042000,192.000000,0.000000,0.000000,0.000000,0.000000,0.000000,0.000000,0.000000,0.000000,0.000000,1647931888.855479,0.000000
69.000000,-131306.328631,26718.895342,-9003.416777,15875.661776,-10453.843827,34465.898212,47345.509809,31672.108969,-0.114000,0.954000,0.042000,192.000000,0.000000,0.000000,0.000000,0.000000,0.000000,0.000000,0.000000,0.000000,0.000000,1647931888.855491,0.000000
70.000000,-131183.796368,26722.829249,-8998.678207,15880.109773,-10452.614481,34470.547375,47341.866474,31680.490873,-0.114000,0.954000,0.042000,192.000000,0.000000,0.000000,0.000000,0.000000,0.000000,0.000000,0.000000,0.000000,0.000000,1647931888.863685,0.000000
71.000000,-131068.439015,26712.636854,-9010.546984,15870.252653,-10466.181989,34462.746616,47344.146352,31698.126399,-0.114000,0.954000,0.042000,192.000000,0.000000,0.000000,0.000000,0.000000,0.000000,0.000000,0.000000,0.000000,0.000000,1647931888.863697,0.000000
72.000000,-130981.043694,26720.035281,-9004.333199,15875.415906,-10461.108143,34472.961363,47323.850968,31676.691076,-0.114000,0.954000,0.042000,192.000000,0.000000,0.000000,0.000000,0.000000,0.000000,0.000000,0.000000,0.000000,0.000000,1647931888.870865,0.000000
73.000000,-130868.882640,26731.971113,-9001.248658,15884.781287,-10453.463847,34479.957459,47314.262070,31657.289762,-0.114000,0.954000,0.042000,192.000000,0.000000,0.000000,0.000000,0.000000,0.000000,0.000000,0.000000,0.000000,0.000000,1647931888.870877,0.000000
74.000000,-130732.224075,26731.971113,-9003.528536,15887.262331,-10454.670841,34480.739770,47322.107532,31653.132338,-0.114000,0.954000,0.042000,192.000000,0.000000,0.000000,0.000000,0.000000,0.000000,0.000000,0.000000,0.000000,0.000000,1647931888.878325,0.000000
75.000000,-130613.782181,26728.193668,-9009.407045,15879.036889,-10460.549350,34480.851529,47328.120152,31644.593971,-0.124000,0.958000,0.026000,192.000000,252.000000,32.000000,29.000000,240.000000,0.000000,208.000000,0.000000,0.000000,0.000000,1647931888.878336,0.000000
76.000000,-130508.147837,26720.594075,-9014.726760,15869.202121,-10469.355937,34475.129482,47332.456390,31632.524029,-0.124000,0.958000,0.026000,192.000000,0.000000,0.000000,0.000000,0.000000,0.000000,0.000000,0.000000,0.000000,0.000000,1647931888.885336,0.000000
77.000000,-130409.956623,26716.011967,-9013.586821,15870.319709,-10470.205303,34477.297601,47325.840274,31597.141218,-0.124000,0.958000,0.026000,192.000000,0.000000,0.000000,0.000000,0.000000,0.000000,0.000000,0.000000,0.000000,0.000000,1647931888.893203,0.000000
78.000000,-130267.486604,26712.033357,-9020.717027,15864.687069,-10478.609559,34464.802976,47345.196884,31585.160683,-0.124000,0.958000,0.026000,192.000000,0.000000,0.000000,0.000000,0.000000,0.000000,0.000000,0.000000,0.000000,0.000000,1647931888.893213,0.000000
79.000000,-130139.813440,26723.432746,-9011.821033,15874.790058,-10469.959434,34472.044941,47342.626434,31553.130633,-0.124000,0.958000,0.026000,192.000000,0.000000,0.000000,0.000000,0.000000,0.000000,0.000000,0.000000,0.000000,0.000000,1647931888.900629,0.000000
80.000000,-130008.362831,26719.387081,-9019.957068,15862.116618,-10474.452135,34469.943877,47354.606969,31541.373615,-0.124000,0.958000,0.026000,192.000000,0.000000,0.000000,0.000000,0.000000,0.000000,0.000000,0.000000,0.000000,0.000000,1647931888.900645,0.000000
81.000000,-129920.296958,26724.975017,-9012.871565,15863.792999,-10466.785487,34475.509462,47340.637128,31504.180313,-0.124000,0.958000,0.026000,192.000000,0.000000,0.000000,0.000000,0.000000,0.000000,0.000000,0.000000,0.000000,0.000000,1647931888.907813,0.000000
82.000000,-129826.576093,26731.881706,-9006.948353,15871.437296,-10458.582396,34477.834043,47330.198864,31468.573984,-0.124000,0.958000,0.026000,192.000000,0.000000,0.000000,0.000000,0.000000,0.000000,0.000000,0.000000,0.000000,0.000000,1647931888.907825,0.000000
83.000000,-129699.774647,26734.899191,-9000.801623,15876.309976,-10452.010983,34476.582346,47335.540931,31447.540992,-0.124000,0.958000,0.026000,192.000000,0.000000,0.000000,0.000000,0.000000,0.000000,0.000000,0.000000,0.000000,0.000000,1647931888.915994,0.000000
84.000000,-129562.669046,26731.524078,-9007.574202,15876.891121,-10454.648489,34468.602773,47344.973367,31434.666387,-0.124000,0.958000,0.026000,192.000000,0.000000,0.000000,0.000000,0.000000,0.000000,0.000000,0.000000,0.000000,0.000000,1647931888.916005,0.000000
85.000000,-129430.279664,26723.879781,-9018.772426,15872.152552,-10462.717469,34465.138252,47356.484515,31431.067757,-0.138000,0.976000,0.014000,192.000000,251.000000,176.000000,30.000000,128.000000,0.000000,112.000000,0.000000,0.000000,0.000000,1647931888.924053,0.000000
86.000000,-129320.487895,26721.622255,-9026.774350,15862.653060,-10469.355937,34462.768967,47357.289178,31425.859800,-0.138000,0.976000,0.014000,192.000000,0.000000,0.000000,0.000000,0.000000,0.000000,0.000000,0.000000,0.000000,0.000000,1647931888.924070,0.000000
87.000000,-129225.582388,26732.194630,-9018.973591,15878.411040,-10461.309309,34477.051732,47345.889788,31406.614948,-0.138000,0.976000,0.014000,192.000000,0.000000,0.000000,0.000000,0.000000,0.000000,0.000000,0.000000,0.000000,0.000000,1647931888.930582,0.000000
88.000000,-129100.189102,26732.239334,-9022.192242,15880.668566,-10467.344280,34475.956497,47350.673062,31403.619814,-0.138000,0.976000,0.014000,192.000000,0.000000,0.000000,0.000000,0.000000,0.000000,0.000000,0.000000,0.000000,0.000000,1647931888.930597,0.000000
89.000000,-128970.057245,26729.780642,-9023.332181,15878.992185,-10470.026489,34475.777683,47353.735251,31405.676175,-0.138000,0.976000,0.014000,192.000000,0.000000,0.000000,0.000000,0.000000,0.000000,0.000000,0.000000,0.000000,0.000000,1647931888.938633,0.000000
90.000000,-128859.907849,26727.053729,-9023.533347,15876.064107,-10469.043013,34476.001200,47352.036518,31410.414745,-0.138000,0.976000,0.014000,192.000000,0.000000,0.000000,0.000000,0.000000,0.000000,0.000000,0.000000,0.000000,0.000000,1647931888.938644,0.000000
91.000000,-128761.113138,26726.025549,-9024.338010,15873.672470,-10469.445344,34479.711590,47353.355271,31424.004605,-0.138000,0.976000,0.014000,192.000000,0.000000,0.000000,0.000000,0.000000,0.000000,0.000000,0.000000,0.000000,0.000000,1647931888.945587,0.000000
92.000000,-128651.030797,26723.432746,-9029.769484,15869.671508,-10474.049804,34476.939973,47359.099669,31446.244591,-0.138000,0.976000,0.014000,192.000000,0.000000,0.000000,0.000000,0.000000,0.000000,0.000000,0.000000,0.000000,0.000000,1647931888.945604,0.000000
93.000000,-128517.747345,26722.918656,-9031.959955,15870.587930,-10474.161562,34473.944840,47367.347463,31471.814987,-0.138000,0.976000,0.014000,192.000000,0.000000,0.000000,0.000000,0.000000,0.000000,0.000000,0.000000,0.000000,0.000000,1647931888.953711,0.000000
94.000000,-128381.446407,26719.476488,-9027.266088,15873.806581,-10472.395774,34473.564860,47377.226934,31498.681784,-0.138000,0.976000,0.014000,192.000000,0.000000,0.000000,0.000000,0.000000,0.000000,0.000000,0.000000,0.000000,0.000000,1647931888.960076,0.000000
95.000000,-128264.680894,26716.213133,-9027.243737,15870.923206,-10473.938045,34475.598869,47383.172498,31524.207476,-0.128000,0.976000,0.008000,192.000000,252.000000,0.000000,30.000000,128.000000,0.000000,64.000000,0.000000,0.000000,0.000000,1647931888.960091,0.000000
96.000000,-128174.782178,26713.441517,-9026.774350,15866.095229,-10474.161562,34476.738808,47376.154050,31533.304636,-0.128000,0.976000,0.008000,192.000000,0.000000,0.000000,0.000000,0.000000,0.000000,0.000000,0.000000,0.000000,0.000000,1647931888.968070,0.000000
97.000000,-128069.952496,26713.307406,-9029.970649,15866.475209,-10477.201399,34476.872918,47374.812946,31543.362921,-0.128000,0.976000,0.008000,192.000000,0.000000,0.000000,0.000000,0.000000,0.000000,0.000000,0.000000,0.000000,0.000000,1647931888.968079,0.000000
98.000000,-127940.245323,26720.079985,-9029.747132,15870.654985,-10476.508495,34475.420055,47379.752681,31561.534889,-0.128000,0.976000,0.008000,192.000000,0.000000,0.000000,0.000000,0.000000,0.000000,0.000000,0.000000,0.000000,0.000000,1647931888.976285,0.000000
99.000000,-127821.781078,26724.438575,-9025.567356,15876.757011,-10469.378289,34479.041037,47375.371739,31571.861395,-0.128000,0.976000,0.008000,192.000000,0.000000,0.000000,0.000000,0.000000,0.000000,0.000000,0.000000,0.000000,0.000000,1647931888.976297,0.000000
100.000000,-127714.000966,26716.526057,-9035.625641,15862.675412,-10477.223751,34467.731055,47375.394091,31591.463875,-0.128000,0.976000,0.008000,192.000000,0.000000,0.000000,0.000000,0.000000,0.000000,0.000000,0.000000,0.000000,0.000000,1647931888.983154,0.000000
101.000000,-127595.201444,26701.662147,-9044.722801,15852.930051,-10488.466679,34456.979866,47379.730329,31621.348157,-0.128000,0.976000,0.008000,192.000000,0.000000,0.000000,0.000000,0.000000,0.000000,0.000000,0.000000,0.000000,0.000000,1647931888.983165,0.000000
102.000000,-127477.966544,26701.930368,-9037.793760,15867.168113,-10482.498763,34462.344284,47372.354254,31635.340349,-0.128000,0.976000,0.008000,192.000000,0.000000,0.000000,0.000000,0.000000,0.000000,0.000000,0.000000,0.000000,0.000000,1647931888.990817,0.000000
103.000000,-127359.099967,26716.324892,-9024.181548,15877.338156,-10468.908902,34475.464758,47360.507829,31637.419061,-0.128000,0.976000,0.008000,192.000000,0.000000,0.000000,0.000000,0.000000,0.000000,0.000000,0.000000,0.000000,0.000000,1647931888.990828,0.000000
104.000000,-127220.474448,26718.694177,-9028.137806,15871.750220,-10470.272359,34473.006066,47367.638036,31656.574506,-0.128000,0.976000,0.008000,192.000000,0.000000,0.000000,0.000000,0.000000,0.000000,0.000000,0.000000,0.000000,0.000000,1647931888.998999,0.000000
105.000000,-127086.006354,26706.959511,-9043.426400,15858.026249,-10483.929275,34461.986656,47381.697283,31684.558890,-0.130000,0.978000,0.000000,192.000000,251.000000,240.000000,30.000000,144.000000,0.000000,0.000000,0.000000,0.000000,0.000000,1647931888.999015,0.000000
106.000000,-126988.910376,26712.323929,-9038.039629,15867.704555,-10477.134344,34473.050770,47368.286236,31681.474350,-0.130000,0.978000,0.000000,192.000000,0.000000,0.000000,0.000000,0.000000,0.000000,0.000000,0.000000,0.000000,0.000000,1647931889.005711,0.000000
107.000000,-126867.406293,26709.261740,-9041.548853,15860.037906,-10482.878743,34467.015799,47368.241533,31688.202225,-0.130000,0.978000,0.000000,192.000000,0.000000,0.000000,0.000000,0.000000,0.000000,0.000000,0.000000,0.000000,0.000000,1647931889.005721,0.000000
108.000000,-126746.684521,26719.923522,-9030.820016,15869.492694,-10470.138248,34481.678543,47362.295969,31681.295536,-0.130000,0.978000,0.000000,192.000000,0.000000,0.000000,0.000000,0.000000,0.000000,0.000000,0.000000,0.000000,0.000000,1647931889.012546,0.000000
109.000000,-126595.452618,26711.273397,-9049.439019,15857.512159,-10482.297597,34469.250973,47381.294952,31703.647280,-0.130000,0.978000,0.000000,192.000000,0.000000,0.000000,0.000000,0.000000,0.000000,0.000000,0.000000,0.000000,0.000000,1647931889.020489,0.000000
110.000000,-126473.322686,26712.703909,-9047.986156,15860.037906,-10478.855429,34474.347171,47392.359065,31721.238103,-0.130000,0.978000,0.000000,192.000000,0.000000,0.000000,0.000000,0.000000,0.000000,0.000000,0.000000,0.000000,0.000000,1647931889.020500,0.000000
111.000000,-126364.402636,26706.199551,-9055.049307,15863.033040,-10483.281074,34467.127558,47399.243402,31738.337188,-0.130000,0.978000,0.000000,192.000000,0.000000,0.000000,0.000000,0.000000,0.000000,0.000000,0.000000,0.000000,0.000000,1647931889.028376,0.000000
112.000000,-126228.280512,26701.863313,-9059.921987,15865.692898,-10484.733937,34459.192688,47417.974164,31771.976563,-0.130000,0.978000,0.000000,192.000000,0.000000,0.000000,0.000000,0.000000,0.000000,0.000000,0.000000,0.000000,0.000000,1647931889.028385,0.000000
113.000000,-126124.791935,26715.788450,-9043.985193,15880.467401,-10468.014832,34466.859337,47400.092769,31763.281734,-0.130000,0.978000,0.000000,192.000000,0.000000,0.000000,0.000000,0.000000,0.000000,0.000000,0.000000,0.000000,0.000000,1647931889.035514,0.000000
114.000000,-126022.622111,26728.327778,-9033.837501,15891.777383,-10456.682498,34476.247069,47388.626324,31761.918278,-0.130000,0.978000,0.000000,192.000000,0.000000,0.000000,0.000000,0.000000,0.000000,0.000000,0.000000,0.000000,0.000000,1647931889.035526,0.000000
115.000000,-125935.159735,26726.740805,-9035.625641,15889.162229,-10457.330699,34480.672715,47379.417405,31773.071798,-0.124000,0.982000,-0.010000,192.000000,252.000000,32.000000,30.000000,176.000000,255.000000,176.000000,0.000000,0.000000,0.000000,1647931889.043222,0.000000
116.000000,-125851.452452,26726.338473,-9038.240795,15878.902778,-10461.532827,34475.040075,47369.001492,31787.488674,-0.124000,0.982000,-0.010000,192.000000,0.000000,0.000000,0.000000,0.000000,0.000000,0.000000,0.000000,0.000000,0.000000,1647931889.043238,0.000000
117.000000,-125723.980453,26732.976941,-9040.319507,15882.344947,-10460.102315,34475.755331,47380.870268,31820.971587,-0.124000,0.982000,-0.010000,192.000000,0.000000,0.000000,0.000000,0.000000,0.000000,0.000000,0.000000,0.000000,0.000000,1647931889.051251,0.000000
118.000000,-125579.297612,26724.751499,-9049.014336,15876.287624,-10467.120763,34469.854470,47397.164690,31856.376750,-0.124000,0.982000,-0.010000,192.000000,0.000000,0.000000,0.000000,0.000000,0.000000,0.000000,0.000000,0.000000,0.000000,1647931889.051263,0.000000
119.000000,-125464.946087,26719.588246,-9037.637298,15876.153514,-10460.258777,34483.131407,47394.102501,31866.859718,-0.124000,0.982000,-0.010000,192.000000,0.000000,0.000000,0.000000,0.000000,0.000000,0.000000,0.000000,0.000000,0.000000,1647931889.059281,0.000000
120.000000,-125378.131912,26719.588246,-9031.691734,15880.892084,-10452.659184,34496.318936,47386.502908,31877.320335,-0.124000,0.982000,-0.010000,192.000000,0.000000,0.000000,0.000000,0.000000,0.000000,0.000000,0.000000,0.000000,0.000000,1647931889.059296,0.000000
121.000000,-125275.090370,26712.838019,-9042.889958,15867.078706,-10461.622234,34484.472511,47389.408635,31907.316376,-0.124000,0.982000,-0.010000,192.000000,0.000000,0.000000,0.000000,0.000000,0.000000,0.000000,0.000000,0.000000,0.000000,1647931889.065722,0.000000
122.000000,-125157.564897,26717.621293,-9038.307850,15865.312918,-10458.403582,34486.998258,47391.375588,31933.222047,-0.124000,0.982000,-0.010000,192.000000,0.000000,0.000000,0.000000,0.000000,0.000000,0.000000,0.000000,0.000000,0.000000,1647931889.065738,0.000000
123.000000,-125029.981140,26716.011967,-9040.319507,15860.820217,-10461.979861,34480.784474,47392.537879,31952.176327,-0.124000,0.982000,-0.010000,192.000000,0.000000,0.000000,0.000000,0.000000,0.000000,0.000000,0.000000,0.000000,0.000000,1647931889.072907,0.000000
124.000000,-124903.984356,26715.609636,-9045.236891,15861.200197,-10465.377327,34476.515290,47395.331847,31968.515452,-0.124000,0.982000,-0.010000,192.000000,0.000000,0.000000,0.000000,0.000000,0.000000,0.000000,0.000000,0.000000,0.000000,1647931889.080923,0.000000
125.000000,-124783.597861,26712.815668,-9043.113475,15861.736639,-10464.304443,34483.578442,47401.165652,31988.408505,-0.108000,0.982000,-0.012000,192.000000,252.000000,160.000000,30.000000,176.000000,255.000000,160.000000,0.000000,0.000000,0.000000,1647931889.080939,0.000000
126.000000,-124660.573859,26708.635892,-9043.269937,15865.916415,-10463.253911,34483.712552,47406.463016,32009.463848,-0.108000,0.982000,-0.012000,192.000000,0.000000,0.000000,0.000000,0.000000,0.000000,0.000000,0.000000,0.000000,0.000000,1647931889.088914,0.000000
127.000000,-124503.441096,26704.031432,-9048.813170,15869.023307,-10467.344280,34477.923450,47417.772999,32040.868049,-0.108000,0.982000,-0.012000,192.000000,0.000000,0.000000,0.000000,0.000000,0.000000,0.000000,0.000000,0.000000,0.000000,1647931889.088926,0.000000
128.000000,-124349.884611,26704.657281,-9049.595481,15871.906682,-10467.254873,34475.576517,47415.828397,32056.246049,-0.108000,0.982000,-0.012000,192.000000,0.000000,0.000000,0.000000,0.000000,0.000000,0.000000,0.000000,0.000000,0.000000,1647931889.095346,0.000000
129.000000,-124214.455392,26700.455153,-9048.120266,15870.364412,-10466.561969,34474.637744,47410.486330,32066.550203,-0.108000,0.982000,-0.012000,192.000000,0.000000,0.000000,0.000000,0.000000,0.000000,0.000000,0.000000,0.000000,0.000000,1647931889.095357,0.000000
130.000000,-124109.849228,26697.549426,-9044.298118,15868.755087,-10464.080925,34478.146968,47395.443606,32061.364598,-0.108000,0.982000,-0.012000,192.000000,0.000000,0.000000,0.000000,0.000000,0.000000,0.000000,0.000000,0.000000,0.000000,1647931889.103494,0.000000
131.000000,-124021.023395,26703.517342,-9030.574147,15884.758936,-10451.496893,34491.647421,47369.694396,32041.985636,-0.108000,0.982000,-0.012000,192.000000,0.000000,0.000000,0.000000,0.000000,0.000000,0.000000,0.000000,0.000000,0.000000,1647931889.103505,0.000000
132.000000,-123887.806998,26700.321043,-9037.480836,15879.550979,-10460.124667,34487.266479,47373.628303,32060.291715,-0.108000,0.982000,-0.012000,192.000000,0.000000,0.000000,0.000000,0.000000,0.000000,0.000000,0.000000,0.000000,0.000000,1647931889.111402,0.000000
133.000000,-123745.426386,26701.572740,-9032.541100,15881.428526,-10458.917673,34494.195520,47373.248324,32074.015686,-0.108000,0.982000,-0.012000,192.000000,0.000000,0.000000,0.000000,0.000000,0.000000,0.000000,0.000000,0.000000,0.000000,1647931889.111413,0.000000
134.000000,-123643.971818,26710.960473,-9021.298173,15891.732680,-10449.887568,34505.237282,47349.533123,32063.018628,-0.108000,0.982000,-0.012000,192.000000,0.000000,0.000000,0.000000,0.000000,0.000000,0.000000,0.000000,0.000000,0.000000,1647931889.118636,0.000000
135.000000,-123538.136308,26710.424031,-9026.170853,15883.909569,-10455.050821,34499.157607,47341.553550,32066.550203,-0.116000,0.978000,-0.014000,192.000000,252.000000,96.000000,30.000000,144.000000,255.000000,144.000000,0.000000,0.000000,0.000000,1647931889.118647,0.000000
136.000000,-123438.201659,26712.994482,-9023.667458,15888.625787,-10453.083867,34500.789285,47325.102666,32053.161508,-0.116000,0.978000,-0.014000,192.000000,0.000000,0.000000,0.000000,0.000000,0.000000,0.000000,0.000000,0.000000,0.000000,1647931889.126050,0.000000
137.000000,-123288.020288,26712.882723,-9032.988135,15881.540284,-10462.471600,34491.692125,47339.743059,32066.281982,-0.116000,0.978000,-0.014000,192.000000,0.000000,0.000000,0.000000,0.000000,0.000000,0.000000,0.000000,0.000000,0.000000,1647931889.126066,0.000000
138.000000,-123119.018748,26705.327833,-9042.129998,15873.627767,-10472.395774,34484.673677,47361.245437,32090.690087,-0.116000,0.978000,-0.014000,192.000000,0.000000,0.000000,0.000000,0.000000,0.000000,0.000000,0.000000,0.000000,0.000000,1647931889.133392,0.000000
139.000000,-122999.347508,26704.031432,-9038.129036,15879.416869,-10467.724260,34491.558014,47351.790649,32084.923337,-0.116000,0.978000,-0.014000,192.000000,0.000000,0.000000,0.000000,0.000000,0.000000,0.000000,0.000000,0.000000,0.000000,1647931889.141074,0.000000
140.000000,-122900.016356,26699.941063,-9041.928833,15877.919302,-10471.389946,34488.272308,47339.005451,32076.876709,-0.116000,0.978000,-0.014000,192.000000,0.000000,0.000000,0.000000,0.000000,0.000000,0.000000,0.000000,0.000000,0.000000,1647931889.141090,0.000000
141.000000,-122784.815465,26704.947854,-9036.966745,15888.022290,-10465.936120,34492.496788,47329.573015,32070.148834,-0.116000,0.978000,-0.014000,192.000000,0.000000,0.000000,0.000000,0.000000,0.000000,0.000000,0.000000,0.000000,0.000000,1647931889.147566,0.000000
142.000000,-122666.462978,26717.241313,-9021.924021,15907.870639,-10447.160655,34508.210064,47315.491416,32052.759177,-0.116000,0.978000,-0.014000,192.000000,0.000000,0.000000,0.000000,0.000000,0.000000,0.000000,0.000000,0.000000,0.000000,1647931889.147576,0.000000
143.000000,-122523.925903,26717.509534,-9026.036742,15906.306017,-10450.133437,34504.834951,47319.246509,32062.325723,-0.116000,0.978000,-0.014000,192.000000,0.000000,0.000000,0.000000,0.000000,0.000000,0.000000,0.000000,0.000000,0.000000,1647931889.155600,0.000000
144.000000,-122401.170123,26711.206342,-9032.719914,15900.762785,-10456.302518,34499.492884,47317.681887,32069.545337,-0.116000,0.978000,-0.014000,192.000000,0.000000,0.000000,0.000000,0.000000,0.000000,0.000000,0.000000,0.000000,0.000000,1647931889.155607,0.000000
145.000000,-122285.231624,26712.256874,-9036.005620,15898.862886,-10460.035260,34493.390857,47319.492378,32078.642497,-0.116000,0.978000,-0.014000,192.000000,0.000000,0.000000,0.000000,0.000000,0.000000,0.000000,0.000000,0.000000,0.000000,1647931889.163867,0.000000
146.000000,-122174.098751,26715.207304,-9029.925946,15898.929942,-10452.413315,34503.270328,47312.250413,32073.345133,-0.098000,0.978000,-0.008000,192.000000,252.000000,240.000000,30.000000,144.000000,255.000000,192.000000,0.000000,0.000000,0.000000,1647931889.163884,0.000000
147.000000,-122029.661778,26700.835133,-9041.571205,15883.708404,-10460.348184,34497.168302,47326.555529,32086.219738,-0.098000,0.978000,-0.008000,192.000000,0.000000,0.000000,0.000000,0.000000,0.000000,0.000000,0.000000,0.000000,0.000000,1647931889.170755,0.000000
148.000000,-121904.871989,26701.528037,-9034.530405,15888.379918,-10453.352088,34505.147875,47326.063791,32085.124503,-0.098000,0.978000,-0.008000,192.000000,0.000000,0.000000,0.000000,0.000000,0.000000,0.000000,0.000000,0.000000,0.000000,1647931889.170766,0.000000
149.000000,-121803.193903,26702.712679,-9029.858891,15892.403232,-10445.216053,34511.786343,47315.446712,32078.284869,-0.098000,0.978000,-0.008000,192.000000,0.000000,0.000000,0.000000,0.000000,0.000000,0.000000,0.000000,0.000000,0.000000,1647931889.178492,0.000000
150.000000,-121674.850187,26696.521246,-9044.722801,15877.852247,-10460.795219,34490.887462,47332.702259,32113.779439,-0.098000,0.978000,-0.008000,192.000000,0.000000,0.000000,0.000000,0.000000,0.000000,0.000000,0.000000,0.000000,0.000000,1647931889.178503,0.000000
151.000000,-121558.330543,26703.338528,-9036.519711,15884.021328,-10456.526036,34496.453046,47330.042402,32128.308073,-0.098000,0.978000,-0.008000,192.000000,0.000000,0.000000,0.000000,0.000000,0.000000,0.000000,0.000000,0.000000,0.000000,1647931889.186208,0.000000
152.000000,-121429.249219,26709.753479,-9034.172777,15879.170999,-10453.329736,34502.555073,47327.963689,32133.851306,-0.098000,0.978000,-0.008000,192.000000,0.000000,0.000000,0.000000,0.000000,0.000000,0.000000,0.000000,0.000000,0.000000,1647931889.186220,0.000000
153.000000,-121295.205807,26702.019775,-9037.123208,15875.304148,-10459.409411,34496.989488,47333.037535,32139.573352,-0.098000,0.978000,-0.008000,192.000000,0.000000,0.000000,0.000000,0.000000,0.000000,0.000000,0.000000,0.000000,0.000000,1647931889.193406,0.000000
154.000000,-121186.330460,26702.936197,-9033.189301,15878.858075,-10459.364707,34498.934090,47326.980213,32129.738585,-0.098000,0.978000,-0.008000,192.000000,0.000000,0.000000,0.000000,0.000000,0.000000,0.000000,0.000000,0.000000,0.000000,1647931889.193416,0.000000
