%OpenBCI Raw EEG Data
%Number of channels = 8
%Sample Rate = 256 Hz
%Board = OpenBCI_GUI$BoardCytonSerial
%Channels = Fp1, Fp2, F3, F4, Fz, Pz, O1, O2
%Data recorded at AIMS Lab (http://aimsl.uiu.ac.bd) by Rana Depto (mail@ranadepto.com)
%Brainwaves were obtained via the Ultracortex Mark IV Headset using the OpenBCI Cyton Board
%Recording Application = ConcentrateToday (https://concentrate.today)
%Data type = RAW data with noise
%Day No = 5
%Subject ID = 3
%Session ID = 7
%Record starting timestamp (UTC+6) = 2022-03-13T14:38:28.354797
%Record ending timestamp (UTC+6)   = 2022-03-13T14:38:59.193947
%Recorded durations = ~30 seconds
Sample Index, EXG Channel 0, EXG Channel 1, EXG Channel 2, EXG Channel 3, EXG Channel 4, EXG Channel 5, EXG Channel 6, EXG Channel 7, Accel Channel 0, Accel Channel 1, Accel Channel 2, Other, Other, Other, Other, Other, Other, Other, Analog Channel 0, Analog Channel 1, Analog Channel 2, Timestamp, Timestamp (Formatted)
219.000000,-8503.877640,918.276717,-19879.842684,-18947.573775,123.202815,46222.245243,27686.927043,1036.651556,0.182000,0.964000,0.104000,192.000000,0.000000,0.000000,0.000000,0.000000,0.000000,0.000000,0.000000,0.000000,0.000000,1647160708.358690,0.000000
220.000000,-8505.822242,915.125121,-19879.350946,-18952.357048,120.878234,46219.898310,27681.763790,1026.682678,0.182000,0.964000,0.104000,192.000000,0.000000,0.000000,0.000000,0.000000,0.000000,0.000000,0.000000,0.000000,0.000000,1647160708.358699,0.000000
221.000000,-8507.789196,913.739313,-19878.903911,-18956.067438,118.374839,46211.426999,27678.321621,1023.933413,0.182000,0.964000,0.104000,192.000000,0.000000,0.000000,0.000000,0.000000,0.000000,0.000000,0.000000,0.000000,0.000000,1647160708.366504,0.000000
222.000000,-8506.179870,916.220357,-19878.211007,-18951.530034,114.262118,46207.180167,27682.099066,1026.682678,0.182000,0.964000,0.104000,192.000000,0.000000,0.000000,0.000000,0.000000,0.000000,0.000000,0.000000,0.000000,0.000000,1647160708.366509,0.000000
223.000000,-8511.253716,914.499273,-19884.693013,-18957.676763,114.753856,46205.213214,27683.887206,1027.800265,0.182000,0.970000,0.098000,192.000000,5.000000,176.000000,30.000000,80.000000,3.000000,16.000000,0.000000,0.000000,0.000000,1647160708.373041,0.000000
224.000000,-8515.500547,910.230089,-19889.252769,-18962.884720,109.858824,46205.280269,27689.721011,1039.199655,0.182000,0.970000,0.098000,192.000000,0.000000,0.000000,0.000000,0.000000,0.000000,0.000000,0.000000,0.000000,0.000000,1647160708.373046,0.000000
225.000000,-8517.623963,908.106674,-19891.309129,-18964.561101,111.848129,46211.248185,27700.181627,1041.948920,0.182000,0.970000,0.098000,192.000000,0.000000,0.000000,0.000000,0.000000,0.000000,0.000000,0.000000,0.000000,0.000000,1647160708.381154,0.000000
226.000000,-8506.962181,918.410828,-19879.686222,-18952.088827,117.257251,46215.763237,27706.842447,1047.022766,0.182000,0.970000,0.098000,192.000000,0.000000,0.000000,0.000000,0.000000,0.000000,0.000000,0.000000,0.000000,0.000000,1647160708.381158,0.000000
227.000000,-8509.353818,913.962831,-19878.769801,-18954.145188,118.419542,46206.330801,27701.142752,1055.784649,0.182000,0.970000,0.098000,192.000000,0.000000,0.000000,0.000000,0.000000,0.000000,0.000000,0.000000,0.000000,0.000000,1647160708.389075,0.000000
228.000000,-8512.416007,914.387514,-19880.915568,-18952.535862,126.957909,46211.941089,27710.776354,1075.431833,0.182000,0.970000,0.098000,192.000000,0.000000,0.000000,0.000000,0.000000,0.000000,0.000000,0.000000,0.000000,0.000000,1647160708.389079,0.000000
229.000000,-8518.853309,906.072665,-19891.867923,-18964.471694,117.324307,46209.370638,27702.461505,1076.504716,0.182000,0.970000,0.098000,192.000000,0.000000,0.000000,0.000000,0.000000,0.000000,0.000000,0.000000,0.000000,0.000000,1647160708.396092,0.000000
230.000000,-8502.424777,915.661563,-19882.904873,-18962.527092,118.754818,46212.589289,27690.771543,1081.064472,0.182000,0.970000,0.098000,192.000000,0.000000,0.000000,0.000000,0.000000,0.000000,0.000000,0.000000,0.000000,0.000000,1647160708.396096,0.000000
231.000000,-8485.728024,930.167846,-19869.985565,-18949.607784,120.207682,46208.096589,27665.111740,1090.206336,0.182000,0.970000,0.098000,192.000000,0.000000,0.000000,0.000000,0.000000,0.000000,0.000000,0.000000,0.000000,0.000000,1647160708.402807,0.000000
232.000000,-8484.141050,933.721773,-19859.256728,-18934.542708,131.785885,46215.897347,27649.443167,1111.686362,0.182000,0.970000,0.098000,192.000000,0.000000,0.000000,0.000000,0.000000,0.000000,0.000000,0.000000,0.000000,0.000000,1647160708.402811,0.000000
233.000000,-8494.199335,925.004593,-19865.425809,-18942.119949,135.943310,46218.892481,27641.687112,1123.912766,0.172000,0.968000,0.090000,192.000000,5.000000,96.000000,30.000000,64.000000,2.000000,208.000000,0.000000,0.000000,0.000000,1647160708.410836,0.000000
234.000000,-8506.202222,912.286450,-19880.602644,-18961.677726,118.844225,46204.073275,27619.782402,1103.036237,0.172000,0.968000,0.090000,192.000000,0.000000,0.000000,0.000000,0.000000,0.000000,0.000000,0.000000,0.000000,0.000000,1647160708.418755,0.000000
235.000000,-8516.126396,902.518738,-19889.789211,-18970.752534,114.865615,46205.436731,27614.105059,1104.220880,0.172000,0.968000,0.090000,192.000000,0.000000,0.000000,0.000000,0.000000,0.000000,0.000000,0.000000,0.000000,0.000000,1647160708.418765,0.000000
236.000000,-8509.778501,907.167900,-19881.317899,-18960.023696,115.960850,46207.247222,27603.420926,1110.568775,0.172000,0.968000,0.090000,192.000000,0.000000,0.000000,0.000000,0.000000,0.000000,0.000000,0.000000,0.000000,0.000000,1647160708.427213,0.000000
237.000000,-8503.408254,910.677124,-19872.354850,-18952.781731,118.374839,46205.883766,27583.773742,1124.382153,0.172000,0.968000,0.090000,192.000000,0.000000,0.000000,0.000000,0.000000,0.000000,0.000000,0.000000,0.000000,0.000000,1647160708.427218,0.000000
238.000000,-8511.790158,905.424464,-19880.960271,-18967.466827,118.017211,46214.623298,27581.873844,1132.831112,0.172000,0.968000,0.090000,192.000000,0.000000,0.000000,0.000000,0.000000,0.000000,0.000000,0.000000,0.000000,0.000000,1647160708.433377,0.000000
239.000000,-8504.995227,910.677124,-19871.974870,-18958.280260,111.915184,46205.369676,27548.390931,1134.753363,0.172000,0.968000,0.090000,192.000000,0.000000,0.000000,0.000000,0.000000,0.000000,0.000000,0.000000,0.000000,0.000000,1647160708.433381,0.000000
240.000000,-8502.983570,910.967697,-19867.728039,-18957.140321,117.100789,46205.682600,27533.258800,1136.787371,0.172000,0.968000,0.090000,192.000000,0.000000,0.000000,0.000000,0.000000,0.000000,0.000000,0.000000,0.000000,0.000000,1647160708.441343,0.000000
241.000000,-8507.163347,907.391418,-19874.299452,-18954.994554,119.380667,46210.287060,27524.966303,1155.562837,0.172000,0.968000,0.090000,192.000000,0.000000,0.000000,0.000000,0.000000,0.000000,0.000000,0.000000,0.000000,0.000000,1647160708.441346,0.000000
242.000000,-8509.554983,904.329229,-19880.692051,-18959.353144,117.301955,46210.220004,27507.911921,1160.144944,0.172000,0.968000,0.090000,192.000000,0.000000,0.000000,0.000000,0.000000,0.000000,0.000000,0.000000,0.000000,0.000000,1647160708.449451,0.000000
243.000000,-8511.119605,903.926898,-19886.302338,-18962.728258,124.432161,46228.503731,27518.573704,1183.234296,0.178000,0.966000,0.088000,192.000000,5.000000,144.000000,30.000000,48.000000,2.000000,192.000000,0.000000,0.000000,0.000000,1647160708.449454,0.000000
244.000000,-8507.677437,901.870537,-19879.127428,-18962.281223,113.837435,46212.879862,27485.247253,1165.397604,0.178000,0.966000,0.088000,192.000000,0.000000,0.000000,0.000000,0.000000,0.000000,0.000000,0.000000,0.000000,0.000000,1647160708.458735,0.000000
245.000000,-8514.427664,891.253458,-19884.000109,-18971.423086,112.652792,46210.354115,27469.332811,1163.095374,0.178000,0.966000,0.088000,192.000000,0.000000,0.000000,0.000000,0.000000,0.000000,0.000000,0.000000,0.000000,0.000000,1647160708.458738,0.000000
246.000000,-8517.221632,887.073682,-19886.861132,-18972.965356,108.651830,46210.376467,27455.653543,1159.653206,0.178000,0.966000,0.088000,192.000000,0.000000,0.000000,0.000000,0.000000,0.000000,0.000000,0.000000,0.000000,0.000000,1647160708.465461,0.000000
247.000000,-8513.175966,889.174746,-19882.480190,-18970.774886,107.824815,46206.174339,27430.574886,1158.736784,0.178000,0.966000,0.088000,192.000000,0.000000,0.000000,0.000000,0.000000,0.000000,0.000000,0.000000,0.000000,0.000000,1647160708.465465,0.000000
248.000000,-8508.571507,895.075607,-19879.462705,-18966.103371,118.441894,46212.075199,27420.740118,1166.045805,0.178000,0.966000,0.088000,192.000000,0.000000,0.000000,0.000000,0.000000,0.000000,0.000000,0.000000,0.000000,0.000000,1647160708.472427,0.000000
249.000000,-8502.201259,900.998819,-19875.417039,-18963.108237,117.413714,46210.734094,27410.592426,1165.934046,0.178000,0.966000,0.088000,192.000000,0.000000,0.000000,0.000000,0.000000,0.000000,0.000000,0.000000,0.000000,0.000000,1647160708.479638,0.000000
250.000000,-8495.562791,904.351581,-19869.493827,-18960.627194,127.203778,46220.367696,27413.609912,1185.938857,0.178000,0.966000,0.088000,192.000000,0.000000,0.000000,0.000000,0.000000,0.000000,0.000000,0.000000,0.000000,0.000000,1647160708.479641,0.000000
251.000000,-8493.037044,897.333133,-19869.203254,-18957.162673,125.840321,46224.256900,27407.239664,1188.106977,0.178000,0.966000,0.088000,192.000000,0.000000,0.000000,0.000000,0.000000,0.000000,0.000000,0.000000,0.000000,0.000000,1647160708.485743,0.000000
252.000000,-8501.463652,886.447833,-19880.401478,-18967.958566,122.711077,46226.112095,27396.019089,1189.716302,0.178000,0.966000,0.088000,192.000000,0.000000,0.000000,0.000000,0.000000,0.000000,0.000000,0.000000,0.000000,0.000000,1647160708.485746,0.000000
253.000000,-8518.965068,873.528525,-19899.355757,-18983.560083,113.233937,46228.190807,27392.599272,1189.984523,0.188000,0.978000,0.082000,192.000000,5.000000,224.000000,30.000000,144.000000,2.000000,144.000000,0.000000,0.000000,0.000000,1647160708.493619,0.000000
254.000000,-8515.455844,875.339016,-19893.946635,-18974.239406,107.802464,46212.589289,27360.301001,1165.978750,0.188000,0.978000,0.082000,192.000000,0.000000,0.000000,0.000000,0.000000,0.000000,0.000000,0.000000,0.000000,0.000000,1647160708.493622,0.000000
255.000000,-8516.685190,875.875458,-19890.571522,-18972.540673,110.372914,46214.958574,27345.973533,1168.236276,0.188000,0.978000,0.082000,192.000000,0.000000,0.000000,0.000000,0.000000,0.000000,0.000000,0.000000,0.000000,0.000000,1647160708.501638,0.000000
0.000000,-8513.488890,876.747176,-19885.721193,-18966.371592,112.116350,46217.439618,27331.288437,1173.108956,0.188000,0.978000,0.082000,192.000000,0.000000,0.000000,0.000000,0.000000,0.000000,0.000000,0.000000,0.000000,0.000000,1647160708.501642,0.000000
1.000000,-8522.541347,863.470240,-19894.930112,-18977.033374,107.422484,46223.429885,27331.131975,1172.863087,0.188000,0.978000,0.082000,192.000000,0.000000,0.000000,0.000000,0.000000,0.000000,0.000000,0.000000,0.000000,0.000000,1647160708.508359,0.000000
2.000000,-8498.267352,885.374950,-19873.651251,-18950.770074,116.430237,46215.360906,27304.086364,1172.281941,0.188000,0.978000,0.082000,192.000000,0.000000,0.000000,0.000000,0.000000,0.000000,0.000000,0.000000,0.000000,0.000000,1647160708.508363,0.000000
3.000000,-8491.405367,891.566383,-19867.996260,-18944.243365,130.422429,46220.077124,27293.446933,1187.794052,0.188000,0.978000,0.082000,192.000000,0.000000,0.000000,0.000000,0.000000,0.000000,0.000000,0.000000,0.000000,0.000000,1647160708.516342,0.000000
4.000000,-8488.767861,891.700493,-19867.281004,-18947.283202,134.356336,46224.145141,27290.608262,1178.026340,0.188000,0.978000,0.082000,192.000000,0.000000,0.000000,0.000000,0.000000,0.000000,0.000000,0.000000,0.000000,0.000000,1647160708.516346,0.000000
5.000000,-8486.756204,887.386607,-19862.855358,-18945.785635,133.015231,46224.994507,27280.840550,1196.757102,0.188000,0.978000,0.082000,192.000000,0.000000,0.000000,0.000000,0.000000,0.000000,0.000000,0.000000,0.000000,0.000000,1647160708.524248,0.000000
6.000000,-8488.164364,882.469223,-19861.402495,-18941.739969,139.944272,46234.538702,27282.338116,1223.534491,0.188000,0.978000,0.082000,192.000000,0.000000,0.000000,0.000000,0.000000,0.000000,0.000000,0.000000,0.000000,0.000000,1647160708.524252,0.000000
7.000000,-8499.653161,870.667502,-19873.494789,-18955.642755,138.536112,46235.231606,27280.661736,1222.483959,0.186000,0.984000,0.078000,192.000000,5.000000,208.000000,30.000000,192.000000,2.000000,112.000000,0.000000,0.000000,0.000000,1647160708.531304,0.000000
8.000000,-8502.178908,868.208810,-19874.925300,-18956.179196,132.881121,46232.437638,27271.542224,1219.175901,0.186000,0.984000,0.078000,192.000000,0.000000,0.000000,0.000000,0.000000,0.000000,0.000000,0.000000,0.000000,0.000000,1647160708.539393,0.000000
9.000000,-8499.787271,869.996949,-19873.807713,-18952.781731,128.120199,46222.424057,27247.983485,1219.935861,0.186000,0.984000,0.078000,192.000000,0.000000,0.000000,0.000000,0.000000,0.000000,0.000000,0.000000,0.000000,0.000000,1647160708.539397,0.000000
10.000000,-8490.019559,880.323455,-19865.872844,-18944.556289,132.948176,46224.882749,27242.283790,1239.046602,0.186000,0.984000,0.078000,192.000000,0.000000,0.000000,0.000000,0.000000,0.000000,0.000000,0.000000,0.000000,0.000000,1647160708.546561,0.000000
11.000000,-8496.836841,876.590714,-19869.002088,-18943.796330,137.709098,46239.344327,27262.623878,1255.184562,0.186000,0.984000,0.078000,192.000000,0.000000,0.000000,0.000000,0.000000,0.000000,0.000000,0.000000,0.000000,0.000000,1647160708.546566,0.000000
12.000000,-8491.830050,882.044540,-19865.604623,-18940.488272,138.469057,46240.663080,27264.166148,1255.765707,0.186000,0.984000,0.078000,192.000000,0.000000,0.000000,0.000000,0.000000,0.000000,0.000000,0.000000,0.000000,0.000000,1647160708.553957,0.000000
13.000000,-8493.953466,876.031920,-19869.292661,-18948.043161,133.842246,46236.148028,27253.057331,1256.257445,0.186000,0.984000,0.078000,192.000000,0.000000,0.000000,0.000000,0.000000,0.000000,0.000000,0.000000,0.000000,0.000000,1647160708.553960,0.000000
14.000000,-8518.875661,850.193304,-19890.415059,-18976.452229,114.552690,46225.396839,27242.552011,1239.806561,0.186000,0.984000,0.078000,192.000000,0.000000,0.000000,0.000000,0.000000,0.000000,0.000000,0.000000,0.000000,0.000000,1647160708.562366,0.000000
15.000000,-8512.348951,853.903693,-19882.748411,-18966.170426,109.814121,46210.845853,27218.903866,1235.179750,0.186000,0.984000,0.078000,192.000000,0.000000,0.000000,0.000000,0.000000,0.000000,0.000000,0.000000,0.000000,0.000000,1647160708.562369,0.000000
16.000000,-8516.595783,848.226350,-19886.838780,-18971.043106,121.705249,46224.279252,27231.867877,1254.357547,0.186000,0.984000,0.078000,192.000000,0.000000,0.000000,0.000000,0.000000,0.000000,0.000000,0.000000,0.000000,0.000000,1647160708.568641,0.000000
17.000000,-8524.173024,842.347842,-19894.840705,-18976.653394,127.740220,46244.954615,27262.176843,1260.861905,0.192000,0.978000,0.078000,192.000000,6.000000,0.000000,30.000000,144.000000,2.000000,112.000000,0.000000,0.000000,0.000000,1647160708.568644,0.000000
18.000000,-8514.941754,847.712260,-19889.789211,-18967.779752,119.648888,46237.198560,27249.436349,1247.629672,0.192000,0.978000,0.078000,192.000000,0.000000,0.000000,0.000000,0.000000,0.000000,0.000000,0.000000,0.000000,0.000000,1647160708.576589,0.000000
19.000000,-8510.739626,854.864818,-19886.458801,-18964.650508,121.414676,46233.063487,27238.104014,1249.440163,0.192000,0.978000,0.078000,192.000000,0.000000,0.000000,0.000000,0.000000,0.000000,0.000000,0.000000,0.000000,0.000000,1647160708.576592,0.000000
20.000000,-8516.104044,852.495534,-19891.175019,-18969.858464,124.230996,46239.187865,27249.324590,1254.782230,0.192000,0.978000,0.078000,192.000000,0.000000,0.000000,0.000000,0.000000,0.000000,0.000000,0.000000,0.000000,0.000000,1647160708.584590,0.000000
21.000000,-8513.310076,852.204961,-19887.956367,-18969.031449,121.325269,46236.103324,27244.295447,1247.987300,0.192000,0.978000,0.078000,192.000000,0.000000,0.000000,0.000000,0.000000,0.000000,0.000000,0.000000,0.000000,0.000000,1647160708.584594,0.000000
22.000000,-8513.421835,850.640339,-19884.871827,-18969.858464,124.253347,46232.661156,27238.081662,1245.416849,0.192000,0.978000,0.078000,192.000000,0.000000,0.000000,0.000000,0.000000,0.000000,0.000000,0.000000,0.000000,0.000000,1647160708.590742,0.000000
23.000000,-8519.501510,843.912464,-19888.604568,-18975.759325,127.270833,46239.791362,27243.334322,1256.525666,0.192000,0.978000,0.078000,192.000000,0.000000,0.000000,0.000000,0.000000,0.000000,0.000000,0.000000,0.000000,0.000000,1647160708.598124,0.000000
24.000000,-8517.445149,848.561627,-19883.955405,-18975.267586,124.767438,46244.999319,27246.575325,1256.235094,0.192000,0.978000,0.078000,192.000000,0.000000,0.000000,0.000000,0.000000,0.000000,0.000000,0.000000,0.000000,0.000000,1647160708.598128,0.000000
25.000000,-8523.435417,848.628682,-19884.424792,-18973.591205,124.387458,46249.000281,27248.899907,1263.901742,0.192000,0.978000,0.078000,192.000000,0.000000,0.000000,0.000000,0.000000,0.000000,0.000000,0.000000,0.000000,0.000000,1647160708.606242,0.000000
26.000000,-8533.024315,839.710336,-19896.651196,-18981.011984,124.432161,46257.337482,27268.994125,1272.998902,0.192000,0.978000,0.078000,192.000000,0.000000,0.000000,0.000000,0.000000,0.000000,0.000000,0.000000,0.000000,0.000000,1647160708.606246,0.000000
27.000000,-8521.580222,847.824019,-19891.018556,-18968.070324,125.348583,46250.296682,27264.412017,1255.072803,0.192000,0.980000,0.072000,192.000000,6.000000,0.000000,30.000000,160.000000,2.000000,64.000000,0.000000,0.000000,0.000000,1647160708.614190,0.000000
28.000000,-8508.236230,857.368214,-19877.942786,-18953.407580,128.209606,46238.785534,27242.753177,1249.082535,0.192000,0.980000,0.072000,192.000000,0.000000,0.000000,0.000000,0.000000,0.000000,0.000000,0.000000,0.000000,0.000000,1647160708.614194,0.000000
29.000000,-8510.113777,857.211752,-19882.077859,-18956.939156,136.099772,46243.166476,27244.697779,1265.198143,0.192000,0.980000,0.072000,192.000000,0.000000,0.000000,0.000000,0.000000,0.000000,0.000000,0.000000,0.000000,0.000000,1647160708.620814,0.000000
30.000000,-8510.158480,857.479973,-19883.754240,-18954.122836,137.798505,46248.910874,27251.872689,1278.430376,0.192000,0.980000,0.072000,192.000000,0.000000,0.000000,0.000000,0.000000,0.000000,0.000000,0.000000,0.000000,0.000000,1647160708.620817,0.000000
31.000000,-8509.979666,852.875513,-19883.709536,-18956.782693,139.184313,46253.492982,27256.611259,1275.479946,0.192000,0.980000,0.072000,192.000000,0.000000,0.000000,0.000000,0.000000,0.000000,0.000000,0.000000,0.000000,0.000000,1647160708.628936,0.000000
32.000000,-8515.008809,844.873589,-19888.045774,-18966.058667,139.318423,46262.053700,27262.847395,1268.282684,0.192000,0.980000,0.072000,192.000000,0.000000,0.000000,0.000000,0.000000,0.000000,0.000000,0.000000,0.000000,0.000000,1647160708.628939,0.000000
33.000000,-8516.171100,844.068926,-19888.850437,-18966.863330,126.309708,46251.794249,27241.792052,1252.994091,0.192000,0.980000,0.072000,192.000000,0.000000,0.000000,0.000000,0.000000,0.000000,0.000000,0.000000,0.000000,0.000000,1647160708.636952,0.000000
34.000000,-8509.912611,851.824981,-19880.669699,-18956.536824,122.822836,46237.533836,27212.198342,1256.168038,0.192000,0.980000,0.072000,192.000000,0.000000,0.000000,0.000000,0.000000,0.000000,0.000000,0.000000,0.000000,0.000000,1647160708.636956,0.000000
35.000000,-8509.957315,851.243836,-19871.259614,-18954.413409,128.388420,46240.037231,27207.772697,1276.351664,0.192000,0.980000,0.072000,192.000000,0.000000,0.000000,0.000000,0.000000,0.000000,0.000000,0.000000,0.000000,0.000000,1647160708.643477,0.000000
36.000000,-8503.877640,853.143734,-19861.156626,-18940.443568,134.378688,46236.170380,27196.239197,1284.644161,0.192000,0.980000,0.072000,192.000000,0.000000,0.000000,0.000000,0.000000,0.000000,0.000000,0.000000,0.000000,0.000000,1647160708.643481,0.000000
37.000000,-8511.007847,846.505266,-19867.169245,-18945.875042,145.152228,46246.318072,27208.622063,1299.575126,0.192000,0.980000,0.072000,192.000000,0.000000,0.000000,0.000000,0.000000,0.000000,0.000000,0.000000,0.000000,0.000000,1647160708.650496,0.000000
38.000000,-8514.114739,840.827923,-19871.661946,-18955.553348,133.462266,46238.986699,27198.072040,1293.338989,0.190000,0.980000,0.074000,192.000000,5.000000,240.000000,30.000000,160.000000,2.000000,80.000000,0.000000,0.000000,0.000000,1647160708.650500,0.000000
39.000000,-8509.778501,844.091278,-19867.035135,-18946.545595,137.820856,46234.829275,27185.935043,1289.762710,0.190000,0.980000,0.074000,192.000000,0.000000,0.000000,0.000000,0.000000,0.000000,0.000000,0.000000,0.000000,0.000000,1647160708.658444,0.000000
40.000000,-8510.113777,839.978557,-19867.392763,-18950.233632,140.301900,46237.757354,27187.119685,1289.472138,0.190000,0.980000,0.074000,192.000000,0.000000,0.000000,0.000000,0.000000,0.000000,0.000000,0.000000,0.000000,0.000000,1647160708.666633,0.000000
41.000000,-8510.829033,838.257472,-19869.516178,-18950.501853,144.034641,46244.507580,27192.104124,1289.941524,0.190000,0.980000,0.074000,192.000000,0.000000,0.000000,0.000000,0.000000,0.000000,0.000000,0.000000,0.000000,0.000000,1647160708.666637,0.000000
42.000000,-8501.284838,848.092240,-19861.827178,-18941.292935,149.488467,46243.658214,27186.516188,1276.575181,0.190000,0.980000,0.074000,192.000000,0.000000,0.000000,0.000000,0.000000,0.000000,0.000000,0.000000,0.000000,0.000000,1647160708.673247,0.000000
43.000000,-8504.995227,846.885246,-19867.281004,-18951.552385,151.522476,46253.470630,27195.099258,1278.162155,0.190000,0.980000,0.074000,192.000000,0.000000,0.000000,0.000000,0.000000,0.000000,0.000000,0.000000,0.000000,0.000000,1647160708.673256,0.000000
44.000000,-8500.591934,849.813324,-19865.425809,-18948.132568,151.634234,46262.836011,27208.130325,1285.337065,0.190000,0.980000,0.074000,192.000000,0.000000,0.000000,0.000000,0.000000,0.000000,0.000000,0.000000,0.000000,0.000000,1647160708.681047,0.000000
45.000000,-8490.734814,859.111650,-19856.306297,-18936.822586,153.891761,46261.494906,27205.559874,1285.091196,0.190000,0.980000,0.074000,192.000000,0.000000,0.000000,0.000000,0.000000,0.000000,0.000000,0.000000,0.000000,0.000000,1647160708.681051,0.000000
46.000000,-8503.072977,845.633548,-19865.023478,-18947.283202,143.744069,46255.549342,27203.883493,1278.966818,0.190000,0.980000,0.074000,192.000000,0.000000,0.000000,0.000000,0.000000,0.000000,0.000000,0.000000,0.000000,0.000000,1647160708.689210,0.000000
47.000000,-8497.060358,850.103897,-19856.775684,-18942.209356,144.705194,46250.766069,27197.915578,1280.240867,0.190000,0.980000,0.074000,192.000000,0.000000,0.000000,0.000000,0.000000,0.000000,0.000000,0.000000,0.000000,0.000000,1647160708.689215,0.000000
48.000000,-8500.301361,846.617025,-19859.212024,-18946.612650,145.889836,46254.454107,27203.458810,1294.680094,0.186000,0.976000,0.080000,192.000000,5.000000,208.000000,30.000000,128.000000,2.000000,128.000000,0.000000,0.000000,0.000000,1647160708.696237,0.000000
49.000000,-8499.340236,846.438211,-19861.782475,-18945.517414,137.195007,46248.642653,27198.899054,1286.767577,0.186000,0.976000,0.080000,192.000000,0.000000,0.000000,0.000000,0.000000,0.000000,0.000000,0.000000,0.000000,0.000000,1647160708.696240,0.000000
50.000000,-8504.883469,840.202074,-19871.416077,-18952.558214,135.988013,46247.435659,27203.235293,1275.189373,0.186000,0.976000,0.080000,192.000000,0.000000,0.000000,0.000000,0.000000,0.000000,0.000000,0.000000,0.000000,0.000000,1647160708.703781,0.000000
51.000000,-8505.934001,837.095182,-19872.980699,-18954.815740,138.312595,46253.940017,27218.456831,1286.253486,0.186000,0.976000,0.080000,192.000000,0.000000,0.000000,0.000000,0.000000,0.000000,0.000000,0.000000,0.000000,0.000000,1647160708.703786,0.000000
52.000000,-8497.641504,844.515961,-19864.956422,-18945.137435,142.849999,46242.987662,27209.940816,1281.447861,0.186000,0.976000,0.080000,192.000000,0.000000,0.000000,0.000000,0.000000,0.000000,0.000000,0.000000,0.000000,0.000000,1647160708.711738,0.000000
53.000000,-8500.860155,840.425592,-19865.269347,-18948.467845,142.224150,46239.299624,27207.862104,1273.580047,0.186000,0.976000,0.080000,192.000000,0.000000,0.000000,0.000000,0.000000,0.000000,0.000000,0.000000,0.000000,0.000000,1647160708.711743,0.000000
54.000000,-8505.777539,836.983423,-19872.421905,-18956.447417,137.977319,46238.897292,27208.800877,1267.925056,0.186000,0.976000,0.080000,192.000000,0.000000,0.000000,0.000000,0.000000,0.000000,0.000000,0.000000,0.000000,0.000000,1647160708.718814,0.000000
55.000000,-8513.310076,830.836693,-19881.966100,-18959.911938,139.877217,46254.007072,27229.409186,1285.426472,0.186000,0.976000,0.080000,192.000000,0.000000,0.000000,0.000000,0.000000,0.000000,0.000000,0.000000,0.000000,0.000000,1647160708.725915,0.000000
56.000000,-8516.864004,822.633603,-19886.212931,-18965.544577,134.311632,46267.440470,27255.314857,1304.157234,0.186000,0.976000,0.080000,192.000000,0.000000,0.000000,0.000000,0.000000,0.000000,0.000000,0.000000,0.000000,0.000000,1647160708.725918,0.000000
57.000000,-8516.886356,818.409123,-19886.905835,-18968.115028,124.096885,46250.296682,27241.479128,1290.321504,0.186000,0.976000,0.080000,192.000000,0.000000,0.000000,0.000000,0.000000,0.000000,0.000000,0.000000,0.000000,0.000000,1647160708.733296,0.000000
58.000000,-8508.325637,824.757019,-19882.480190,-18962.638851,126.756743,46240.663080,27233.946590,1288.086329,0.184000,0.964000,0.082000,192.000000,5.000000,192.000000,30.000000,32.000000,2.000000,144.000000,0.000000,0.000000,0.000000,1647160708.733300,0.000000
59.000000,-8499.563754,833.340089,-19876.445219,-18955.441589,134.848074,46239.254920,27230.415014,1292.668437,0.184000,0.964000,0.082000,192.000000,0.000000,0.000000,0.000000,0.000000,0.000000,0.000000,0.000000,0.000000,0.000000,1647160708.741411,0.000000
60.000000,-8507.722140,827.550987,-19880.535588,-18958.101446,131.115333,46233.041135,27223.597732,1287.952219,0.184000,0.964000,0.082000,192.000000,0.000000,0.000000,0.000000,0.000000,0.000000,0.000000,0.000000,0.000000,0.000000,1647160708.741430,0.000000
61.000000,-8520.954373,811.368324,-19886.615263,-18969.411429,122.666374,46227.632013,27223.441270,1281.224344,0.184000,0.964000,0.082000,192.000000,0.000000,0.000000,0.000000,0.000000,0.000000,0.000000,0.000000,0.000000,0.000000,1647160708.748419,0.000000
62.000000,-8520.507338,810.787178,-19888.783382,-18970.484313,127.539054,46231.901196,27230.817345,1287.281667,0.184000,0.964000,0.082000,192.000000,0.000000,0.000000,0.000000,0.000000,0.000000,0.000000,0.000000,0.000000,0.000000,1647160708.748422,0.000000
63.000000,-8531.303231,802.517033,-19903.848458,-18983.224807,127.851978,46248.463839,27259.472282,1294.568335,0.184000,0.964000,0.082000,192.000000,0.000000,0.000000,0.000000,0.000000,0.000000,0.000000,0.000000,0.000000,0.000000,1647160708.756069,0.000000
64.000000,-8530.230347,802.718199,-19906.821240,-18983.090697,118.173673,46244.328766,27262.042732,1278.676245,0.184000,0.964000,0.082000,192.000000,0.000000,0.000000,0.000000,0.000000,0.000000,0.000000,0.000000,0.000000,0.000000,1647160708.756074,0.000000
65.000000,-8510.806681,818.140902,-19884.693013,-18964.538749,125.974432,46239.947824,27249.793977,1275.703463,0.184000,0.964000,0.082000,192.000000,0.000000,0.000000,0.000000,0.000000,0.000000,0.000000,0.000000,0.000000,0.000000,1647160708.763964,0.000000
66.000000,-8500.949562,824.287632,-19873.003050,-18958.459074,138.469057,46249.089688,27260.299296,1289.628600,0.184000,0.964000,0.082000,192.000000,0.000000,0.000000,0.000000,0.000000,0.000000,0.000000,0.000000,0.000000,0.000000,1647160708.763968,0.000000
67.000000,-8506.224573,818.878510,-19878.881559,-18962.594147,143.185275,46259.192676,27279.208872,1295.484757,0.184000,0.964000,0.082000,192.000000,0.000000,0.000000,0.000000,0.000000,0.000000,0.000000,0.000000,0.000000,0.000000,1647160708.772068,0.000000
68.000000,-8513.377132,809.401370,-19885.989414,-18971.847769,131.428257,46252.755374,27275.140855,1284.979437,0.184000,0.958000,0.080000,192.000000,5.000000,192.000000,29.000000,240.000000,2.000000,128.000000,0.000000,0.000000,0.000000,1647160708.772072,0.000000
69.000000,-8517.042818,807.188548,-19887.732850,-18975.871083,123.605147,46244.596987,27264.054389,1277.089271,0.184000,0.958000,0.080000,192.000000,0.000000,0.000000,0.000000,0.000000,0.000000,0.000000,0.000000,0.000000,0.000000,1647160708.778274,0.000000
70.000000,-8514.852347,807.657934,-19884.938882,-18964.628156,125.572100,46243.211179,27261.774512,1271.456632,0.184000,0.958000,0.080000,192.000000,0.000000,0.000000,0.000000,0.000000,0.000000,0.000000,0.000000,0.000000,0.000000,1647160708.785664,0.000000
71.000000,-8510.113777,808.373190,-19882.524894,-18962.571795,130.936519,46241.467743,27259.137006,1268.036815,0.184000,0.958000,0.080000,192.000000,0.000000,0.000000,0.000000,0.000000,0.000000,0.000000,0.000000,0.000000,0.000000,1647160708.785668,0.000000
72.000000,-8510.337294,811.301268,-19885.497676,-18965.186949,139.698403,46251.414269,27273.687991,1271.233114,0.184000,0.958000,0.080000,192.000000,0.000000,0.000000,0.000000,0.000000,0.000000,0.000000,0.000000,0.000000,0.000000,1647160708.793692,0.000000
73.000000,-8509.465576,810.898937,-19882.457838,-18966.840978,134.982185,46249.536723,27274.537358,1270.741376,0.184000,0.958000,0.080000,192.000000,0.000000,0.000000,0.000000,0.000000,0.000000,0.000000,0.000000,0.000000,0.000000,1647160708.793695,0.000000
74.000000,-8504.481137,813.178815,-19881.899045,-18966.729220,137.887912,46258.857400,27285.869692,1282.811318,0.184000,0.958000,0.080000,192.000000,0.000000,0.000000,0.000000,0.000000,0.000000,0.000000,0.000000,0.000000,0.000000,1647160708.801736,0.000000
75.000000,-8501.396597,811.681248,-19883.575426,-18966.483351,138.334946,46270.994398,27299.660718,1294.635391,0.184000,0.958000,0.080000,192.000000,0.000000,0.000000,0.000000,0.000000,0.000000,0.000000,0.000000,0.000000,0.000000,1647160708.801740,0.000000
76.000000,-8503.743530,805.981553,-19888.850437,-18972.160694,136.479752,46280.426834,27313.563503,1299.664533,0.184000,0.958000,0.080000,192.000000,0.000000,0.000000,0.000000,0.000000,0.000000,0.000000,0.000000,0.000000,0.000000,1647160708.808321,0.000000
77.000000,-8507.185698,804.349876,-19889.789211,-18975.602862,133.417563,46278.258714,27316.156306,1287.751053,0.184000,0.958000,0.080000,192.000000,0.000000,0.000000,0.000000,0.000000,0.000000,0.000000,0.000000,0.000000,0.000000,1647160708.808325,0.000000
78.000000,-8501.754225,815.548100,-19882.882521,-18964.650508,131.919996,46263.931246,27298.654890,1276.932809,0.192000,0.962000,0.072000,192.000000,6.000000,0.000000,30.000000,16.000000,2.000000,64.000000,0.000000,0.000000,0.000000,1647160708.816347,0.000000
79.000000,-8507.275105,817.246833,-19889.051603,-18971.132513,132.948176,46259.460897,27295.078611,1274.898800,0.192000,0.962000,0.072000,192.000000,0.000000,0.000000,0.000000,0.000000,0.000000,0.000000,0.000000,0.000000,0.000000,1647160708.816350,0.000000
80.000000,-8507.565678,817.380943,-19889.141010,-18967.511531,136.122124,46262.880714,27298.587835,1280.374978,0.192000,0.962000,0.072000,192.000000,0.000000,0.000000,0.000000,0.000000,0.000000,0.000000,0.000000,0.000000,0.000000,1647160708.824668,0.000000
81.000000,-8512.639524,809.535481,-19888.850437,-18969.679650,130.847112,46261.606665,27300.644195,1267.075690,0.192000,0.962000,0.072000,192.000000,0.000000,0.000000,0.000000,0.000000,0.000000,0.000000,0.000000,0.000000,0.000000,1647160708.824674,0.000000
82.000000,-8505.531669,817.090370,-19880.133257,-18964.717563,130.713002,46244.149952,27272.458645,1252.681166,0.192000,0.962000,0.072000,192.000000,0.000000,0.000000,0.000000,0.000000,0.000000,0.000000,0.000000,0.000000,0.000000,1647160708.832048,0.000000
83.000000,-8508.258582,819.683173,-19882.703708,-18963.287051,141.665356,46255.616397,27282.449875,1283.526574,0.192000,0.962000,0.072000,192.000000,0.000000,0.000000,0.000000,0.000000,0.000000,0.000000,0.000000,0.000000,0.000000,1647160708.832064,0.000000
84.000000,-8510.471405,818.029144,-19884.715365,-18968.807932,137.239711,46259.930284,27287.814294,1300.737417,0.192000,0.962000,0.072000,192.000000,0.000000,0.000000,0.000000,0.000000,0.000000,0.000000,0.000000,0.000000,0.000000,1647160708.838392,0.000000
85.000000,-8507.006884,818.699696,-19882.211969,-18968.047973,130.265967,46255.325825,27278.739486,1291.573202,0.192000,0.962000,0.072000,192.000000,0.000000,0.000000,0.000000,0.000000,0.000000,0.000000,0.000000,0.000000,0.000000,1647160708.846457,0.000000
86.000000,-8504.034102,822.343030,-19880.110905,-18963.309403,130.735353,46258.186848,27278.359506,1292.556678,0.192000,0.962000,0.072000,192.000000,0.000000,0.000000,0.000000,0.000000,0.000000,0.000000,0.000000,0.000000,0.000000,1647160708.846493,0.000000
87.000000,-8514.472367,815.950431,-19888.559865,-18974.261758,136.479752,46270.525011,27295.123314,1295.551812,0.192000,0.962000,0.072000,192.000000,0.000000,0.000000,0.000000,0.000000,0.000000,0.000000,0.000000,0.000000,0.000000,1647160708.854330,0.000000
88.000000,-8515.232326,813.737609,-19887.509333,-18977.212188,132.568196,46273.833069,27300.018346,1293.361341,0.188000,0.952000,0.062000,192.000000,5.000000,224.000000,29.000000,192.000000,1.000000,240.000000,0.000000,0.000000,0.000000,1647160708.854346,0.000000
89.000000,-8518.383922,809.758998,-19891.085612,-18984.722374,133.596377,46274.615380,27305.807448,1288.913344,0.188000,0.952000,0.062000,192.000000,0.000000,0.000000,0.000000,0.000000,0.000000,0.000000,0.000000,0.000000,0.000000,1647160708.861503,0.000000
90.000000,-8517.802777,806.920327,-19887.844609,-18980.095563,132.568196,46270.927342,27299.616015,1276.083443,0.188000,0.952000,0.062000,192.000000,0.000000,0.000000,0.000000,0.000000,0.000000,0.000000,0.000000,0.000000,0.000000,1647160708.861520,0.000000
91.000000,-8524.821225,798.314905,-19891.778516,-18984.834133,131.562368,46279.085729,27314.926960,1275.457594,0.188000,0.952000,0.062000,192.000000,0.000000,0.000000,0.000000,0.000000,0.000000,0.000000,0.000000,0.000000,0.000000,1647160708.870481,0.000000
92.000000,-8518.719199,804.841614,-19887.218760,-18981.950758,131.964699,46273.229572,27305.405117,1266.159268,0.188000,0.952000,0.062000,192.000000,0.000000,0.000000,0.000000,0.000000,0.000000,0.000000,0.000000,0.000000,0.000000,1647160708.870498,0.000000
93.000000,-8523.077789,801.757074,-19892.024385,-18991.047918,130.668298,46277.252886,27304.198123,1268.662664,0.188000,0.952000,0.062000,192.000000,0.000000,0.000000,0.000000,0.000000,0.000000,0.000000,0.000000,0.000000,0.000000,1647160708.877062,0.000000
94.000000,-8518.607440,802.941716,-19888.559865,-18987.046955,124.253347,46278.482232,27298.833704,1262.135954,0.188000,0.952000,0.062000,192.000000,0.000000,0.000000,0.000000,0.000000,0.000000,0.000000,0.000000,0.000000,0.000000,1647160708.877078,0.000000
95.000000,-8511.454882,805.199242,-19884.648309,-18977.391002,117.525472,46272.201392,27282.829855,1255.564541,0.188000,0.952000,0.062000,192.000000,0.000000,0.000000,0.000000,0.000000,0.000000,0.000000,0.000000,0.000000,0.000000,1647160708.885104,0.000000
96.000000,-8510.337294,799.745417,-19884.402440,-18976.876912,115.267946,46268.289836,27273.173901,1253.061146,0.188000,0.952000,0.062000,192.000000,0.000000,0.000000,0.000000,0.000000,0.000000,0.000000,0.000000,0.000000,0.000000,1647160708.885120,0.000000
97.000000,-8501.463652,808.507300,-19878.948614,-18966.729220,121.951118,46259.304435,27253.012628,1246.400326,0.188000,0.952000,0.062000,192.000000,0.000000,0.000000,0.000000,0.000000,0.000000,0.000000,0.000000,0.000000,0.000000,1647160708.891715,0.000000
98.000000,-8497.797966,814.274051,-19877.786324,-18958.123798,131.405906,46270.323845,27254.331381,1255.229265,0.200000,0.970000,0.062000,192.000000,6.000000,64.000000,30.000000,80.000000,1.000000,240.000000,0.000000,0.000000,0.000000,1647160708.891731,0.000000
99.000000,-8493.484079,815.279879,-19880.557940,-18961.923595,133.998708,46277.297589,27252.587945,1264.728757,0.200000,0.970000,0.062000,192.000000,0.000000,0.000000,0.000000,0.000000,0.000000,0.000000,0.000000,0.000000,0.000000,1647160708.898710,0.000000
100.000000,-8506.582201,794.470405,-19891.175019,-18977.838037,126.801446,46281.723235,27255.672485,1263.454707,0.200000,0.970000,0.062000,192.000000,0.000000,0.000000,0.000000,0.000000,0.000000,0.000000,0.000000,0.000000,0.000000,1647160708.898727,0.000000
101.000000,-8522.854271,778.019521,-19899.042833,-18992.858409,116.586699,46285.053645,27260.098131,1259.654911,0.200000,0.970000,0.062000,192.000000,0.000000,0.000000,0.000000,0.000000,0.000000,0.000000,0.000000,0.000000,0.000000,1647160708.906751,0.000000
102.000000,-8514.271201,788.480137,-19892.538475,-18986.778735,117.190196,46282.147918,27246.418863,1255.743355,0.200000,0.970000,0.062000,192.000000,0.000000,0.000000,0.000000,0.000000,0.000000,0.000000,0.000000,0.000000,0.000000,1647160708.913719,0.000000
103.000000,-8506.313980,795.096254,-19892.225551,-18984.141229,122.152283,46287.177061,27241.680293,1257.017405,0.200000,0.970000,0.062000,192.000000,0.000000,0.000000,0.000000,0.000000,0.000000,0.000000,0.000000,0.000000,0.000000,1647160708.913735,0.000000
104.000000,-8508.616210,790.715312,-19895.041870,-18984.744726,113.144530,46281.991456,27224.715319,1257.978530,0.200000,0.970000,0.062000,192.000000,0.000000,0.000000,0.000000,0.000000,0.000000,0.000000,0.000000,0.000000,0.000000,1647160708.921253,0.000000
105.000000,-8503.296495,796.325600,-19887.330519,-18973.635909,115.893795,46276.939962,27206.565703,1256.056280,0.200000,0.970000,0.062000,192.000000,0.000000,0.000000,0.000000,0.000000,0.000000,0.000000,0.000000,0.000000,0.000000,1647160708.921269,0.000000
106.000000,-8502.692998,795.230364,-19879.440353,-18964.605804,119.313612,46270.860287,27190.405392,1259.990187,0.200000,0.970000,0.062000,192.000000,0.000000,0.000000,0.000000,0.000000,0.000000,0.000000,0.000000,0.000000,0.000000,1647160708.929372,0.000000
107.000000,-8506.828071,794.783329,-19879.149780,-18963.354106,133.954005,46278.817508,27197.669708,1274.407062,0.200000,0.970000,0.062000,192.000000,0.000000,0.000000,0.000000,0.000000,0.000000,0.000000,0.000000,0.000000,0.000000,1647160708.929406,0.000000
108.000000,-8507.453919,791.832899,-19878.434524,-18964.695211,132.054106,46277.431700,27195.792162,1261.510105,0.196000,0.970000,0.060000,192.000000,6.000000,32.000000,30.000000,80.000000,1.000000,224.000000,0.000000,0.000000,0.000000,1647160708.937396,0.000000
109.000000,-8499.742568,795.923268,-19871.304318,-18960.224862,127.539054,46262.456031,27169.841787,1244.232207,0.196000,0.970000,0.060000,192.000000,0.000000,0.000000,0.000000,0.000000,0.000000,0.000000,0.000000,0.000000,0.000000,1647160708.937413,0.000000
110.000000,-8498.356759,798.270201,-19872.131332,-18957.095618,125.795618,46255.281121,27152.988571,1249.194294,0.196000,0.970000,0.060000,192.000000,0.000000,0.000000,0.000000,0.000000,0.000000,0.000000,0.000000,0.000000,0.000000,1647160708.944035,0.000000
111.000000,-8500.569582,794.246887,-19876.646385,-18961.856539,134.401039,46268.446299,27165.147920,1276.686940,0.196000,0.970000,0.060000,192.000000,0.000000,0.000000,0.000000,0.000000,0.000000,0.000000,0.000000,0.000000,0.000000,1647160708.944051,0.000000
112.000000,-8511.209012,781.372283,-19886.458801,-18976.273415,138.290243,46285.523031,27190.494798,1287.616943,0.196000,0.970000,0.060000,192.000000,0.000000,0.000000,0.000000,0.000000,0.000000,0.000000,0.000000,0.000000,0.000000,1647160708.951916,0.000000
113.000000,-8522.295478,768.050643,-19895.757126,-18992.031394,126.197949,46288.607572,27200.307214,1276.329312,0.196000,0.970000,0.060000,192.000000,0.000000,0.000000,0.000000,0.000000,0.000000,0.000000,0.000000,0.000000,0.000000,1647160708.951933,0.000000
114.000000,-8527.570489,763.289721,-19900.629807,-18997.619331,118.464246,46290.149843,27209.359671,1258.246751,0.196000,0.970000,0.060000,192.000000,0.000000,0.000000,0.000000,0.000000,0.000000,0.000000,0.000000,0.000000,0.000000,1647160708.960028,0.000000
115.000000,-8526.698771,763.513239,-19897.992301,-18993.551313,110.976411,46287.668799,27209.538485,1248.322576,0.196000,0.970000,0.060000,192.000000,0.000000,0.000000,0.000000,0.000000,0.000000,0.000000,0.000000,0.000000,0.000000,1647160708.960044,0.000000
116.000000,-8512.974800,769.101175,-19884.715365,-18979.782639,113.300993,46279.912744,27197.155618,1244.969814,0.196000,0.970000,0.060000,192.000000,0.000000,0.000000,0.000000,0.000000,0.000000,0.000000,0.000000,0.000000,0.000000,1647160708.967060,0.000000
117.000000,-8507.722140,772.230419,-19880.245016,-18976.541636,121.168807,46270.770880,27185.577415,1242.488771,0.196000,0.970000,0.060000,192.000000,0.000000,0.000000,0.000000,0.000000,0.000000,0.000000,0.000000,0.000000,0.000000,1647160708.973680,0.000000
118.000000,-8517.735722,763.848515,-19893.633711,-18988.835095,121.548786,46276.761148,27192.260586,1258.470268,0.196000,0.974000,0.052000,192.000000,6.000000,32.000000,30.000000,112.000000,1.000000,160.000000,0.000000,0.000000,0.000000,1647160708.973696,0.000000
119.000000,-8516.707542,767.067166,-19894.371318,-18985.258816,114.843263,46269.586238,27177.776656,1257.598550,0.196000,0.974000,0.052000,192.000000,0.000000,0.000000,0.000000,0.000000,0.000000,0.000000,0.000000,0.000000,0.000000,1647160708.981580,0.000000
120.000000,-8504.995227,781.886373,-19879.306242,-18968.830284,119.157150,46261.494906,27151.647467,1259.140820,0.196000,0.974000,0.052000,192.000000,0.000000,0.000000,0.000000,0.000000,0.000000,0.000000,0.000000,0.000000,0.000000,1647160708.981596,0.000000
121.000000,-8499.899030,782.534573,-19876.042888,-18968.249138,127.539054,46268.133374,27143.690246,1270.964893,0.196000,0.974000,0.052000,192.000000,0.000000,0.000000,0.000000,0.000000,0.000000,0.000000,0.000000,0.000000,0.000000,1647160708.989545,0.000000
122.000000,-8509.264411,773.973855,-19888.068126,-18976.362822,136.032717,46281.030331,27152.362722,1271.076652,0.196000,0.974000,0.052000,192.000000,0.000000,0.000000,0.000000,0.000000,0.000000,0.000000,0.000000,0.000000,0.000000,1647160708.989561,0.000000
123.000000,-8514.584126,767.357739,-19892.694937,-18979.000327,129.975394,46282.662008,27150.261658,1271.300169,0.196000,0.974000,0.052000,192.000000,0.000000,0.000000,0.000000,0.000000,0.000000,0.000000,0.000000,0.000000,0.000000,1647160708.996623,0.000000
124.000000,-8506.045759,774.443242,-19882.010803,-18971.020755,128.634289,46276.090595,27134.123699,1271.456632,0.196000,0.974000,0.052000,192.000000,0.000000,0.000000,0.000000,0.000000,0.000000,0.000000,0.000000,0.000000,0.000000,1647160708.996640,0.000000
125.000000,-8504.637600,779.539440,-19879.842684,-18962.527092,137.262063,46279.152784,27130.055681,1276.374015,0.196000,0.974000,0.052000,192.000000,0.000000,0.000000,0.000000,0.000000,0.000000,0.000000,0.000000,0.000000,0.000000,1647160709.003983,0.000000
126.000000,-8511.656047,772.766861,-19889.051603,-18962.415333,136.435048,46283.936058,27135.889487,1263.477059,0.196000,0.974000,0.052000,192.000000,0.000000,0.000000,0.000000,0.000000,0.000000,0.000000,0.000000,0.000000,0.000000,1647160709.003994,0.000000
127.000000,-8505.263448,774.286780,-19885.363565,-18962.124760,136.367993,46281.142090,27131.083862,1259.386690,0.196000,0.974000,0.052000,192.000000,0.000000,0.000000,0.000000,0.000000,0.000000,0.000000,0.000000,0.000000,0.000000,1647160709.012058,0.000000
128.000000,-8497.485041,781.953428,-19873.204216,-18953.921670,141.799467,46284.003113,27122.344330,1284.688864,0.198000,0.972000,0.062000,192.000000,6.000000,48.000000,30.000000,96.000000,1.000000,240.000000,0.000000,0.000000,0.000000,1647160709.012069,0.000000
129.000000,-8503.765882,778.287742,-19875.014707,-18961.454208,144.772249,46289.233421,27117.985739,1277.670417,0.198000,0.972000,0.062000,192.000000,0.000000,0.000000,0.000000,0.000000,0.000000,0.000000,0.000000,0.000000,0.000000,1647160709.020267,0.000000
130.000000,-8516.618135,765.726062,-19886.324690,-18971.333679,131.897644,46284.181927,27106.385184,1267.030986,0.198000,0.972000,0.062000,192.000000,0.000000,0.000000,0.000000,0.000000,0.000000,0.000000,0.000000,0.000000,0.000000,1647160709.020283,0.000000
131.000000,-8514.651181,764.116736,-19882.144914,-18965.812798,129.818932,46275.509450,27086.559187,1267.254504,0.198000,0.972000,0.062000,192.000000,0.000000,0.000000,0.000000,0.000000,0.000000,0.000000,0.000000,0.000000,0.000000,1647160709.027268,0.000000
132.000000,-8515.433492,765.502544,-19882.524894,-18968.740877,138.223188,46286.908840,27101.087821,1277.916286,0.198000,0.972000,0.062000,192.000000,0.000000,0.000000,0.000000,0.000000,0.000000,0.000000,0.000000,0.000000,0.000000,1647160709.035286,0.000000
133.000000,-8502.625943,778.801832,-19871.013745,-18958.883757,132.344679,46277.118776,27084.458123,1269.847306,0.198000,0.972000,0.062000,192.000000,0.000000,0.000000,0.000000,0.000000,0.000000,0.000000,0.000000,0.000000,0.000000,1647160709.035302,0.000000
134.000000,-8508.035065,772.722158,-19878.166303,-18963.845845,130.802409,46275.978837,27080.121884,1269.713196,0.198000,0.972000,0.062000,192.000000,0.000000,0.000000,0.000000,0.000000,0.000000,0.000000,0.000000,0.000000,0.000000,1647160709.043390,0.000000
135.000000,-8514.427664,769.928190,-19886.302338,-18964.047010,127.986089,46285.791252,27092.281233,1286.499356,0.198000,0.972000,0.062000,192.000000,0.000000,0.000000,0.000000,0.000000,0.000000,0.000000,0.000000,0.000000,0.000000,1647160709.043407,0.000000
136.000000,-8516.864004,768.408271,-19886.257635,-18962.728258,124.387458,46282.393787,27087.252091,1291.975533,0.198000,0.972000,0.062000,192.000000,0.000000,0.000000,0.000000,0.000000,0.000000,0.000000,0.000000,0.000000,0.000000,1647160709.051081,0.000000
137.000000,-8519.814434,769.794079,-19890.012728,-18969.992574,125.750914,46278.079901,27079.004297,1282.498393,0.198000,0.972000,0.062000,192.000000,0.000000,0.000000,0.000000,0.000000,0.000000,0.000000,0.000000,0.000000,0.000000,1647160709.051097,0.000000
138.000000,-8505.397559,785.462652,-19873.248920,-18955.329830,131.629423,46273.184868,27064.229794,1274.831745,0.196000,0.960000,0.070000,192.000000,6.000000,32.000000,30.000000,0.000000,2.000000,48.000000,0.000000,0.000000,0.000000,1647160709.057455,0.000000
139.000000,-8500.301361,791.877603,-19864.241167,-18955.374534,143.699365,46282.259677,27064.319201,1280.263219,0.196000,0.960000,0.070000,192.000000,0.000000,0.000000,0.000000,0.000000,0.000000,0.000000,0.000000,0.000000,0.000000,1647160709.057471,0.000000
140.000000,-8512.170137,778.175983,-19876.042888,-18965.835150,137.865560,46284.964238,27058.261878,1272.820088,0.196000,0.960000,0.070000,192.000000,0.000000,0.000000,0.000000,0.000000,0.000000,0.000000,0.000000,0.000000,0.000000,1647160709.064473,0.000000
141.000000,-8506.269277,778.801832,-19867.929204,-18960.113103,136.345641,46279.510412,27034.144346,1260.705443,0.196000,0.960000,0.070000,192.000000,0.000000,0.000000,0.000000,0.000000,0.000000,0.000000,0.000000,0.000000,0.000000,1647160709.064489,0.000000
142.000000,-8513.779463,774.733815,-19874.500617,-18970.752534,144.973415,46289.076959,27030.478660,1265.175791,0.196000,0.960000,0.070000,192.000000,0.000000,0.000000,0.000000,0.000000,0.000000,0.000000,0.000000,0.000000,0.000000,1647160709.072494,0.000000
143.000000,-8522.541347,766.351910,-19883.038984,-18984.364746,132.389382,46289.814566,27024.846020,1254.335195,0.196000,0.960000,0.070000,192.000000,0.000000,0.000000,0.000000,0.000000,0.000000,0.000000,0.000000,0.000000,0.000000,1647160709.072510,0.000000
144.000000,-8515.724065,771.492812,-19876.378164,-18977.502761,121.906414,46273.430738,26988.211511,1252.412945,0.196000,0.960000,0.070000,192.000000,0.000000,0.000000,0.000000,0.000000,0.000000,0.000000,0.000000,0.000000,0.000000,1647160709.078921,0.000000
145.000000,-8515.031161,776.387844,-19880.356774,-18974.820551,124.409810,46273.006055,26972.162959,1262.337120,0.196000,0.960000,0.070000,192.000000,0.000000,0.000000,0.000000,0.000000,0.000000,0.000000,0.000000,0.000000,0.000000,1647160709.078937,0.000000
146.000000,-8516.707542,778.980646,-19885.184751,-18973.099467,127.024964,46278.973970,26966.418560,1279.950294,0.196000,0.960000,0.070000,192.000000,0.000000,0.000000,0.000000,0.000000,0.000000,0.000000,0.000000,0.000000,0.000000,1647160709.086157,0.000000
147.000000,-8514.807643,783.898030,-19888.515161,-18976.429877,133.752839,46286.752377,26967.647906,1290.097986,0.196000,0.960000,0.070000,192.000000,0.000000,0.000000,0.000000,0.000000,0.000000,0.000000,0.000000,0.000000,0.000000,1647160709.094116,0.000000
148.000000,-8511.745454,782.445166,-19878.099248,-18958.302612,130.601243,46276.291761,26937.405996,1291.550850,0.196000,0.960000,0.070000,192.000000,0.000000,0.000000,0.000000,0.000000,0.000000,0.000000,0.000000,0.000000,0.000000,1647160709.094132,0.000000
149.000000,-8522.407236,771.448108,-19876.087591,-18958.637888,134.579853,46268.468650,26908.795763,1301.586783,0.194000,0.964000,0.072000,192.000000,6.000000,16.000000,30.000000,32.000000,2.000000,64.000000,0.000000,0.000000,0.000000,1647160709.102122,0.000000
150.000000,-8538.902824,763.334425,-19888.850437,-18973.770019,130.847112,46271.754357,26907.052327,1279.302094,0.194000,0.964000,0.072000,192.000000,0.000000,0.000000,0.000000,0.000000,0.000000,0.000000,0.000000,0.000000,0.000000,1647160709.102156,0.000000
151.000000,-8537.494664,763.155611,-19885.855304,-18976.653394,128.254310,46269.899162,26899.072754,1272.954198,0.194000,0.964000,0.072000,192.000000,0.000000,0.000000,0.000000,0.000000,0.000000,0.000000,0.000000,0.000000,0.000000,1647160709.109040,0.000000
152.000000,-8532.733742,765.837820,-19877.696917,-18977.659223,137.351470,46273.453089,26894.848275,1290.366207,0.194000,0.964000,0.072000,192.000000,0.000000,0.000000,0.000000,0.000000,0.000000,0.000000,0.000000,0.000000,0.000000,1647160709.109057,0.000000
153.000000,-8530.923251,767.827126,-19879.730926,-18980.944929,135.205702,46265.384110,26875.111684,1272.238943,0.194000,0.964000,0.072000,192.000000,0.000000,0.000000,0.000000,0.000000,0.000000,0.000000,0.000000,0.000000,0.000000,1647160709.116603,0.000000
154.000000,-8521.714332,770.934018,-19871.259614,-18982.040165,134.423391,46255.638749,26845.160347,1247.182637,0.194000,0.964000,0.072000,192.000000,0.000000,0.000000,0.000000,0.000000,0.000000,0.000000,0.000000,0.000000,0.000000,1647160709.116618,0.000000
155.000000,-8527.346972,763.110907,-19877.182827,-18987.561046,137.820856,46260.712595,26839.907687,1222.551015,0.194000,0.964000,0.072000,192.000000,0.000000,0.000000,0.000000,0.000000,0.000000,0.000000,0.000000,0.000000,0.000000,1647160709.124136,0.000000
156.000000,-8527.592841,763.624998,-19876.758144,-18985.549389,139.474885,46267.954560,26836.107890,1256.749184,0.194000,0.964000,0.072000,192.000000,0.000000,0.000000,0.000000,0.000000,0.000000,0.000000,0.000000,0.000000,0.000000,1647160709.124153,0.000000
157.000000,-8515.925230,772.990378,-19864.844664,-18973.546502,143.073516,46257.248075,26810.895122,1271.903666,0.194000,0.964000,0.072000,192.000000,0.000000,0.000000,0.000000,0.000000,0.000000,0.000000,0.000000,0.000000,0.000000,1647160709.132171,0.000000
158.000000,-8509.666742,774.733815,-19861.983640,-18968.562063,146.314519,46248.083859,26779.490921,1269.780251,0.194000,0.964000,0.072000,192.000000,0.000000,0.000000,0.000000,0.000000,0.000000,0.000000,0.000000,0.000000,0.000000,1647160709.132187,0.000000
159.000000,-8511.030198,776.365492,-19863.570614,-18966.460999,152.170676,46253.560037,26766.705724,1274.295303,0.198000,0.970000,0.074000,192.000000,6.000000,48.000000,30.000000,80.000000,2.000000,80.000000,0.000000,0.000000,0.000000,1647160709.140153,0.000000
160.000000,-8514.919402,777.527783,-19865.761085,-18964.985784,154.294092,46267.686339,26767.800959,1283.481870,0.198000,0.970000,0.074000,192.000000,0.000000,0.000000,0.000000,0.000000,0.000000,0.000000,0.000000,0.000000,0.000000,1647160709.140169,0.000000
161.000000,-8509.331466,783.652161,-19862.341268,-18957.542653,160.194953,46286.394749,26778.418038,1306.973554,0.198000,0.970000,0.074000,192.000000,0.000000,0.000000,0.000000,0.000000,0.000000,0.000000,0.000000,0.000000,0.000000,1647160709.146153,0.000000
162.000000,-8508.102120,782.534573,-19865.492864,-18958.459074,161.714871,46289.613401,26775.266442,1303.911365,0.198000,0.970000,0.074000,192.000000,0.000000,0.000000,0.000000,0.000000,0.000000,0.000000,0.000000,0.000000,0.000000,1647160709.146171,0.000000
163.000000,-8518.965068,771.090480,-19876.936957,-18973.814723,150.673109,46288.585220,26769.544395,1295.730626,0.198000,0.970000,0.074000,192.000000,0.000000,0.000000,0.000000,0.000000,0.000000,0.000000,0.000000,0.000000,0.000000,1647160709.153838,0.000000
164.000000,-8515.835824,772.811565,-19870.790228,-18973.770019,146.582740,46276.112947,26744.421034,1286.074672,0.198000,0.970000,0.074000,192.000000,0.000000,0.000000,0.000000,0.000000,0.000000,0.000000,0.000000,0.000000,0.000000,1647160709.161770,0.000000
165.000000,-8515.813472,774.443242,-19863.212986,-18972.451266,150.136668,46272.447261,26732.529906,1285.627638,0.198000,0.970000,0.074000,192.000000,0.000000,0.000000,0.000000,0.000000,0.000000,0.000000,0.000000,0.000000,0.000000,1647160709.161788,0.000000
166.000000,-8530.655030,765.077861,-19873.852417,-18983.828304,148.907322,46285.053645,26748.489052,1287.169908,0.198000,0.970000,0.074000,192.000000,0.000000,0.000000,0.000000,0.000000,0.000000,0.000000,0.000000,0.000000,0.000000,1647160709.169797,0.000000
167.000000,-8530.789141,764.004977,-19875.215873,-18988.812743,144.548731,46278.281066,26736.754386,1273.982379,0.198000,0.970000,0.074000,192.000000,0.000000,0.000000,0.000000,0.000000,0.000000,0.000000,0.000000,0.000000,0.000000,1647160709.169812,0.000000
168.000000,-8536.511187,758.685262,-19876.556978,-18998.446345,136.591510,46265.026482,26712.949778,1252.524704,0.198000,0.970000,0.074000,192.000000,0.000000,0.000000,0.000000,0.000000,0.000000,0.000000,0.000000,0.000000,0.000000,1647160709.176417,0.000000
169.000000,-8538.209920,762.552114,-19875.819370,-19002.112031,144.571083,46278.415177,26721.085813,1266.405137,0.196000,0.962000,0.082000,192.000000,6.000000,32.000000,30.000000,16.000000,2.000000,144.000000,0.000000,0.000000,0.000000,1647160709.176433,0.000000
170.000000,-8537.181739,762.440355,-19871.192559,-18997.574627,137.373821,46274.525973,26708.144153,1271.926018,0.196000,0.962000,0.082000,192.000000,0.000000,0.000000,0.000000,0.000000,0.000000,0.000000,0.000000,0.000000,0.000000,1647160709.184422,0.000000
171.000000,-8542.948490,757.366509,-19875.774667,-19003.095508,131.182388,46264.043005,26687.111162,1253.686995,0.196000,0.962000,0.082000,192.000000,0.000000,0.000000,0.000000,0.000000,0.000000,0.000000,0.000000,0.000000,0.000000,1647160709.184456,0.000000
172.000000,-8547.351783,757.724137,-19878.568635,-19007.767023,138.379650,46273.587200,26691.112124,1264.885219,0.196000,0.962000,0.082000,192.000000,0.000000,0.000000,0.000000,0.000000,0.000000,0.000000,0.000000,0.000000,0.000000,1647160709.192458,0.000000
173.000000,-8551.710373,754.460782,-19879.149780,-19008.526982,143.833476,46285.344217,26698.108220,1289.762710,0.196000,0.962000,0.082000,192.000000,0.000000,0.000000,0.000000,0.000000,0.000000,0.000000,0.000000,0.000000,0.000000,1647160709.192475,0.000000
174.000000,-8554.057307,757.165343,-19878.613338,-19005.598903,144.749897,46289.769863,26697.147095,1291.439091,0.196000,0.962000,0.082000,192.000000,0.000000,0.000000,0.000000,0.000000,0.000000,0.000000,0.000000,0.000000,0.000000,1647160709.201059,0.000000
175.000000,-8549.028164,757.031233,-19874.746487,-19002.044976,141.151266,46284.852479,26683.825455,1280.710254,0.196000,0.962000,0.082000,192.000000,0.000000,0.000000,0.000000,0.000000,0.000000,0.000000,0.000000,0.000000,0.000000,1647160709.201075,0.000000
176.000000,-8546.614176,752.940864,-19868.309184,-18999.787450,141.039508,46274.682435,26665.049990,1274.787042,0.196000,0.962000,0.082000,192.000000,0.000000,0.000000,0.000000,0.000000,0.000000,0.000000,0.000000,0.000000,0.000000,1647160709.207463,0.000000
177.000000,-8552.470333,751.823276,-19873.763010,-19004.682482,143.766420,46273.229572,26660.803158,1268.796774,0.196000,0.962000,0.082000,192.000000,0.000000,0.000000,0.000000,0.000000,0.000000,0.000000,0.000000,0.000000,0.000000,1647160709.207479,0.000000
178.000000,-8559.198208,749.074012,-19882.860170,-19012.460889,143.118220,46276.783499,26664.222975,1281.894896,0.196000,0.962000,0.082000,192.000000,0.000000,0.000000,0.000000,0.000000,0.000000,0.000000,0.000000,0.000000,0.000000,1647160709.213958,0.000000
179.000000,-8572.721013,735.998241,-19899.065184,-19028.420034,133.082286,46281.767938,26678.505740,1278.095100,0.212000,0.960000,0.088000,192.000000,6.000000,160.000000,30.000000,0.000000,2.000000,192.000000,0.000000,0.000000,0.000000,1647160709.222074,0.000000
180.000000,-8553.587920,748.828143,-19884.000109,-19007.699967,125.013307,46263.148935,26646.878022,1262.515934,0.212000,0.960000,0.088000,192.000000,0.000000,0.000000,0.000000,0.000000,0.000000,0.000000,0.000000,0.000000,0.000000,1647160709.222089,0.000000
181.000000,-8554.549045,747.509390,-19890.392708,-19011.388005,134.803371,46277.811680,26667.262813,1264.102908,0.212000,0.960000,0.088000,192.000000,0.000000,0.000000,0.000000,0.000000,0.000000,0.000000,0.000000,0.000000,0.000000,1647160709.229135,0.000000
182.000000,-8548.156446,754.125506,-19880.557940,-19004.257799,144.101697,46280.493889,26670.950850,1258.112640,0.212000,0.960000,0.088000,192.000000,0.000000,0.000000,0.000000,0.000000,0.000000,0.000000,0.000000,0.000000,0.000000,1647160709.229152,0.000000
183.000000,-8545.697754,757.612378,-19879.954443,-19004.526020,155.635197,46286.886488,26677.611670,1266.762765,0.212000,0.960000,0.088000,192.000000,0.000000,0.000000,0.000000,0.000000,0.000000,0.000000,0.000000,0.000000,0.000000,1647160709.236730,0.000000
184.000000,-8535.438303,766.508373,-19869.404420,-18996.278226,161.021967,46285.321866,26676.114103,1259.207876,0.212000,0.960000,0.088000,192.000000,0.000000,0.000000,0.000000,0.000000,0.000000,0.000000,0.000000,0.000000,0.000000,1647160709.236746,0.000000
185.000000,-8528.844539,770.308169,-19859.569652,-18989.349185,170.677921,46285.277162,26672.917804,1269.444975,0.212000,0.960000,0.088000,192.000000,0.000000,0.000000,0.000000,0.000000,0.000000,0.000000,0.000000,0.000000,0.000000,1647160709.244735,0.000000
186.000000,-8529.246870,767.089518,-19861.000164,-18992.813706,172.399005,46285.724197,26675.130627,1260.861905,0.212000,0.960000,0.088000,192.000000,0.000000,0.000000,0.000000,0.000000,0.000000,0.000000,0.000000,0.000000,0.000000,1647160709.244752,0.000000
187.000000,-8528.464559,769.570562,-19860.016687,-18983.984766,184.200726,46293.279087,26681.947909,1258.269102,0.212000,0.960000,0.088000,192.000000,0.000000,0.000000,0.000000,0.000000,0.000000,0.000000,0.000000,0.000000,0.000000,1647160709.252595,0.000000
188.000000,-8535.795931,763.960274,-19865.090533,-18991.874932,180.624447,46287.467633,26670.861443,1262.717100,0.212000,0.960000,0.088000,192.000000,0.000000,0.000000,0.000000,0.000000,0.000000,0.000000,0.000000,0.000000,0.000000,1647160709.252611,0.000000
189.000000,-8550.548083,751.756221,-19877.518103,-19010.471584,178.612790,46294.620191,26682.685516,1270.339044,0.210000,0.966000,0.092000,192.000000,6.000000,144.000000,30.000000,48.000000,2.000000,224.000000,0.000000,0.000000,0.000000,1647160709.259248,0.000000
190.000000,-8542.948490,758.126468,-19866.789265,-19001.463831,167.928656,46285.500680,26666.078170,1271.389576,0.210000,0.966000,0.092000,192.000000,0.000000,0.000000,0.000000,0.000000,0.000000,0.000000,0.000000,0.000000,0.000000,1647160709.259264,0.000000
191.000000,-8544.222539,757.031233,-19867.281004,-19004.101336,171.750804,46288.026427,26665.362914,1266.382786,0.210000,0.966000,0.092000,192.000000,0.000000,0.000000,0.000000,0.000000,0.000000,0.000000,0.000000,0.000000,0.000000,1647160709.267291,0.000000
192.000000,-8559.242911,742.994337,-19882.614301,-19021.312180,173.561296,46301.549232,26685.278319,1267.522725,0.210000,0.966000,0.092000,192.000000,0.000000,0.000000,0.000000,0.000000,0.000000,0.000000,0.000000,0.000000,0.000000,1647160709.267308,0.000000
193.000000,-8557.790048,741.273253,-19880.334423,-19021.088662,167.548676,46295.804834,26673.029563,1261.152477,0.210000,0.966000,0.092000,192.000000,0.000000,0.000000,0.000000,0.000000,0.000000,0.000000,0.000000,0.000000,0.000000,1647160709.274319,0.000000
194.000000,-8559.578187,740.423887,-19885.207103,-19027.347151,169.247409,46299.135244,26675.130627,1254.044623,0.210000,0.966000,0.092000,192.000000,0.000000,0.000000,0.000000,0.000000,0.000000,0.000000,0.000000,0.000000,0.000000,1647160709.281568,0.000000
195.000000,-8561.746307,739.887445,-19885.140048,-19030.878726,167.213400,46304.611421,26677.499911,1246.847361,0.210000,0.966000,0.092000,192.000000,0.000000,0.000000,0.000000,0.000000,0.000000,0.000000,0.000000,0.000000,0.000000,1647160709.281584,0.000000
196.000000,-8559.131153,742.100268,-19881.943748,-19053.945727,167.548676,46309.193529,26680.830321,1233.659832,0.210000,0.966000,0.092000,192.000000,0.000000,0.000000,0.000000,0.000000,0.000000,0.000000,0.000000,0.000000,0.000000,1647160709.289021,0.000000
197.000000,-8558.751173,742.144971,-19879.932091,-19082.645367,176.310560,46314.446189,26691.805028,1229.547111,0.210000,0.966000,0.092000,192.000000,0.000000,0.000000,0.000000,0.000000,0.000000,0.000000,0.000000,0.000000,0.000000,1647160709.289037,0.000000
198.000000,-8554.258472,742.144971,-19875.417039,-19088.434468,174.678883,46306.578375,26682.864330,1217.477169,0.210000,0.966000,0.092000,192.000000,0.000000,0.000000,0.000000,0.000000,0.000000,0.000000,0.000000,0.000000,0.000000,1647160709.296861,0.000000
199.000000,-8558.974690,738.009898,-19875.014707,-19099.364471,175.260028,46308.567680,26688.452266,1206.614221,0.208000,0.966000,0.094000,192.000000,6.000000,128.000000,30.000000,48.000000,2.000000,240.000000,0.000000,0.000000,0.000000,1647160709.296877,0.000000
200.000000,-8563.847371,734.053640,-19873.807713,-19098.269236,167.101642,46298.487043,26678.081057,1177.556953,0.208000,0.966000,0.094000,192.000000,0.000000,0.000000,0.000000,0.000000,0.000000,0.000000,0.000000,0.000000,0.000000,1647160709.304959,0.000000
201.000000,-8564.182647,733.271329,-19874.366507,-19099.476230,170.767328,46299.090540,26678.662202,1156.322796,0.208000,0.966000,0.094000,192.000000,0.000000,0.000000,0.000000,0.000000,0.000000,0.000000,0.000000,0.000000,0.000000,1647160709.304975,0.000000
202.000000,-8555.487818,743.329614,-19870.857283,-19094.737660,177.115223,46303.493834,26678.796313,1150.801915,0.208000,0.966000,0.094000,192.000000,0.000000,0.000000,0.000000,0.000000,0.000000,0.000000,0.000000,0.000000,0.000000,1647160709.311556,0.000000
203.000000,-8561.947472,736.110000,-19881.630824,-19108.953370,170.186182,46305.930174,26678.215167,1152.858276,0.208000,0.966000,0.094000,192.000000,0.000000,0.000000,0.000000,0.000000,0.000000,0.000000,0.000000,0.000000,0.000000,1647160709.311573,0.000000
204.000000,-8551.956243,738.523989,-19883.396612,-19111.613227,163.324197,46306.019581,26676.024696,1148.834962,0.208000,0.966000,0.094000,192.000000,0.000000,0.000000,0.000000,0.000000,0.000000,0.000000,0.000000,0.000000,0.000000,1647160709.319521,0.000000
205.000000,-8555.912501,731.796113,-19890.348004,-19118.050530,160.977264,46310.311116,26682.014964,1153.059441,0.208000,0.966000,0.094000,192.000000,0.000000,0.000000,0.000000,0.000000,0.000000,0.000000,0.000000,0.000000,0.000000,1647160709.319537,0.000000
206.000000,-8567.848333,719.681468,-19898.908722,-19123.794928,152.796525,46309.729971,26680.584452,1132.518188,0.208000,0.966000,0.094000,192.000000,0.000000,0.000000,0.000000,0.000000,0.000000,0.000000,0.000000,0.000000,0.000000,1647160709.327583,0.000000
207.000000,-8550.033993,733.204273,-19887.375222,-19106.874657,159.390290,46310.221709,26675.823531,1141.637700,0.208000,0.966000,0.094000,192.000000,0.000000,0.000000,0.000000,0.000000,0.000000,0.000000,0.000000,0.000000,0.000000,1647160709.327599,0.000000
208.000000,-8547.888225,736.333518,-19887.956367,-19104.728890,168.487450,46313.038029,26678.617499,1163.095374,0.208000,0.966000,0.094000,192.000000,0.000000,0.000000,0.000000,0.000000,0.000000,0.000000,0.000000,0.000000,0.000000,1647160709.334653,0.000000
209.000000,-8545.451885,737.182884,-19887.844609,-19105.622960,174.433014,46322.202244,26693.816685,1179.278037,0.202000,0.978000,0.100000,192.000000,6.000000,80.000000,30.000000,144.000000,3.000000,32.000000,0.000000,0.000000,0.000000,1647160709.341393,0.000000
210.000000,-8534.499530,740.982680,-19874.232396,-19097.464573,171.996674,46314.312078,26684.384249,1173.667750,0.202000,0.978000,0.100000,192.000000,0.000000,0.000000,0.000000,0.000000,0.000000,0.000000,0.000000,0.000000,0.000000,1647160709.341402,0.000000
211.000000,-8538.299327,736.825256,-19875.595853,-19099.051547,173.494240,46309.506453,26675.309441,1166.515191,0.202000,0.978000,0.100000,192.000000,0.000000,0.000000,0.000000,0.000000,0.000000,0.000000,0.000000,0.000000,0.000000,1647160709.349557,0.000000
212.000000,-8557.275958,722.721305,-19892.113792,-19114.742472,169.605037,46314.490892,26687.334679,1152.187723,0.202000,0.978000,0.100000,192.000000,0.000000,0.000000,0.000000,0.000000,0.000000,0.000000,0.000000,0.000000,0.000000,1647160709.349566,0.000000
213.000000,-8554.526693,724.844721,-19891.040908,-19113.244905,162.810107,46309.327639,26682.551406,1134.954528,0.202000,0.978000,0.100000,192.000000,0.000000,0.000000,0.000000,0.000000,0.000000,0.000000,0.000000,0.000000,0.000000,1647160709.356884,0.000000
214.000000,-8551.017469,724.330631,-19888.045774,-19110.093309,172.846040,46317.575433,26690.173351,1153.931159,0.202000,0.978000,0.100000,192.000000,0.000000,0.000000,0.000000,0.000000,0.000000,0.000000,0.000000,0.000000,0.000000,1647160709.356902,0.000000
215.000000,-8548.938757,724.442390,-19882.189617,-19103.723062,175.081214,46320.034125,26693.257891,1146.689194,0.202000,0.978000,0.100000,192.000000,0.000000,0.000000,0.000000,0.000000,0.000000,0.000000,0.000000,0.000000,0.000000,1647160709.363945,0.000000
216.000000,-8547.575301,726.968137,-19877.987489,-19092.010747,176.332912,46314.669706,26684.630118,1144.141095,0.202000,0.978000,0.100000,192.000000,0.000000,0.000000,0.000000,0.000000,0.000000,0.000000,0.000000,0.000000,0.000000,1647160709.363953,0.000000
217.000000,-8547.463542,726.118770,-19877.182827,-19089.261483,183.306656,46314.557947,26680.070362,1140.073078,0.202000,0.978000,0.100000,192.000000,0.000000,0.000000,0.000000,0.000000,0.000000,0.000000,0.000000,0.000000,0.000000,1647160709.371515,0.000000
218.000000,-8551.688022,718.586232,-19879.105077,-19093.687128,178.679845,46307.539500,26667.396923,1130.864159,0.202000,0.978000,0.100000,192.000000,0.000000,0.000000,0.000000,0.000000,0.000000,0.000000,0.000000,0.000000,0.000000,1647160709.371525,0.000000
219.000000,-8568.496533,705.845738,-19891.778516,-19109.087480,180.512688,46323.878625,26688.295804,1147.113877,0.196000,0.964000,0.098000,192.000000,6.000000,32.000000,30.000000,32.000000,3.000000,16.000000,0.000000,0.000000,0.000000,1647160709.379963,0.000000
220.000000,-8570.150563,702.604735,-19895.645368,-19106.919361,165.134688,46324.549177,26686.708830,1150.488991,0.196000,0.964000,0.098000,192.000000,0.000000,0.000000,0.000000,0.000000,0.000000,0.000000,0.000000,0.000000,0.000000,1647160709.379970,0.000000
221.000000,-8560.315795,707.253898,-19886.391745,-19098.179829,166.319330,46317.083695,26665.877004,1152.813572,0.196000,0.964000,0.098000,192.000000,0.000000,0.000000,0.000000,0.000000,0.000000,0.000000,0.000000,0.000000,0.000000,1647160709.387672,0.000000
222.000000,-8563.757964,701.576555,-19891.242074,-19104.728890,175.081214,46332.327584,26677.499911,1158.222694,0.196000,0.964000,0.098000,192.000000,0.000000,0.000000,0.000000,0.000000,0.000000,0.000000,0.000000,0.000000,0.000000,1647160709.387680,0.000000
223.000000,-8568.027147,701.353038,-19894.192504,-19105.265332,178.702197,46351.505381,26696.230673,1162.827154,0.196000,0.964000,0.098000,192.000000,0.000000,0.000000,0.000000,0.000000,0.000000,0.000000,0.000000,0.000000,0.000000,1647160709.393667,0.000000
224.000000,-8558.974690,708.393837,-19885.207103,-19094.581198,179.149232,46350.499553,26686.619423,1152.500648,0.196000,0.964000,0.098000,192.000000,0.000000,0.000000,0.000000,0.000000,0.000000,0.000000,0.000000,0.000000,0.000000,1647160709.393674,0.000000
225.000000,-8556.046612,704.147006,-19881.899045,-19085.506390,179.260991,46343.056422,26664.938231,1132.607595,0.196000,0.964000,0.098000,192.000000,0.000000,0.000000,0.000000,0.000000,0.000000,0.000000,0.000000,0.000000,0.000000,1647160709.401171,0.000000
226.000000,-8563.489743,695.921564,-19887.196408,-19092.390727,180.803261,46359.931989,26676.181159,1133.993403,0.196000,0.964000,0.098000,192.000000,0.000000,0.000000,0.000000,0.000000,0.000000,0.000000,0.000000,0.000000,0.000000,1647160709.409096,0.000000
227.000000,-8571.022281,688.903116,-19891.554998,-19100.951445,178.635142,46367.263361,26679.913900,1130.327717,0.196000,0.964000,0.098000,192.000000,0.000000,0.000000,0.000000,0.000000,0.000000,0.000000,0.000000,0.000000,0.000000,1647160709.409104,0.000000
228.000000,-8563.422687,692.881726,-19885.005937,-19091.787230,177.428147,46363.687082,26667.039295,1136.340336,0.196000,0.964000,0.098000,192.000000,0.000000,0.000000,0.000000,0.000000,0.000000,0.000000,0.000000,0.000000,0.000000,1647160709.416471,0.000000
229.000000,-8570.865818,686.042093,-19895.645368,-19097.576332,181.697331,46378.841565,26684.093676,1141.928272,0.206000,0.960000,0.096000,192.000000,6.000000,112.000000,30.000000,0.000000,3.000000,0.000000,0.000000,0.000000,0.000000,1647160709.416482,0.000000
230.000000,-8581.147621,670.038244,-19902.239132,-19097.911608,175.103566,46391.492652,26695.783638,1134.351031,0.206000,0.960000,0.096000,192.000000,0.000000,0.000000,0.000000,0.000000,0.000000,0.000000,0.000000,0.000000,0.000000,1647160709.423836,0.000000
231.000000,-8587.249647,655.666072,-19911.224533,-19102.270198,162.988921,46390.665637,26697.124743,1124.091580,0.206000,0.960000,0.096000,192.000000,0.000000,0.000000,0.000000,0.000000,0.000000,0.000000,0.000000,0.000000,0.000000,1647160709.423847,0.000000
232.000000,-8571.022281,669.233581,-19898.327577,-19093.977701,164.575894,46378.662751,26675.532958,1107.193662,0.206000,0.960000,0.096000,192.000000,0.000000,0.000000,0.000000,0.000000,0.000000,0.000000,0.000000,0.000000,0.000000,1647160709.431857,0.000000
233.000000,-8560.852237,678.084872,-19890.571522,-19085.685204,178.389272,46399.136948,26685.591243,1104.802025,0.206000,0.960000,0.096000,192.000000,0.000000,0.000000,0.000000,0.000000,0.000000,0.000000,0.000000,0.000000,0.000000,1647160709.431866,0.000000
234.000000,-8579.314778,665.187915,-19910.844554,-19102.314902,170.387348,46398.175823,26686.194740,1074.023673,0.206000,0.960000,0.096000,192.000000,0.000000,0.000000,0.000000,0.000000,0.000000,0.000000,0.000000,0.000000,0.000000,1647160709.440052,0.000000
235.000000,-8573.346862,675.536773,-19902.239132,-19092.167210,169.292113,46397.952306,26675.197682,1090.072225,0.206000,0.960000,0.096000,192.000000,0.000000,0.000000,0.000000,0.000000,0.000000,0.000000,0.000000,0.000000,0.000000,1647160709.440076,0.000000
236.000000,-8565.411993,685.483299,-19897.411155,-19083.360622,179.730377,46425.064972,26694.129609,1105.025542,0.206000,0.960000,0.096000,192.000000,0.000000,0.000000,0.000000,0.000000,0.000000,0.000000,0.000000,0.000000,0.000000,1647160709.446713,0.000000
237.000000,-8568.876513,689.663075,-19901.345062,-19079.806695,185.363017,46431.166998,26703.405583,1107.595993,0.206000,0.960000,0.096000,192.000000,0.000000,0.000000,0.000000,0.000000,0.000000,0.000000,0.000000,0.000000,0.000000,1647160709.446729,0.000000
238.000000,-8554.817266,705.376352,-19882.100210,-19056.113846,189.833366,46413.598527,26672.783693,1099.772882,0.206000,0.960000,0.096000,192.000000,0.000000,0.000000,0.000000,0.000000,0.000000,0.000000,0.000000,0.000000,0.000000,1647160709.454681,0.000000
239.000000,-8561.478086,698.559069,-19890.280949,-19065.836855,188.805185,46420.974603,26670.213243,1092.463862,0.200000,0.962000,0.090000,192.000000,6.000000,64.000000,30.000000,16.000000,2.000000,208.000000,0.000000,0.000000,0.000000,1647160709.454698,0.000000
240.000000,-8569.994100,695.720398,-19897.031176,-19074.911663,187.709950,46443.505161,26696.767115,1095.906031,0.200000,0.962000,0.090000,192.000000,0.000000,0.000000,0.000000,0.000000,0.000000,0.000000,0.000000,0.000000,0.000000,1647160709.461786,0.000000
241.000000,-8568.116554,699.006104,-19897.053527,-19075.045773,182.122014,46439.392440,26688.832246,1088.529955,0.200000,0.962000,0.090000,192.000000,0.000000,0.000000,0.000000,0.000000,0.000000,0.000000,0.000000,0.000000,0.000000,1647160709.469727,0.000000
242.000000,-8564.562626,706.248070,-19895.265388,-19074.285814,184.826575,46440.286510,26682.864330,1064.658292,0.200000,0.962000,0.090000,192.000000,0.000000,0.000000,0.000000,0.000000,0.000000,0.000000,0.000000,0.000000,0.000000,1647160709.469744,0.000000
243.000000,-8569.904693,704.638744,-19897.791135,-19081.125448,187.665246,46453.563446,26692.430877,1065.775879,0.200000,0.962000,0.090000,192.000000,0.000000,0.000000,0.000000,0.000000,0.000000,0.000000,0.000000,0.000000,0.000000,1647160709.476280,0.000000
244.000000,-8572.475144,703.431750,-19899.512219,-19088.210951,184.044264,46454.479868,26691.469752,1071.073243,0.200000,0.962000,0.090000,192.000000,0.000000,0.000000,0.000000,0.000000,0.000000,0.000000,0.000000,0.000000,0.000000,1647160709.476291,0.000000
245.000000,-8578.644225,695.988619,-19902.261484,-19094.737660,178.411624,46463.845249,26695.448362,1083.299647,0.200000,0.962000,0.090000,192.000000,0.000000,0.000000,0.000000,0.000000,0.000000,0.000000,0.000000,0.000000,0.000000,1647160709.484421,0.000000
246.000000,-8577.951321,694.379293,-19903.937865,-19093.821239,171.639046,46470.751938,26694.397830,1082.874964,0.200000,0.962000,0.090000,192.000000,0.000000,0.000000,0.000000,0.000000,0.000000,0.000000,0.000000,0.000000,0.000000,1647160709.484436,0.000000
247.000000,-8583.002816,684.388063,-19909.905781,-19096.369338,167.973360,46463.778193,26679.533920,1078.650484,0.200000,0.962000,0.090000,192.000000,0.000000,0.000000,0.000000,0.000000,0.000000,0.000000,0.000000,0.000000,0.000000,1647160709.492432,0.000000
248.000000,-8581.505249,685.259782,-19907.335330,-19087.473343,170.946142,46459.643121,26659.685571,1062.892504,0.200000,0.962000,0.090000,192.000000,0.000000,0.000000,0.000000,0.000000,0.000000,0.000000,0.000000,0.000000,0.000000,1647160709.492448,0.000000
249.000000,-8579.448888,688.970171,-19904.831935,-19080.767820,175.014159,46462.057109,26641.893583,1042.463010,0.208000,0.952000,0.100000,192.000000,6.000000,128.000000,29.000000,192.000000,3.000000,32.000000,0.000000,0.000000,0.000000,1647160709.499603,0.000000
250.000000,-8571.916350,699.274325,-19894.661891,-19065.635689,184.468947,46470.886048,26633.645789,1038.439696,0.208000,0.952000,0.100000,192.000000,0.000000,0.000000,0.000000,0.000000,0.000000,0.000000,0.000000,0.000000,0.000000,1647160709.499619,0.000000
251.000000,-8574.106821,694.938087,-19894.416022,-19062.104113,184.401892,46472.987112,26629.063681,1028.917853,0.208000,0.952000,0.100000,192.000000,0.000000,0.000000,0.000000,0.000000,0.000000,0.000000,0.000000,0.000000,0.000000,1647160709.507049,0.000000
252.000000,-8577.280769,696.972096,-19898.908722,-19061.590023,198.774063,46498.155176,26654.656429,1044.675832,0.208000,0.952000,0.100000,192.000000,0.000000,0.000000,0.000000,0.000000,0.000000,0.000000,0.000000,0.000000,0.000000,1647160709.507064,0.000000
253.000000,-8581.415842,696.837985,-19905.256618,-19058.997221,192.314409,46504.637182,26658.612687,1036.249225,0.208000,0.952000,0.100000,192.000000,0.000000,0.000000,0.000000,0.000000,0.000000,0.000000,0.000000,0.000000,0.000000,1647160709.514979,0.000000
254.000000,-8576.721975,704.817558,-19899.892199,-19049.207157,196.874165,46504.212499,26647.369760,1025.095704,0.208000,0.952000,0.100000,192.000000,0.000000,0.000000,0.000000,0.000000,0.000000,0.000000,0.000000,0.000000,0.000000,1647160709.514990,0.000000
255.000000,-8578.443060,705.845738,-19902.753222,-19050.347096,190.481566,46506.693543,26642.765301,1010.768236,0.208000,0.952000,0.100000,192.000000,0.000000,0.000000,0.000000,0.000000,0.000000,0.000000,0.000000,0.000000,0.000000,1647160709.522102,0.000000
0.000000,-8578.688929,705.041075,-19905.167211,-19052.291698,190.906249,46518.383505,26649.582583,1018.747809,0.208000,0.952000,0.100000,192.000000,0.000000,0.000000,0.000000,0.000000,0.000000,0.000000,0.000000,0.000000,0.000000,1647160709.529188,0.000000
1.000000,-8581.818173,701.531851,-19909.726967,-19062.148817,193.364941,46536.086087,26668.827435,1034.885768,0.208000,0.952000,0.100000,192.000000,0.000000,0.000000,0.000000,0.000000,0.000000,0.000000,0.000000,0.000000,0.000000,1647160709.529223,0.000000
2.000000,-8568.138906,712.663020,-19896.919417,-19057.857282,188.514613,46527.994755,26649.426120,1022.704068,0.208000,0.952000,0.100000,192.000000,0.000000,0.000000,0.000000,0.000000,0.000000,0.000000,0.000000,0.000000,0.000000,1647160709.536681,0.000000
3.000000,-8558.862932,721.782532,-19887.174056,-19054.817445,193.879031,46519.232871,26622.022882,1012.601079,0.208000,0.952000,0.100000,192.000000,0.000000,0.000000,0.000000,0.000000,0.000000,0.000000,0.000000,0.000000,0.000000,1647160709.536697,0.000000
4.000000,-8569.927045,710.472549,-19898.327577,-19069.659003,194.460177,46527.570072,26617.865457,1021.899405,0.204000,0.970000,0.098000,192.000000,6.000000,96.000000,30.000000,80.000000,3.000000,16.000000,0.000000,0.000000,0.000000,1647160709.544704,0.000000
5.000000,-8586.690853,693.932258,-19912.185658,-19088.412117,188.559316,46540.914064,26630.516545,1013.249280,0.204000,0.970000,0.098000,192.000000,0.000000,0.000000,0.000000,0.000000,0.000000,0.000000,0.000000,0.000000,0.000000,1647160709.544721,0.000000
6.000000,-8576.744327,705.041075,-19901.970911,-19080.589006,191.085063,46540.981119,26613.484515,1003.727437,0.204000,0.970000,0.098000,192.000000,0.000000,0.000000,0.000000,0.000000,0.000000,0.000000,0.000000,0.000000,0.000000,1647160709.552741,0.000000
7.000000,-8579.046557,704.504633,-19905.368376,-19084.299396,196.762406,46560.494192,26623.363986,1005.582631,0.204000,0.970000,0.098000,192.000000,0.000000,0.000000,0.000000,0.000000,0.000000,0.000000,0.000000,0.000000,0.000000,1647160709.552758,0.000000
8.000000,-8579.873571,702.045942,-19905.167211,-19081.192503,187.329970,46556.426174,26603.605044,984.326122,0.204000,0.970000,0.098000,192.000000,0.000000,0.000000,0.000000,0.000000,0.000000,0.000000,0.000000,0.000000,0.000000,1647160709.559202,0.000000
9.000000,-8583.069871,697.061503,-19904.988397,-19083.561788,180.467985,46553.118116,26576.559434,977.017102,0.204000,0.970000,0.098000,192.000000,0.000000,0.000000,0.000000,0.000000,0.000000,0.000000,0.000000,0.000000,0.000000,1647160709.559219,0.000000
10.000000,-8577.146659,699.900174,-19897.455859,-19072.609433,182.949028,46551.352328,26552.687770,980.928657,0.204000,0.970000,0.098000,192.000000,0.000000,0.000000,0.000000,0.000000,0.000000,0.000000,0.000000,0.000000,0.000000,1647160709.567244,0.000000
11.000000,-8579.046557,701.174224,-19894.080745,-19067.624994,195.845985,46562.215276,26548.753863,992.506861,0.204000,0.970000,0.098000,192.000000,0.000000,0.000000,0.000000,0.000000,0.000000,0.000000,0.000000,0.000000,0.000000,1647160709.567261,0.000000
12.000000,-8582.153449,701.531851,-19899.869847,-19068.921395,192.850851,46558.929570,26529.911343,967.405852,0.204000,0.970000,0.098000,192.000000,0.000000,0.000000,0.000000,0.000000,0.000000,0.000000,0.000000,0.000000,0.000000,1647160709.575321,0.000000
13.000000,-8582.086394,705.175186,-19903.021443,-19068.697878,199.422264,46573.748776,26535.432224,958.241637,0.204000,0.970000,0.098000,192.000000,0.000000,0.000000,0.000000,0.000000,0.000000,0.000000,0.000000,0.000000,0.000000,1647160709.575339,0.000000
14.000000,-8584.567438,699.073160,-19905.390728,-19063.758142,194.638991,46578.196773,26526.938561,971.585628,0.198000,0.970000,0.096000,192.000000,6.000000,48.000000,30.000000,80.000000,3.000000,0.000000,0.000000,0.000000,0.000000,1647160709.581438,0.000000
15.000000,-8581.594656,699.274325,-19896.762955,-19056.247956,198.818767,46579.090843,26511.225284,974.267837,0.198000,0.970000,0.096000,192.000000,0.000000,0.000000,0.000000,0.000000,0.000000,0.000000,0.000000,0.000000,0.000000,1647160709.588919,0.000000
16.000000,-8578.644225,704.236413,-19888.336347,-19050.458854,208.385314,46583.717654,26501.859904,968.501087,0.198000,0.970000,0.096000,192.000000,0.000000,0.000000,0.000000,0.000000,0.000000,0.000000,0.000000,0.000000,0.000000,1647160709.588935,0.000000
17.000000,-8580.767641,704.906965,-19888.984548,-19055.599756,208.720590,46586.377512,26492.650985,966.377672,0.198000,0.970000,0.096000,192.000000,0.000000,0.000000,0.000000,0.000000,0.000000,0.000000,0.000000,0.000000,0.000000,1647160709.596691,0.000000
18.000000,-8597.464394,693.820500,-19905.390728,-19079.739640,203.132654,46596.078169,26502.575159,958.956892,0.198000,0.970000,0.096000,192.000000,0.000000,0.000000,0.000000,0.000000,0.000000,0.000000,0.000000,0.000000,0.000000,1647160709.596707,0.000000
19.000000,-8587.741385,698.849642,-19893.745469,-19069.994279,191.867374,46592.926573,26480.134008,954.978282,0.198000,0.970000,0.096000,192.000000,0.000000,0.000000,0.000000,0.000000,0.000000,0.000000,0.000000,0.000000,0.000000,1647160709.604977,0.000000
20.000000,-8590.758871,693.060540,-19897.120583,-19075.492808,187.732302,46593.284201,26466.186519,977.754709,0.198000,0.970000,0.096000,192.000000,0.000000,0.000000,0.000000,0.000000,0.000000,0.000000,0.000000,0.000000,0.000000,1647160709.604993,0.000000
21.000000,-8594.960999,687.651418,-19901.747394,-19086.713384,189.632200,46597.821605,26464.085455,965.304788,0.198000,0.970000,0.096000,192.000000,0.000000,0.000000,0.000000,0.000000,0.000000,0.000000,0.000000,0.000000,0.000000,1647160709.611384,0.000000
22.000000,-8599.207830,681.169412,-19907.447089,-19093.731832,185.497127,46605.488253,26462.185557,953.033680,0.198000,0.970000,0.096000,192.000000,0.000000,0.000000,0.000000,0.000000,0.000000,0.000000,0.000000,0.000000,0.000000,1647160709.611418,0.000000
23.000000,-8601.733577,679.783604,-19906.865943,-19092.502486,183.977209,46601.755512,26438.425653,941.410773,0.198000,0.970000,0.096000,192.000000,0.000000,0.000000,0.000000,0.000000,0.000000,0.000000,0.000000,0.000000,0.000000,1647160709.619650,0.000000
24.000000,-8601.532412,676.944933,-19907.223571,-19091.250788,179.976246,46606.270564,26420.924237,930.212549,0.200000,0.972000,0.104000,192.000000,6.000000,64.000000,30.000000,96.000000,3.000000,64.000000,0.000000,0.000000,0.000000,1647160709.619666,0.000000
25.000000,-8590.267133,687.606715,-19895.667719,-19070.865997,186.592363,46606.494082,26397.387850,932.894758,0.200000,0.972000,0.104000,192.000000,0.000000,0.000000,0.000000,0.000000,0.000000,0.000000,0.000000,0.000000,0.000000,1647160709.627639,0.000000
26.000000,-8585.886191,691.227697,-19893.030213,-19060.986526,202.953840,46614.406599,26390.123533,945.724660,0.200000,0.972000,0.104000,192.000000,0.000000,0.000000,0.000000,0.000000,0.000000,0.000000,0.000000,0.000000,0.000000,1647160709.627655,0.000000
27.000000,-8582.779298,695.519232,-19893.052565,-19059.444256,211.514558,46623.883739,26384.245024,941.164904,0.200000,0.972000,0.104000,192.000000,0.000000,0.000000,0.000000,0.000000,0.000000,0.000000,0.000000,0.000000,0.000000,1647160709.634728,0.000000
28.000000,-8583.785127,697.128558,-19896.606493,-19059.198387,208.005334,46623.414352,26367.995306,929.854921,0.200000,0.972000,0.104000,192.000000,0.000000,0.000000,0.000000,0.000000,0.000000,0.000000,0.000000,0.000000,0.000000,1647160709.634744,0.000000
29.000000,-8588.009606,689.350151,-19899.959254,-19063.691087,203.579688,46626.342431,26360.194547,913.381685,0.200000,0.972000,0.104000,192.000000,0.000000,0.000000,0.000000,0.000000,0.000000,0.000000,0.000000,0.000000,0.000000,1647160709.641177,0.000000
30.000000,-8596.078586,678.218982,-19901.546228,-19066.395648,199.399912,46633.517341,26361.267431,920.891872,0.200000,0.972000,0.104000,192.000000,0.000000,0.000000,0.000000,0.000000,0.000000,0.000000,0.000000,0.000000,0.000000,1647160709.641192,0.000000
31.000000,-8586.512039,685.036264,-19891.711461,-19053.096360,201.344514,46622.587338,26328.812698,909.760703,0.200000,0.972000,0.104000,192.000000,0.000000,0.000000,0.000000,0.000000,0.000000,0.000000,0.000000,0.000000,0.000000,1647160709.650615,0.000000
32.000000,-8586.959074,686.600886,-19893.924283,-19059.354849,198.684656,46610.964431,26303.152895,891.119348,0.200000,0.972000,0.104000,192.000000,0.000000,0.000000,0.000000,0.000000,0.000000,0.000000,0.000000,0.000000,0.000000,1647160709.657252,0.000000
33.000000,-8585.617970,688.925468,-19896.092402,-19064.719267,198.349380,46610.159768,26291.932320,883.206830,0.200000,0.972000,0.104000,192.000000,0.000000,0.000000,0.000000,0.000000,0.000000,0.000000,0.000000,0.000000,0.000000,1647160709.657268,0.000000
34.000000,-8583.941589,688.746654,-19898.126411,-19066.418000,199.489319,46618.653431,26288.758372,898.607182,0.200000,0.966000,0.100000,192.000000,6.000000,64.000000,30.000000,48.000000,3.000000,32.000000,0.000000,0.000000,0.000000,1647160709.665577,0.000000
35.000000,-8591.250609,682.421110,-19897.612321,-19075.336346,199.578726,46625.202492,26287.640785,895.276772,0.200000,0.966000,0.100000,192.000000,0.000000,0.000000,0.000000,0.000000,0.000000,0.000000,0.000000,0.000000,0.000000,1647160709.665593,0.000000
36.000000,-8582.064042,689.417206,-19888.112830,-19067.736753,203.043247,46626.543597,26276.084933,896.684932,0.200000,0.966000,0.100000,192.000000,0.000000,0.000000,0.000000,0.000000,0.000000,0.000000,0.000000,0.000000,0.000000,1647160709.671840,0.000000
37.000000,-8579.471240,690.870069,-19888.090478,-19069.167265,208.005334,46630.857483,26270.765218,892.929839,0.200000,0.966000,0.100000,192.000000,0.000000,0.000000,0.000000,0.000000,0.000000,0.000000,0.000000,0.000000,0.000000,1647160709.671856,0.000000
38.000000,-8579.270074,691.607677,-19885.721193,-19065.970965,208.519424,46629.158751,26257.063598,876.993045,0.200000,0.966000,0.100000,192.000000,0.000000,0.000000,0.000000,0.000000,0.000000,0.000000,0.000000,0.000000,0.000000,1647160709.679906,0.000000
39.000000,-8590.892981,679.314217,-19897.008824,-19072.564730,198.841119,46619.458094,26235.561220,860.631569,0.200000,0.966000,0.100000,192.000000,0.000000,0.000000,0.000000,0.000000,0.000000,0.000000,0.000000,0.000000,0.000000,1647160709.679923,0.000000
40.000000,-8600.772452,667.668959,-19905.211914,-19078.577349,193.409645,46618.049934,26230.979113,846.348804,0.200000,0.966000,0.100000,192.000000,0.000000,0.000000,0.000000,0.000000,0.000000,0.000000,0.000000,0.000000,0.000000,1647160709.687772,0.000000
41.000000,-8593.418729,674.821517,-19894.214856,-19068.563768,201.366866,46619.681611,26223.066595,861.190362,0.200000,0.966000,0.100000,192.000000,0.000000,0.000000,0.000000,0.000000,0.000000,0.000000,0.000000,0.000000,0.000000,1647160709.687790,0.000000
42.000000,-8595.273923,677.101395,-19896.338272,-19065.680392,203.646744,46622.967317,26222.239580,860.564513,0.200000,0.966000,0.100000,192.000000,0.000000,0.000000,0.000000,0.000000,0.000000,0.000000,0.000000,0.000000,0.000000,1647160709.694223,0.000000
43.000000,-8595.564496,680.252991,-19899.534571,-19066.172131,203.534985,46621.492102,26219.400909,850.439173,0.200000,0.966000,0.100000,192.000000,0.000000,0.000000,0.000000,0.000000,0.000000,0.000000,0.000000,0.000000,0.000000,1647160709.694257,0.000000
44.000000,-8605.533374,667.691310,-19904.720176,-19069.659003,197.276497,46625.046030,26221.680787,843.107801,0.204000,0.966000,0.100000,192.000000,6.000000,96.000000,30.000000,48.000000,3.000000,32.000000,0.000000,0.000000,0.000000,1647160709.702538,0.000000
45.000000,-8602.784109,671.848735,-19901.747394,-19061.902948,198.081159,46635.417239,26229.459194,844.538312,0.204000,0.966000,0.100000,192.000000,0.000000,0.000000,0.000000,0.000000,0.000000,0.000000,0.000000,0.000000,0.000000,1647160709.702554,0.000000
46.000000,-8586.914371,687.718473,-19893.052565,-19048.961288,205.345476,46636.378364,26220.764365,847.376984,0.204000,0.966000,0.100000,192.000000,0.000000,0.000000,0.000000,0.000000,0.000000,0.000000,0.000000,0.000000,0.000000,1647160709.709508,0.000000
47.000000,-8591.049444,684.075139,-19901.255655,-19057.365544,207.290078,46642.770963,26223.848906,849.858028,0.204000,0.966000,0.100000,192.000000,0.000000,0.000000,0.000000,0.000000,0.000000,0.000000,0.000000,0.000000,0.000000,1647160709.717565,0.000000
48.000000,-8598.716092,673.525116,-19907.782365,-19066.306241,196.963572,46636.803047,26208.672072,836.335222,0.204000,0.966000,0.100000,192.000000,0.000000,0.000000,0.000000,0.000000,0.000000,0.000000,0.000000,0.000000,0.000000,1647160709.717581,0.000000
49.000000,-8581.192324,684.969209,-19889.342176,-19050.347096,192.247354,46617.759361,26163.365086,822.544196,0.204000,0.966000,0.100000,192.000000,0.000000,0.000000,0.000000,0.000000,0.000000,0.000000,0.000000,0.000000,0.000000,1647160709.724087,0.000000
50.000000,-8576.856086,684.723340,-19885.140048,-19051.710552,196.851813,46613.624288,26135.268943,831.104914,0.204000,0.966000,0.100000,192.000000,0.000000,0.000000,0.000000,0.000000,0.000000,0.000000,0.000000,0.000000,0.000000,1647160709.724103,0.000000
51.000000,-8572.653958,685.595058,-19884.178923,-19053.431637,214.241471,46635.461943,26145.528393,856.183571,0.204000,0.966000,0.100000,192.000000,0.000000,0.000000,0.000000,0.000000,0.000000,0.000000,0.000000,0.000000,0.000000,1647160709.732183,0.000000
52.000000,-8577.794859,677.704892,-19895.354795,-19062.282927,211.671020,46647.017794,26152.815062,860.095127,0.204000,0.966000,0.100000,192.000000,0.000000,0.000000,0.000000,0.000000,0.000000,0.000000,0.000000,0.000000,0.000000,1647160709.732199,0.000000
53.000000,-8583.829830,674.419185,-19903.423775,-19069.435486,207.737113,46652.292806,26157.710094,840.492647,0.204000,0.966000,0.100000,192.000000,0.000000,0.000000,0.000000,0.000000,0.000000,0.000000,0.000000,0.000000,0.000000,1647160709.741459,0.000000
54.000000,-8581.639359,676.877877,-19898.774612,-19064.383991,210.642840,46664.318045,26165.533205,852.070850,0.204000,0.984000,0.104000,192.000000,6.000000,96.000000,30.000000,192.000000,3.000000,64.000000,0.000000,0.000000,0.000000,1647160709.741475,0.000000
55.000000,-8586.020301,675.000331,-19901.322711,-19064.294584,204.943145,46659.333606,26151.451606,850.461525,0.204000,0.984000,0.104000,192.000000,0.000000,0.000000,0.000000,0.000000,0.000000,0.000000,0.000000,0.000000,0.000000,1647160709.747659,0.000000
56.000000,-8591.809403,670.529982,-19904.541362,-19064.518102,203.378523,46656.785507,26142.890888,841.118496,0.204000,0.984000,0.104000,192.000000,0.000000,0.000000,0.000000,0.000000,0.000000,0.000000,0.000000,0.000000,0.000000,1647160709.747675,0.000000
57.000000,-8583.785127,679.873011,-19899.623978,-19052.023477,209.592308,46659.825344,26137.749986,835.374097,0.204000,0.984000,0.104000,192.000000,0.000000,0.000000,0.000000,0.000000,0.000000,0.000000,0.000000,0.000000,0.000000,1647160709.754739,0.000000
58.000000,-8585.170935,680.677674,-19901.747394,-19051.755256,209.368790,46657.500763,26131.245629,825.405219,0.204000,0.984000,0.104000,192.000000,0.000000,0.000000,0.000000,0.000000,0.000000,0.000000,0.000000,0.000000,0.000000,1647160709.754755,0.000000
59.000000,-8591.272961,676.296732,-19906.485964,-19053.096360,194.884860,46643.128591,26108.379794,820.487835,0.204000,0.984000,0.104000,192.000000,0.000000,0.000000,0.000000,0.000000,0.000000,0.000000,0.000000,0.000000,0.000000,1647160709.762546,0.000000
60.000000,-8598.291409,669.032415,-19912.655045,-19053.476340,192.292058,46646.548408,26109.653844,833.340089,0.204000,0.984000,0.104000,192.000000,0.000000,0.000000,0.000000,0.000000,0.000000,0.000000,0.000000,0.000000,0.000000,1647160709.762562,0.000000
61.000000,-8592.748176,673.122784,-19911.783327,-19054.437465,195.376598,46650.527018,26108.603312,837.430458,0.204000,0.984000,0.104000,192.000000,0.000000,0.000000,0.000000,0.000000,0.000000,0.000000,0.000000,0.000000,0.000000,1647160709.769926,0.000000
62.000000,-8592.412900,673.592171,-19915.449013,-19062.551148,194.884860,46654.326815,26105.116439,833.742420,0.204000,0.984000,0.104000,192.000000,0.000000,0.000000,0.000000,0.000000,0.000000,0.000000,0.000000,0.000000,0.000000,1647160709.776444,0.000000
63.000000,-8583.047519,683.985732,-19906.776536,-19058.930166,193.811976,46649.677652,26088.330279,840.582054,0.204000,0.984000,0.104000,192.000000,0.000000,0.000000,0.000000,0.000000,0.000000,0.000000,0.000000,0.000000,0.000000,1647160709.776461,0.000000
64.000000,-8576.856086,687.271439,-19898.729908,-19060.159512,195.890688,46650.996405,26076.841483,846.147638,0.200000,0.966000,0.102000,192.000000,6.000000,64.000000,30.000000,48.000000,3.000000,48.000000,0.000000,0.000000,0.000000,1647160709.784392,0.000000
65.000000,-8588.009606,676.542601,-19906.508315,-19072.542378,193.655514,46664.072176,26089.000832,855.848295,0.200000,0.966000,0.102000,192.000000,0.000000,0.000000,0.000000,0.000000,0.000000,0.000000,0.000000,0.000000,0.000000,1647160709.784426,0.000000
66.000000,-8600.034845,669.211229,-19912.409176,-19082.958291,192.247354,46677.304408,26102.724803,863.760813,0.200000,0.966000,0.102000,192.000000,0.000000,0.000000,0.000000,0.000000,0.000000,0.000000,0.000000,0.000000,0.000000,1647160709.792502,0.000000
67.000000,-8599.654865,673.860392,-19908.832897,-19082.064221,176.556429,46661.255856,26070.873567,848.494571,0.200000,0.966000,0.102000,192.000000,0.000000,0.000000,0.000000,0.000000,0.000000,0.000000,0.000000,0.000000,0.000000,1647160709.792518,0.000000
68.000000,-8611.657752,670.239409,-19918.578257,-19089.127372,178.948066,46664.161582,26069.934794,851.780278,0.200000,0.966000,0.102000,192.000000,0.000000,0.000000,0.000000,0.000000,0.000000,0.000000,0.000000,0.000000,0.000000,1647160709.799473,0.000000
69.000000,-8611.836566,668.652435,-19915.225496,-19087.518047,176.243505,46667.871972,26071.275898,858.306987,0.200000,0.966000,0.102000,192.000000,0.000000,0.000000,0.000000,0.000000,0.000000,0.000000,0.000000,0.000000,0.000000,1647160709.799489,0.000000
70.000000,-8602.582944,671.759328,-19903.356719,-19075.626919,180.892668,46668.520173,26063.721009,862.889095,0.200000,0.966000,0.102000,192.000000,0.000000,0.000000,0.000000,0.000000,0.000000,0.000000,0.000000,0.000000,0.000000,1647160709.807056,0.000000
71.000000,-8602.985275,667.065462,-19903.602589,-19066.999145,189.945124,46672.118804,26064.995058,868.745252,0.200000,0.966000,0.102000,192.000000,0.000000,0.000000,0.000000,0.000000,0.000000,0.000000,0.000000,0.000000,0.000000,1647160709.807072,0.000000
72.000000,-8604.728711,668.630084,-19904.742528,-19060.830064,188.112281,46673.035225,26062.044628,867.650016,0.200000,0.966000,0.102000,192.000000,0.000000,0.000000,0.000000,0.000000,0.000000,0.000000,0.000000,0.000000,0.000000,1647160709.814933,0.000000
73.000000,-8605.332208,667.087813,-19906.821240,-19059.533663,187.329970,46665.145059,26050.444073,860.184534,0.200000,0.966000,0.102000,192.000000,0.000000,0.000000,0.000000,0.000000,0.000000,0.000000,0.000000,0.000000,0.000000,1647160709.814949,0.000000
74.000000,-8605.354560,665.880819,-19910.285760,-19060.248919,183.150194,46665.055652,26046.309000,854.708356,0.206000,0.952000,0.108000,192.000000,6.000000,112.000000,29.000000,192.000000,3.000000,96.000000,0.000000,0.000000,0.000000,1647160709.823107,0.000000
75.000000,-8598.939609,672.809860,-19902.149725,-19047.463721,189.498089,46671.492955,26046.174889,853.121382,0.206000,0.952000,0.108000,192.000000,0.000000,0.000000,0.000000,0.000000,0.000000,0.000000,0.000000,0.000000,0.000000,1647160709.823123,0.000000
76.000000,-8598.134947,673.234543,-19903.937865,-19048.044866,194.884860,46679.763100,26055.182642,845.655900,0.206000,0.952000,0.108000,192.000000,0.000000,0.000000,0.000000,0.000000,0.000000,0.000000,0.000000,0.000000,0.000000,1647160709.829168,0.000000
77.000000,-8597.956133,671.178183,-19909.123469,-19052.157587,196.494186,46687.273286,26065.151520,853.546066,0.206000,0.952000,0.108000,192.000000,0.000000,0.000000,0.000000,0.000000,0.000000,0.000000,0.000000,0.000000,0.000000,1647160709.836673,0.000000
78.000000,-8599.543107,667.110165,-19915.404310,-19060.986526,192.023837,46690.313124,26069.197186,849.545103,0.206000,0.952000,0.108000,192.000000,0.000000,0.000000,0.000000,0.000000,0.000000,0.000000,0.000000,0.000000,0.000000,1647160709.836690,0.000000
79.000000,-8594.916295,670.798203,-19911.090423,-19062.998183,188.961648,46690.357827,26067.140826,849.656862,0.206000,0.952000,0.108000,192.000000,0.000000,0.000000,0.000000,0.000000,0.000000,0.000000,0.000000,0.000000,0.000000,1647160709.844616,0.000000
80.000000,-8590.557705,674.977979,-19908.318807,-19064.965137,188.961648,46690.469586,26066.894956,845.879417,0.206000,0.952000,0.108000,192.000000,0.000000,0.000000,0.000000,0.000000,0.000000,0.000000,0.000000,0.000000,0.000000,1647160709.844632,0.000000
81.000000,-8585.953246,677.034340,-19909.123469,-19073.659965,196.114206,46698.449158,26078.674326,849.902731,0.206000,0.952000,0.108000,192.000000,0.000000,0.000000,0.000000,0.000000,0.000000,0.000000,0.000000,0.000000,0.000000,1647160709.851864,0.000000
82.000000,-8576.386699,683.829270,-19905.100155,-19068.340250,199.779892,46699.589097,26083.725820,846.952301,0.206000,0.952000,0.108000,192.000000,0.000000,0.000000,0.000000,0.000000,0.000000,0.000000,0.000000,0.000000,0.000000,1647160709.851880,0.000000
83.000000,-8575.045595,687.249087,-19908.117641,-19069.770762,204.026723,46701.287830,26089.716088,851.869685,0.206000,0.952000,0.108000,192.000000,0.000000,0.000000,0.000000,0.000000,0.000000,0.000000,0.000000,0.000000,0.000000,1647160709.859398,0.000000
84.000000,-8576.498458,683.851622,-19910.956313,-19069.748410,194.057845,46695.118749,26084.463428,855.691833,0.202000,0.960000,0.104000,192.000000,6.000000,80.000000,30.000000,0.000000,3.000000,64.000000,0.000000,0.000000,0.000000,1647160709.859414,0.000000
85.000000,-8578.867743,682.041130,-19908.475269,-19065.188654,188.916944,46681.797109,26067.029067,847.689908,0.202000,0.960000,0.104000,192.000000,0.000000,0.000000,0.000000,0.000000,0.000000,0.000000,0.000000,0.000000,0.000000,1647160709.867281,0.000000
86.000000,-8592.524659,668.518325,-19917.214801,-19073.436448,191.286229,46683.384083,26074.069866,852.249664,0.202000,0.960000,0.104000,192.000000,0.000000,0.000000,0.000000,0.000000,0.000000,0.000000,0.000000,0.000000,0.000000,1647160709.867316,0.000000
87.000000,-8595.944476,665.366729,-19917.639484,-19073.861131,188.447558,46686.043940,26085.446904,851.109725,0.202000,0.960000,0.104000,192.000000,0.000000,0.000000,0.000000,0.000000,0.000000,0.000000,0.000000,0.000000,0.000000,1647160709.875182,0.000000
88.000000,-8583.002816,675.380310,-19907.111812,-19061.075933,190.258049,46673.191687,26065.933831,834.636490,0.202000,0.960000,0.104000,192.000000,0.000000,0.000000,0.000000,0.000000,0.000000,0.000000,0.000000,0.000000,0.000000,1647160709.875198,0.000000
89.000000,-8583.181630,675.022683,-19905.904818,-19059.958346,193.767273,46677.907905,26066.313811,831.797818,0.202000,0.960000,0.104000,192.000000,0.000000,0.000000,0.000000,0.000000,0.000000,0.000000,0.000000,0.000000,0.000000,1647160709.882017,0.000000
90.000000,-8586.780260,672.251066,-19910.062243,-19065.143951,197.678828,46685.820423,26075.768599,822.834769,0.202000,0.960000,0.104000,192.000000,0.000000,0.000000,0.000000,0.000000,0.000000,0.000000,0.000000,0.000000,0.000000,1647160709.882034,0.000000
91.000000,-8588.970731,669.770023,-19912.431528,-19071.335384,200.562203,46691.877746,26087.123285,832.289557,0.202000,0.960000,0.104000,192.000000,0.000000,0.000000,0.000000,0.000000,0.000000,0.000000,0.000000,0.000000,0.000000,1647160709.889012,0.000000
92.000000,-8584.299217,677.257857,-19911.224533,-19070.709535,198.170566,46697.108054,26093.739402,847.868722,0.202000,0.960000,0.104000,192.000000,0.000000,0.000000,0.000000,0.000000,0.000000,0.000000,0.000000,0.000000,0.000000,1647160709.889028,0.000000
93.000000,-8586.690853,674.821517,-19916.968932,-19070.888349,193.029665,46701.913679,26100.757849,853.791935,0.202000,0.960000,0.104000,192.000000,0.000000,0.000000,0.000000,0.000000,0.000000,0.000000,0.000000,0.000000,0.000000,1647160709.896771,0.000000
94.000000,-8584.098051,674.754462,-19913.593818,-19068.787285,181.138537,46687.049769,26081.021259,839.933853,0.196000,0.964000,0.094000,192.000000,6.000000,32.000000,30.000000,32.000000,2.000000,240.000000,0.000000,0.000000,0.000000,1647160709.904852,0.000000
95.000000,-8590.289484,667.892476,-19919.271161,-19081.103096,177.942238,46684.546373,26078.249643,838.928025,0.196000,0.964000,0.094000,192.000000,0.000000,0.000000,0.000000,0.000000,0.000000,0.000000,0.000000,0.000000,0.000000,1647160709.904869,0.000000
96.000000,-8582.086394,674.933276,-19912.722100,-19070.709535,188.961648,46693.107092,26087.905596,855.311853,0.196000,0.964000,0.094000,192.000000,0.000000,0.000000,0.000000,0.000000,0.000000,0.000000,0.000000,0.000000,0.000000,1647160709.911675,0.000000
97.000000,-8572.542199,684.365712,-19907.357682,-19063.400515,195.689523,46696.303391,26092.063021,866.308912,0.196000,0.964000,0.094000,192.000000,0.000000,0.000000,0.000000,0.000000,0.000000,0.000000,0.000000,0.000000,0.000000,1647160709.911692,0.000000
98.000000,-8575.447926,682.845793,-19912.990321,-19073.056468,190.012180,46690.782510,26088.553797,856.965882,0.196000,0.964000,0.094000,192.000000,0.000000,0.000000,0.000000,0.000000,0.000000,0.000000,0.000000,0.000000,0.000000,1647160709.919621,0.000000
99.000000,-8574.062118,681.325874,-19912.699749,-19072.654137,181.004427,46679.785452,26071.655878,851.869685,0.196000,0.964000,0.094000,192.000000,0.000000,0.000000,0.000000,0.000000,0.000000,0.000000,0.000000,0.000000,0.000000,1647160709.919637,0.000000
100.000000,-8569.480010,684.186898,-19911.716272,-19064.540453,189.252220,46685.529850,26075.947413,876.322493,0.196000,0.964000,0.094000,192.000000,0.000000,0.000000,0.000000,0.000000,0.000000,0.000000,0.000000,0.000000,0.000000,1647160709.927389,0.000000
101.000000,-8572.050461,679.068348,-19918.466499,-19065.993317,189.766310,46687.966190,26080.685983,893.198060,0.196000,0.964000,0.094000,192.000000,0.000000,0.000000,0.000000,0.000000,0.000000,0.000000,0.000000,0.000000,0.000000,1647160709.927405,0.000000
102.000000,-8574.397394,676.609656,-19918.421795,-19066.507407,191.956781,46693.196499,26085.178683,895.142662,0.196000,0.964000,0.094000,192.000000,0.000000,0.000000,0.000000,0.000000,0.000000,0.000000,0.000000,0.000000,0.000000,1647160709.934576,0.000000
103.000000,-8570.709356,678.487203,-19919.181754,-19070.731887,196.337723,46703.031266,26097.427439,901.311743,0.196000,0.964000,0.094000,192.000000,0.000000,0.000000,0.000000,0.000000,0.000000,0.000000,0.000000,0.000000,0.000000,1647160709.934592,0.000000
104.000000,-8567.669519,681.124709,-19918.175926,-19071.313032,192.649685,46714.050676,26112.514867,901.021171,0.196000,0.964000,0.094000,192.000000,0.000000,0.000000,0.000000,0.000000,0.000000,0.000000,0.000000,0.000000,0.000000,1647160709.942200,0.000000
105.000000,-8562.819190,683.985732,-19913.213839,-19062.908776,192.001485,46716.509368,26113.498344,904.463339,0.186000,0.968000,0.092000,192.000000,5.000000,208.000000,30.000000,64.000000,2.000000,224.000000,0.000000,0.000000,0.000000,1647160709.942217,0.000000
106.000000,-8564.204999,686.444424,-19908.341158,-19057.030267,199.556374,46720.085647,26112.380756,907.927860,0.186000,0.968000,0.092000,192.000000,0.000000,0.000000,0.000000,0.000000,0.000000,0.000000,0.000000,0.000000,0.000000,1647160709.950221,0.000000
107.000000,-8569.010624,686.287962,-19909.056414,-19062.506445,199.444616,46716.576423,26109.653844,897.266078,0.186000,0.968000,0.092000,192.000000,0.000000,0.000000,0.000000,0.000000,0.000000,0.000000,0.000000,0.000000,0.000000,1647160709.950255,0.000000
108.000000,-8566.730746,688.321971,-19908.989359,-19064.495750,193.901383,46700.326705,26090.543102,894.829738,0.186000,0.968000,0.092000,192.000000,0.000000,0.000000,0.000000,0.000000,0.000000,0.000000,0.000000,0.000000,0.000000,1647160709.957321,0.000000
109.000000,-8570.508190,682.041130,-19912.587990,-19066.306241,189.185165,46696.437501,26086.206864,903.077531,0.186000,0.968000,0.092000,192.000000,0.000000,0.000000,0.000000,0.000000,0.000000,0.000000,0.000000,0.000000,0.000000,1647160709.964095,0.000000
110.000000,-8577.124307,674.374482,-19919.405272,-19070.329555,189.587496,46707.635725,26104.691756,912.174691,0.186000,0.968000,0.092000,192.000000,0.000000,0.000000,0.000000,0.000000,0.000000,0.000000,0.000000,0.000000,0.000000,1647160709.964111,0.000000
111.000000,-8577.034900,672.027549,-19921.841612,-19072.609433,194.214308,46716.129388,26119.555666,918.746104,0.186000,0.968000,0.092000,192.000000,0.000000,0.000000,0.000000,0.000000,0.000000,0.000000,0.000000,0.000000,0.000000,1647160709.971720,0.000000
112.000000,-8579.582999,669.099470,-19925.887278,-19084.098230,194.370770,46728.624013,26148.411768,919.908395,0.186000,0.968000,0.092000,192.000000,0.000000,0.000000,0.000000,0.000000,0.000000,0.000000,0.000000,0.000000,0.000000,1647160709.971736,0.000000
113.000000,-8570.195266,677.771947,-19917.974760,-19078.487942,190.794491,46720.286813,26144.008475,905.782092,0.186000,0.968000,0.092000,192.000000,0.000000,0.000000,0.000000,0.000000,0.000000,0.000000,0.000000,0.000000,0.000000,1647160709.979798,0.000000
114.000000,-8570.083507,675.492069,-19915.672531,-19080.767820,191.085063,46719.079819,26142.108577,898.316610,0.186000,0.968000,0.092000,192.000000,0.000000,0.000000,0.000000,0.000000,0.000000,0.000000,0.000000,0.000000,0.000000,1647160709.979815,0.000000
115.000000,-8570.351728,673.145136,-19913.392653,-19081.214855,193.879031,46717.962231,26143.963771,889.599429,0.188000,0.964000,0.086000,192.000000,5.000000,224.000000,30.000000,32.000000,2.000000,176.000000,0.000000,0.000000,0.000000,1647160709.986904,0.000000
116.000000,-8570.262321,669.054767,-19916.231324,-19085.707555,200.785720,46721.918490,26156.860728,904.977430,0.188000,0.964000,0.086000,192.000000,0.000000,0.000000,0.000000,0.000000,0.000000,0.000000,0.000000,0.000000,0.000000,1647160709.986920,0.000000
117.000000,-8563.377984,672.698101,-19909.950484,-19084.768782,194.080197,46712.553109,26150.311667,890.538203,0.188000,0.964000,0.086000,192.000000,0.000000,0.000000,0.000000,0.000000,0.000000,0.000000,0.000000,0.000000,0.000000,1647160709.994395,0.000000
118.000000,-8564.361461,674.687406,-19912.409176,-19086.132239,190.638028,46702.941859,26137.325303,882.312761,0.188000,0.964000,0.086000,192.000000,0.000000,0.000000,0.000000,0.000000,0.000000,0.000000,0.000000,0.000000,0.000000,1647160709.994412,0.000000
119.000000,-8565.501400,676.229677,-19912.297417,-19082.958291,194.907212,46714.005973,26148.031789,910.922994,0.188000,0.964000,0.086000,192.000000,0.000000,0.000000,0.000000,0.000000,0.000000,0.000000,0.000000,0.000000,0.000000,1647160710.002262,0.000000
120.000000,-8571.491667,674.374482,-19916.745414,-19084.187637,198.058808,46725.695935,26165.600260,908.777226,0.188000,0.964000,0.086000,192.000000,0.000000,0.000000,0.000000,0.000000,0.000000,0.000000,0.000000,0.000000,0.000000,1647160710.002273,0.000000
121.000000,-8567.066022,673.100433,-19909.838725,-19075.962195,199.802244,46722.901967,26156.368990,900.060046,0.188000,0.964000,0.086000,192.000000,0.000000,0.000000,0.000000,0.000000,0.000000,0.000000,0.000000,0.000000,0.000000,1647160710.010340,0.000000
122.000000,-8565.546103,671.468755,-19911.470403,-19075.224587,207.938279,46734.122543,26166.293164,913.336982,0.188000,0.964000,0.086000,192.000000,0.000000,0.000000,0.000000,0.000000,0.000000,0.000000,0.000000,0.000000,0.000000,1647160710.010352,0.000000
123.000000,-8562.215693,671.289941,-19914.487888,-19077.705631,204.116130,46735.106019,26170.987030,890.627610,0.188000,0.964000,0.086000,192.000000,0.000000,0.000000,0.000000,0.000000,0.000000,0.000000,0.000000,0.000000,0.000000,1647160710.016486,0.000000
124.000000,-8544.066077,686.556183,-19899.355757,-19055.443294,202.193880,46719.482150,26141.102748,893.823909,0.188000,0.964000,0.086000,192.000000,0.000000,0.000000,0.000000,0.000000,0.000000,0.000000,0.000000,0.000000,0.000000,1647160710.024139,0.000000
125.000000,-8553.409106,676.721415,-19905.502487,-19067.245015,205.256069,46726.612356,26148.881155,915.840377,0.188000,0.970000,0.088000,192.000000,5.000000,224.000000,30.000000,80.000000,2.000000,192.000000,0.000000,0.000000,0.000000,1647160710.024155,0.000000
126.000000,-8553.140885,674.709758,-19908.631731,-19071.961233,201.679790,46723.393705,26146.243649,906.162072,0.188000,0.970000,0.088000,192.000000,0.000000,0.000000,0.000000,0.000000,0.000000,0.000000,0.000000,0.000000,0.000000,1647160710.032047,0.000000
127.000000,-8561.187513,668.518325,-19917.415967,-19084.679375,201.120997,46737.743525,26171.210548,916.376819,0.188000,0.970000,0.088000,192.000000,0.000000,0.000000,0.000000,0.000000,0.000000,0.000000,0.000000,0.000000,0.000000,1647160710.032064,0.000000
128.000000,-8554.616100,674.530944,-19914.443185,-19079.493771,202.149177,46743.890255,26179.726562,932.917110,0.188000,0.970000,0.088000,192.000000,0.000000,0.000000,0.000000,0.000000,0.000000,0.000000,0.000000,0.000000,0.000000,1647160710.040187,0.000000
129.000000,-8561.075754,668.965360,-19918.958237,-19087.741564,191.085063,46742.705613,26178.273699,920.690706,0.188000,0.970000,0.088000,192.000000,0.000000,0.000000,0.000000,0.000000,0.000000,0.000000,0.000000,0.000000,0.000000,1647160710.040221,0.000000
130.000000,-8560.807533,665.612598,-19920.679321,-19092.368375,192.359113,46748.852342,26187.527321,926.479808,0.188000,0.970000,0.088000,192.000000,0.000000,0.000000,0.000000,0.000000,0.000000,0.000000,0.000000,0.000000,0.000000,1647160710.046647,0.000000
131.000000,-8546.100086,676.140270,-19909.682263,-19079.471419,194.348418,46740.693956,26174.853882,928.111485,0.188000,0.970000,0.088000,192.000000,0.000000,0.000000,0.000000,0.000000,0.000000,0.000000,0.000000,0.000000,0.000000,1647160710.046664,0.000000
132.000000,-8545.854216,677.011988,-19908.452917,-19079.851398,199.422264,46741.297453,26170.674106,933.252386,0.188000,0.970000,0.088000,192.000000,0.000000,0.000000,0.000000,0.000000,0.000000,0.000000,0.000000,0.000000,0.000000,1647160710.054601,0.000000
133.000000,-8566.753097,658.772964,-19925.037912,-19097.933960,193.633162,46745.186656,26179.748914,923.596433,0.188000,0.970000,0.088000,192.000000,0.000000,0.000000,0.000000,0.000000,0.000000,0.000000,0.000000,0.000000,0.000000,1647160710.054617,0.000000
134.000000,-8563.042708,662.036319,-19920.075824,-19091.340195,187.821709,46740.582197,26175.412676,912.420560,0.188000,0.970000,0.088000,192.000000,0.000000,0.000000,0.000000,0.000000,0.000000,0.000000,0.000000,0.000000,0.000000,1647160710.062772,0.000000
135.000000,-8557.074792,667.445441,-19911.649217,-19089.328538,190.168642,46735.955386,26167.053123,910.230089,0.184000,0.968000,0.082000,192.000000,5.000000,192.000000,30.000000,64.000000,2.000000,144.000000,0.000000,0.000000,0.000000,1647160710.062789,0.000000
136.000000,-8553.744382,668.183049,-19909.771670,-19085.104058,194.929563,46736.000089,26161.174615,912.889947,0.184000,0.968000,0.082000,192.000000,0.000000,0.000000,0.000000,0.000000,0.000000,0.000000,0.000000,0.000000,0.000000,1647160710.069784,0.000000
137.000000,-8547.776466,674.285075,-19907.625903,-19078.085611,201.702142,46736.089496,26157.441873,917.762627,0.184000,0.968000,0.082000,192.000000,0.000000,0.000000,0.000000,0.000000,0.000000,0.000000,0.000000,0.000000,0.000000,1647160710.069799,0.000000
138.000000,-8551.464504,669.904133,-19913.526763,-19084.612320,205.323125,46737.899987,26161.509891,920.087209,0.184000,0.968000,0.082000,192.000000,0.000000,0.000000,0.000000,0.000000,0.000000,0.000000,0.000000,0.000000,0.000000,1647160710.076441,0.000000
139.000000,-8563.623853,657.253046,-19927.518955,-19096.816372,197.790587,46751.154572,26184.800408,922.568252,0.184000,0.968000,0.082000,192.000000,0.000000,0.000000,0.000000,0.000000,0.000000,0.000000,0.000000,0.000000,0.000000,1647160710.084365,0.000000
140.000000,-8557.633586,663.578589,-19924.188545,-19089.485000,193.923735,46747.779458,26184.353374,915.795674,0.184000,0.968000,0.082000,192.000000,0.000000,0.000000,0.000000,0.000000,0.000000,0.000000,0.000000,0.000000,0.000000,1647160710.084381,0.000000
141.000000,-8552.313870,670.418223,-19919.897010,-19086.668681,204.719627,46752.741546,26193.517589,920.131912,0.184000,0.968000,0.082000,192.000000,0.000000,0.000000,0.000000,0.000000,0.000000,0.000000,0.000000,0.000000,0.000000,1647160710.092476,0.000000
142.000000,-8556.784219,668.540677,-19923.875621,-19090.982567,202.350343,46753.993243,26195.953929,914.991011,0.184000,0.968000,0.082000,192.000000,0.000000,0.000000,0.000000,0.000000,0.000000,0.000000,0.000000,0.000000,0.000000,1647160710.092492,0.000000
143.000000,-8558.460600,668.808898,-19927.451900,-19092.614245,195.086026,46751.221627,26192.131781,912.755837,0.184000,0.968000,0.082000,192.000000,0.000000,0.000000,0.000000,0.000000,0.000000,0.000000,0.000000,0.000000,0.000000,1647160710.099477,0.000000
144.000000,-8552.671498,670.284113,-19923.428586,-19089.753221,186.346494,46739.978700,26175.144455,902.161110,0.184000,0.968000,0.082000,192.000000,0.000000,0.000000,0.000000,0.000000,0.000000,0.000000,0.000000,0.000000,0.000000,1647160710.099493,0.000000
145.000000,-8547.932929,670.619389,-19914.532592,-19084.634672,195.711874,46742.727964,26175.345621,919.841340,0.184000,0.966000,0.088000,192.000000,5.000000,192.000000,30.000000,48.000000,2.000000,192.000000,0.000000,0.000000,0.000000,1647160710.106862,0.000000
146.000000,-8557.343013,659.577627,-19926.289609,-19099.677396,199.914002,46752.920360,26195.126914,920.646002,0.184000,0.966000,0.088000,192.000000,0.000000,0.000000,0.000000,0.000000,0.000000,0.000000,0.000000,0.000000,0.000000,1647160710.106878,0.000000
147.000000,-8555.733687,662.528057,-19926.379016,-19098.693919,189.028703,46742.012708,26185.046278,893.108653,0.184000,0.966000,0.088000,192.000000,0.000000,0.000000,0.000000,0.000000,0.000000,0.000000,0.000000,0.000000,0.000000,1647160710.114977,0.000000
148.000000,-8551.129228,670.261761,-19922.936848,-19088.903855,191.710912,46734.323708,26168.997725,916.399171,0.184000,0.966000,0.088000,192.000000,0.000000,0.000000,0.000000,0.000000,0.000000,0.000000,0.000000,0.000000,0.000000,1647160710.114994,0.000000
149.000000,-8556.113667,669.412395,-19925.775519,-19083.718250,197.052979,46744.583159,26175.747952,929.474941,0.184000,0.966000,0.088000,192.000000,0.000000,0.000000,0.000000,0.000000,0.000000,0.000000,0.000000,0.000000,0.000000,1647160710.122157,0.000000
150.000000,-8547.128266,676.117918,-19917.393615,-19072.676488,203.847909,46746.907740,26177.536092,933.252386,0.184000,0.966000,0.088000,192.000000,0.000000,0.000000,0.000000,0.000000,0.000000,0.000000,0.000000,0.000000,0.000000,1647160710.122191,0.000000
151.000000,-8553.096182,672.876915,-19919.449975,-19077.303300,210.978116,46751.087517,26189.382516,935.062878,0.184000,0.966000,0.088000,192.000000,0.000000,0.000000,0.000000,0.000000,0.000000,0.000000,0.000000,0.000000,0.000000,1647160710.129649,0.000000
152.000000,-8561.723955,667.132517,-19925.753167,-19088.076840,203.534985,46750.595778,26195.909225,926.837436,0.184000,0.966000,0.088000,192.000000,0.000000,0.000000,0.000000,0.000000,0.000000,0.000000,0.000000,0.000000,0.000000,1647160710.129665,0.000000
153.000000,-8560.472257,664.986749,-19929.083577,-19092.524838,198.975229,46742.280929,26184.867464,915.885081,0.184000,0.966000,0.088000,192.000000,0.000000,0.000000,0.000000,0.000000,0.000000,0.000000,0.000000,0.000000,0.000000,1647160710.136806,0.000000
154.000000,-8564.160295,659.488220,-19927.898935,-19095.028233,196.181261,46741.520970,26178.676030,909.626592,0.184000,0.966000,0.088000,192.000000,0.000000,0.000000,0.000000,0.000000,0.000000,0.000000,0.000000,0.000000,0.000000,1647160710.136822,0.000000
155.000000,-8562.193342,661.768098,-19925.306132,-19091.228436,200.450444,46753.546209,26188.108467,927.329174,0.184000,0.962000,0.086000,192.000000,5.000000,192.000000,30.000000,16.000000,2.000000,176.000000,0.000000,0.000000,0.000000,1647160710.144766,0.000000
156.000000,-8557.097144,665.053805,-19924.054435,-19087.629806,196.896517,46748.673528,26179.212472,929.184369,0.184000,0.962000,0.086000,192.000000,0.000000,0.000000,0.000000,0.000000,0.000000,0.000000,0.000000,0.000000,0.000000,1647160710.151857,0.000000
157.000000,-8557.544179,663.958569,-19926.177851,-19090.043794,193.767273,46742.146819,26171.143493,927.887968,0.184000,0.962000,0.086000,192.000000,0.000000,0.000000,0.000000,0.000000,0.000000,0.000000,0.000000,0.000000,0.000000,1647160710.151873,0.000000
158.000000,-8571.290502,653.497953,-19943.925136,-19106.897009,192.917906,46748.919397,26190.947138,928.580872,0.184000,0.962000,0.086000,192.000000,0.000000,0.000000,0.000000,0.000000,0.000000,0.000000,0.000000,0.000000,0.000000,1647160710.159301,0.000000
159.000000,-8573.503324,649.944025,-19949.401313,-19111.166192,185.899459,46752.473325,26206.459249,922.344735,0.184000,0.962000,0.086000,192.000000,0.000000,0.000000,0.000000,0.000000,0.000000,0.000000,0.000000,0.000000,0.000000,1647160710.159317,0.000000
160.000000,-8573.011586,652.022738,-19950.071865,-19106.137050,183.574877,46750.148743,26207.442726,911.191214,0.184000,0.962000,0.086000,192.000000,0.000000,0.000000,0.000000,0.000000,0.000000,0.000000,0.000000,0.000000,0.000000,1647160710.167228,0.000000
161.000000,-8561.031051,665.277322,-19938.247793,-19093.128335,188.268744,46734.167246,26184.465132,897.780168,0.184000,0.962000,0.086000,192.000000,0.000000,0.000000,0.000000,0.000000,0.000000,0.000000,0.000000,0.000000,0.000000,1647160710.167243,0.000000
162.000000,-8555.264301,673.100433,-19929.642371,-19088.076840,196.829462,46723.974851,26168.751856,904.642153,0.184000,0.962000,0.086000,192.000000,0.000000,0.000000,0.000000,0.000000,0.000000,0.000000,0.000000,0.000000,0.000000,1647160710.175259,0.000000
163.000000,-8566.127249,661.902209,-19935.118548,-19093.038928,208.117093,46745.521932,26199.954891,926.256290,0.184000,0.962000,0.086000,192.000000,0.000000,0.000000,0.000000,0.000000,0.000000,0.000000,0.000000,0.000000,0.000000,1647160710.175275,0.000000
164.000000,-8563.668557,659.845848,-19932.861022,-19091.697823,201.590383,46750.685185,26209.297920,914.253403,0.184000,0.962000,0.086000,192.000000,0.000000,0.000000,0.000000,0.000000,0.000000,0.000000,0.000000,0.000000,0.000000,1647160710.181848,0.000000
165.000000,-8558.997042,657.320101,-19929.083577,-19090.088497,194.348418,46734.949557,26192.064725,900.238860,0.186000,0.972000,0.084000,192.000000,5.000000,208.000000,30.000000,96.000000,2.000000,160.000000,0.000000,0.000000,0.000000,1647160710.181864,0.000000
166.000000,-8564.026185,653.363842,-19938.672476,-19098.045718,199.690485,46746.997147,26212.471868,922.881177,0.186000,0.972000,0.084000,192.000000,0.000000,0.000000,0.000000,0.000000,0.000000,0.000000,0.000000,0.000000,0.000000,1647160710.190042,0.000000
167.000000,-8556.583054,658.571799,-19932.279877,-19095.877599,200.003409,46748.584121,26213.030662,924.021116,0.186000,0.972000,0.084000,192.000000,0.000000,0.000000,0.000000,0.000000,0.000000,0.000000,0.000000,0.000000,0.000000,1647160710.190058,0.000000
