%OpenBCI Raw EEG Data
%Number of channels = 8
%Sample Rate = 256 Hz
%Board = OpenBCI_GUI$BoardCytonSerial
%Channels = Fp1, Fp2, F3, F4, Fz, Pz, O1, O2
%Data recorded at AIMS Lab (http://aimsl.uiu.ac.bd) by Rana Depto (mail@ranadepto.com)
%Brainwaves were obtained via the Ultracortex Mark IV Headset using the OpenBCI Cyton Board
%Recording Application = ConcentrateToday (https://concentrate.today)
%Data type = RAW data with noise
%Day No = 5
%Subject ID = 9
%Session ID = 7
%Record starting timestamp (UTC+6) = 2022-03-23T16:34:55.475934
%Record ending timestamp (UTC+6)   = 2022-03-23T16:35:31.359096
%Recorded durations = ~35 seconds
Sample Index, EXG Channel 0, EXG Channel 1, EXG Channel 2, EXG Channel 3, EXG Channel 4, EXG Channel 5, EXG Channel 6, EXG Channel 7, Accel Channel 0, Accel Channel 1, Accel Channel 2, Other, Other, Other, Other, Other, Other, Other, Analog Channel 0, Analog Channel 1, Analog Channel 2, Timestamp, Timestamp (Formatted)
219.000000,-4461.899932,15363.337441,25808.955825,56251.361221,-10018.856528,52249.817818,57807.489670,63342.027467,0.014000,0.978000,-0.164000,192.000000,0.000000,0.000000,0.000000,0.000000,0.000000,0.000000,0.000000,0.000000,0.000000,1648031695.478908,0.000000
220.000000,-4454.657966,15365.796133,25818.142392,56249.461323,-10014.207365,52257.082135,57809.546031,63351.616365,0.014000,0.978000,-0.164000,192.000000,0.000000,0.000000,0.000000,0.000000,0.000000,0.000000,0.000000,0.000000,0.000000,1648031695.478917,0.000000
221.000000,-4444.599681,15379.967139,25829.608837,56271.120163,-10000.192821,52261.708946,57817.212679,63363.798066,0.014000,0.978000,-0.164000,192.000000,0.000000,0.000000,0.000000,0.000000,0.000000,0.000000,0.000000,0.000000,0.000000,1648031695.486854,0.000000
222.000000,-4452.333385,15370.445296,25815.907218,56265.040489,-10009.021760,52246.152132,57801.857031,63358.880682,0.016000,0.980000,-0.160000,192.000000,0.000000,128.000000,30.000000,160.000000,251.000000,0.000000,0.000000,0.000000,0.000000,1648031695.486859,0.000000
223.000000,-4460.804696,15363.091572,25804.060793,56250.467151,-10013.335647,52242.575853,57789.407109,63333.198527,0.016000,0.980000,-0.160000,192.000000,0.000000,0.000000,0.000000,0.000000,0.000000,0.000000,0.000000,0.000000,0.000000,1648031695.493839,0.000000
224.000000,-4450.411135,15365.773781,25798.897540,56250.757724,-10013.782682,52244.967490,57792.514001,63333.332638,0.016000,0.980000,-0.160000,192.000000,0.000000,0.000000,0.000000,0.000000,0.000000,0.000000,0.000000,0.000000,0.000000,1648031695.493844,0.000000
225.000000,-4446.633690,15368.344232,25810.274578,56253.171713,-10008.999408,52252.477676,57797.990179,63338.361780,0.016000,0.980000,-0.160000,192.000000,0.000000,0.000000,0.000000,0.000000,0.000000,0.000000,0.000000,0.000000,0.000000,1648031695.501417,0.000000
226.000000,-4463.263388,15360.521121,25813.716747,56243.895739,-10015.056731,52249.706060,57788.378929,63320.368626,0.016000,0.980000,-0.160000,192.000000,0.000000,0.000000,0.000000,0.000000,0.000000,0.000000,0.000000,0.000000,0.000000,1648031695.501422,0.000000
227.000000,-4467.085536,15348.250013,25793.577825,56227.891890,-10028.847757,52245.034545,57785.137926,63338.697057,0.016000,0.980000,-0.160000,192.000000,0.000000,0.000000,0.000000,0.000000,0.000000,0.000000,0.000000,0.000000,0.000000,1648031695.509409,0.000000
228.000000,-4456.826086,15371.026441,25810.296930,56244.119256,-10021.650496,52259.987862,57800.918257,63358.008964,0.016000,0.980000,-0.160000,192.000000,0.000000,0.000000,0.000000,0.000000,0.000000,0.000000,0.000000,0.000000,0.000000,1648031695.509413,0.000000
229.000000,-4452.802772,15384.661005,25810.408689,56273.332986,-10010.385217,52266.179295,57805.120385,63356.533749,0.016000,0.980000,-0.160000,192.000000,0.000000,0.000000,0.000000,0.000000,0.000000,0.000000,0.000000,0.000000,0.000000,1648031695.517327,0.000000
230.000000,-4450.075859,15369.528874,25819.662311,56259.117277,-10007.457138,52257.126839,57778.924141,63350.968164,0.016000,0.980000,-0.160000,192.000000,0.000000,0.000000,0.000000,0.000000,0.000000,0.000000,0.000000,0.000000,0.000000,1648031695.517331,0.000000
231.000000,-4455.082650,15354.061467,25825.786689,56246.041506,-9998.024702,52255.539865,57759.232254,63364.714487,0.016000,0.980000,-0.160000,192.000000,0.000000,0.000000,0.000000,0.000000,0.000000,0.000000,0.000000,0.000000,0.000000,1648031695.523473,0.000000
232.000000,-4452.400440,15363.225682,25832.000474,56256.300957,-9990.827440,52267.319234,57783.081565,63368.804856,0.012000,0.978000,-0.162000,192.000000,0.000000,96.000000,30.000000,144.000000,250.000000,240.000000,0.000000,0.000000,0.000000,1648031695.523479,0.000000
233.000000,-4455.417926,15351.043981,25823.775032,56257.865579,-9994.493126,52268.705042,57827.919165,63376.203284,0.012000,0.978000,-0.162000,192.000000,0.000000,0.000000,0.000000,0.000000,0.000000,0.000000,0.000000,0.000000,0.000000,1648031695.531078,0.000000
234.000000,-4457.966025,15329.742769,25821.763375,56244.163960,-10002.226830,52265.799316,57809.724845,63351.079923,0.012000,0.978000,-0.162000,192.000000,0.000000,0.000000,0.000000,0.000000,0.000000,0.000000,0.000000,0.000000,0.000000,1648031695.539007,0.000000
235.000000,-4467.689033,15317.203440,25823.059776,56243.292241,-10003.925562,52266.402813,57808.361388,63352.309269,0.012000,0.978000,-0.162000,192.000000,0.000000,0.000000,0.000000,0.000000,0.000000,0.000000,0.000000,0.000000,0.000000,1648031695.539034,0.000000
236.000000,-4469.007786,15311.682559,25812.353291,56245.974451,-10007.993580,52261.530132,57798.973656,63364.468618,0.012000,0.978000,-0.162000,192.000000,0.000000,0.000000,0.000000,0.000000,0.000000,0.000000,0.000000,0.000000,0.000000,1648031695.547062,0.000000
237.000000,-4471.421775,15315.661170,25817.449488,56250.265986,-10005.065501,52268.526228,57811.803557,63368.849560,0.012000,0.978000,-0.162000,192.000000,0.000000,0.000000,0.000000,0.000000,0.000000,0.000000,0.000000,0.000000,0.000000,1648031695.547066,0.000000
238.000000,-4467.420813,15331.754426,25828.357140,56252.657622,-9994.895458,52276.952836,57822.621801,63369.006022,0.012000,0.978000,-0.162000,192.000000,0.000000,0.000000,0.000000,0.000000,0.000000,0.000000,0.000000,0.000000,0.000000,1648031695.553621,0.000000
239.000000,-4471.444127,15338.124673,25820.891657,56241.660564,-10001.511574,52270.113202,57805.433310,63357.740743,0.012000,0.978000,-0.162000,192.000000,0.000000,0.000000,0.000000,0.000000,0.000000,0.000000,0.000000,0.000000,0.000000,1648031695.553626,0.000000
240.000000,-4469.544228,15331.553260,25821.919837,56234.284488,-10008.999408,52273.734185,57795.263266,63369.631871,0.012000,0.978000,-0.162000,192.000000,0.000000,0.000000,0.000000,0.000000,0.000000,0.000000,0.000000,0.000000,0.000000,1648031695.561595,0.000000
241.000000,-4456.669623,15335.218946,25824.512640,56245.460361,-10004.104376,52279.366825,57816.005685,63389.055537,0.012000,0.978000,-0.162000,192.000000,0.000000,0.000000,0.000000,0.000000,0.000000,0.000000,0.000000,0.000000,0.000000,1648031695.561598,0.000000
242.000000,-4463.062222,15329.675714,25820.869305,56244.096904,-10004.394949,52278.875086,57828.567365,63403.785336,0.012000,0.978000,-0.162000,192.000000,0.000000,0.000000,0.000000,0.000000,0.000000,0.000000,0.000000,0.000000,0.000000,1648031695.569712,0.000000
243.000000,-4465.409156,15332.134406,25814.208485,56235.715000,-10006.250144,52276.997540,57839.050333,63405.506421,0.006000,0.988000,-0.150000,192.000000,0.000000,48.000000,30.000000,224.000000,251.000000,80.000000,0.000000,0.000000,0.000000,1648031695.569717,0.000000
244.000000,-4461.162324,15321.874955,25812.263884,56220.985201,-10017.247202,52259.339662,57819.425502,63377.477333,0.006000,0.988000,-0.150000,192.000000,0.000000,0.000000,0.000000,0.000000,0.000000,0.000000,0.000000,0.000000,0.000000,1648031695.576743,0.000000
245.000000,-4440.196388,15332.603792,25804.507828,56219.085302,-10017.068388,52263.631196,57816.810348,63364.379211,0.006000,0.988000,-0.150000,192.000000,0.000000,0.000000,0.000000,0.000000,0.000000,0.000000,0.000000,0.000000,0.000000,1648031695.576747,0.000000
246.000000,-4443.303280,15339.197557,25809.581674,56232.988087,-10000.393987,52278.137479,57838.580947,63411.407281,0.006000,0.988000,-0.150000,192.000000,0.000000,0.000000,0.000000,0.000000,0.000000,0.000000,0.000000,0.000000,0.000000,1648031695.584239,0.000000
247.000000,-4455.172057,15335.040132,25813.537933,56232.496349,-9999.701083,52274.225923,57818.352618,63415.899982,0.006000,0.988000,-0.150000,192.000000,0.000000,0.000000,0.000000,0.000000,0.000000,0.000000,0.000000,0.000000,0.000000,1648031695.584242,0.000000
248.000000,-4455.574388,15341.946821,25818.790593,56238.240747,-9999.678731,52273.041281,57808.026112,63390.396642,0.006000,0.988000,-0.150000,192.000000,0.000000,0.000000,0.000000,0.000000,0.000000,0.000000,0.000000,0.000000,0.000000,1648031695.591364,0.000000
249.000000,-4446.700745,15338.370542,25818.343558,56250.265986,-10001.668036,52271.744880,57815.983333,63391.693043,0.006000,0.988000,-0.150000,192.000000,0.000000,0.000000,0.000000,0.000000,0.000000,0.000000,0.000000,0.000000,0.000000,1648031695.599297,0.000000
250.000000,-4442.163341,15328.021685,25815.504887,56244.141608,-10007.300676,52271.297845,57834.557633,63394.598769,0.006000,0.988000,-0.150000,192.000000,0.000000,0.000000,0.000000,0.000000,0.000000,0.000000,0.000000,0.000000,0.000000,1648031695.599336,0.000000
251.000000,-4456.311996,15311.682559,25810.542799,56242.465227,-10016.174318,52265.173467,57820.073702,63363.842769,0.006000,0.988000,-0.150000,192.000000,0.000000,0.000000,0.000000,0.000000,0.000000,0.000000,0.000000,0.000000,0.000000,1648031695.605914,0.000000
252.000000,-4482.955275,15305.379368,25803.770221,56229.367105,-10025.293830,52253.617615,57803.064025,63366.256758,0.006000,0.988000,-0.150000,192.000000,0.000000,0.000000,0.000000,0.000000,0.000000,0.000000,0.000000,0.000000,0.000000,1648031695.605944,0.000000
253.000000,-4472.293493,15335.174243,25828.692416,56233.725695,-10010.653437,52269.085022,57813.412882,63375.890359,0.004000,0.996000,-0.146000,192.000000,0.000000,32.000000,31.000000,32.000000,251.000000,112.000000,0.000000,0.000000,0.000000,1648031695.613896,0.000000
254.000000,-4453.942711,15351.781589,25838.705997,56235.089151,-10004.238487,52278.249237,57819.291391,63384.339319,0.004000,0.996000,-0.146000,192.000000,0.000000,0.000000,0.000000,0.000000,0.000000,0.000000,0.000000,0.000000,0.000000,1648031695.613900,0.000000
255.000000,-4438.877635,15348.294717,25824.333826,56240.140646,-10000.841022,52279.746804,57823.091188,63396.945703,0.004000,0.996000,-0.146000,192.000000,0.000000,0.000000,0.000000,0.000000,0.000000,0.000000,0.000000,0.000000,0.000000,1648031695.621901,0.000000
0.000000,-4453.562731,15338.795225,25820.534029,56240.699439,-10004.372597,52271.633121,57822.018304,63397.951531,0.004000,0.996000,-0.146000,192.000000,0.000000,0.000000,0.000000,0.000000,0.000000,0.000000,0.000000,0.000000,0.000000,1648031695.621905,0.000000
1.000000,-4466.370281,15329.452196,25815.907218,56235.469131,-10011.569859,52265.978130,57808.428443,63372.537598,0.004000,0.996000,-0.146000,192.000000,0.000000,0.000000,0.000000,0.000000,0.000000,0.000000,0.000000,0.000000,0.000000,1648031695.628997,0.000000
2.000000,-4466.906722,15330.972115,25811.816849,56234.038619,-10018.007161,52265.844019,57800.873554,63383.020566,0.004000,0.996000,-0.146000,192.000000,0.000000,0.000000,0.000000,0.000000,0.000000,0.000000,0.000000,0.000000,0.000000,1648031695.629001,0.000000
3.000000,-4457.295472,15330.905060,25800.484514,56231.088189,-10019.147100,52269.085022,57814.418711,63399.560857,0.004000,0.996000,-0.146000,192.000000,0.000000,0.000000,0.000000,0.000000,0.000000,0.000000,0.000000,0.000000,0.000000,1648031695.636521,0.000000
4.000000,-4452.713365,15333.743731,25805.491305,56242.420523,-10010.608734,52271.566066,57820.297220,63396.051633,0.004000,0.996000,-0.146000,192.000000,0.000000,0.000000,0.000000,0.000000,0.000000,0.000000,0.000000,0.000000,0.000000,1648031695.636524,0.000000
5.000000,-4464.023347,15342.058580,25807.972349,56238.464265,-10010.474623,52272.504839,57813.949324,63383.534656,0.004000,0.996000,-0.146000,192.000000,0.000000,0.000000,0.000000,0.000000,0.000000,0.000000,0.000000,0.000000,0.000000,1648031695.644632,0.000000
6.000000,-4469.544228,15352.876824,25801.445639,56234.396247,-10008.686484,52272.795412,57829.304973,63405.774642,0.004000,0.996000,-0.146000,192.000000,0.000000,0.000000,0.000000,0.000000,0.000000,0.000000,0.000000,0.000000,0.000000,1648031695.644635,0.000000
7.000000,-4472.762879,15335.353057,25795.276558,56236.340849,-10009.491147,52268.548580,57808.450795,63428.796939,0.012000,0.978000,-0.144000,192.000000,0.000000,96.000000,30.000000,144.000000,251.000000,128.000000,0.000000,0.000000,0.000000,1648031695.651494,0.000000
8.000000,-4480.273066,15305.446423,25807.122982,56248.075515,-10003.076196,52274.136516,57818.665542,63410.423805,0.012000,0.978000,-0.144000,192.000000,0.000000,0.000000,0.000000,0.000000,0.000000,0.000000,0.000000,0.000000,0.000000,1648031695.658740,0.000000
9.000000,-4478.887257,15311.190821,25828.133622,56260.704250,-9991.207420,52291.257953,57831.271926,63394.330549,0.012000,0.978000,-0.144000,192.000000,0.000000,0.000000,0.000000,0.000000,0.000000,0.000000,0.000000,0.000000,0.000000,1648031695.658744,0.000000
10.000000,-4478.373167,15317.829289,25825.429061,56265.331062,-9983.943103,52295.325970,57833.663563,63406.624008,0.012000,0.978000,-0.144000,192.000000,0.000000,0.000000,0.000000,0.000000,0.000000,0.000000,0.000000,0.000000,0.000000,1648031695.666157,0.000000
11.000000,-4475.422737,15321.606734,25820.422270,56254.736335,-9987.832306,52294.454252,57837.597470,63410.155584,0.012000,0.978000,-0.144000,192.000000,0.000000,0.000000,0.000000,0.000000,0.000000,0.000000,0.000000,0.000000,0.000000,1648031695.666161,0.000000
12.000000,-4455.954368,15337.297659,25818.142392,56255.161018,-9990.961551,52291.883801,57837.485711,63401.974845,0.012000,0.978000,-0.144000,192.000000,0.000000,0.000000,0.000000,0.000000,0.000000,0.000000,0.000000,0.000000,0.000000,1648031695.674196,0.000000
13.000000,-4454.188580,15337.990563,25815.571942,56253.618747,-9997.577667,52285.379444,57830.713133,63403.785336,0.012000,0.978000,-0.144000,192.000000,0.000000,0.000000,0.000000,0.000000,0.000000,0.000000,0.000000,0.000000,0.000000,1648031695.674199,0.000000
14.000000,-4457.317824,15339.331667,25820.042291,56253.328175,-9999.566972,52284.954761,57828.410903,63402.019549,0.012000,0.978000,-0.144000,192.000000,0.000000,0.000000,0.000000,0.000000,0.000000,0.000000,0.000000,0.000000,0.000000,1648031695.682267,0.000000
15.000000,-4442.342155,15356.743676,25820.086994,56253.283471,-10000.215173,52277.869258,57823.672333,63396.386909,0.012000,0.978000,-0.144000,192.000000,0.000000,0.000000,0.000000,0.000000,0.000000,0.000000,0.000000,0.000000,0.000000,1648031695.682272,0.000000
16.000000,-4430.987469,15369.350060,25815.571942,56258.871407,-9994.448423,52279.344473,57821.012476,63395.962226,0.012000,0.978000,-0.144000,192.000000,0.000000,0.000000,0.000000,0.000000,0.000000,0.000000,0.000000,0.000000,0.000000,1648031695.688945,0.000000
17.000000,-4451.953405,15353.592080,25811.079241,56250.601262,-9996.951818,52287.771080,57822.599449,63401.326645,0.012000,0.972000,-0.138000,192.000000,0.000000,96.000000,30.000000,96.000000,251.000000,176.000000,0.000000,0.000000,0.000000,1648031695.688950,0.000000
18.000000,-4447.281891,15356.184883,25816.823639,56254.222245,-9998.874068,52293.291961,57825.840452,63389.815496,0.012000,0.972000,-0.138000,192.000000,0.000000,0.000000,0.000000,0.000000,0.000000,0.000000,0.000000,0.000000,0.000000,1648031695.696820,0.000000
19.000000,-4434.899024,15361.079915,25831.039349,56247.896701,-9996.728301,52296.085929,57819.157281,63395.783412,0.012000,0.972000,-0.138000,192.000000,0.000000,0.000000,0.000000,0.000000,0.000000,0.000000,0.000000,0.000000,0.000000,1648031695.696855,0.000000
20.000000,-4447.795981,15352.273327,25816.488363,56240.230052,-9998.292923,52293.671941,57811.088301,63411.787261,0.012000,0.972000,-0.138000,192.000000,0.000000,0.000000,0.000000,0.000000,0.000000,0.000000,0.000000,0.000000,0.000000,1648031695.704213,0.000000
21.000000,-4452.780420,15350.194615,25820.578733,56235.893814,-10006.227792,52287.748729,57820.990124,63410.312046,0.012000,0.972000,-0.138000,192.000000,0.000000,0.000000,0.000000,0.000000,0.000000,0.000000,0.000000,0.000000,0.000000,1648031695.704217,0.000000
22.000000,-4456.155533,15361.884577,25809.335805,56234.530358,-10006.808937,52281.534944,57815.513946,63385.211037,0.012000,0.972000,-0.138000,192.000000,0.000000,0.000000,0.000000,0.000000,0.000000,0.000000,0.000000,0.000000,0.000000,1648031695.711193,0.000000
23.000000,-4439.972870,15380.972967,25812.397994,56243.493407,-9999.768138,52294.968342,57824.476996,63408.188630,0.012000,0.972000,-0.138000,192.000000,0.000000,0.000000,0.000000,0.000000,0.000000,0.000000,0.000000,0.000000,0.000000,1648031695.719232,0.000000
24.000000,-4412.882556,15389.511334,25823.886791,56268.706175,-9988.033472,52310.212232,57830.735484,63416.726997,0.012000,0.972000,-0.138000,192.000000,0.000000,0.000000,0.000000,0.000000,0.000000,0.000000,0.000000,0.000000,0.000000,1648031695.719236,0.000000
25.000000,-4417.911699,15378.313110,25825.920799,56280.329082,-9977.394042,52314.660229,57838.625650,63423.052540,0.012000,0.972000,-0.138000,192.000000,0.000000,0.000000,0.000000,0.000000,0.000000,0.000000,0.000000,0.000000,0.000000,1648031695.726414,0.000000
26.000000,-4423.857263,15366.131409,25820.377567,56276.238713,-9985.395966,52303.819633,57835.988144,63423.276058,0.012000,0.972000,-0.138000,192.000000,0.000000,0.000000,0.000000,0.000000,0.000000,0.000000,0.000000,0.000000,0.000000,1648031695.726418,0.000000
27.000000,-4415.073027,15369.931206,25811.392166,56273.467097,-9988.726376,52301.942086,57836.368124,63420.280924,0.004000,0.972000,-0.144000,192.000000,0.000000,32.000000,30.000000,96.000000,251.000000,128.000000,0.000000,0.000000,0.000000,1648031695.733795,0.000000
28.000000,-4435.837798,15372.568711,25815.683701,56266.649814,-9990.782737,52302.344418,57836.971621,63420.459738,0.004000,0.972000,-0.144000,192.000000,0.000000,0.000000,0.000000,0.000000,0.000000,0.000000,0.000000,0.000000,0.000000,1648031695.733798,0.000000
29.000000,-4448.421830,15362.778647,25824.847916,56269.130858,-9991.028606,52298.231697,57831.830720,63416.950514,0.004000,0.972000,-0.144000,192.000000,0.000000,0.000000,0.000000,0.000000,0.000000,0.000000,0.000000,0.000000,0.000000,1648031695.741824,0.000000
30.000000,-4462.391670,15358.956499,25828.245381,56272.193047,-9990.626274,52301.830328,57830.914298,63423.499575,0.004000,0.972000,-0.144000,192.000000,0.000000,0.000000,0.000000,0.000000,0.000000,0.000000,0.000000,0.000000,0.000000,1648031695.741828,0.000000
31.000000,-4459.597702,15375.407383,25825.764337,56271.947178,-9983.272550,52305.741883,57838.133912,63411.831964,0.004000,0.972000,-0.144000,192.000000,0.000000,0.000000,0.000000,0.000000,0.000000,0.000000,0.000000,0.000000,0.000000,1648031695.749784,0.000000
32.000000,-4448.913568,15382.358775,25830.435852,56275.970492,-9980.478582,52314.548470,57841.620784,63411.742557,0.004000,0.972000,-0.144000,192.000000,0.000000,0.000000,0.000000,0.000000,0.000000,0.000000,0.000000,0.000000,0.000000,1648031695.749788,0.000000
33.000000,-4441.425734,15385.353909,25830.771128,56283.301864,-9979.115126,52318.616488,57845.800560,63420.705607,0.004000,0.972000,-0.144000,192.000000,0.000000,0.000000,0.000000,0.000000,0.000000,0.000000,0.000000,0.000000,0.000000,1648031695.756441,0.000000
34.000000,-4446.298414,15375.854418,25813.493230,56268.147381,-9988.882838,52307.820595,57843.207758,63423.812500,0.004000,0.972000,-0.144000,192.000000,0.000000,0.000000,0.000000,0.000000,0.000000,0.000000,0.000000,0.000000,0.000000,1648031695.756445,0.000000
35.000000,-4450.366432,15371.652290,25801.780915,56257.485599,-10000.170469,52298.857546,57834.490578,63407.674540,0.004000,0.972000,-0.144000,192.000000,0.000000,0.000000,0.000000,0.000000,0.000000,0.000000,0.000000,0.000000,0.000000,1648031695.764392,0.000000
36.000000,-4436.106019,15374.200389,25814.722576,56277.177486,-9992.593228,52303.976095,57819.403150,63405.171145,0.004000,0.972000,-0.144000,192.000000,0.000000,0.000000,0.000000,0.000000,0.000000,0.000000,0.000000,0.000000,0.000000,1648031695.764396,0.000000
37.000000,-4434.675507,15374.289796,25822.188058,56288.800393,-9989.754556,52305.898345,57811.311819,63413.463642,0.006000,0.978000,-0.138000,192.000000,0.000000,48.000000,30.000000,144.000000,251.000000,176.000000,0.000000,0.000000,0.000000,1648031695.771495,0.000000
38.000000,-4437.938862,15380.347118,25813.381471,56287.995730,-9994.157850,52306.524194,57849.801522,63396.453964,0.006000,0.978000,-0.138000,192.000000,0.000000,0.000000,0.000000,0.000000,0.000000,0.000000,0.000000,0.000000,0.000000,1648031695.771499,0.000000
39.000000,-4430.808655,15386.784421,25812.085070,56292.801355,-9989.978074,52321.723380,57869.068726,63438.385837,0.006000,0.978000,-0.138000,192.000000,0.000000,0.000000,0.000000,0.000000,0.000000,0.000000,0.000000,0.000000,0.000000,1648031695.779495,0.000000
40.000000,-4429.936937,15385.912703,25808.508791,56294.120108,-9988.078176,52321.410456,57857.177598,63448.332363,0.006000,0.978000,-0.138000,192.000000,0.000000,0.000000,0.000000,0.000000,0.000000,0.000000,0.000000,0.000000,0.000000,1648031695.786067,0.000000
41.000000,-4427.701763,15397.066223,25812.174477,56298.299885,-9985.932408,52325.031438,57851.880235,63448.131197,0.006000,0.978000,-0.138000,192.000000,0.000000,0.000000,0.000000,0.000000,0.000000,0.000000,0.000000,0.000000,0.000000,1648031695.786071,0.000000
42.000000,-4438.743524,15384.325729,25791.230892,56275.702271,-10005.736054,52302.903211,57828.075627,63413.821270,0.006000,0.978000,-0.138000,192.000000,0.000000,0.000000,0.000000,0.000000,0.000000,0.000000,0.000000,0.000000,0.000000,1648031695.794128,0.000000
43.000000,-4420.593908,15389.198409,25788.615738,56278.831515,-10003.277362,52308.245278,57833.842377,63409.395624,0.006000,0.978000,-0.138000,192.000000,0.000000,0.000000,0.000000,0.000000,0.000000,0.000000,0.000000,0.000000,0.000000,1648031695.794138,0.000000
44.000000,-4419.342210,15387.924360,25801.825619,56279.882047,-9998.359978,52318.482377,57855.188293,63447.661811,0.006000,0.978000,-0.138000,192.000000,0.000000,0.000000,0.000000,0.000000,0.000000,0.000000,0.000000,0.000000,0.000000,1648031695.802101,0.000000
45.000000,-4415.855338,15391.388880,25801.356232,56283.033643,-9999.209344,52316.291906,57842.425447,63453.294450,0.006000,0.978000,-0.138000,192.000000,0.000000,0.000000,0.000000,0.000000,0.000000,0.000000,0.000000,0.000000,0.000000,1648031695.802105,0.000000
46.000000,-4414.938917,15398.854363,25800.663328,56273.444745,-9992.861449,52324.472645,57871.438011,63451.752180,0.006000,0.978000,-0.138000,192.000000,0.000000,0.000000,0.000000,0.000000,0.000000,0.000000,0.000000,0.000000,0.000000,1648031695.809229,0.000000
47.000000,-4427.455893,15401.380110,25806.385375,56270.986053,-9991.430937,52326.283136,57876.288340,63441.492729,0.002000,0.974000,-0.148000,192.000000,0.000000,16.000000,30.000000,112.000000,251.000000,96.000000,0.000000,0.000000,0.000000,1648031695.809233,0.000000
48.000000,-4429.936937,15388.393746,25795.500075,56275.970492,-9994.783699,52317.230680,57865.335985,63445.739561,0.002000,0.974000,-0.148000,192.000000,0.000000,0.000000,0.000000,0.000000,0.000000,0.000000,0.000000,0.000000,0.000000,1648031695.816740,0.000000
49.000000,-4443.660908,15374.602720,25784.212444,56273.467097,-10006.071330,52308.915831,57863.592549,63438.519947,0.002000,0.974000,-0.148000,192.000000,0.000000,0.000000,0.000000,0.000000,0.000000,0.000000,0.000000,0.000000,0.000000,1648031695.816744,0.000000
50.000000,-4451.104039,15382.269368,25783.653651,56275.188181,-10003.232658,52308.848775,57866.386517,63440.822177,0.002000,0.974000,-0.148000,192.000000,0.000000,0.000000,0.000000,0.000000,0.000000,0.000000,0.000000,0.000000,0.000000,1648031695.824751,0.000000
51.000000,-4448.243016,15368.791267,25781.641994,56273.288283,-10004.573763,52303.573764,57859.301014,63448.175901,0.002000,0.974000,-0.148000,192.000000,0.000000,0.000000,0.000000,0.000000,0.000000,0.000000,0.000000,0.000000,0.000000,1648031695.824755,0.000000
52.000000,-4446.477228,15359.381182,25777.015183,56272.260102,-10009.580554,52300.064540,57854.808313,63420.415034,0.002000,0.974000,-0.148000,192.000000,0.000000,0.000000,0.000000,0.000000,0.000000,0.000000,0.000000,0.000000,0.000000,1648031695.831892,0.000000
53.000000,-4455.976719,15385.555075,25776.344630,56286.632274,-10004.082025,52309.474624,57858.719869,63431.702665,0.002000,0.974000,-0.148000,192.000000,0.000000,0.000000,0.000000,0.000000,0.000000,0.000000,0.000000,0.000000,0.000000,1648031695.831896,0.000000
54.000000,-4469.186600,15386.449145,25765.369924,56284.553562,-10003.880859,52302.456177,57857.222302,63419.744482,0.002000,0.974000,-0.148000,192.000000,0.000000,0.000000,0.000000,0.000000,0.000000,0.000000,0.000000,0.000000,0.000000,1648031695.838394,0.000000
55.000000,-4451.774591,15382.179961,25772.321316,56292.779004,-9996.415376,52312.313296,57863.927825,63415.765871,0.002000,0.974000,-0.148000,192.000000,0.000000,0.000000,0.000000,0.000000,0.000000,0.000000,0.000000,0.000000,0.000000,1648031695.846272,0.000000
56.000000,-4421.778550,15382.492886,25785.262976,56305.228925,-9985.887705,52324.740866,57871.549770,63448.913509,0.002000,0.974000,-0.148000,192.000000,0.000000,0.000000,0.000000,0.000000,0.000000,0.000000,0.000000,0.000000,0.000000,1648031695.846276,0.000000
57.000000,-4424.080780,15385.219799,25785.218273,56309.878088,-9984.859524,52323.399761,57864.374860,63451.483959,0.002000,0.974000,-0.148000,192.000000,0.000000,0.000000,30.000000,176.000000,251.000000,112.000000,0.000000,0.000000,0.000000,1648031695.854344,0.000000
58.000000,-4430.987469,15385.040985,25780.233834,56315.063693,-9987.474678,52315.397837,57855.970604,63443.884366,0.002000,0.974000,-0.148000,192.000000,0.000000,0.000000,0.000000,0.000000,0.000000,0.000000,0.000000,0.000000,0.000000,1648031695.854347,0.000000
59.000000,-4420.906832,15379.810677,25781.262014,56316.628315,-9989.240466,52311.016895,57853.690726,63455.462570,0.002000,0.974000,-0.148000,192.000000,0.000000,0.000000,0.000000,0.000000,0.000000,0.000000,0.000000,0.000000,0.000000,1648031695.861386,0.000000
60.000000,-4408.188690,15390.897142,25782.804284,56313.387312,-9989.486335,52311.039246,57851.299089,63460.514064,0.002000,0.974000,-0.148000,192.000000,0.000000,0.000000,0.000000,0.000000,0.000000,0.000000,0.000000,0.000000,0.000000,1648031695.861389,0.000000
61.000000,-4416.078856,15392.439412,25776.903424,56300.400949,-9994.403719,52307.865299,57854.338927,63442.118578,0.002000,0.974000,-0.148000,192.000000,0.000000,0.000000,0.000000,0.000000,0.000000,0.000000,0.000000,0.000000,0.000000,1648031695.869017,0.000000
62.000000,-4405.618239,15406.565715,25781.239662,56301.652646,-9990.916847,52314.883746,57850.203854,63446.454817,0.002000,0.974000,-0.148000,192.000000,0.000000,0.000000,0.000000,0.000000,0.000000,0.000000,0.000000,0.000000,0.000000,1648031695.869021,0.000000
63.000000,-4413.933088,15406.141032,25782.938395,56307.419396,-9988.100527,52325.724343,57854.160113,63444.264346,0.002000,0.974000,-0.148000,192.000000,0.000000,0.000000,0.000000,0.000000,0.000000,0.000000,0.000000,0.000000,0.000000,1648031695.876974,0.000000
64.000000,-4454.501504,15384.951578,25790.448581,56291.124975,-9996.080100,52321.924546,57868.107601,63446.723038,0.002000,0.974000,-0.148000,192.000000,0.000000,0.000000,0.000000,0.000000,0.000000,0.000000,0.000000,0.000000,0.000000,1648031695.876978,0.000000
65.000000,-4438.117676,15391.098308,25800.529218,56293.114280,-9986.424146,52331.200520,57873.092040,63459.865863,0.002000,0.974000,-0.148000,192.000000,0.000000,0.000000,0.000000,0.000000,0.000000,0.000000,0.000000,0.000000,0.000000,1648031695.884946,0.000000
66.000000,-4416.145911,15392.573523,25799.590445,56300.266838,-9976.947007,52336.274366,57883.262084,63477.411983,0.002000,0.974000,-0.148000,192.000000,0.000000,0.000000,0.000000,0.000000,0.000000,0.000000,0.000000,0.000000,0.000000,1648031695.884950,0.000000
67.000000,-4416.324725,15385.331557,25802.943206,56303.798414,-9979.204533,52336.162607,57880.043433,63475.243863,-0.004000,0.990000,-0.134000,192.000000,255.000000,224.000000,30.000000,240.000000,251.000000,208.000000,0.000000,0.000000,0.000000,1648031695.891571,0.000000
68.000000,-4429.691068,15364.164455,25783.363078,56285.693501,-9991.050958,52328.138331,57861.424430,63448.958212,-0.004000,0.990000,-0.134000,192.000000,0.000000,0.000000,0.000000,0.000000,0.000000,0.000000,0.000000,0.000000,0.000000,1648031695.891574,0.000000
69.000000,-4422.762027,15374.446258,25792.884921,56285.291169,-9986.580609,52334.106247,57866.565331,63455.999012,-0.004000,0.990000,-0.134000,192.000000,0.000000,0.000000,0.000000,0.000000,0.000000,0.000000,0.000000,0.000000,0.000000,1648031695.898627,0.000000
70.000000,-4395.157623,15403.257656,25814.946093,56303.351379,-9970.800277,52344.008070,57860.485656,63441.582136,-0.004000,0.990000,-0.134000,192.000000,0.000000,0.000000,0.000000,0.000000,0.000000,0.000000,0.000000,0.000000,0.000000,1648031695.906589,0.000000
71.000000,-4394.598829,15383.699880,25807.502962,56285.291169,-9976.276454,52335.156779,57853.489560,63457.809503,-0.004000,0.990000,-0.134000,192.000000,0.000000,0.000000,0.000000,0.000000,0.000000,0.000000,0.000000,0.000000,0.000000,1648031695.906593,0.000000
72.000000,-4411.161472,15357.458932,25793.488418,56274.517628,-9988.324045,52332.027534,57834.334115,63481.614111,-0.004000,0.990000,-0.134000,192.000000,0.000000,0.000000,0.000000,0.000000,0.000000,0.000000,0.000000,0.000000,0.000000,1648031695.914661,0.000000
73.000000,-4416.391780,15342.103284,25775.763485,56269.756707,-9993.174373,52333.256880,57877.294168,63487.693785,-0.004000,0.990000,-0.134000,192.000000,0.000000,0.000000,0.000000,0.000000,0.000000,0.000000,0.000000,0.000000,0.000000,1648031695.914664,0.000000
74.000000,-4428.081742,15334.436635,25775.450561,56259.184332,-9999.544620,52328.406552,57894.393253,63467.688974,-0.004000,0.990000,-0.134000,192.000000,0.000000,0.000000,0.000000,0.000000,0.000000,0.000000,0.000000,0.000000,0.000000,1648031695.921217,0.000000
75.000000,-4450.388783,15335.062484,25772.097799,56250.534207,-10011.882783,52314.570822,57880.825744,63454.456741,-0.004000,0.990000,-0.134000,192.000000,0.000000,0.000000,0.000000,0.000000,0.000000,0.000000,0.000000,0.000000,0.000000,1648031695.921221,0.000000
76.000000,-4440.509312,15344.114941,25774.735305,56253.037602,-10011.145176,52314.548470,57877.160058,63457.250709,-0.004000,0.990000,-0.134000,192.000000,0.000000,0.000000,0.000000,0.000000,0.000000,0.000000,0.000000,0.000000,0.000000,1648031695.929250,0.000000
77.000000,-4434.228472,15357.995374,25798.472857,56260.324271,-9999.075234,52326.394895,57887.240694,63455.015535,0.006000,0.988000,-0.140000,192.000000,0.000000,48.000000,30.000000,224.000000,251.000000,160.000000,0.000000,0.000000,0.000000,1648031695.929254,0.000000
78.000000,-4432.485036,15362.264557,25789.532160,56262.559445,-9999.902248,52324.763218,57882.211552,63467.510160,0.006000,0.988000,-0.140000,192.000000,0.000000,0.000000,0.000000,0.000000,0.000000,0.000000,0.000000,0.000000,0.000000,1648031695.937245,0.000000
79.000000,-4437.402420,15333.274345,25799.143410,56259.385497,-9998.203516,52327.400723,57877.115354,63468.694802,0.006000,0.988000,-0.140000,192.000000,0.000000,0.000000,0.000000,0.000000,0.000000,0.000000,0.000000,0.000000,0.000000,1648031695.937249,0.000000
80.000000,-4450.344080,15305.289961,25806.944168,56263.319405,-9988.771080,52331.781665,57877.696500,63466.347869,0.006000,0.988000,-0.140000,192.000000,0.000000,0.000000,0.000000,0.000000,0.000000,0.000000,0.000000,0.000000,0.000000,1648031695.944372,0.000000
81.000000,-4438.765876,15308.128632,25797.198808,56265.643986,-9991.945027,52325.500825,57871.192142,63440.330439,0.006000,0.988000,-0.140000,192.000000,0.000000,0.000000,0.000000,0.000000,0.000000,0.000000,0.000000,0.000000,0.000000,1648031695.944376,0.000000
82.000000,-4443.236225,15305.088795,25789.621566,56248.947233,-10000.997484,52320.806959,57868.286415,63452.266270,0.006000,0.988000,-0.140000,192.000000,0.000000,0.000000,0.000000,0.000000,0.000000,0.000000,0.000000,0.000000,0.000000,1648031695.951841,0.000000
83.000000,-4451.484019,15297.936237,25788.414572,56243.940442,-10003.478527,52319.711723,57854.607148,63456.334288,0.006000,0.988000,-0.140000,192.000000,0.000000,0.000000,0.000000,0.000000,0.000000,0.000000,0.000000,0.000000,0.000000,1648031695.951845,0.000000
84.000000,-4425.734809,15318.030455,25806.005395,56267.968567,-9981.104431,52338.464837,57871.661529,63470.348831,0.006000,0.988000,-0.140000,192.000000,0.000000,0.000000,0.000000,0.000000,0.000000,0.000000,0.000000,0.000000,0.000000,1648031695.958914,0.000000
85.000000,-4426.651231,15306.675769,25794.561302,56259.609015,-9985.395966,52328.875939,57867.884084,63461.162264,0.006000,0.988000,-0.140000,192.000000,0.000000,0.000000,0.000000,0.000000,0.000000,0.000000,0.000000,0.000000,0.000000,1648031695.966870,0.000000
86.000000,-4442.275100,15294.538771,25786.604081,56254.803390,-9993.241429,52327.288965,57868.129953,63460.022326,0.006000,0.988000,-0.140000,192.000000,0.000000,0.000000,0.000000,0.000000,0.000000,0.000000,0.000000,0.000000,0.000000,1648031695.966879,0.000000
87.000000,-4448.980623,15292.527114,25787.453447,56253.462285,-9993.911981,52322.326877,57869.515761,63468.627747,0.006000,0.988000,-0.140000,192.000000,0.000000,0.000000,0.000000,0.000000,0.000000,0.000000,0.000000,0.000000,0.000000,1648031695.974330,0.000000
88.000000,-4444.353812,15290.604864,25783.251319,56245.013326,-10002.003312,52314.548470,57858.652813,63452.534491,0.008000,0.978000,-0.142000,192.000000,0.000000,64.000000,30.000000,144.000000,251.000000,144.000000,0.000000,0.000000,0.000000,1648031695.974338,0.000000
89.000000,-4432.462684,15294.225847,25789.733325,56244.655698,-9997.778833,52316.381313,57863.436087,63452.825064,0.008000,0.978000,-0.142000,192.000000,0.000000,0.000000,0.000000,0.000000,0.000000,0.000000,0.000000,0.000000,0.000000,1648031695.981928,0.000000
90.000000,-4437.402420,15296.595132,25783.273671,56243.985146,-10000.528097,52313.363828,57853.109581,63447.862977,0.008000,0.978000,-0.142000,192.000000,0.000000,0.000000,0.000000,0.000000,0.000000,0.000000,0.000000,0.000000,0.000000,1648031695.981944,0.000000
91.000000,-4434.742562,15310.252048,25791.186189,56249.863654,-9990.223943,52325.970212,57858.675165,63462.302203,0.008000,0.978000,-0.142000,192.000000,0.000000,0.000000,0.000000,0.000000,0.000000,0.000000,0.000000,0.000000,0.000000,1648031695.989961,0.000000
92.000000,-4442.230397,15298.718548,25795.991814,56243.471055,-9991.363882,52332.161645,57871.080383,63477.233169,0.008000,0.978000,-0.142000,192.000000,0.000000,0.000000,0.000000,0.000000,0.000000,0.000000,0.000000,0.000000,0.000000,1648031695.989977,0.000000
93.000000,-4440.777533,15300.327873,25801.199770,56255.697460,-9990.313350,52332.563976,57874.768421,63477.680204,0.008000,0.978000,-0.142000,192.000000,0.000000,0.000000,0.000000,0.000000,0.000000,0.000000,0.000000,0.000000,0.000000,1648031695.997140,0.000000
94.000000,-4432.999126,15304.082966,25797.377622,56258.603186,-9989.709853,52327.646593,57869.091078,63497.081518,0.008000,0.978000,-0.142000,192.000000,0.000000,0.000000,0.000000,0.000000,0.000000,0.000000,0.000000,0.000000,0.000000,1648031695.997156,0.000000
95.000000,-4428.595832,15301.311350,25784.614776,56251.093000,-9992.302655,52329.121808,57870.409831,63458.100075,0.008000,0.978000,-0.142000,192.000000,0.000000,0.000000,0.000000,0.000000,0.000000,0.000000,0.000000,0.000000,0.000000,1648031696.004306,0.000000
96.000000,-4424.952498,15309.425033,25784.927700,56254.445762,-9988.033472,52335.000317,57874.053165,63442.833834,0.008000,0.978000,-0.142000,192.000000,0.000000,0.000000,0.000000,0.000000,0.000000,0.000000,0.000000,0.000000,0.000000,1648031696.004317,0.000000
97.000000,-4428.595832,15303.702987,25784.815941,56258.692593,-9985.708891,52341.057639,57878.925845,63465.185578,0.008000,0.978000,-0.142000,192.000000,0.000000,0.000000,0.000000,0.000000,0.000000,0.000000,0.000000,0.000000,0.000000,1648031696.012628,0.000000
98.000000,-4431.166283,15294.114088,25777.015183,56250.087172,-9992.526173,52329.188863,57874.857828,63485.145686,0.012000,0.980000,-0.142000,192.000000,0.000000,96.000000,30.000000,160.000000,251.000000,144.000000,0.000000,0.000000,0.000000,1648031696.012645,0.000000
99.000000,-4415.900042,15298.092699,25779.183302,56241.571157,-9999.164641,52324.584404,57871.415659,63466.638442,0.012000,0.980000,-0.142000,192.000000,0.000000,0.000000,0.000000,0.000000,0.000000,0.000000,0.000000,0.000000,0.000000,1648031696.019554,0.000000
100.000000,-4403.695989,15311.056711,25792.527293,56257.463247,-9986.670016,52341.549378,57880.490468,63481.994090,0.012000,0.980000,-0.142000,192.000000,0.000000,0.000000,0.000000,0.000000,0.000000,0.000000,0.000000,0.000000,0.000000,1648031696.019566,0.000000
101.000000,-4432.105056,15308.218039,25798.651671,56254.043431,-9979.316292,52343.292814,57884.491430,63480.273006,0.012000,0.980000,-0.142000,192.000000,0.000000,0.000000,0.000000,0.000000,0.000000,0.000000,0.000000,0.000000,0.000000,1648031696.026844,0.000000
102.000000,-4449.002975,15302.361882,25790.090953,56257.753820,-9983.004330,52339.828293,57880.423412,63476.473209,0.012000,0.980000,-0.142000,192.000000,0.000000,0.000000,0.000000,0.000000,0.000000,0.000000,0.000000,0.000000,0.000000,1648031696.034173,0.000000
103.000000,-4444.331461,15289.062594,25796.036517,56257.217378,-9982.780812,52335.916738,57893.052148,63476.987300,0.012000,0.980000,-0.142000,192.000000,0.000000,0.000000,0.000000,0.000000,0.000000,0.000000,0.000000,0.000000,0.000000,1648031696.034189,0.000000
104.000000,-4457.362528,15280.121896,25779.585633,56243.381648,-9992.772042,52318.571784,57867.347642,63477.501390,0.012000,0.980000,-0.142000,192.000000,0.000000,0.000000,0.000000,0.000000,0.000000,0.000000,0.000000,0.000000,0.000000,1648031696.042247,0.000000
105.000000,-4442.878597,15303.390062,25784.301851,56246.488541,-9990.112184,52333.569805,57866.408869,63499.227285,0.012000,0.980000,-0.142000,192.000000,0.000000,0.000000,0.000000,0.000000,0.000000,0.000000,0.000000,0.000000,0.000000,1648031696.042263,0.000000
106.000000,-4444.733792,15305.334664,25787.878130,56245.505064,-9992.459117,52337.704878,57867.861732,63492.119431,0.012000,0.980000,-0.142000,192.000000,0.000000,0.000000,0.000000,0.000000,0.000000,0.000000,0.000000,0.000000,0.000000,1648031696.050159,0.000000
107.000000,-4442.453914,15303.255952,25790.359174,56253.395230,-9994.314312,52335.290889,57881.362186,63483.737526,0.012000,0.980000,-0.142000,192.000000,0.000000,0.000000,0.000000,0.000000,0.000000,0.000000,0.000000,0.000000,0.000000,1648031696.050193,0.000000
108.000000,-4434.899024,15301.020777,25777.283404,56264.839323,-9988.704024,52337.973099,57901.277590,63498.199105,0.008000,0.980000,-0.132000,192.000000,0.000000,64.000000,30.000000,160.000000,251.000000,224.000000,0.000000,0.000000,0.000000,1648031696.056864,0.000000
109.000000,-4426.114789,15303.144193,25777.506921,56259.318442,-9991.252123,52338.353078,57894.862639,63508.100928,0.008000,0.980000,-0.132000,192.000000,0.000000,0.000000,0.000000,0.000000,0.000000,0.000000,0.000000,0.000000,0.000000,1648031696.056880,0.000000
110.000000,-4413.977792,15309.179164,25767.448636,56247.539073,-10000.572801,52335.693221,57895.332026,63502.960027,0.008000,0.980000,-0.132000,192.000000,0.000000,0.000000,0.000000,0.000000,0.000000,0.000000,0.000000,0.000000,0.000000,1648031696.064896,0.000000
111.000000,-4417.352905,15315.616466,25770.086142,56258.491428,-9998.516440,52344.522160,57898.818898,63494.175791,0.008000,0.980000,-0.132000,192.000000,0.000000,0.000000,0.000000,0.000000,0.000000,0.000000,0.000000,0.000000,0.000000,1648031696.064913,0.000000
112.000000,-4442.833894,15317.739882,25777.171645,56269.443783,-9992.190897,52344.879788,57893.320369,63486.799715,0.008000,0.980000,-0.132000,192.000000,0.000000,0.000000,0.000000,0.000000,0.000000,0.000000,0.000000,0.000000,0.000000,1648031696.072878,0.000000
113.000000,-4454.412097,15320.332685,25790.694450,56267.186256,-9985.664187,52349.439543,57899.712968,63481.010614,0.008000,0.980000,-0.132000,192.000000,0.000000,0.000000,0.000000,0.000000,0.000000,0.000000,0.000000,0.000000,0.000000,1648031696.072894,0.000000
114.000000,-4467.487868,15305.826402,25778.356287,56256.368012,-9988.771080,52339.694183,57900.808203,63502.602399,0.008000,0.980000,-0.132000,192.000000,0.000000,0.000000,0.000000,0.000000,0.000000,0.000000,0.000000,0.000000,0.000000,1648031696.079887,0.000000
115.000000,-4466.303225,15300.417280,25770.287308,56253.395230,-9994.202554,52333.301584,57894.683825,63505.396367,0.008000,0.980000,-0.132000,192.000000,0.000000,0.000000,0.000000,0.000000,0.000000,0.000000,0.000000,0.000000,0.000000,1648031696.079904,0.000000
116.000000,-4446.812504,15303.300655,25766.465159,56253.596396,-9999.946952,52333.100418,57888.715910,63485.570369,0.008000,0.980000,-0.132000,192.000000,0.000000,0.000000,0.000000,0.000000,0.000000,0.000000,0.000000,0.000000,0.000000,1648031696.086564,0.000000
117.000000,-4431.836835,15308.061577,25766.666325,56255.138666,-9996.728301,52336.631994,57889.699386,63491.918265,0.008000,0.980000,-0.132000,192.000000,0.000000,0.000000,0.000000,0.000000,0.000000,0.000000,0.000000,0.000000,0.000000,1648031696.094325,0.000000
118.000000,-4428.484074,15320.086815,25772.455427,56271.343681,-9990.827440,52343.739849,57887.732433,63504.926980,0.010000,0.968000,-0.138000,192.000000,0.000000,80.000000,30.000000,64.000000,251.000000,176.000000,0.000000,0.000000,0.000000,1648031696.094341,0.000000
119.000000,-4436.910681,15328.222850,25775.428209,56283.748899,-9988.256990,52344.924491,57896.226096,63513.018312,0.010000,0.968000,-0.138000,192.000000,0.000000,0.000000,0.000000,0.000000,0.000000,0.000000,0.000000,0.000000,0.000000,1648031696.102419,0.000000
120.000000,-4437.760048,15337.789397,25780.747924,56281.714890,-9980.344472,52349.528950,57917.102625,63518.002751,0.010000,0.968000,-0.138000,192.000000,0.000000,0.000000,0.000000,0.000000,0.000000,0.000000,0.000000,0.000000,0.000000,1648031696.102435,0.000000
121.000000,-4433.066181,15341.902118,25785.821770,56277.065727,-9982.445536,52341.102343,57908.966590,63510.090233,0.010000,0.968000,-0.138000,192.000000,0.000000,0.000000,0.000000,0.000000,0.000000,0.000000,0.000000,0.000000,0.000000,1648031696.109715,0.000000
122.000000,-4419.565728,15339.063446,25773.975345,56271.768364,-9989.732205,52338.040154,57900.897610,63522.853079,0.010000,0.968000,-0.138000,192.000000,0.000000,0.000000,0.000000,0.000000,0.000000,0.000000,0.000000,0.000000,0.000000,1648031696.109731,0.000000
123.000000,-4418.314030,15327.909926,25756.809206,56258.692593,-10007.255972,52326.797226,57877.808258,63528.664533,0.010000,0.968000,-0.138000,192.000000,0.000000,0.000000,0.000000,0.000000,0.000000,0.000000,0.000000,0.000000,0.000000,1648031696.116873,0.000000
124.000000,-4398.286867,15338.974039,25759.200842,56259.586663,-10005.110205,52336.140255,57892.649817,63510.649027,0.010000,0.968000,-0.138000,192.000000,0.000000,0.000000,0.000000,0.000000,0.000000,0.000000,0.000000,0.000000,0.000000,1648031696.116883,0.000000
125.000000,-4407.808710,15339.666944,25765.124055,56258.290262,-9995.409548,52344.186883,57906.194974,63527.166966,0.010000,0.968000,-0.138000,192.000000,0.000000,0.000000,0.000000,0.000000,0.000000,0.000000,0.000000,0.000000,0.000000,1648031696.125230,0.000000
126.000000,-4449.606472,15311.883725,25749.857813,56243.716925,-10012.061597,52330.507616,57890.705215,63508.078576,0.010000,0.968000,-0.138000,192.000000,0.000000,0.000000,0.000000,0.000000,0.000000,0.000000,0.000000,0.000000,0.000000,1648031696.125245,0.000000
127.000000,-4456.803734,15312.576629,25759.580822,56259.296091,-10006.674827,52337.481360,57881.943331,63526.965800,0.010000,0.968000,-0.138000,192.000000,0.000000,0.000000,0.000000,0.000000,0.000000,0.000000,0.000000,0.000000,0.000000,1648031696.132269,0.000000
128.000000,-4461.922283,15310.833193,25750.528365,56260.056050,-10007.770062,52331.200520,57890.749918,63531.056169,0.018000,0.974000,-0.140000,192.000000,0.000000,144.000000,30.000000,112.000000,251.000000,160.000000,0.000000,0.000000,0.000000,1648031696.132286,0.000000
129.000000,-4466.012653,15300.305522,25735.172717,56242.040544,-10022.052827,52320.158758,57899.981189,63507.340969,0.018000,0.974000,-0.140000,192.000000,0.000000,0.000000,0.000000,0.000000,0.000000,0.000000,0.000000,0.000000,0.000000,1648031696.139706,0.000000
130.000000,-4448.734754,15313.068368,25744.627505,56251.540035,-10013.179185,52325.478473,57897.030759,63503.272951,0.018000,0.974000,-0.140000,192.000000,0.000000,0.000000,0.000000,0.000000,0.000000,0.000000,0.000000,0.000000,0.000000,1648031696.139723,0.000000
131.000000,-4448.578292,15315.460004,25744.716912,56253.104657,-10013.134481,52325.456122,57882.502125,63523.657742,0.018000,0.974000,-0.140000,192.000000,0.000000,0.000000,0.000000,0.000000,0.000000,0.000000,0.000000,0.000000,0.000000,1648031696.146721,0.000000
132.000000,-4435.904853,15331.530909,25739.799528,56262.559445,-10015.034379,52332.698087,57898.528325,63527.055207,0.018000,0.974000,-0.140000,192.000000,0.000000,0.000000,0.000000,0.000000,0.000000,0.000000,0.000000,0.000000,0.000000,1648031696.154729,0.000000
133.000000,-4424.438408,15346.886557,25734.032778,56261.955948,-10015.302600,52334.642689,57899.400043,63529.379789,0.018000,0.974000,-0.140000,192.000000,0.000000,0.000000,0.000000,0.000000,0.000000,0.000000,0.000000,0.000000,0.000000,1648031696.154746,0.000000
134.000000,-4436.351888,15338.236432,25718.833592,56241.548805,-10027.439598,52322.036305,57894.661474,63521.511975,0.018000,0.974000,-0.140000,192.000000,0.000000,0.000000,0.000000,0.000000,0.000000,0.000000,0.000000,0.000000,0.000000,1648031696.161885,0.000000
135.000000,-4444.398516,15338.571708,25741.297095,56250.981242,-10019.549432,52336.922567,57909.815956,63541.114454,0.018000,0.974000,-0.140000,192.000000,0.000000,0.000000,0.000000,0.000000,0.000000,0.000000,0.000000,0.000000,0.000000,1648031696.161902,0.000000
136.000000,-4454.948539,15336.269478,25748.226136,56260.100753,-10017.090740,52335.201482,57917.415549,63537.649934,0.018000,0.974000,-0.140000,192.000000,0.000000,0.000000,0.000000,0.000000,0.000000,0.000000,0.000000,0.000000,0.000000,1648031696.169395,0.000000
137.000000,-4446.968966,15332.000295,25751.333028,56260.793657,-10016.196670,52332.206348,57897.321331,63512.459518,0.018000,0.974000,-0.140000,192.000000,0.000000,0.000000,0.000000,0.000000,0.000000,0.000000,0.000000,0.000000,0.000000,1648031696.169411,0.000000
138.000000,-4441.671603,15326.457063,25743.241697,56256.747992,-10019.370618,52326.238433,57884.044395,63512.303056,0.016000,0.976000,-0.138000,192.000000,0.000000,128.000000,30.000000,128.000000,251.000000,176.000000,0.000000,0.000000,0.000000,1648031696.177338,0.000000
139.000000,-4425.511292,15340.583365,25744.269877,56252.210588,-10008.932353,52341.370564,57908.743073,63537.538175,0.016000,0.976000,-0.138000,192.000000,0.000000,0.000000,0.000000,0.000000,0.000000,0.000000,0.000000,0.000000,0.000000,1648031696.177350,0.000000
140.000000,-4433.379106,15339.979868,25755.289287,56246.890872,-10009.580554,52344.388049,57922.712913,63531.324390,0.016000,0.976000,-0.138000,192.000000,0.000000,0.000000,0.000000,0.000000,0.000000,0.000000,0.000000,0.000000,0.000000,1648031696.185321,0.000000
141.000000,-4441.090458,15345.791321,25726.835516,56236.273794,-10021.784606,52333.525101,57907.849003,63548.311716,0.016000,0.976000,-0.138000,192.000000,0.000000,0.000000,0.000000,0.000000,0.000000,0.000000,0.000000,0.000000,0.000000,1648031696.185338,0.000000
142.000000,-4439.972870,15345.433694,25719.995883,56229.031829,-10027.596060,52332.161645,57887.017177,63537.761693,0.016000,0.976000,-0.138000,192.000000,0.000000,0.000000,0.000000,0.000000,0.000000,0.000000,0.000000,0.000000,0.000000,1648031696.192042,0.000000
143.000000,-4448.801809,15329.094568,25751.221270,56245.728582,-10012.933315,52344.678622,57913.906326,63550.278670,0.016000,0.976000,-0.138000,192.000000,0.000000,0.000000,0.000000,0.000000,0.000000,0.000000,0.000000,0.000000,0.000000,1648031696.192059,0.000000
144.000000,-4461.609359,15313.023664,25758.016200,56265.912207,-10014.006199,52343.896311,57921.640029,63536.934678,0.016000,0.976000,-0.138000,192.000000,0.000000,0.000000,0.000000,0.000000,0.000000,0.000000,0.000000,0.000000,0.000000,1648031696.199871,0.000000
145.000000,-4457.787211,15314.856507,25752.316505,56254.602224,-10018.856528,52338.084857,57896.561372,63527.837518,0.016000,0.976000,-0.138000,192.000000,0.000000,0.000000,0.000000,0.000000,0.000000,0.000000,0.000000,0.000000,0.000000,1648031696.199888,0.000000
146.000000,-4444.420867,15337.208252,25756.898613,56269.734355,-9999.030530,52345.438581,57892.046319,63535.303001,0.016000,0.976000,-0.138000,192.000000,0.000000,0.000000,0.000000,0.000000,0.000000,0.000000,0.000000,0.000000,0.000000,1648031696.207176,0.000000
147.000000,-4445.471399,15346.417170,25768.052133,56275.121126,-9992.727338,52346.958500,57905.189145,63533.201937,0.016000,0.976000,-0.138000,192.000000,0.000000,0.000000,0.000000,0.000000,0.000000,0.000000,0.000000,0.000000,0.000000,1648031696.215181,0.000000
148.000000,-4429.042867,15362.219854,25773.885938,56284.106527,-9984.546600,52353.395802,57912.431110,63541.941469,0.018000,0.980000,-0.138000,192.000000,0.000000,144.000000,30.000000,160.000000,251.000000,176.000000,0.000000,0.000000,0.000000,1648031696.215198,0.000000
149.000000,-4423.432579,15369.171246,25774.735305,56288.755690,-9975.851771,52352.769953,57904.049206,63581.772278,0.018000,0.980000,-0.138000,192.000000,0.000000,0.000000,0.000000,0.000000,0.000000,0.000000,0.000000,0.000000,0.000000,1648031696.221497,0.000000
150.000000,-4446.141952,15346.148949,25757.725627,56273.064765,-9987.564085,52346.153837,57895.689654,63543.349629,0.018000,0.980000,-0.138000,192.000000,0.000000,0.000000,0.000000,0.000000,0.000000,0.000000,0.000000,0.000000,0.000000,1648031696.221530,0.000000
151.000000,-4455.105001,15328.893403,25741.341798,56256.636233,-10004.730225,52334.620337,57881.719814,63523.188355,0.018000,0.980000,-0.138000,192.000000,0.000000,0.000000,0.000000,0.000000,0.000000,0.000000,0.000000,0.000000,0.000000,1648031696.229534,0.000000
152.000000,-4433.066181,15346.595984,25757.278592,56271.880123,-9993.911981,52350.154799,57908.564259,63520.640256,0.018000,0.980000,-0.138000,192.000000,0.000000,0.000000,0.000000,0.000000,0.000000,0.000000,0.000000,0.000000,0.000000,1648031696.229551,0.000000
153.000000,-4421.957364,15359.023554,25763.648839,56284.777079,-9979.673920,52364.817544,57933.061771,63538.119321,0.018000,0.980000,-0.138000,192.000000,0.000000,0.000000,0.000000,0.000000,0.000000,0.000000,0.000000,0.000000,0.000000,1648031696.238069,0.000000
154.000000,-4428.014687,15348.227662,25745.968610,56272.148344,-9989.642798,52352.322918,57888.067709,63551.619774,0.018000,0.980000,-0.138000,192.000000,0.000000,0.000000,0.000000,0.000000,0.000000,0.000000,0.000000,0.000000,0.000000,1648031696.238085,0.000000
155.000000,-4431.032173,15352.519197,25745.387464,56270.583721,-9993.532001,52349.707764,57897.678959,63552.983231,0.018000,0.980000,-0.138000,192.000000,0.000000,0.000000,0.000000,0.000000,0.000000,0.000000,0.000000,0.000000,0.000000,1648031696.244751,0.000000
156.000000,-4426.517120,15371.853456,25764.945241,56281.267855,-9983.406661,52359.855456,57917.795529,63546.657687,0.018000,0.980000,-0.138000,192.000000,0.000000,0.000000,0.000000,0.000000,0.000000,0.000000,0.000000,0.000000,0.000000,1648031696.244768,0.000000
157.000000,-4424.416056,15380.324767,25776.143465,56290.387367,-9975.985882,52359.944863,57920.790663,63537.694638,0.018000,0.980000,-0.138000,192.000000,0.000000,0.000000,0.000000,0.000000,0.000000,0.000000,0.000000,0.000000,0.000000,1648031696.252322,0.000000
158.000000,-4432.775609,15375.452086,25771.293136,56283.905361,-9983.607827,52343.873959,57898.148346,63529.826823,0.018000,0.976000,-0.138000,192.000000,0.000000,144.000000,30.000000,128.000000,251.000000,176.000000,0.000000,0.000000,0.000000,1648031696.252339,0.000000
159.000000,-4422.538510,15387.454973,25790.135657,56289.605056,-9975.024757,52354.133410,57909.950067,63544.534271,0.018000,0.976000,-0.138000,192.000000,0.000000,0.000000,0.000000,0.000000,0.000000,0.000000,0.000000,0.000000,0.000000,1648031696.260257,0.000000
160.000000,-4409.730960,15396.239209,25796.081221,56300.311542,-9965.726431,52368.840858,57923.629334,63560.001678,0.018000,0.976000,-0.138000,192.000000,0.000000,0.000000,0.000000,0.000000,0.000000,0.000000,0.000000,0.000000,0.000000,1648031696.260273,0.000000
161.000000,-4405.327666,15390.472459,25767.828616,56291.616713,-9979.249236,52357.240302,57910.464157,63559.711106,0.018000,0.976000,-0.138000,192.000000,0.000000,0.000000,0.000000,0.000000,0.000000,0.000000,0.000000,0.000000,0.000000,1648031696.267377,0.000000
162.000000,-4420.705667,15383.051679,25754.372865,56285.738204,-9991.207420,52349.484247,57901.299942,63553.631431,0.018000,0.976000,-0.138000,192.000000,0.000000,0.000000,0.000000,0.000000,0.000000,0.000000,0.000000,0.000000,0.000000,1648031696.267393,0.000000
163.000000,-4429.869882,15387.343214,25752.629429,56286.542867,-9994.269609,52345.237415,57903.043378,63544.534271,0.018000,0.976000,-0.138000,192.000000,0.000000,0.000000,0.000000,0.000000,0.000000,0.000000,0.000000,0.000000,0.000000,1648031696.273985,0.000000
164.000000,-4418.604603,15396.574485,25768.052133,56298.031664,-9979.517457,52354.491038,57901.210535,63559.152312,0.018000,0.976000,-0.138000,192.000000,0.000000,0.000000,0.000000,0.000000,0.000000,0.000000,0.000000,0.000000,0.000000,1648031696.281915,0.000000
165.000000,-4423.074952,15385.532723,25771.740171,56297.249353,-9977.863428,52354.625148,57908.653666,63559.644051,0.018000,0.976000,-0.138000,192.000000,0.000000,0.000000,0.000000,0.000000,0.000000,0.000000,0.000000,0.000000,0.000000,1648031696.281931,0.000000
166.000000,-4419.588079,15390.673624,25767.850967,56299.149251,-9980.813859,52353.351099,57901.635218,63551.195091,0.018000,0.976000,-0.138000,192.000000,0.000000,0.000000,0.000000,0.000000,0.000000,0.000000,0.000000,0.000000,0.000000,1648031696.289986,0.000000
167.000000,-4407.115806,15418.076863,25774.489435,56314.460196,-9970.934388,52364.683433,57910.486509,63554.927832,0.018000,0.976000,-0.138000,192.000000,0.000000,0.000000,0.000000,0.000000,0.000000,0.000000,0.000000,0.000000,0.000000,1648031696.290003,0.000000
168.000000,-4401.617277,15420.624962,25770.108494,56307.866431,-9966.575797,52361.822410,57912.565221,63563.980289,0.016000,0.976000,-0.136000,192.000000,0.000000,128.000000,30.000000,128.000000,251.000000,192.000000,0.000000,0.000000,0.000000,1648031696.297186,0.000000
169.000000,-4404.902983,15412.265410,25765.884014,56306.122995,-9967.827495,52366.158648,57908.050169,63572.697469,0.016000,0.976000,-0.136000,192.000000,0.000000,0.000000,0.000000,0.000000,0.000000,0.000000,0.000000,0.000000,0.000000,1648031696.297202,0.000000
170.000000,-4408.702780,15400.083709,25761.413665,56299.484527,-9982.423184,52362.716480,57888.246523,63553.966707,0.016000,0.976000,-0.136000,192.000000,0.000000,0.000000,0.000000,0.000000,0.000000,0.000000,0.000000,0.000000,0.000000,1648031696.304520,0.000000
171.000000,-4401.147890,15407.213915,25755.669267,56296.377635,-9988.905190,52361.129506,57878.858790,63548.065847,0.016000,0.976000,-0.136000,192.000000,0.000000,0.000000,0.000000,0.000000,0.000000,0.000000,0.000000,0.000000,0.000000,1648031696.304556,0.000000
172.000000,-4411.586155,15423.776558,25744.828671,56293.673073,-9993.532001,52357.933206,57877.137706,63555.866606,0.016000,0.976000,-0.136000,192.000000,0.000000,0.000000,0.000000,0.000000,0.000000,0.000000,0.000000,0.000000,0.000000,1648031696.312594,0.000000
173.000000,-4393.548297,15444.161349,25762.710066,56306.190050,-9976.008234,52373.512372,57893.096851,63568.897673,0.016000,0.976000,-0.136000,192.000000,0.000000,0.000000,0.000000,0.000000,0.000000,0.000000,0.000000,0.000000,0.000000,1648031696.312611,0.000000
174.000000,-4409.418036,15421.496680,25761.883052,56302.144385,-9982.557295,52363.655253,57890.749918,63536.174719,0.016000,0.976000,-0.136000,192.000000,0.000000,0.000000,0.000000,0.000000,0.000000,0.000000,0.000000,0.000000,0.000000,1648031696.320528,0.000000
175.000000,-4431.032173,15403.883505,25761.547775,56300.468004,-9990.246295,52365.353985,57885.229037,63554.503149,0.016000,0.976000,-0.136000,192.000000,0.000000,0.000000,0.000000,0.000000,0.000000,0.000000,0.000000,0.000000,0.000000,1648031696.320545,0.000000
176.000000,-4404.612411,15413.740625,25763.604136,56315.197803,-9990.045129,52371.120736,57889.699386,63577.950129,0.016000,0.976000,-0.136000,192.000000,0.000000,0.000000,0.000000,0.000000,0.000000,0.000000,0.000000,0.000000,0.000000,1648031696.327264,0.000000
177.000000,-4377.835021,15428.135148,25743.644028,56294.477736,-9993.576705,52372.238323,57901.098776,63589.237760,0.016000,0.976000,-0.136000,192.000000,0.000000,0.000000,0.000000,0.000000,0.000000,0.000000,0.000000,0.000000,0.000000,1648031696.327280,0.000000
178.000000,-4399.069178,15424.782386,25727.059034,56280.507896,-9998.605847,52363.476439,57884.692596,63586.712013,0.022000,0.972000,-0.136000,192.000000,0.000000,176.000000,30.000000,96.000000,251.000000,192.000000,0.000000,0.000000,0.000000,1648031696.334290,0.000000
179.000000,-4417.285850,15427.486947,25738.234906,56301.004446,-9987.407623,52371.388956,57884.446726,63570.261129,0.022000,0.972000,-0.136000,192.000000,0.000000,0.000000,0.000000,0.000000,0.000000,0.000000,0.000000,0.000000,0.000000,1648031696.342226,0.000000
180.000000,-4425.332478,15424.447110,25752.651781,56309.989847,-9979.159830,52377.021596,57891.599285,63564.092048,0.022000,0.972000,-0.136000,192.000000,0.000000,0.000000,0.000000,0.000000,0.000000,0.000000,0.000000,0.000000,0.000000,1648031696.342243,0.000000
181.000000,-4420.213928,15433.834843,25739.844232,56307.195879,-9980.143306,52377.088651,57884.692596,63566.103705,0.022000,0.972000,-0.136000,192.000000,0.000000,0.000000,0.000000,0.000000,0.000000,0.000000,0.000000,0.000000,0.000000,1648031696.350013,0.000000
182.000000,-4409.887422,15443.781369,25723.259237,56297.584629,-9977.237579,52375.859305,57876.578912,63573.926815,0.022000,0.972000,-0.136000,192.000000,0.000000,0.000000,0.000000,0.000000,0.000000,0.000000,0.000000,0.000000,0.000000,1648031696.350029,0.000000
183.000000,-4400.767911,15430.415026,25746.169775,56305.899478,-9969.123896,52382.900105,57883.507953,63564.315565,0.022000,0.972000,-0.136000,192.000000,0.000000,0.000000,0.000000,0.000000,0.000000,0.000000,0.000000,0.000000,0.000000,1648031696.356919,0.000000
184.000000,-4419.275155,15424.245945,25765.012296,56322.886803,-9957.322175,52387.482212,57883.016215,63562.527426,0.022000,0.972000,-0.136000,192.000000,0.000000,0.000000,0.000000,0.000000,0.000000,0.000000,0.000000,0.000000,0.000000,1648031696.356935,0.000000
185.000000,-4429.288736,15423.240116,25762.263031,56326.418379,-9958.752687,52386.409329,57883.329139,63576.989004,0.022000,0.972000,-0.136000,192.000000,0.000000,0.000000,0.000000,0.000000,0.000000,0.000000,0.000000,0.000000,0.000000,1648031696.364755,0.000000
186.000000,-4416.525890,15417.629828,25776.568148,56335.806112,-9956.830437,52392.891335,57887.441860,63596.256208,0.022000,0.972000,-0.136000,192.000000,0.000000,0.000000,0.000000,0.000000,0.000000,0.000000,0.000000,0.000000,0.000000,1648031696.364767,0.000000
187.000000,-4409.350980,15416.109910,25756.496281,56336.968403,-9960.317309,52387.370454,57884.826706,63585.415612,0.022000,0.972000,-0.136000,192.000000,0.000000,0.000000,0.000000,0.000000,0.000000,0.000000,0.000000,0.000000,0.000000,1648031696.372797,0.000000
188.000000,-4388.094471,15417.428662,25759.133787,56336.878996,-9961.233730,52393.740701,57881.161020,63579.402993,0.022000,0.972000,-0.136000,192.000000,0.000000,0.000000,0.000000,0.000000,0.000000,0.000000,0.000000,0.000000,0.000000,1648031696.372814,0.000000
189.000000,-4371.241256,15419.127395,25758.351476,56316.404798,-9965.681728,52396.646428,57871.594473,63573.345670,0.016000,0.974000,-0.144000,192.000000,0.000000,128.000000,30.000000,112.000000,251.000000,128.000000,0.000000,0.000000,0.000000,1648031696.380011,0.000000
190.000000,-4381.791280,15420.870831,25739.576011,56293.829536,-9975.628254,52389.829146,57884.513782,63578.553626,0.016000,0.974000,-0.144000,192.000000,0.000000,0.000000,0.000000,0.000000,0.000000,0.000000,0.000000,0.000000,0.000000,1648031696.380028,0.000000
191.000000,-4357.852561,15427.531651,25729.182449,56280.932579,-9991.073309,52379.614398,57875.193104,63588.611911,0.016000,0.974000,-0.144000,192.000000,0.000000,0.000000,0.000000,0.000000,0.000000,0.000000,0.000000,0.000000,0.000000,1648031696.387329,0.000000
192.000000,-4389.949666,15422.122529,25732.736377,56283.167754,-9986.670016,52374.786422,57874.611959,63573.144504,0.016000,0.974000,-0.144000,192.000000,0.000000,0.000000,0.000000,0.000000,0.000000,0.000000,0.000000,0.000000,0.000000,1648031696.387345,0.000000
193.000000,-4434.407286,15408.845593,25761.860700,56297.584629,-9977.796373,52388.063358,57891.576933,63574.910292,0.016000,0.974000,-0.144000,192.000000,0.000000,0.000000,0.000000,0.000000,0.000000,0.000000,0.000000,0.000000,0.000000,1648031696.394544,0.000000
194.000000,-4424.438408,15400.463688,25762.263031,56303.463138,-9972.878989,52398.903954,57905.166793,63602.738214,0.016000,0.974000,-0.144000,192.000000,0.000000,0.000000,0.000000,0.000000,0.000000,0.000000,0.000000,0.000000,0.000000,1648031696.402426,0.000000
195.000000,-4444.689088,15382.492886,25759.245546,56284.844134,-9987.049995,52386.074053,57888.224171,63550.658649,0.016000,0.974000,-0.144000,192.000000,0.000000,0.000000,0.000000,0.000000,0.000000,0.000000,0.000000,0.000000,0.000000,1648031696.402442,0.000000
196.000000,-4466.146763,15377.173171,25767.135712,56282.273684,-9987.139402,52391.393768,57874.880180,63568.651804,0.016000,0.974000,-0.144000,192.000000,0.000000,0.000000,0.000000,0.000000,0.000000,0.000000,0.000000,0.000000,0.000000,1648031696.409608,0.000000
197.000000,-4435.837798,15397.937941,25791.767334,56303.038454,-9958.797390,52414.930155,57894.102680,63597.105574,0.016000,0.974000,-0.144000,192.000000,0.000000,0.000000,0.000000,0.000000,0.000000,0.000000,0.000000,0.000000,0.000000,1648031696.409624,0.000000
198.000000,-4430.853359,15387.656139,25793.846046,56294.388329,-9955.668146,52413.678457,57898.170697,63598.692548,0.016000,0.974000,-0.144000,192.000000,0.000000,0.000000,0.000000,0.000000,0.000000,0.000000,0.000000,0.000000,0.000000,1648031696.417169,0.000000
199.000000,-4416.034152,15373.529836,25788.056944,56278.987977,-9959.266777,52408.738721,57898.617732,63592.188190,0.014000,0.988000,-0.142000,192.000000,0.000000,112.000000,30.000000,224.000000,251.000000,144.000000,0.000000,0.000000,0.000000,1648031696.417187,0.000000
200.000000,-4355.349166,15368.701860,25771.293136,56277.177486,-9968.162771,52404.961277,57892.985093,63605.353368,0.014000,0.988000,-0.142000,192.000000,0.000000,0.000000,0.000000,0.000000,0.000000,0.000000,0.000000,0.000000,0.000000,1648031696.425102,0.000000
201.000000,-4334.249119,15364.700897,25746.639162,56267.409774,-9991.252123,52397.495794,57888.246523,63606.538010,0.014000,0.988000,-0.142000,192.000000,0.000000,0.000000,0.000000,0.000000,0.000000,0.000000,0.000000,0.000000,0.000000,1648031696.425119,0.000000
202.000000,-4376.471564,15400.776613,25764.319392,56275.232884,-9989.821612,52396.780538,57877.808258,63618.116214,0.014000,0.988000,-0.142000,192.000000,0.000000,0.000000,0.000000,0.000000,0.000000,0.000000,0.000000,0.000000,0.000000,1648031696.432160,0.000000
203.000000,-4419.096341,15435.175948,25756.809206,56272.662434,-9999.477565,52389.359759,57873.382613,63595.563304,0.014000,0.988000,-0.142000,192.000000,0.000000,0.000000,0.000000,0.000000,0.000000,0.000000,0.000000,0.000000,0.000000,1648031696.432176,0.000000
204.000000,-4413.620164,15402.721215,25730.680016,56235.066800,-10021.315220,52380.776689,57864.151342,63579.134772,0.014000,0.988000,-0.142000,192.000000,0.000000,0.000000,0.000000,0.000000,0.000000,0.000000,0.000000,0.000000,0.000000,1648031696.439737,0.000000
205.000000,-4383.378253,15350.351077,25740.067749,56243.448704,-10011.368693,52394.634771,57877.160058,63594.825696,0.014000,0.988000,-0.142000,192.000000,0.000000,0.000000,0.000000,0.000000,0.000000,0.000000,0.000000,0.000000,0.000000,1648031696.439754,0.000000
206.000000,-4379.980788,15352.362734,25789.241587,56298.076367,-9992.347359,52393.360721,57867.593511,63607.499135,0.014000,0.988000,-0.142000,192.000000,0.000000,0.000000,0.000000,0.000000,0.000000,0.000000,0.000000,0.000000,0.000000,1648031696.447751,0.000000
207.000000,-4438.385896,15322.009065,25804.977215,56272.774192,-9985.753594,52395.797061,57879.417584,63606.985045,0.014000,0.988000,-0.142000,192.000000,0.000000,0.000000,0.000000,0.000000,0.000000,0.000000,0.000000,0.000000,0.000000,1648031696.447767,0.000000
208.000000,-4496.701598,15291.230713,25844.383340,56277.401004,-9971.649643,52398.278105,57898.774195,63613.198830,0.014000,0.988000,-0.142000,192.000000,0.000000,0.000000,0.000000,0.000000,0.000000,0.000000,0.000000,0.000000,0.000000,1648031696.454704,0.000000
209.000000,-4497.975647,15289.621388,25845.567983,56281.625483,-9964.810010,52396.422910,57888.470040,63616.439833,0.026000,0.992000,-0.136000,192.000000,0.000000,208.000000,31.000000,0.000000,251.000000,192.000000,0.000000,0.000000,0.000000,1648031696.461823,0.000000
210.000000,-4485.771595,15279.160771,25849.613649,56268.460306,-9962.753649,52405.832995,57896.360206,63596.904409,0.026000,0.992000,-0.136000,192.000000,0.000000,0.000000,0.000000,0.000000,0.000000,0.000000,0.000000,0.000000,0.000000,1648031696.461839,0.000000
211.000000,-4477.099118,15254.238576,25849.188965,56266.448649,-9961.859579,52410.839785,57910.866488,63602.984083,0.026000,0.992000,-0.136000,192.000000,0.000000,0.000000,0.000000,0.000000,0.000000,0.000000,0.000000,0.000000,0.000000,1648031696.469337,0.000000
212.000000,-4491.828917,15235.150186,25828.580657,56254.892797,-9972.878989,52396.735835,57895.197915,63599.743080,0.026000,0.992000,-0.136000,192.000000,0.000000,0.000000,0.000000,0.000000,0.000000,0.000000,0.000000,0.000000,0.000000,1648031696.469353,0.000000
213.000000,-4483.044682,15217.425253,25815.169610,56248.120218,-9980.925617,52390.142070,57888.268875,63586.443792,0.026000,0.992000,-0.136000,192.000000,0.000000,0.000000,0.000000,0.000000,0.000000,0.000000,0.000000,0.000000,0.000000,1648031696.477288,0.000000
214.000000,-4499.115586,15190.893732,25823.260942,56237.905471,-9988.949894,52392.243134,57888.447689,63595.317435,0.026000,0.992000,-0.136000,192.000000,0.000000,0.000000,0.000000,0.000000,0.000000,0.000000,0.000000,0.000000,0.000000,1648031696.477322,0.000000
215.000000,-4485.570429,15175.739250,25833.609800,56249.081343,-9980.210362,52405.318905,57899.422395,63629.135624,0.026000,0.992000,-0.136000,192.000000,0.000000,0.000000,0.000000,0.000000,0.000000,0.000000,0.000000,0.000000,0.000000,1648031696.485375,0.000000
216.000000,-4477.032063,15157.276709,25821.092823,56256.792695,-9978.131649,52409.811605,57885.385500,63626.587525,0.026000,0.992000,-0.136000,192.000000,0.000000,0.000000,0.000000,0.000000,0.000000,0.000000,0.000000,0.000000,0.000000,1648031696.485391,0.000000
217.000000,-4502.557755,15101.799679,25804.150200,56230.261174,-9988.949894,52395.573544,57887.955950,63615.478708,0.026000,0.992000,-0.136000,192.000000,0.000000,0.000000,0.000000,0.000000,0.000000,0.000000,0.000000,0.000000,0.000000,1648031696.491950,0.000000
218.000000,-4524.685982,15051.396495,25786.604081,56215.687837,-9999.611676,52386.632846,57870.029851,63598.580789,0.026000,0.992000,-0.136000,192.000000,0.000000,0.000000,0.000000,0.000000,0.000000,0.000000,0.000000,0.000000,0.000000,1648031696.491966,0.000000
219.000000,-4555.509037,14992.633759,25781.150255,56207.574154,-10001.712740,52383.637712,57894.147383,63598.893714,0.028000,0.988000,-0.142000,192.000000,0.000000,224.000000,30.000000,224.000000,251.000000,144.000000,0.000000,0.000000,0.000000,1648031696.499749,0.000000
220.000000,-4562.728651,14949.986631,25783.676002,56206.724788,-9999.477565,52388.935076,57873.337909,63616.819813,0.028000,0.988000,-0.142000,192.000000,0.000000,0.000000,0.000000,0.000000,0.000000,0.000000,0.000000,0.000000,0.000000,1648031696.499766,0.000000
221.000000,-4566.036709,14932.664029,25786.045287,56215.620782,-9996.594190,52395.126509,57872.868523,63607.163859,0.028000,0.988000,-0.142000,192.000000,0.000000,0.000000,0.000000,0.000000,0.000000,0.000000,0.000000,0.000000,0.000000,1648031696.507845,0.000000
222.000000,-4579.246590,14894.353139,25798.092878,56215.889003,-9986.334739,52399.373341,57886.301921,63599.676025,0.028000,0.988000,-0.142000,192.000000,0.000000,0.000000,0.000000,0.000000,0.000000,0.000000,0.000000,0.000000,0.000000,1648031696.507862,0.000000
223.000000,-4603.408826,14851.393086,25794.158971,56213.430311,-9979.875085,52398.591029,57887.531267,63584.812115,0.028000,0.988000,-0.142000,192.000000,0.000000,0.000000,0.000000,0.000000,0.000000,0.000000,0.000000,0.000000,0.000000,1648031696.515172,0.000000
224.000000,-4591.249477,14821.084120,25797.355270,56230.842320,-9968.587454,52415.533652,57914.129843,63616.886868,0.028000,0.988000,-0.142000,192.000000,0.000000,0.000000,0.000000,0.000000,0.000000,0.000000,0.000000,0.000000,0.000000,1648031696.515190,0.000000
225.000000,-4597.731483,14786.774193,25802.026785,56232.205776,-9971.135553,52419.981649,57925.953916,63634.656505,0.028000,0.988000,-0.142000,192.000000,0.000000,0.000000,0.000000,0.000000,0.000000,0.000000,0.000000,0.000000,0.000000,1648031696.521440,0.000000
226.000000,-4600.681913,14756.532282,25797.355270,56212.133910,-9980.478582,52416.427722,57909.257163,63613.109423,0.028000,0.988000,-0.142000,192.000000,0.000000,0.000000,0.000000,0.000000,0.000000,0.000000,0.000000,0.000000,0.000000,1648031696.529608,0.000000
227.000000,-4583.359311,14739.634364,25784.994755,56207.551802,-9981.864391,52414.349009,57909.301866,63627.660409,0.028000,0.988000,-0.142000,192.000000,0.000000,0.000000,0.000000,0.000000,0.000000,0.000000,0.000000,0.000000,0.000000,1648031696.529625,0.000000
228.000000,-4544.489627,14732.146529,25784.972404,56195.481860,-9989.575742,52405.855346,57898.170697,63630.364970,0.028000,0.988000,-0.142000,192.000000,0.000000,0.000000,0.000000,0.000000,0.000000,0.000000,0.000000,0.000000,0.000000,1648031696.537645,0.000000
229.000000,-4561.745174,14701.546991,25769.057962,56200.086319,-9997.354150,52391.147899,57891.308712,63643.261927,0.016000,0.980000,-0.130000,192.000000,0.000000,128.000000,30.000000,160.000000,251.000000,240.000000,0.000000,0.000000,0.000000,1648031696.537662,0.000000
230.000000,-4622.944250,14658.609290,25772.947165,56207.730616,-9996.638894,52383.414195,57892.716872,63630.566136,0.016000,0.980000,-0.130000,192.000000,0.000000,0.000000,0.000000,0.000000,0.000000,0.000000,0.000000,0.000000,0.000000,1648031696.544800,0.000000
231.000000,-4643.552559,14643.499511,25777.618680,56202.008569,-9996.862411,52383.972989,57901.210535,63615.903391,0.016000,0.980000,-0.130000,192.000000,0.000000,0.000000,0.000000,0.000000,0.000000,0.000000,0.000000,0.000000,0.000000,1648031696.544816,0.000000
232.000000,-4616.909279,14645.578223,25753.255278,56204.891945,-9993.956684,52383.302436,57897.991884,63617.602124,0.016000,0.980000,-0.130000,192.000000,0.000000,0.000000,0.000000,0.000000,0.000000,0.000000,0.000000,0.000000,0.000000,1648031696.552204,0.000000
233.000000,-4590.064834,14640.392618,25747.779101,56192.933761,-9996.147155,52380.843744,57892.649817,63612.841202,0.016000,0.980000,-0.130000,192.000000,0.000000,0.000000,0.000000,0.000000,0.000000,0.000000,0.000000,0.000000,0.000000,1648031696.552221,0.000000
234.000000,-4606.269849,14603.534592,25779.898558,56187.815212,-9998.739958,52387.303399,57895.443785,63633.494214,0.016000,0.980000,-0.130000,192.000000,0.000000,0.000000,0.000000,0.000000,0.000000,0.000000,0.000000,0.000000,0.000000,1648031696.560317,0.000000
235.000000,-4652.202684,14586.748432,25792.370831,56198.856974,-9993.621408,52388.197468,57898.662436,63641.540842,0.016000,0.980000,-0.130000,192.000000,0.000000,0.000000,0.000000,0.000000,0.000000,0.000000,0.000000,0.000000,0.000000,1648031696.560351,0.000000
236.000000,-4684.120975,14587.217818,25794.784819,56209.362293,-9995.968341,52385.045872,57871.817991,63635.841147,0.016000,0.980000,-0.130000,192.000000,0.000000,0.000000,0.000000,0.000000,0.000000,0.000000,0.000000,0.000000,0.000000,1648031696.567346,0.000000
237.000000,-4673.034510,14563.010879,25783.273671,56190.877401,-9997.488260,52391.885506,57917.326142,63633.091883,0.016000,0.980000,-0.130000,192.000000,0.000000,0.000000,0.000000,0.000000,0.000000,0.000000,0.000000,0.000000,0.000000,1648031696.567362,0.000000
238.000000,-4638.970451,14548.303431,25774.042401,56199.795747,-9992.414414,52396.914649,57933.911137,63636.310534,0.016000,0.980000,-0.130000,192.000000,0.000000,0.000000,0.000000,0.000000,0.000000,0.000000,0.000000,0.000000,0.000000,1648031696.574556,0.000000
239.000000,-4633.762495,14548.057562,25762.687714,56195.280694,-9998.091757,52392.645465,57909.480680,63656.181235,0.010000,0.980000,-0.118000,192.000000,0.000000,80.000000,30.000000,160.000000,252.000000,80.000000,0.000000,0.000000,0.000000,1648031696.574567,0.000000
240.000000,-4656.404812,14548.281079,25763.648839,56193.760776,-10008.239449,52389.784442,57897.969532,63631.370799,0.010000,0.980000,-0.118000,192.000000,0.000000,0.000000,0.000000,0.000000,0.000000,0.000000,0.000000,0.000000,0.000000,1648031696.581869,0.000000
241.000000,-4657.030661,14556.126542,25746.996790,56192.687892,-10007.010103,52385.984646,57898.640084,63640.423255,0.010000,0.980000,-0.118000,192.000000,0.000000,0.000000,0.000000,0.000000,0.000000,0.000000,0.000000,0.000000,0.000000,1648031696.589921,0.000000
242.000000,-4653.789658,14554.047829,25755.982191,56190.072738,-10007.859469,52386.118756,57903.333950,63634.142415,0.010000,0.980000,-0.118000,192.000000,0.000000,0.000000,0.000000,0.000000,0.000000,0.000000,0.000000,0.000000,0.000000,1648031696.589932,0.000000
243.000000,-4674.845001,14535.004143,25757.837386,56172.347805,-10015.123786,52375.434622,57901.188183,63655.689496,0.010000,0.980000,-0.118000,192.000000,0.000000,0.000000,0.000000,0.000000,0.000000,0.000000,0.000000,0.000000,0.000000,1648031696.597172,0.000000
244.000000,-4683.159850,14537.909870,25752.025932,56173.599502,-10017.381313,52373.914704,57899.735320,63629.515604,0.010000,0.980000,-0.118000,192.000000,0.000000,0.000000,0.000000,0.000000,0.000000,0.000000,0.000000,0.000000,0.000000,1648031696.597188,0.000000
245.000000,-4674.353263,14551.007992,25761.614831,56185.088299,-10011.838080,52380.329654,57901.054073,63636.534051,0.010000,0.980000,-0.118000,192.000000,0.000000,0.000000,0.000000,0.000000,0.000000,0.000000,0.000000,0.000000,0.000000,1648031696.604341,0.000000
246.000000,-4681.997559,14551.410324,25764.520557,56175.722918,-10013.872089,52376.686320,57893.409776,63634.656505,0.010000,0.980000,-0.118000,192.000000,0.000000,0.000000,0.000000,0.000000,0.000000,0.000000,0.000000,0.000000,0.000000,1648031696.604358,0.000000
247.000000,-4681.841097,14563.368507,25764.431150,56187.770508,-10013.872089,52383.615361,57902.573991,63651.867348,0.010000,0.980000,-0.118000,192.000000,0.000000,0.000000,0.000000,0.000000,0.000000,0.000000,0.000000,0.000000,0.000000,1648031696.612593,0.000000
248.000000,-4676.096699,14554.316050,25765.481682,56191.302084,-10011.391045,52384.285913,57900.674093,63662.506779,0.010000,0.980000,-0.118000,192.000000,0.000000,0.000000,0.000000,0.000000,0.000000,0.000000,0.000000,0.000000,0.000000,1648031696.612609,0.000000
249.000000,-4666.060766,14545.464760,25766.778084,56191.972636,-10009.133519,52378.250942,57883.619712,63635.774092,0.014000,0.982000,-0.114000,192.000000,0.000000,112.000000,30.000000,176.000000,252.000000,112.000000,0.000000,0.000000,0.000000,1648031696.620602,0.000000
250.000000,-4682.064615,14558.227606,25738.950162,56189.558648,-10021.024647,52365.398689,57862.832589,63624.106482,0.014000,0.982000,-0.114000,192.000000,0.000000,0.000000,0.000000,0.000000,0.000000,0.000000,0.000000,0.000000,0.000000,1648031696.620619,0.000000
251.000000,-4686.803184,14557.087667,25711.301054,56174.918255,-10030.881766,52359.922512,57847.767514,63644.290107,0.014000,0.982000,-0.114000,192.000000,0.000000,0.000000,0.000000,0.000000,0.000000,0.000000,0.000000,0.000000,0.000000,1648031696.627198,0.000000
252.000000,-4676.744899,14560.820408,25740.157156,56191.637360,-10013.805033,52384.800003,57889.364110,63639.842110,0.014000,0.982000,-0.114000,192.000000,0.000000,0.000000,0.000000,0.000000,0.000000,0.000000,0.000000,0.000000,0.000000,1648031696.627214,0.000000
253.000000,-4682.534001,14565.514274,25780.122075,56221.655753,-9992.906152,52400.893259,57900.897610,63646.748799,0.014000,0.982000,-0.114000,192.000000,0.000000,0.000000,0.000000,0.000000,0.000000,0.000000,0.000000,0.000000,0.000000,1648031696.635173,0.000000
254.000000,-4689.127766,14562.161513,25776.054058,56226.215509,-9987.720548,52402.279067,57897.678959,63645.273584,0.014000,0.982000,-0.114000,192.000000,0.000000,0.000000,0.000000,0.000000,0.000000,0.000000,0.000000,0.000000,0.000000,1648031696.635189,0.000000
255.000000,-4708.350266,14557.892329,25766.286345,56207.574154,-10001.824498,52383.615361,57875.506029,63655.175406,0.014000,0.982000,-0.114000,192.000000,0.000000,0.000000,0.000000,0.000000,0.000000,0.000000,0.000000,0.000000,0.000000,1648031696.642326,0.000000
0.000000,-4715.525176,14545.755332,25754.149348,56193.872534,-10015.928449,52368.550285,57859.233959,63637.092845,0.014000,0.982000,-0.114000,192.000000,0.000000,0.000000,0.000000,0.000000,0.000000,0.000000,0.000000,0.000000,0.000000,1648031696.650260,0.000000
1.000000,-4704.572821,14563.122638,25755.535156,56201.472128,-10006.428958,52382.587180,57856.931729,63628.286258,0.014000,0.982000,-0.114000,192.000000,0.000000,0.000000,0.000000,0.000000,0.000000,0.000000,0.000000,0.000000,0.000000,1648031696.650295,0.000000
2.000000,-4681.818745,14588.022481,25752.361208,56212.200965,-9994.090795,52401.273239,57867.414697,63661.076267,0.014000,0.982000,-0.114000,192.000000,0.000000,0.000000,0.000000,0.000000,0.000000,0.000000,0.000000,0.000000,0.000000,1648031696.656756,0.000000
3.000000,-4641.742068,14594.325673,25729.741243,56203.394378,-9998.404681,52403.866041,57897.276628,63668.988784,0.014000,0.982000,-0.112000,192.000000,0.000000,112.000000,30.000000,176.000000,252.000000,128.000000,0.000000,0.000000,0.000000,1648031696.656773,0.000000
4.000000,-4655.689556,14582.523952,25726.544944,56209.697570,-10001.265705,52394.500660,57882.792697,63668.720563,0.014000,0.982000,-0.112000,192.000000,0.000000,0.000000,0.000000,0.000000,0.000000,0.000000,0.000000,0.000000,0.000000,1648031696.664856,0.000000
5.000000,-4700.750673,14562.832065,25742.124110,56205.137814,-10005.445481,52387.370454,57867.034717,63654.795427,0.014000,0.982000,-0.112000,192.000000,0.000000,0.000000,0.000000,0.000000,0.000000,0.000000,0.000000,0.000000,0.000000,1648031696.664871,0.000000
6.000000,-4709.557260,14557.825274,25762.933584,56211.150433,-9997.287094,52390.991436,57859.613938,63652.716714,0.014000,0.982000,-0.112000,192.000000,0.000000,0.000000,0.000000,0.000000,0.000000,0.000000,0.000000,0.000000,0.000000,1648031696.672860,0.000000
7.000000,-4733.160702,14547.118789,25753.009409,56199.348712,-10006.294847,52386.521087,57875.260159,63628.398017,0.014000,0.982000,-0.112000,192.000000,0.000000,0.000000,0.000000,0.000000,0.000000,0.000000,0.000000,0.000000,0.000000,1648031696.672876,0.000000
8.000000,-4736.334650,14544.816559,25767.739209,56197.314703,-10005.289019,52385.314093,57886.056052,63639.417427,0.014000,0.982000,-0.112000,192.000000,0.000000,0.000000,0.000000,0.000000,0.000000,0.000000,0.000000,0.000000,0.000000,1648031696.680029,0.000000
9.000000,-4720.442560,14558.920510,25783.944223,56210.032846,-9999.522269,52397.518146,57875.729546,63651.040334,0.014000,0.982000,-0.112000,192.000000,0.000000,0.000000,0.000000,0.000000,0.000000,0.000000,0.000000,0.000000,0.000000,1648031696.680045,0.000000
10.000000,-4702.605868,14569.716402,25786.380564,56225.388494,-9987.608789,52408.716370,57879.417584,63672.609767,0.014000,0.982000,-0.112000,192.000000,0.000000,0.000000,0.000000,0.000000,0.000000,0.000000,0.000000,0.000000,0.000000,1648031696.687159,0.000000
11.000000,-4694.112205,14570.588120,25782.804284,56230.797616,-9987.742899,52407.263506,57873.539075,63660.651584,0.014000,0.982000,-0.112000,192.000000,0.000000,0.000000,0.000000,0.000000,0.000000,0.000000,0.000000,0.000000,0.000000,1648031696.687171,0.000000
12.000000,-4678.935370,14574.902007,25782.424305,56237.234919,-9978.735146,52410.996248,57879.484639,63644.625383,0.014000,0.982000,-0.112000,192.000000,0.000000,0.000000,0.000000,0.000000,0.000000,0.000000,0.000000,0.000000,0.000000,1648031696.695206,0.000000
13.000000,-4686.959647,14560.015745,25741.408854,56213.430311,-10001.444519,52392.287838,57861.133857,63666.798313,0.010000,0.982000,-0.112000,192.000000,0.000000,80.000000,30.000000,176.000000,252.000000,128.000000,0.000000,0.000000,0.000000,1648031696.695214,0.000000
14.000000,-4692.458176,14543.922489,25719.593551,56202.321494,-10017.358961,52383.861230,57852.528435,63652.314383,0.010000,0.982000,-0.112000,192.000000,0.000000,0.000000,0.000000,0.000000,0.000000,0.000000,0.000000,0.000000,0.000000,1648031696.702432,0.000000
15.000000,-4678.018949,14558.227606,25745.253354,56212.469186,-10006.965400,52400.781500,57870.007499,63668.519398,0.010000,0.982000,-0.112000,192.000000,0.000000,0.000000,0.000000,0.000000,0.000000,0.000000,0.000000,0.000000,0.000000,1648031696.709140,0.000000
16.000000,-4662.506838,14573.225626,25761.123092,56213.720884,-9995.677769,52414.259602,57883.217380,63679.918787,0.010000,0.982000,-0.112000,192.000000,0.000000,0.000000,0.000000,0.000000,0.000000,0.000000,0.000000,0.000000,0.000000,1648031696.709156,0.000000
17.000000,-4659.399946,14571.683356,25759.513767,56220.448759,-9990.760385,52417.992344,57884.156154,63667.670032,0.010000,0.982000,-0.112000,192.000000,0.000000,0.000000,0.000000,0.000000,0.000000,0.000000,0.000000,0.000000,0.000000,1648031696.717145,0.000000
18.000000,-4681.706987,14582.009862,25775.674078,56243.448704,-9983.831344,52427.894166,57870.655700,63679.583511,0.010000,0.982000,-0.112000,192.000000,0.000000,0.000000,0.000000,0.000000,0.000000,0.000000,0.000000,0.000000,0.000000,1648031696.717161,0.000000
19.000000,-4687.004350,14593.632769,25787.274633,56262.648852,-9971.649643,52429.145864,57866.274758,63680.522285,0.010000,0.982000,-0.112000,192.000000,0.000000,0.000000,0.000000,0.000000,0.000000,0.000000,0.000000,0.000000,0.000000,1648031696.725171,0.000000
20.000000,-4696.302676,14577.874789,25768.074485,56249.640137,-9980.657396,52410.839785,57850.919110,63641.317325,0.010000,0.982000,-0.112000,192.000000,0.000000,0.000000,0.000000,0.000000,0.000000,0.000000,0.000000,0.000000,0.000000,1648031696.725187,0.000000
21.000000,-4695.363902,14560.440428,25734.971551,56225.075570,-9991.699158,52393.450128,57820.856013,63629.023865,0.010000,0.982000,-0.112000,192.000000,0.000000,0.000000,0.000000,0.000000,0.000000,0.000000,0.000000,0.000000,0.000000,1648031696.732221,0.000000
22.000000,-4682.444594,14569.045850,25739.576011,56221.655753,-9990.581571,52395.618247,57846.180540,63613.489403,0.010000,0.982000,-0.112000,192.000000,0.000000,0.000000,0.000000,0.000000,0.000000,0.000000,0.000000,0.000000,0.000000,1648031696.732256,0.000000
23.000000,-4679.494164,14591.464650,25757.278592,56215.665485,-9995.454251,52396.802890,57842.201929,63644.558328,0.004000,0.984000,-0.116000,192.000000,0.000000,32.000000,30.000000,192.000000,252.000000,96.000000,0.000000,0.000000,0.000000,1648031696.739686,0.000000
24.000000,-4685.260914,14590.905856,25761.391313,56208.892907,-10005.959571,52386.923419,57808.428443,63645.832377,0.004000,0.984000,-0.116000,192.000000,0.000000,0.000000,0.000000,0.000000,0.000000,0.000000,0.000000,0.000000,0.000000,1648031696.739702,0.000000
25.000000,-4688.233696,14566.967138,25741.475909,56207.998837,-10007.568897,52376.820430,57828.902641,63635.327057,0.004000,0.984000,-0.116000,192.000000,0.000000,0.000000,0.000000,0.000000,0.000000,0.000000,0.000000,0.000000,0.000000,1648031696.747829,0.000000
26.000000,-4635.863559,14591.978740,25751.780063,56238.263099,-9986.960588,52395.282971,57862.989052,63652.582604,0.004000,0.984000,-0.116000,192.000000,0.000000,0.000000,0.000000,0.000000,0.000000,0.000000,0.000000,0.000000,0.000000,1648031696.747844,0.000000
27.000000,-4631.661431,14615.962162,25758.954973,56249.461323,-9973.862466,52407.710541,57862.340851,63650.034505,0.004000,0.984000,-0.116000,192.000000,0.000000,0.000000,0.000000,0.000000,0.000000,0.000000,0.000000,0.000000,0.000000,1648031696.755717,0.000000
28.000000,-4676.163754,14593.856286,25772.477778,56239.894776,-9975.292978,52399.999189,57846.851092,63650.794464,0.004000,0.984000,-0.116000,192.000000,0.000000,0.000000,0.000000,0.000000,0.000000,0.000000,0.000000,0.000000,0.000000,1648031696.755732,0.000000
29.000000,-4694.581591,14575.863132,25774.556491,56240.431218,-9979.517457,52392.958390,57823.538223,63652.224976,0.004000,0.984000,-0.116000,192.000000,0.000000,0.000000,0.000000,0.000000,0.000000,0.000000,0.000000,0.000000,0.000000,1648031696.761841,0.000000
30.000000,-4689.217173,14587.284873,25750.349551,56240.900605,-9980.925617,52395.484137,57837.932746,63653.387267,0.004000,0.984000,-0.116000,192.000000,0.000000,0.000000,0.000000,0.000000,0.000000,0.000000,0.000000,0.000000,0.000000,1648031696.761857,0.000000
31.000000,-4670.754632,14613.324656,25748.315543,56239.112465,-9983.630178,52394.902992,57847.722810,63646.279412,0.004000,0.984000,-0.116000,192.000000,0.000000,0.000000,0.000000,0.000000,0.000000,0.000000,0.000000,0.000000,0.000000,1648031696.769398,0.000000
32.000000,-4678.510687,14595.555019,25742.481737,56243.225186,-9989.486335,52391.349064,57836.815159,63624.128833,0.004000,0.984000,-0.116000,192.000000,0.000000,0.000000,0.000000,0.000000,0.000000,0.000000,0.000000,0.000000,0.000000,1648031696.777396,0.000000
33.000000,-4700.258935,14560.909815,25743.085235,56245.728582,-9994.761347,52382.050739,57829.170862,63639.730351,0.004000,0.984000,-0.116000,192.000000,0.000000,0.000000,0.000000,0.000000,0.000000,0.000000,0.000000,0.000000,0.000000,1648031696.777412,0.000000
34.000000,-4684.858583,14570.766934,25753.635258,56243.269890,-9989.508687,52399.462748,57829.953173,63633.538918,0.002000,0.982000,-0.112000,192.000000,0.000000,16.000000,30.000000,176.000000,252.000000,128.000000,0.000000,0.000000,0.000000,1648031696.785441,0.000000
35.000000,-4686.534963,14584.312091,25746.952086,56244.722753,-9985.731242,52398.434567,57824.052313,63619.524374,0.002000,0.982000,-0.112000,192.000000,0.000000,0.000000,0.000000,0.000000,0.000000,0.000000,0.000000,0.000000,0.000000,1648031696.785457,0.000000
36.000000,-4701.175356,14589.475344,25722.856906,56228.338924,-9998.359978,52385.872887,57811.401225,63634.455339,0.002000,0.982000,-0.112000,192.000000,0.000000,0.000000,0.000000,0.000000,0.000000,0.000000,0.000000,0.000000,0.000000,1648031696.791971,0.000000
37.000000,-4679.292998,14609.524859,25741.878240,56247.963756,-9985.507725,52398.434567,57826.600412,63658.639927,0.002000,0.982000,-0.112000,192.000000,0.000000,0.000000,0.000000,0.000000,0.000000,0.000000,0.000000,0.000000,0.000000,1648031696.791987,0.000000
38.000000,-4682.176373,14600.382996,25749.053150,56241.906433,-9991.185068,52391.438471,57834.624688,63653.409619,0.002000,0.982000,-0.112000,192.000000,0.000000,0.000000,0.000000,0.000000,0.000000,0.000000,0.000000,0.000000,0.000000,1648031696.799909,0.000000
39.000000,-4699.543679,14593.766879,25720.621731,56231.088189,-10005.937219,52380.262599,57811.624743,63633.494214,0.002000,0.982000,-0.112000,192.000000,0.000000,0.000000,0.000000,0.000000,0.000000,0.000000,0.000000,0.000000,0.000000,1648031696.799925,0.000000
40.000000,-4692.078196,14606.552077,25714.475002,56226.148453,-10008.686484,52377.423927,57815.581002,63649.118084,0.002000,0.982000,-0.112000,192.000000,0.000000,0.000000,0.000000,0.000000,0.000000,0.000000,0.000000,0.000000,0.000000,1648031696.807990,0.000000
41.000000,-4678.756556,14606.999112,25690.603339,56219.197061,-10022.365752,52369.936093,57805.030978,63623.704150,0.002000,0.982000,-0.112000,192.000000,0.000000,0.000000,0.000000,0.000000,0.000000,0.000000,0.000000,0.000000,0.000000,1648031696.808006,0.000000
42.000000,-4699.096644,14590.235304,25690.580987,56222.125139,-10034.234528,52364.683433,57778.253588,63615.076377,0.002000,0.982000,-0.112000,192.000000,0.000000,0.000000,0.000000,0.000000,0.000000,0.000000,0.000000,0.000000,0.000000,1648031696.815162,0.000000
43.000000,-4716.665115,14581.384013,25714.497353,56234.440951,-10017.358961,52382.497773,57808.003760,63640.400903,0.002000,0.982000,-0.112000,192.000000,0.000000,0.000000,0.000000,0.000000,0.000000,0.000000,0.000000,0.000000,0.000000,1648031696.815196,0.000000
44.000000,-4732.423095,14584.110926,25710.921074,56224.874404,-10017.582478,52380.039082,57807.444967,63625.246421,0.008000,0.976000,-0.118000,192.000000,0.000000,64.000000,30.000000,128.000000,252.000000,80.000000,0.000000,0.000000,0.000000,1648031696.822548,0.000000
45.000000,-4750.907987,14565.111943,25675.471208,56206.724788,-10041.320031,52352.501732,57778.588865,63597.172629,0.008000,0.976000,-0.118000,192.000000,0.000000,0.000000,0.000000,0.000000,0.000000,0.000000,0.000000,0.000000,0.000000,1648031696.822564,0.000000
46.000000,-4734.010069,14563.972004,25685.708307,56220.985201,-10026.791397,52368.393823,57792.402243,63611.701263,0.008000,0.976000,-0.118000,192.000000,0.000000,0.000000,0.000000,0.000000,0.000000,0.000000,0.000000,0.000000,0.000000,1648031696.829601,0.000000
47.000000,-4733.138351,14553.243167,25704.751993,56217.364218,-10020.868185,52372.350081,57798.392510,63620.820775,0.008000,0.976000,-0.118000,192.000000,0.000000,0.000000,0.000000,0.000000,0.000000,0.000000,0.000000,0.000000,0.000000,1648031696.837710,0.000000
48.000000,-4732.512502,14550.873882,25696.683013,56229.277698,-10022.678676,52371.321901,57790.725862,63606.828583,0.008000,0.976000,-0.118000,192.000000,0.000000,0.000000,0.000000,0.000000,0.000000,0.000000,0.000000,0.000000,0.000000,1648031696.837727,0.000000
49.000000,-4751.712650,14551.119751,25700.773382,56228.517738,-10026.031438,52366.963311,57781.896923,63604.347539,0.008000,0.976000,-0.118000,192.000000,0.000000,0.000000,0.000000,0.000000,0.000000,0.000000,0.000000,0.000000,0.000000,1648031696.844691,0.000000
50.000000,-4749.544531,14559.613414,25702.069783,56234.508006,-10021.449330,52367.656215,57790.770565,63633.918897,0.008000,0.976000,-0.118000,192.000000,0.000000,0.000000,0.000000,0.000000,0.000000,0.000000,0.000000,0.000000,0.000000,1648031696.844707,0.000000
51.000000,-4743.509560,14583.261559,25701.756859,56243.336945,-10013.067426,52367.387994,57786.590789,63638.299839,0.008000,0.976000,-0.118000,192.000000,0.000000,0.000000,0.000000,0.000000,0.000000,0.000000,0.000000,0.000000,0.000000,1648031696.852234,0.000000
52.000000,-4737.541644,14599.488926,25707.143629,56244.476884,-10014.162661,52362.448259,57773.067984,63617.445662,0.008000,0.976000,-0.118000,192.000000,0.000000,0.000000,0.000000,0.000000,0.000000,0.000000,0.000000,0.000000,0.000000,1648031696.852251,0.000000
53.000000,-4749.321014,14575.036117,25682.064972,56226.930765,-10031.440560,52342.689317,57747.430533,63628.845051,0.008000,0.976000,-0.118000,192.000000,0.000000,0.000000,0.000000,0.000000,0.000000,0.000000,0.000000,0.000000,0.000000,1648031696.860306,0.000000
54.000000,-4754.596025,14581.607530,25677.527568,56241.817026,-10022.432807,52349.975985,57752.549082,63629.649714,0.024000,0.980000,-0.108000,192.000000,0.000000,192.000000,30.000000,160.000000,252.000000,160.000000,0.000000,0.000000,0.000000,1648031696.860323,0.000000
55.000000,-4775.226685,14583.641539,25681.662641,56245.750933,-10020.734074,52353.842837,57800.515926,63629.336790,0.024000,0.980000,-0.108000,192.000000,0.000000,0.000000,0.000000,0.000000,0.000000,0.000000,0.000000,0.000000,0.000000,1648031696.867328,0.000000
56.000000,-4777.931247,14589.318882,25677.192292,56245.438009,-10023.237470,52348.768991,57794.212734,63624.665275,0.024000,0.980000,-0.108000,192.000000,0.000000,0.000000,0.000000,0.000000,0.000000,0.000000,0.000000,0.000000,0.000000,1648031696.867344,0.000000
57.000000,-4765.861305,14587.106059,25683.674298,56257.418544,-10008.820594,52373.691186,57797.878420,63614.808156,0.024000,0.980000,-0.108000,192.000000,0.000000,0.000000,0.000000,0.000000,0.000000,0.000000,0.000000,0.000000,0.000000,1648031696.874911,0.000000
58.000000,-4771.292778,14576.041946,25685.887120,56254.445762,-10006.451309,52372.394785,57782.455716,63626.542822,0.024000,0.980000,-0.108000,192.000000,0.000000,0.000000,0.000000,0.000000,0.000000,0.000000,0.000000,0.000000,0.000000,1648031696.874928,0.000000
59.000000,-4758.999319,14591.151725,25698.851132,56265.755745,-9996.258914,52380.553172,57787.238990,63640.825586,0.024000,0.980000,-0.108000,192.000000,0.000000,0.000000,0.000000,0.000000,0.000000,0.000000,0.000000,0.000000,0.000000,1648031696.882970,0.000000
60.000000,-4777.238342,14574.164399,25673.727771,56246.488541,-10012.799205,52358.760221,57764.037879,63617.579772,0.024000,0.980000,-0.108000,192.000000,0.000000,0.000000,0.000000,0.000000,0.000000,0.000000,0.000000,0.000000,0.000000,1648031696.882986,0.000000
61.000000,-4751.891464,14585.295568,25679.762742,56250.780076,-10006.741882,52368.036195,57759.366364,63614.137604,0.024000,0.980000,-0.108000,192.000000,0.000000,0.000000,0.000000,0.000000,0.000000,0.000000,0.000000,0.000000,0.000000,1648031696.889858,0.000000
62.000000,-4750.684470,14600.584161,25693.307900,56251.875311,-10000.371635,52377.915666,57767.815324,63596.904409,0.024000,0.980000,-0.108000,192.000000,0.000000,0.000000,0.000000,0.000000,0.000000,0.000000,0.000000,0.000000,0.000000,1648031696.897011,0.000000
63.000000,-4766.733023,14583.708594,25685.261272,56253.015250,-10006.227792,52383.861230,57776.577208,63599.854839,0.024000,0.980000,-0.108000,192.000000,0.000000,0.000000,0.000000,0.000000,0.000000,0.000000,0.000000,0.000000,0.000000,1648031696.897027,0.000000
64.000000,-4744.068354,14586.211990,25671.112617,56259.921939,-10005.691350,52390.454994,57778.342995,63641.406732,0.018000,0.976000,-0.108000,192.000000,0.000000,144.000000,30.000000,128.000000,252.000000,160.000000,0.000000,0.000000,0.000000,1648031696.904394,0.000000
65.000000,-4757.635863,14585.340272,25673.638365,56259.541960,-10001.377464,52397.138166,57790.859972,63657.991726,0.018000,0.976000,-0.108000,192.000000,0.000000,0.000000,0.000000,0.000000,0.000000,0.000000,0.000000,0.000000,0.000000,1648031696.904428,0.000000
66.000000,-4789.062415,14548.258728,25657.254536,56210.949267,-10021.918717,52374.093518,57775.414917,63641.406732,0.018000,0.976000,-0.108000,192.000000,0.000000,0.000000,0.000000,0.000000,0.000000,0.000000,0.000000,0.000000,0.000000,1648031696.912556,0.000000
67.000000,-4761.905046,14555.858321,25692.436182,56219.755855,-10004.059673,52391.706692,57795.129156,63634.522394,0.018000,0.976000,-0.108000,192.000000,0.000000,0.000000,0.000000,0.000000,0.000000,0.000000,0.000000,0.000000,0.000000,1648031696.912572,0.000000
68.000000,-4759.334595,14562.005050,25699.655795,56231.803445,-9998.807013,52389.896201,57792.290484,63642.211395,0.018000,0.976000,-0.108000,192.000000,0.000000,0.000000,0.000000,0.000000,0.000000,0.000000,0.000000,0.000000,0.000000,1648031696.920574,0.000000
69.000000,-4773.125621,14547.655230,25677.862844,56224.449721,-10005.132557,52379.547343,57772.330376,63635.215299,0.018000,0.976000,-0.108000,192.000000,0.000000,0.000000,0.000000,0.000000,0.000000,0.000000,0.000000,0.000000,0.000000,1648031696.920590,0.000000
70.000000,-4794.426834,14520.743730,25674.197158,56214.123215,-10011.815728,52374.048814,57770.005795,63620.060816,0.018000,0.976000,-0.108000,192.000000,0.000000,0.000000,0.000000,0.000000,0.000000,0.000000,0.000000,0.000000,0.000000,1648031696.927196,0.000000
71.000000,-4794.762110,14510.283114,25679.248652,56210.971619,-10013.000371,52378.206239,57789.496516,63634.321229,0.018000,0.976000,-0.108000,192.000000,0.000000,0.000000,0.000000,0.000000,0.000000,0.000000,0.000000,0.000000,0.000000,1648031696.927213,0.000000
72.000000,-4783.765052,14506.528021,25668.095132,56197.694683,-10020.197632,52373.110041,57772.799763,63640.646772,0.018000,0.976000,-0.108000,192.000000,0.000000,0.000000,0.000000,0.000000,0.000000,0.000000,0.000000,0.000000,0.000000,1648031696.935222,0.000000
73.000000,-4762.061508,14501.007140,25640.781300,56179.612122,-10034.234528,52365.175172,57758.718164,63614.651694,0.018000,0.976000,-0.108000,192.000000,0.000000,0.000000,0.000000,0.000000,0.000000,0.000000,0.000000,0.000000,0.000000,1648031696.935238,0.000000
74.000000,-4745.409458,14510.618390,25663.222452,56197.515869,-10021.583440,52373.557076,57775.392565,63622.564211,0.012000,0.980000,-0.106000,192.000000,0.000000,96.000000,30.000000,160.000000,252.000000,176.000000,0.000000,0.000000,0.000000,1648031696.943177,0.000000
75.000000,-4767.448278,14506.840945,25681.349716,56204.109633,-10012.173356,52380.150840,57774.878475,63640.959697,0.012000,0.980000,-0.106000,192.000000,0.000000,0.000000,0.000000,0.000000,0.000000,0.000000,0.000000,0.000000,0.000000,1648031696.943194,0.000000
76.000000,-4775.047871,14506.639779,25689.642214,56201.002741,-10013.223888,52380.396709,57767.882379,63653.789598,0.012000,0.980000,-0.106000,192.000000,0.000000,0.000000,0.000000,0.000000,0.000000,0.000000,0.000000,0.000000,0.000000,1648031696.950197,0.000000
77.000000,-4769.705805,14501.163602,25682.333193,56191.033863,-10021.538737,52375.680491,57741.775542,63638.545708,0.012000,0.980000,-0.106000,192.000000,0.000000,0.000000,0.000000,0.000000,0.000000,0.000000,0.000000,0.000000,0.000000,1648031696.956895,0.000000
78.000000,-4769.035252,14486.612616,25681.349716,56180.662654,-10024.556223,52374.831125,57754.247815,63659.690459,0.012000,0.980000,-0.106000,192.000000,0.000000,0.000000,0.000000,0.000000,0.000000,0.000000,0.000000,0.000000,0.000000,1648031696.956911,0.000000
79.000000,-4775.919590,14476.040241,25681.729696,56184.998892,-10012.598039,52383.458898,57799.219525,63652.806121,0.012000,0.980000,-0.106000,192.000000,0.000000,0.000000,0.000000,0.000000,0.000000,0.000000,0.000000,0.000000,0.000000,1648031696.964832,0.000000
80.000000,-4773.527953,14480.957625,25693.464362,56192.196154,-10005.512536,52394.411253,57777.024243,63629.336790,0.012000,0.980000,-0.106000,192.000000,0.000000,0.000000,0.000000,0.000000,0.000000,0.000000,0.000000,0.000000,0.000000,1648031696.964848,0.000000
81.000000,-4768.677624,14486.746727,25697.420621,56199.572229,-10003.947914,52391.930210,57787.060176,63643.373685,0.012000,0.980000,-0.106000,192.000000,0.000000,0.000000,0.000000,0.000000,0.000000,0.000000,0.000000,0.000000,0.000000,1648031696.972851,0.000000
82.000000,-4768.051775,14475.794372,25680.165074,56203.819061,-10013.112129,52380.910800,57776.018414,63641.250270,0.012000,0.980000,-0.106000,192.000000,0.000000,0.000000,0.000000,0.000000,0.000000,0.000000,0.000000,0.000000,0.000000,1648031696.972866,0.000000
83.000000,-4768.029424,14451.542729,25664.720018,56188.351654,-10024.891499,52370.986625,57761.243911,63612.930609,0.012000,0.980000,-0.106000,192.000000,0.000000,0.000000,0.000000,0.000000,0.000000,0.000000,0.000000,0.000000,0.000000,1648031696.979940,0.000000
84.000000,-4758.932264,14455.700154,25680.455647,56191.257380,-10011.703969,52378.027425,57757.064135,63624.687627,0.004000,0.982000,-0.102000,192.000000,0.000000,32.000000,30.000000,176.000000,252.000000,208.000000,0.000000,0.000000,0.000000,1648031696.979957,0.000000
85.000000,-4764.006110,14452.235633,25665.681143,56186.876438,-10017.448368,52370.517238,57740.903823,63616.775109,0.004000,0.982000,-0.102000,192.000000,0.000000,0.000000,0.000000,0.000000,0.000000,0.000000,0.000000,0.000000,0.000000,1648031696.987254,0.000000
86.000000,-4735.462932,14471.726355,25684.724830,56204.310799,-10000.438690,52395.014750,57784.690891,63648.626345,0.004000,0.982000,-0.102000,192.000000,0.000000,0.000000,0.000000,0.000000,0.000000,0.000000,0.000000,0.000000,0.000000,1648031696.987278,0.000000
87.000000,-4742.235511,14458.695288,25673.951289,56190.720939,-10011.055769,52388.890372,57790.122365,63649.274546,0.004000,0.982000,-0.102000,192.000000,0.000000,0.000000,0.000000,0.000000,0.000000,0.000000,0.000000,0.000000,0.000000,1648031696.995411,0.000000
88.000000,-4739.173322,14445.820683,25668.095132,56175.946435,-10021.784606,52378.317997,57781.360481,63659.601052,0.004000,0.982000,-0.102000,192.000000,0.000000,0.000000,0.000000,0.000000,0.000000,0.000000,0.000000,0.000000,0.000000,1648031696.995427,0.000000
89.000000,-4723.616507,14453.174407,25684.970699,56184.551857,-10016.308429,52386.990474,57784.288559,63658.751685,0.004000,0.982000,-0.102000,192.000000,0.000000,0.000000,0.000000,0.000000,0.000000,0.000000,0.000000,0.000000,0.000000,1648031697.002295,0.000000
90.000000,-4734.859435,14443.004363,25660.137911,56168.212732,-10031.664077,52376.015768,57764.931949,63659.958680,0.004000,0.982000,-0.102000,192.000000,0.000000,0.000000,0.000000,0.000000,0.000000,0.000000,0.000000,0.000000,0.000000,1648031697.002306,0.000000
91.000000,-4714.184071,14457.980032,25668.922146,56183.903656,-10017.470720,52389.717387,57768.955263,63667.021831,0.004000,0.982000,-0.102000,192.000000,0.000000,0.000000,0.000000,0.000000,0.000000,0.000000,0.000000,0.000000,0.000000,1648031697.009189,0.000000
92.000000,-4708.529080,14446.066552,25665.010591,56175.253531,-10025.852624,52380.396709,57760.148675,63630.700246,0.004000,0.982000,-0.102000,192.000000,0.000000,0.000000,0.000000,0.000000,0.000000,0.000000,0.000000,0.000000,0.000000,1648031697.009206,0.000000
93.000000,-4718.408551,14446.982973,25653.208870,56174.426517,-10028.423074,52384.755300,57782.545123,63641.719656,0.004000,0.982000,-0.102000,192.000000,0.000000,0.000000,0.000000,0.000000,0.000000,0.000000,0.000000,0.000000,0.000000,1648031697.016888,0.000000
94.000000,-4738.838045,14451.900357,25669.749161,56164.390584,-10026.746693,52385.649369,57783.238027,63644.535976,0.002000,0.978000,-0.098000,192.000000,0.000000,16.000000,30.000000,144.000000,252.000000,240.000000,0.000000,0.000000,0.000000,1648031697.025095,0.000000
95.000000,-4745.320051,14452.615613,25645.922201,56145.324546,-10044.181054,52362.694128,57748.235196,63636.332886,0.002000,0.978000,-0.098000,192.000000,0.000000,0.000000,0.000000,0.000000,0.000000,0.000000,0.000000,0.000000,0.000000,1648031697.025106,0.000000
96.000000,-4742.749601,14448.189968,25659.087379,56150.130171,-10044.896310,52366.650387,57752.169103,63659.511645,0.002000,0.978000,-0.098000,192.000000,0.000000,0.000000,0.000000,0.000000,0.000000,0.000000,0.000000,0.000000,0.000000,1648031697.032269,0.000000
97.000000,-4749.164551,14452.503854,25697.666490,56190.966808,-10017.068388,52392.801928,57787.551914,63680.410526,0.002000,0.978000,-0.098000,192.000000,0.000000,0.000000,0.000000,0.000000,0.000000,0.000000,0.000000,0.000000,0.000000,1648031697.032280,0.000000
98.000000,-4752.629072,14457.242424,25708.976472,56206.344808,-10005.981923,52399.775672,57786.501382,63668.586453,0.002000,0.978000,-0.098000,192.000000,0.000000,0.000000,0.000000,0.000000,0.000000,0.000000,0.000000,0.000000,0.000000,1648031697.039817,0.000000
99.000000,-4768.454107,14444.457226,25690.335118,56174.471220,-10022.991600,52377.423927,57757.377059,63635.952906,0.002000,0.978000,-0.098000,192.000000,0.000000,0.000000,0.000000,0.000000,0.000000,0.000000,0.000000,0.000000,0.000000,1648031697.039833,0.000000
100.000000,-4800.640619,14415.243496,25667.201062,56144.385772,-10049.210197,52353.015823,57742.714315,63635.282354,0.002000,0.978000,-0.098000,192.000000,0.000000,0.000000,0.000000,0.000000,0.000000,0.000000,0.000000,0.000000,0.000000,1648031697.047621,0.000000
101.000000,-4777.148935,14435.181252,25680.075667,56170.291444,-10027.730170,52372.327730,57757.935853,63662.596186,0.002000,0.978000,-0.098000,192.000000,0.000000,0.000000,0.000000,0.000000,0.000000,0.000000,0.000000,0.000000,0.000000,1648031697.047638,0.000000
102.000000,-4770.689281,14435.829453,25678.958080,56172.303101,-10026.880804,52369.667872,57755.052478,63654.437799,0.002000,0.978000,-0.098000,192.000000,0.000000,0.000000,0.000000,0.000000,0.000000,0.000000,0.000000,0.000000,0.000000,1648031697.055781,0.000000
103.000000,-4784.368549,14427.805177,25656.472225,56162.311871,-10039.621298,52352.412325,57745.642393,63631.661371,0.002000,0.978000,-0.098000,192.000000,0.000000,0.000000,0.000000,0.000000,0.000000,0.000000,0.000000,0.000000,0.000000,1648031697.055798,0.000000
104.000000,-4769.571694,14443.831377,25660.562594,56165.776392,-10034.569804,52356.592102,57749.241024,63636.690514,0.014000,0.978000,-0.100000,192.000000,0.000000,112.000000,30.000000,144.000000,252.000000,224.000000,0.000000,0.000000,0.000000,1648031697.062423,0.000000
105.000000,-4745.632976,14461.556311,25679.762742,56187.032901,-10013.290943,52375.009939,57748.369306,63641.294973,0.014000,0.978000,-0.100000,192.000000,0.000000,0.000000,0.000000,0.000000,0.000000,0.000000,0.000000,0.000000,0.000000,1648031697.062440,0.000000
106.000000,-4776.612494,14439.606898,25650.280792,56174.493572,-10030.322973,52353.641671,57705.900992,63636.869328,0.014000,0.978000,-0.100000,192.000000,0.000000,0.000000,0.000000,0.000000,0.000000,0.000000,0.000000,0.000000,0.000000,1648031697.070372,0.000000
107.000000,-4748.337537,14456.907148,25656.941611,56187.055252,-10020.845833,52367.902084,57710.796024,63647.553461,0.014000,0.978000,-0.100000,192.000000,0.000000,0.000000,0.000000,0.000000,0.000000,0.000000,0.000000,0.000000,0.000000,1648031697.070406,0.000000
108.000000,-4742.123752,14453.263814,25638.032036,56178.963921,-10026.389066,52363.565846,57731.225518,63622.184232,0.014000,0.978000,-0.100000,192.000000,0.000000,0.000000,0.000000,0.000000,0.000000,0.000000,0.000000,0.000000,0.000000,1648031697.077384,0.000000
109.000000,-4782.066319,14435.293011,25623.771623,56160.166104,-10043.801074,52340.923529,57712.561812,63610.986008,0.014000,0.978000,-0.100000,192.000000,0.000000,0.000000,0.000000,0.000000,0.000000,0.000000,0.000000,0.000000,0.000000,1648031697.085508,0.000000
110.000000,-4793.085729,14446.558290,25642.345922,56167.095145,-10032.714609,52348.478418,57716.540422,63601.665330,0.014000,0.978000,-0.100000,192.000000,0.000000,0.000000,0.000000,0.000000,0.000000,0.000000,0.000000,0.000000,0.000000,1648031697.085525,0.000000
111.000000,-4792.750453,14462.606843,25646.033960,56174.694738,-10027.998391,52356.837971,57709.119643,63622.050121,0.014000,0.978000,-0.100000,192.000000,0.000000,0.000000,0.000000,0.000000,0.000000,0.000000,0.000000,0.000000,0.000000,1648031697.092035,0.000000
112.000000,-4761.010976,14491.865276,25661.858995,56199.304008,-10013.112129,52381.648407,57727.492777,63652.359087,0.014000,0.978000,-0.100000,192.000000,0.000000,0.000000,0.000000,0.000000,0.000000,0.000000,0.000000,0.000000,0.000000,1648031697.092052,0.000000
113.000000,-4756.093592,14493.072271,25654.058236,56190.787994,-10029.317144,52371.456012,57713.679399,63620.619609,0.014000,0.978000,-0.100000,192.000000,0.000000,0.000000,0.000000,0.000000,0.000000,0.000000,0.000000,0.000000,0.000000,1648031697.099930,0.000000
114.000000,-4743.196636,14530.913774,25663.423617,56186.004720,-10023.997429,52382.788346,57715.534594,63630.901412,0.020000,0.984000,-0.096000,192.000000,0.000000,160.000000,30.000000,192.000000,253.000000,0.000000,0.000000,0.000000,0.000000,1648031697.099946,0.000000
115.000000,-4734.635918,14532.076065,25649.520832,56194.386625,-10018.051865,52383.637712,57707.465614,63628.576830,0.020000,0.984000,-0.096000,192.000000,0.000000,0.000000,0.000000,0.000000,0.000000,0.000000,0.000000,0.000000,0.000000,1648031697.108172,0.000000
116.000000,-4749.365717,14495.016872,25651.890117,56204.221392,-10013.559164,52392.131375,57717.367437,63644.357162,0.020000,0.984000,-0.096000,192.000000,0.000000,0.000000,0.000000,0.000000,0.000000,0.000000,0.000000,0.000000,0.000000,1648031697.108189,0.000000
117.000000,-4768.342348,14469.245311,25650.660771,56187.614046,-10016.151967,52386.029349,57712.450053,63657.052953,0.020000,0.984000,-0.096000,192.000000,0.000000,0.000000,0.000000,0.000000,0.000000,0.000000,0.000000,0.000000,0.000000,1648031697.115064,0.000000
118.000000,-4762.441488,14476.286110,25668.385705,56196.890020,-10006.116033,52399.038064,57722.284820,63650.861520,0.020000,0.984000,-0.096000,192.000000,0.000000,0.000000,0.000000,0.000000,0.000000,0.000000,0.000000,0.000000,0.000000,1648031697.115081,0.000000
119.000000,-4791.945790,14453.152055,25634.791033,56180.752061,-10031.172339,52370.830163,57692.355835,63641.920822,0.020000,0.984000,-0.096000,192.000000,0.000000,0.000000,0.000000,0.000000,0.000000,0.000000,0.000000,0.000000,0.000000,1648031697.122604,0.000000
120.000000,-4798.226630,14467.635985,25649.051446,56183.724843,-10020.398798,52382.073090,57703.129375,63667.111238,0.020000,0.984000,-0.096000,192.000000,0.000000,0.000000,0.000000,0.000000,0.000000,0.000000,0.000000,0.000000,0.000000,1648031697.122620,0.000000
121.000000,-4799.545383,14475.280282,25649.476129,56177.779278,-10026.411417,52377.826259,57693.071090,63646.122950,0.020000,0.984000,-0.096000,192.000000,0.000000,0.000000,0.000000,0.000000,0.000000,0.000000,0.000000,0.000000,0.000000,1648031697.130591,0.000000
122.000000,-4784.055624,14495.799183,25666.686972,56188.843392,-10015.101435,52388.555096,57688.265465,63622.832432,0.020000,0.984000,-0.096000,192.000000,0.000000,0.000000,0.000000,0.000000,0.000000,0.000000,0.000000,0.000000,0.000000,1648031697.130607,0.000000
123.000000,-4786.044930,14491.619407,25646.972733,56184.373043,-10022.656324,52375.032291,57657.308299,63645.765322,0.020000,0.984000,-0.096000,192.000000,0.000000,0.000000,0.000000,0.000000,0.000000,0.000000,0.000000,0.000000,0.000000,1648031697.137814,0.000000
124.000000,-4768.364700,14498.101413,25634.411053,56184.194229,-10025.316182,52367.656215,57661.756296,63652.783770,0.014000,0.986000,-0.102000,192.000000,0.000000,112.000000,30.000000,208.000000,252.000000,208.000000,0.000000,0.000000,0.000000,1648031697.144892,0.000000
125.000000,-4763.871999,14508.807899,25652.024228,56191.123270,-10013.000371,52381.268428,57682.588122,63642.189043,0.014000,0.986000,-0.102000,192.000000,0.000000,0.000000,0.000000,0.000000,0.000000,0.000000,0.000000,0.000000,0.000000,1648031697.144909,0.000000
126.000000,-4771.784517,14498.012006,25638.814347,56181.601427,-10025.383237,52371.992454,57673.267445,63627.235726,0.014000,0.986000,-0.102000,192.000000,0.000000,0.000000,0.000000,0.000000,0.000000,0.000000,0.000000,0.000000,0.000000,1648031697.152293,0.000000
127.000000,-4765.771898,14500.224829,25614.361538,56176.840505,-10034.458045,52363.387032,57653.933186,63624.978200,0.014000,0.986000,-0.102000,192.000000,0.000000,0.000000,0.000000,0.000000,0.000000,0.000000,0.000000,0.000000,0.000000,1648031697.152309,0.000000
128.000000,-4757.412345,14514.954628,25656.315763,56186.004720,-10015.548469,52377.468631,57652.167398,63636.221127,0.014000,0.986000,-0.102000,192.000000,0.000000,0.000000,0.000000,0.000000,0.000000,0.000000,0.000000,0.000000,0.000000,1648031697.160326,0.000000
129.000000,-4779.004130,14494.860410,25659.668524,56182.987235,-10011.525155,52372.685358,57668.327709,63653.834302,0.014000,0.986000,-0.102000,192.000000,0.000000,0.000000,0.000000,0.000000,0.000000,0.000000,0.000000,0.000000,0.000000,1648031697.160360,0.000000
130.000000,-4804.753340,14478.811858,25648.000914,56186.116479,-10021.628144,52363.342328,57668.573578,63626.162842,0.014000,0.986000,-0.102000,192.000000,0.000000,0.000000,0.000000,0.000000,0.000000,0.000000,0.000000,0.000000,0.000000,1648031697.167492,0.000000
131.000000,-4800.953543,14481.270549,25655.265231,56182.987235,-10025.226775,52367.142125,57660.035212,63612.863554,0.014000,0.986000,-0.102000,192.000000,0.000000,0.000000,0.000000,0.000000,0.000000,0.000000,0.000000,0.000000,0.000000,1648031697.167509,0.000000
132.000000,-4772.812697,14503.845811,25678.891024,56208.132947,-9999.544620,52394.120681,57665.623148,63642.345505,0.014000,0.986000,-0.102000,192.000000,0.000000,0.000000,0.000000,0.000000,0.000000,0.000000,0.000000,0.000000,0.000000,1648031697.174896,0.000000
133.000000,-4779.585276,14493.184029,25654.393513,56194.990122,-10014.833214,52378.228590,57633.280174,63606.202734,0.014000,0.986000,-0.102000,192.000000,0.000000,0.000000,0.000000,0.000000,0.000000,0.000000,0.000000,0.000000,0.000000,1648031697.174912,0.000000
134.000000,-4800.528860,14480.488238,25633.092300,56180.014453,-10038.324897,52354.356927,57611.934258,63581.660519,0.014000,0.990000,-0.094000,192.000000,0.000000,112.000000,30.000000,240.000000,253.000000,16.000000,0.000000,0.000000,0.000000,1648031697.182967,0.000000
135.000000,-4781.127546,14521.593096,25661.121388,56198.834622,-10008.328856,52383.972989,57662.896235,63638.769226,0.014000,0.990000,-0.094000,192.000000,0.000000,0.000000,0.000000,0.000000,0.000000,0.000000,0.000000,0.000000,0.000000,1648031697.182983,0.000000
136.000000,-4786.424909,14520.944896,25660.383780,56190.363311,-10014.185013,52375.546381,57650.111038,63636.198775,0.014000,0.990000,-0.094000,192.000000,0.000000,0.000000,0.000000,0.000000,0.000000,0.000000,0.000000,0.000000,0.000000,1648031697.191042,0.000000
137.000000,-4797.265505,14513.568820,25651.487786,56181.310854,-10022.231641,52366.851552,57640.298622,63623.659447,0.014000,0.990000,-0.094000,192.000000,0.000000,0.000000,0.000000,0.000000,0.000000,0.000000,0.000000,0.000000,0.000000,1648031697.191059,0.000000
138.000000,-4783.295665,14525.214079,25658.282716,56193.984293,-10007.859469,52379.659102,57628.139273,63644.603031,0.014000,0.990000,-0.094000,192.000000,0.000000,0.000000,0.000000,0.000000,0.000000,0.000000,0.000000,0.000000,0.000000,1648031697.197081,0.000000
139.000000,-4766.978892,14539.049809,25662.529548,56199.371064,-10000.930429,52377.289817,57610.235525,63684.098564,0.014000,0.990000,-0.094000,192.000000,0.000000,0.000000,0.000000,0.000000,0.000000,0.000000,0.000000,0.000000,0.000000,1648031697.204420,0.000000
140.000000,-4776.344273,14534.445350,25629.203097,56179.857991,-10016.129615,52371.657177,57621.232584,63632.220165,0.014000,0.990000,-0.094000,192.000000,0.000000,0.000000,0.000000,0.000000,0.000000,0.000000,0.000000,0.000000,0.000000,1648031697.204436,0.000000
141.000000,-4772.991511,14537.194614,25601.799858,56170.336148,-10023.796263,52375.680491,57644.970136,63607.342673,0.014000,0.990000,-0.094000,192.000000,0.000000,0.000000,0.000000,0.000000,0.000000,0.000000,0.000000,0.000000,0.000000,1648031697.212572,0.000000
142.000000,-4763.469668,14566.095420,25642.457681,56206.657732,-9995.253086,52394.187736,57637.974040,63612.461223,0.014000,0.990000,-0.094000,192.000000,0.000000,0.000000,0.000000,0.000000,0.000000,0.000000,0.000000,0.000000,0.000000,1648031697.212588,0.000000
143.000000,-4796.058511,14563.077934,25646.525698,56213.810291,-9993.755519,52394.791233,57630.083874,63624.084130,0.014000,0.990000,-0.094000,192.000000,0.000000,0.000000,0.000000,0.000000,0.000000,0.000000,0.000000,0.000000,0.000000,1648031697.220522,0.000000
144.000000,-4815.258660,14559.501655,25662.350734,56197.717035,-9995.610713,52395.573544,57648.188787,63633.784787,0.014000,0.990000,-0.094000,192.000000,0.000000,0.000000,0.000000,0.000000,0.000000,0.000000,0.000000,0.000000,0.000000,1648031697.220539,0.000000
145.000000,-4826.881567,14561.513312,25654.862899,56178.405127,-9997.242391,52392.801928,57628.340438,63595.943284,0.018000,0.986000,-0.104000,192.000000,0.000000,144.000000,30.000000,208.000000,252.000000,192.000000,0.000000,0.000000,0.000000,1648031697.227116,0.000000
146.000000,-4827.596823,14567.436524,25644.022303,56181.020281,-9992.369710,52396.758186,57615.398778,63612.975313,0.018000,0.986000,-0.104000,192.000000,0.000000,0.000000,0.000000,0.000000,0.000000,0.000000,0.000000,0.000000,0.000000,1648031697.227134,0.000000
147.000000,-4843.645375,14556.439466,25651.130158,56172.973653,-9994.850754,52387.661026,57604.021740,63618.049159,0.018000,0.986000,-0.104000,192.000000,0.000000,0.000000,0.000000,0.000000,0.000000,0.000000,0.000000,0.000000,0.000000,1648031697.235189,0.000000
148.000000,-4827.976802,14584.557961,25680.701516,56208.401168,-9963.424201,52412.627925,57627.401665,63602.760566,0.018000,0.986000,-0.104000,192.000000,0.000000,0.000000,0.000000,0.000000,0.000000,0.000000,0.000000,0.000000,0.000000,1648031697.235205,0.000000
149.000000,-4852.407259,14565.246053,25660.294373,56191.883229,-9978.064594,52398.233402,57616.203441,63620.172575,0.018000,0.986000,-0.104000,192.000000,0.000000,0.000000,0.000000,0.000000,0.000000,0.000000,0.000000,0.000000,0.000000,1648031697.243129,0.000000
150.000000,-4883.699701,14539.630954,25632.287637,56162.356575,-10006.361903,52364.325805,57569.890627,63621.513679,0.018000,0.986000,-0.104000,192.000000,0.000000,0.000000,0.000000,0.000000,0.000000,0.000000,0.000000,0.000000,0.000000,1648031697.243164,0.000000
151.000000,-4863.538428,14562.116809,25661.613126,56176.795802,-9988.681673,52383.324788,57571.678766,63652.001459,0.018000,0.986000,-0.104000,192.000000,0.000000,0.000000,0.000000,0.000000,0.000000,0.000000,0.000000,0.000000,0.000000,1648031697.250036,0.000000
152.000000,-4855.782372,14580.355833,25669.302126,56186.250590,-9975.181219,52393.897163,57588.062595,63637.741046,0.018000,0.986000,-0.104000,192.000000,0.000000,0.000000,0.000000,0.000000,0.000000,0.000000,0.000000,0.000000,0.000000,1648031697.250052,0.000000
153.000000,-4877.150640,14566.095420,25644.961076,56169.173857,-9996.057748,52376.105175,57567.856618,63615.031673,0.018000,0.986000,-0.104000,192.000000,0.000000,0.000000,0.000000,0.000000,0.000000,0.000000,0.000000,0.000000,0.000000,1648031697.256787,0.000000
154.000000,-4873.104974,14573.963234,25660.093207,56174.247703,-9986.938237,52386.275218,57571.164676,63623.100653,0.018000,0.986000,-0.104000,192.000000,0.000000,0.000000,0.000000,0.000000,0.000000,0.000000,0.000000,0.000000,0.000000,1648031697.256804,0.000000
155.000000,-4873.283788,14585.139106,25675.694725,56176.371119,-9978.958664,52401.966143,57604.871107,63634.432988,0.014000,0.982000,-0.108000,192.000000,0.000000,112.000000,30.000000,176.000000,252.000000,160.000000,0.000000,0.000000,0.000000,1648031697.264935,0.000000
156.000000,-4881.330416,14582.568655,25659.221489,56165.262302,-9988.704024,52391.282009,57585.402737,63650.593299,0.014000,0.982000,-0.108000,192.000000,0.000000,0.000000,0.000000,0.000000,0.000000,0.000000,0.000000,0.000000,0.000000,1648031697.272875,0.000000
157.000000,-4878.581152,14595.867943,25655.198175,56169.620892,-9987.631141,52380.955503,57550.154036,63662.998517,0.014000,0.982000,-0.108000,192.000000,0.000000,0.000000,0.000000,0.000000,0.000000,0.000000,0.000000,0.000000,0.000000,1648031697.272891,0.000000
158.000000,-4901.424635,14587.486039,25631.818251,56166.446944,-10001.869202,52366.806849,57563.855656,63648.224014,0.014000,0.982000,-0.108000,192.000000,0.000000,0.000000,0.000000,0.000000,0.000000,0.000000,0.000000,0.000000,0.000000,1648031697.279918,0.000000
