%OpenBCI Raw EEG Data
%Number of channels = 8
%Sample Rate = 256 Hz
%Board = OpenBCI_GUI$BoardCytonSerial
%Channels = Fp1, Fp2, F3, F4, Fz, Pz, O1, O2
%Data recorded at AIMS Lab (http://aimsl.uiu.ac.bd) by Rana Depto (mail@ranadepto.com)
%Brainwaves were obtained via the Ultracortex Mark IV Headset using the OpenBCI Cyton Board
%Recording Application = ConcentrateToday (https://concentrate.today)
%Data type = RAW data with noise
%Day No = 5
%Subject ID = 5
%Session ID = 7
%Record starting timestamp (UTC+6) = 2022-03-20T11:08:17.588194
%Record ending timestamp (UTC+6)   = 2022-03-20T11:08:43.420859
%Recorded durations = ~25 seconds
Sample Index, EXG Channel 0, EXG Channel 1, EXG Channel 2, EXG Channel 3, EXG Channel 4, EXG Channel 5, EXG Channel 6, EXG Channel 7, Accel Channel 0, Accel Channel 1, Accel Channel 2, Other, Other, Other, Other, Other, Other, Other, Analog Channel 0, Analog Channel 1, Analog Channel 2, Timestamp, Timestamp (Formatted)
221.000000,-3937.192731,-18093.155991,10006.540716,-591.538917,-15172.453543,-187500.022352,15943.141692,20359.287603,-0.220000,0.860000,0.426000,192.000000,0.000000,0.000000,0.000000,0.000000,0.000000,0.000000,0.000000,0.000000,0.000000,1647752897.593693,0.000000
222.000000,-3950.827295,-18107.572866,10003.947914,-614.158882,-15174.576959,-187500.022352,15929.283610,20364.629670,-0.220000,0.860000,0.426000,192.000000,0.000000,0.000000,0.000000,0.000000,0.000000,0.000000,0.000000,0.000000,0.000000,1647752897.593711,0.000000
223.000000,-3962.830181,-18116.893544,10007.166565,-623.971298,-15163.356383,-187500.022352,15916.431357,20336.019437,-0.220000,0.860000,0.426000,192.000000,0.000000,0.000000,0.000000,0.000000,0.000000,0.000000,0.000000,0.000000,0.000000,1647752897.601259,0.000000
224.000000,-3947.675699,-18100.129735,10003.076196,-613.130702,-15157.276709,-187500.022352,15919.828823,20323.390701,-0.218000,0.854000,0.430000,192.000000,249.000000,48.000000,26.000000,176.000000,13.000000,112.000000,0.000000,0.000000,0.000000,1647752897.601263,0.000000
225.000000,-3929.459027,-18082.605968,10001.131594,-602.401865,-15164.250453,-187500.022352,15937.263183,20348.379952,-0.218000,0.854000,0.430000,192.000000,0.000000,0.000000,0.000000,0.000000,0.000000,0.000000,0.000000,0.000000,0.000000,1647752897.609111,0.000000
226.000000,-3932.141236,-18093.334805,10008.999408,-599.294972,-15154.840369,-187500.022352,15944.639259,20362.170978,-0.218000,0.854000,0.430000,192.000000,0.000000,0.000000,0.000000,0.000000,0.000000,0.000000,0.000000,0.000000,0.000000,1647752897.609116,0.000000
227.000000,-3938.422077,-18097.827506,10002.718568,-606.335772,-15160.785933,-187500.022352,15939.274840,20361.165149,-0.218000,0.854000,0.430000,192.000000,0.000000,0.000000,0.000000,0.000000,0.000000,0.000000,0.000000,0.000000,0.000000,1647752897.616312,0.000000
228.000000,-3925.435713,-18083.701203,9974.622425,-610.135568,-15203.969503,-187500.022352,15941.644125,20352.582079,-0.218000,0.854000,0.430000,192.000000,0.000000,0.000000,0.000000,0.000000,0.000000,0.000000,0.000000,0.000000,0.000000,1647752897.616317,0.000000
229.000000,-3936.924510,-18091.792535,9985.843001,-613.935365,-15203.567172,-187500.022352,15945.443922,20345.206004,-0.218000,0.854000,0.430000,192.000000,0.000000,0.000000,0.000000,0.000000,0.000000,0.000000,0.000000,0.000000,0.000000,1647752897.623946,0.000000
230.000000,-3945.060545,-18110.880925,9994.001388,-619.769170,-15184.434078,-187500.022352,15923.561564,20349.318725,-0.218000,0.854000,0.430000,192.000000,0.000000,0.000000,0.000000,0.000000,0.000000,0.000000,0.000000,0.000000,0.000000,1647752897.623951,0.000000
231.000000,-3932.387106,-18102.320206,10003.947914,-613.622441,-15167.290290,-187500.022352,15926.042608,20360.382838,-0.218000,0.854000,0.430000,192.000000,0.000000,0.000000,0.000000,0.000000,0.000000,0.000000,0.000000,0.000000,0.000000,1647752897.630828,0.000000
232.000000,-3928.810826,-18097.358119,9985.530077,-609.397961,-15193.285369,-187500.022352,15925.573221,20342.836719,-0.218000,0.854000,0.430000,192.000000,0.000000,0.000000,0.000000,0.000000,0.000000,0.000000,0.000000,0.000000,0.000000,1647752897.630833,0.000000
233.000000,-3925.838044,-18092.552494,9973.638949,-601.261926,-15223.482576,-187500.022352,15943.476968,20346.591812,-0.218000,0.854000,0.430000,192.000000,0.000000,0.000000,0.000000,0.000000,0.000000,0.000000,0.000000,0.000000,0.000000,1647752897.638781,0.000000
234.000000,-3921.814730,-18079.454372,9995.767176,-585.861574,-15203.768337,-187500.022352,15954.585785,20352.202100,-0.214000,0.858000,0.434000,192.000000,249.000000,80.000000,26.000000,208.000000,13.000000,144.000000,0.000000,0.000000,0.000000,1647752897.646042,0.000000
235.000000,-3914.706876,-18064.724572,10002.718568,-588.230859,-15194.626474,-187500.022352,15965.001698,20370.619937,-0.214000,0.858000,0.434000,192.000000,0.000000,0.000000,0.000000,0.000000,0.000000,0.000000,0.000000,0.000000,0.000000,1647752897.646048,0.000000
236.000000,-3938.243263,-18087.925683,10003.433824,-609.308554,-15190.446698,-187500.022352,15945.063942,20334.678332,-0.214000,0.858000,0.434000,192.000000,0.000000,0.000000,0.000000,0.000000,0.000000,0.000000,0.000000,0.000000,0.000000,1647752897.653495,0.000000
237.000000,-3952.481324,-18098.989797,9999.969304,-617.377534,-15189.262055,-187500.022352,15920.164099,20314.248838,-0.214000,0.858000,0.434000,192.000000,0.000000,0.000000,0.000000,0.000000,0.000000,0.000000,0.000000,0.000000,0.000000,1647752897.653500,0.000000
238.000000,-3951.184923,-18101.828468,9997.063577,-619.568005,-15195.051157,-187500.022352,15917.638352,20317.020454,-0.214000,0.858000,0.434000,192.000000,0.000000,0.000000,0.000000,0.000000,0.000000,0.000000,0.000000,0.000000,0.000000,1647752897.661438,0.000000
239.000000,-3942.624204,-18093.893599,10007.747711,-613.041295,-15186.579846,-187500.022352,15924.790910,20333.940725,-0.214000,0.858000,0.434000,192.000000,0.000000,0.000000,0.000000,0.000000,0.000000,0.000000,0.000000,0.000000,0.000000,1647752897.661444,0.000000
240.000000,-3930.867187,-18076.123962,10026.947859,-596.501004,-15154.527444,-187500.022352,15947.723800,20352.626783,-0.214000,0.858000,0.434000,192.000000,0.000000,0.000000,0.000000,0.000000,0.000000,0.000000,0.000000,0.000000,0.000000,1647752897.669492,0.000000
241.000000,-3928.788475,-18076.302776,10017.917754,-600.837243,-15158.774276,-187500.022352,15947.522634,20361.500426,-0.214000,0.858000,0.434000,192.000000,0.000000,0.000000,0.000000,0.000000,0.000000,0.000000,0.000000,0.000000,0.000000,1647752897.669498,0.000000
242.000000,-3930.241338,-18075.743982,10005.624295,-595.092844,-15174.554607,-187500.022352,15940.012448,20345.340114,-0.214000,0.858000,0.434000,192.000000,0.000000,0.000000,0.000000,0.000000,0.000000,0.000000,0.000000,0.000000,0.000000,1647752897.676126,0.000000
243.000000,-3938.287966,-18076.615700,9984.121917,-602.155996,-15212.641980,-187500.022352,15937.486701,20333.359579,-0.214000,0.858000,0.434000,192.000000,0.000000,0.000000,0.000000,0.000000,0.000000,0.000000,0.000000,0.000000,0.000000,1647752897.676131,0.000000
244.000000,-3952.995414,-18097.402823,9986.155926,-627.726391,-15215.078320,-187500.022352,15928.925983,20344.446044,-0.214000,0.862000,0.430000,192.000000,249.000000,80.000000,26.000000,240.000000,13.000000,112.000000,0.000000,0.000000,0.000000,1647752897.684045,0.000000
245.000000,-3933.907024,-18086.003433,10014.475586,-606.246365,-15181.081317,-187500.022352,15941.241794,20353.632611,-0.214000,0.862000,0.430000,192.000000,0.000000,0.000000,0.000000,0.000000,0.000000,0.000000,0.000000,0.000000,0.000000,1647752897.684050,0.000000
246.000000,-3925.346306,-18079.901407,10024.288002,-597.015094,-15169.100782,-187500.022352,15942.672305,20346.658867,-0.214000,0.862000,0.430000,192.000000,0.000000,0.000000,0.000000,0.000000,0.000000,0.000000,0.000000,0.000000,0.000000,1647752897.692122,0.000000
247.000000,-3930.531911,-18082.717727,10014.073254,-599.786711,-15182.400070,-187500.022352,15938.850157,20347.865861,-0.214000,0.862000,0.430000,192.000000,0.000000,0.000000,0.000000,0.000000,0.000000,0.000000,0.000000,0.000000,0.000000,1647752897.692128,0.000000
248.000000,-3926.933280,-18072.078296,10011.882783,-592.701208,-15185.216389,-187500.022352,15947.880262,20351.464492,-0.214000,0.862000,0.430000,192.000000,0.000000,0.000000,0.000000,0.000000,0.000000,0.000000,0.000000,0.000000,0.000000,1647752897.699272,0.000000
249.000000,-3919.981887,-18063.070543,10014.900269,-588.968466,-15183.562360,-187500.022352,15957.357402,20367.423638,-0.214000,0.862000,0.430000,192.000000,0.000000,0.000000,0.000000,0.000000,0.000000,0.000000,0.000000,0.000000,0.000000,1647752897.705852,0.000000
250.000000,-3943.495923,-18081.376622,10011.525155,-610.806121,-15182.802401,-187500.022352,15924.634448,20321.244934,-0.214000,0.862000,0.430000,192.000000,0.000000,0.000000,0.000000,0.000000,0.000000,0.000000,0.000000,0.000000,0.000000,1647752897.705857,0.000000
251.000000,-3947.027498,-18088.618587,10014.766158,-614.427103,-15172.408840,-187500.022352,15918.733587,20323.703626,-0.214000,0.862000,0.430000,192.000000,0.000000,0.000000,0.000000,0.000000,0.000000,0.000000,0.000000,0.000000,0.000000,1647752897.713740,0.000000
252.000000,-3942.668908,-18084.885846,10004.171432,-606.268717,-15186.803363,-187500.022352,15929.127148,20344.870728,-0.214000,0.862000,0.430000,192.000000,0.000000,0.000000,0.000000,0.000000,0.000000,0.000000,0.000000,0.000000,0.000000,1647752897.713744,0.000000
253.000000,-3945.395821,-18087.836276,10008.015932,-611.007286,-15176.923892,-187500.022352,15923.159233,20330.006818,-0.214000,0.862000,0.430000,192.000000,0.000000,0.000000,0.000000,0.000000,0.000000,0.000000,0.000000,0.000000,0.000000,1647752897.721697,0.000000
254.000000,-3910.594155,-18054.599232,10011.033417,-584.095786,-15181.662462,-187500.022352,15945.466273,20334.074835,-0.214000,0.862000,0.430000,192.000000,0.000000,0.000000,0.000000,0.000000,0.000000,0.000000,0.000000,0.000000,0.000000,1647752897.721702,0.000000
255.000000,-3915.220966,-18049.860662,10022.633972,-572.428176,-15176.253340,-187500.022352,15964.599367,20363.534434,-0.216000,0.856000,0.424000,192.000000,249.000000,64.000000,26.000000,192.000000,13.000000,64.000000,0.000000,0.000000,0.000000,1647752897.728426,0.000000
0.000000,-3955.387051,-18084.282349,10024.377409,-607.431007,-15159.645994,-187500.022352,15935.162119,20330.051521,-0.216000,0.856000,0.424000,192.000000,0.000000,0.000000,0.000000,0.000000,0.000000,0.000000,0.000000,0.000000,0.000000,1647752897.728431,0.000000
1.000000,-3969.021615,-18103.236628,10003.925562,-636.711793,-15169.547816,-187500.022352,15902.327407,20305.531657,-0.216000,0.856000,0.424000,192.000000,0.000000,0.000000,0.000000,0.000000,0.000000,0.000000,0.000000,0.000000,0.000000,1647752897.736389,0.000000
2.000000,-3938.623242,-18079.655538,9988.324045,-612.236632,-15201.533163,-187500.022352,15927.473119,20333.583097,-0.216000,0.856000,0.424000,192.000000,0.000000,0.000000,0.000000,0.000000,0.000000,0.000000,0.000000,0.000000,0.000000,1647752897.736393,0.000000
3.000000,-3931.470684,-18062.712915,10006.339551,-595.897507,-15201.488459,-187500.022352,15944.572204,20343.462568,-0.216000,0.856000,0.424000,192.000000,0.000000,0.000000,0.000000,0.000000,0.000000,0.000000,0.000000,0.000000,0.000000,1647752897.744329,0.000000
4.000000,-3930.241338,-18062.042363,10024.489167,-593.930554,-15184.836410,-187500.022352,15950.651878,20357.030077,-0.216000,0.856000,0.424000,192.000000,0.000000,0.000000,0.000000,0.000000,0.000000,0.000000,0.000000,0.000000,0.000000,1647752897.744335,0.000000
5.000000,-3928.050867,-18063.919909,10041.834121,-583.961676,-15161.948223,-187500.022352,15950.741285,20348.871690,-0.216000,0.856000,0.424000,192.000000,0.000000,0.000000,0.000000,0.000000,0.000000,0.000000,0.000000,0.000000,0.000000,1647752897.751508,0.000000
6.000000,-3917.567899,-18058.264918,10030.099455,-583.626399,-15184.747003,-187500.022352,15949.690753,20328.844527,-0.216000,0.856000,0.424000,192.000000,0.000000,0.000000,0.000000,0.000000,0.000000,0.000000,0.000000,0.000000,0.000000,1647752897.751513,0.000000
7.000000,-3933.147065,-18067.786761,10035.799150,-596.389246,-15181.193075,-187500.022352,15941.062980,20332.063178,-0.216000,0.856000,0.424000,192.000000,0.000000,0.000000,0.000000,0.000000,0.000000,0.000000,0.000000,0.000000,0.000000,1647752897.758043,0.000000
8.000000,-3945.440524,-18072.860607,10037.296717,-605.911089,-15170.307776,-187500.022352,15936.145596,20345.854204,-0.216000,0.856000,0.424000,192.000000,0.000000,0.000000,0.000000,0.000000,0.000000,0.000000,0.000000,0.000000,0.000000,1647752897.766005,0.000000
9.000000,-3966.384109,-18091.636073,10027.350191,-627.569929,-15162.484665,-187500.022352,15913.168003,20332.309047,-0.216000,0.856000,0.428000,192.000000,249.000000,64.000000,26.000000,192.000000,13.000000,96.000000,0.000000,0.000000,0.000000,1647752897.766009,0.000000
10.000000,-3963.947769,-18086.450468,10023.595097,-618.629231,-15157.254357,-187500.022352,15914.710273,20330.520908,-0.216000,0.856000,0.428000,192.000000,0.000000,0.000000,0.000000,0.000000,0.000000,0.000000,0.000000,0.000000,0.000000,1647752897.774180,0.000000
11.000000,-3947.318071,-18077.509770,10019.437673,-619.143321,-15158.506055,-187500.022352,15919.784119,20335.035960,-0.216000,0.856000,0.428000,192.000000,0.000000,0.000000,0.000000,0.000000,0.000000,0.000000,0.000000,0.000000,0.000000,1647752897.774185,0.000000
12.000000,-3929.593137,-18060.723610,10003.590286,-607.609821,-15189.396166,-187500.022352,15941.107683,20357.253594,-0.216000,0.856000,0.428000,192.000000,0.000000,0.000000,0.000000,0.000000,0.000000,0.000000,0.000000,0.000000,0.000000,1647752897.781217,0.000000
13.000000,-3957.354004,-18080.974290,10012.642743,-624.463037,-15178.041479,-187500.022352,15922.108701,20336.310010,-0.216000,0.856000,0.428000,192.000000,0.000000,0.000000,0.000000,0.000000,0.000000,0.000000,0.000000,0.000000,0.000000,1647752897.781222,0.000000
14.000000,-3957.421059,-18089.065622,10016.621353,-625.737086,-15164.473970,-187500.022352,15915.492584,20330.789129,-0.216000,0.856000,0.428000,192.000000,0.000000,0.000000,0.000000,0.000000,0.000000,0.000000,0.000000,0.000000,0.000000,1647752897.788643,0.000000
15.000000,-3940.523140,-18081.488381,10017.470720,-616.259946,-15167.379697,-187500.022352,15926.511994,20317.176916,-0.216000,0.856000,0.428000,192.000000,0.000000,0.000000,0.000000,0.000000,0.000000,0.000000,0.000000,0.000000,0.000000,1647752897.788648,0.000000
16.000000,-3930.241338,-18065.708049,10015.213193,-605.396999,-15180.500171,-187500.022352,15936.749093,20346.077722,-0.216000,0.856000,0.428000,192.000000,0.000000,0.000000,0.000000,0.000000,0.000000,0.000000,0.000000,0.000000,0.000000,1647752897.796599,0.000000
17.000000,-3933.147065,-18060.522444,10018.610658,-607.028676,-15187.205695,-187500.022352,15942.068808,20361.187501,-0.216000,0.856000,0.428000,192.000000,0.000000,0.000000,0.000000,0.000000,0.000000,0.000000,0.000000,0.000000,0.000000,1647752897.796604,0.000000
18.000000,-3924.541643,-18051.805264,10024.623278,-599.652600,-15190.223180,-187500.022352,15938.783102,20349.162263,-0.216000,0.856000,0.428000,192.000000,0.000000,0.000000,0.000000,0.000000,0.000000,0.000000,0.000000,0.000000,0.000000,1647752897.804694,0.000000
19.000000,-3940.992527,-18066.803285,10046.282118,-611.633135,-15155.823845,-187500.022352,15922.823956,20343.283754,-0.222000,0.862000,0.422000,192.000000,249.000000,16.000000,26.000000,240.000000,13.000000,48.000000,0.000000,0.000000,0.000000,1647752897.804699,0.000000
20.000000,-3918.819597,-18047.156101,10042.907005,-594.869327,-15156.025011,-187500.022352,15947.187358,20366.417809,-0.222000,0.862000,0.422000,192.000000,0.000000,0.000000,0.000000,0.000000,0.000000,0.000000,0.000000,0.000000,0.000000,1647752897.811385,0.000000
21.000000,-3926.888576,-18058.890767,10030.322973,-600.971353,-15171.045383,-187500.022352,15952.350611,20338.746350,-0.222000,0.862000,0.422000,192.000000,0.000000,0.000000,0.000000,0.000000,0.000000,0.000000,0.000000,0.000000,0.000000,1647752897.811389,0.000000
22.000000,-3967.054661,-18095.055889,10014.162661,-625.535920,-15177.594444,-187500.022352,15915.425529,20308.012701,-0.222000,0.862000,0.422000,192.000000,0.000000,0.000000,0.000000,0.000000,0.000000,0.000000,0.000000,0.000000,0.000000,1647752897.818307,0.000000
23.000000,-3974.386033,-18094.720613,10023.617449,-637.203531,-15150.839406,-187500.022352,15907.021273,20330.409149,-0.222000,0.862000,0.422000,192.000000,0.000000,0.000000,0.000000,0.000000,0.000000,0.000000,0.000000,0.000000,0.000000,1647752897.826271,0.000000
24.000000,-3964.283045,-18088.551532,10023.304525,-639.081077,-15139.149444,-187500.022352,15911.245753,20322.496631,-0.222000,0.862000,0.422000,192.000000,0.000000,0.000000,0.000000,0.000000,0.000000,0.000000,0.000000,0.000000,0.000000,1647752897.826276,0.000000
25.000000,-3924.563995,-18051.134712,10019.817653,-605.151129,-15144.133883,-187500.022352,15944.683962,20355.800731,-0.222000,0.862000,0.422000,192.000000,0.000000,0.000000,0.000000,0.000000,0.000000,0.000000,0.000000,0.000000,0.000000,1647752897.833452,0.000000
26.000000,-3931.917719,-18055.694468,10012.754501,-608.258022,-15164.921005,-187500.022352,15955.770428,20379.247711,-0.222000,0.862000,0.422000,192.000000,0.000000,0.000000,0.000000,0.000000,0.000000,0.000000,0.000000,0.000000,0.000000,1647752897.833456,0.000000
27.000000,-3958.762164,-18084.215293,10010.429920,-626.184121,-15161.747058,-187500.022352,15929.730645,20330.498556,-0.222000,0.862000,0.422000,192.000000,0.000000,0.000000,0.000000,0.000000,0.000000,0.000000,0.000000,0.000000,0.000000,1647752897.840983,0.000000
28.000000,-3949.977928,-18071.094819,10030.814711,-616.371705,-15126.677171,-187500.022352,15943.767541,20342.903774,-0.222000,0.862000,0.422000,192.000000,0.000000,0.000000,0.000000,0.000000,0.000000,0.000000,0.000000,0.000000,0.000000,1647752897.840989,0.000000
29.000000,-3959.544475,-18073.978194,10023.438635,-619.925632,-15122.162118,-187500.022352,15930.110625,20325.759986,-0.220000,0.862000,0.420000,192.000000,249.000000,32.000000,26.000000,240.000000,13.000000,32.000000,0.000000,0.000000,0.000000,1647752897.848934,0.000000
30.000000,-3944.971138,-18055.470950,10006.741882,-609.353257,-15143.351572,-187500.022352,15934.983305,20334.030132,-0.220000,0.862000,0.420000,192.000000,0.000000,0.000000,0.000000,0.000000,0.000000,0.000000,0.000000,0.000000,0.000000,1647752897.848939,0.000000
31.000000,-3952.771896,-18064.143427,9991.676806,-623.345449,-15169.793686,-187500.022352,15926.579049,20333.761911,-0.220000,0.862000,0.420000,192.000000,0.000000,0.000000,0.000000,0.000000,0.000000,0.000000,0.000000,0.000000,0.000000,1647752897.856961,0.000000
32.000000,-3947.630995,-18059.114284,10006.183089,-617.690458,-15157.813151,-187500.022352,15931.630544,20336.980562,-0.220000,0.862000,0.420000,192.000000,0.000000,0.000000,0.000000,0.000000,0.000000,0.000000,0.000000,0.000000,0.000000,1647752897.856968,0.000000
33.000000,-3947.519237,-18059.986002,10011.547507,-610.001458,-15150.705296,-187500.022352,15945.019239,20341.786187,-0.220000,0.862000,0.420000,192.000000,0.000000,0.000000,0.000000,0.000000,0.000000,0.000000,0.000000,0.000000,0.000000,1647752897.863522,0.000000
34.000000,-3955.498809,-18065.842159,10016.353132,-618.226900,-15138.322429,-187500.022352,15934.804491,20348.379952,-0.220000,0.862000,0.420000,192.000000,0.000000,0.000000,0.000000,0.000000,0.000000,0.000000,0.000000,0.000000,0.000000,1647752897.863527,0.000000
35.000000,-3933.392934,-18046.552604,10027.305487,-611.476673,-15131.572203,-187500.022352,15954.071695,20358.639402,-0.220000,0.862000,0.420000,192.000000,0.000000,0.000000,0.000000,0.000000,0.000000,0.000000,0.000000,0.000000,0.000000,1647752897.871560,0.000000
36.000000,-3928.408495,-18038.997714,10027.529005,-607.766283,-15139.931755,-187500.022352,15960.888977,20348.245841,-0.220000,0.862000,0.420000,192.000000,0.000000,0.000000,0.000000,0.000000,0.000000,0.000000,0.000000,0.000000,0.000000,1647752897.871567,0.000000
37.000000,-3945.015841,-18053.503997,10006.808937,-620.774999,-15161.836465,-187500.022352,15929.529480,20332.465509,-0.220000,0.862000,0.420000,192.000000,0.000000,0.000000,0.000000,0.000000,0.000000,0.000000,0.000000,0.000000,0.000000,1647752897.878696,0.000000
38.000000,-3927.201501,-18039.623563,10016.643705,-607.743932,-15157.097895,-187500.022352,15947.589689,20358.885271,-0.220000,0.862000,0.420000,192.000000,0.000000,0.000000,0.000000,0.000000,0.000000,0.000000,0.000000,0.000000,0.000000,1647752897.878700,0.000000
39.000000,-3943.473571,-18055.672116,10019.795301,-620.350316,-15147.285479,-187500.022352,15934.424512,20331.616143,-0.222000,0.854000,0.422000,192.000000,249.000000,16.000000,26.000000,176.000000,13.000000,48.000000,0.000000,0.000000,0.000000,1647752897.886685,0.000000
40.000000,-3946.669870,-18051.090008,10026.903156,-619.791522,-15135.416703,-187500.022352,15930.892936,20323.882440,-0.222000,0.854000,0.422000,192.000000,0.000000,0.000000,0.000000,0.000000,0.000000,0.000000,0.000000,0.000000,0.000000,1647752897.893213,0.000000
41.000000,-3940.165513,-18045.211499,10007.904173,-613.376571,-15161.277671,-187500.022352,15937.151425,20356.381876,-0.222000,0.854000,0.422000,192.000000,0.000000,0.000000,0.000000,0.000000,0.000000,0.000000,0.000000,0.000000,0.000000,1647752897.893219,0.000000
42.000000,-3938.623242,-18047.625488,10014.766158,-613.041295,-15153.789837,-187500.022352,15945.354515,20356.761856,-0.222000,0.854000,0.422000,192.000000,0.000000,0.000000,0.000000,0.000000,0.000000,0.000000,0.000000,0.000000,0.000000,1647752897.901237,0.000000
43.000000,-3931.537739,-18041.590517,10011.927487,-610.694362,-15155.868549,-187500.022352,15954.362268,20337.137024,-0.222000,0.854000,0.422000,192.000000,0.000000,0.000000,0.000000,0.000000,0.000000,0.000000,0.000000,0.000000,0.000000,1647752897.901241,0.000000
44.000000,-3924.943975,-18037.880127,10027.685467,-600.077283,-15143.284517,-187500.022352,15967.102762,20358.549995,-0.222000,0.854000,0.422000,192.000000,0.000000,0.000000,0.000000,0.000000,0.000000,0.000000,0.000000,0.000000,0.000000,1647752897.909165,0.000000
45.000000,-3957.465763,-18067.943223,10025.070313,-616.662278,-15144.156235,-187500.022352,15943.342858,20344.356638,-0.222000,0.854000,0.422000,192.000000,0.000000,0.000000,0.000000,0.000000,0.000000,0.000000,0.000000,0.000000,0.000000,1647752897.909189,0.000000
46.000000,-3953.084821,-18066.557415,10020.577612,-621.311441,-15136.623697,-187500.022352,15932.658724,20331.482033,-0.222000,0.854000,0.422000,192.000000,0.000000,0.000000,0.000000,0.000000,0.000000,0.000000,0.000000,0.000000,0.000000,1647752897.916230,0.000000
47.000000,-3927.916757,-18043.155139,10012.106301,-617.533996,-15128.130034,-187500.022352,15942.940526,20330.543259,-0.222000,0.854000,0.422000,192.000000,0.000000,0.000000,0.000000,0.000000,0.000000,0.000000,0.000000,0.000000,0.000000,1647752897.916235,0.000000
48.000000,-3912.091722,-18021.920982,10025.115016,-600.971353,-15101.173830,-187500.022352,15956.753904,20348.536414,-0.222000,0.854000,0.422000,192.000000,0.000000,0.000000,0.000000,0.000000,0.000000,0.000000,0.000000,0.000000,0.000000,1647752897.923823,0.000000
49.000000,-3898.703027,-18006.028891,10038.861339,-582.620571,-15072.831818,-187500.022352,15976.870474,20383.025155,-0.220000,0.856000,0.426000,192.000000,249.000000,32.000000,26.000000,192.000000,13.000000,80.000000,0.000000,0.000000,0.000000,1647752897.923830,0.000000
50.000000,-3879.860506,-17986.515818,10048.405534,-560.849972,-15053.452856,-187500.022352,15994.550704,20400.638330,-0.220000,0.856000,0.426000,192.000000,0.000000,0.000000,0.000000,0.000000,0.000000,0.000000,0.000000,0.000000,0.000000,1647752897.931800,0.000000
51.000000,-3887.169526,-17998.183429,10028.892461,-571.690568,-15076.743373,-187500.022352,15982.458411,20388.836609,-0.220000,0.856000,0.426000,192.000000,0.000000,0.000000,0.000000,0.000000,0.000000,0.000000,0.000000,0.000000,0.000000,1647752897.931804,0.000000
52.000000,-3897.406625,-18008.621694,10042.482322,-576.943228,-15060.247786,-187500.022352,15964.934643,20360.718114,-0.220000,0.856000,0.426000,192.000000,0.000000,0.000000,0.000000,0.000000,0.000000,0.000000,0.000000,0.000000,0.000000,1647752897.938894,0.000000
53.000000,-3920.473626,-18029.498223,10033.541624,-591.628324,-15067.042716,-187500.022352,15942.448788,20336.689989,-0.220000,0.856000,0.426000,192.000000,0.000000,0.000000,0.000000,0.000000,0.000000,0.000000,0.000000,0.000000,0.000000,1647752897.938899,0.000000
54.000000,-3922.395876,-18034.326200,10042.616432,-590.577792,-15055.509216,-187500.022352,15941.599422,20348.715228,-0.220000,0.856000,0.426000,192.000000,0.000000,0.000000,0.000000,0.000000,0.000000,0.000000,0.000000,0.000000,0.000000,1647752897.945423,0.000000
55.000000,-3913.566937,-18022.949162,10044.382220,-585.123966,-15061.410077,-187500.022352,15947.679096,20358.281774,-0.220000,0.856000,0.426000,192.000000,0.000000,0.000000,0.000000,0.000000,0.000000,0.000000,0.000000,0.000000,0.000000,1647752897.953537,0.000000
56.000000,-3904.737998,-18012.466194,10054.842836,-568.382510,-15062.192388,-187500.022352,15967.035707,20377.616033,-0.220000,0.856000,0.426000,192.000000,0.000000,0.000000,0.000000,0.000000,0.000000,0.000000,0.000000,0.000000,0.000000,1647752897.953542,0.000000
57.000000,-3908.023704,-18021.786871,10052.764124,-585.146318,-15065.433391,-187500.022352,15960.888977,20370.396420,-0.220000,0.856000,0.426000,192.000000,0.000000,0.000000,0.000000,0.000000,0.000000,0.000000,0.000000,0.000000,0.000000,1647752897.961582,0.000000
58.000000,-3908.917774,-18022.189203,10049.590176,-588.767301,-15071.066030,-187500.022352,15960.441942,20353.587908,-0.220000,0.856000,0.426000,192.000000,0.000000,0.000000,0.000000,0.000000,0.000000,0.000000,0.000000,0.000000,0.000000,1647752897.961587,0.000000
59.000000,-3919.378390,-18022.815051,10070.533761,-590.264868,-15047.015553,-187500.022352,15959.190245,20346.211832,-0.220000,0.858000,0.424000,192.000000,249.000000,32.000000,26.000000,208.000000,13.000000,64.000000,0.000000,0.000000,0.000000,1647752897.968462,0.000000
60.000000,-3921.613565,-18032.582764,10059.827275,-593.371760,-15053.452856,-187500.022352,15937.129073,20338.455777,-0.220000,0.858000,0.424000,192.000000,0.000000,0.000000,0.000000,0.000000,0.000000,0.000000,0.000000,0.000000,0.000000,1647752897.968465,0.000000
61.000000,-3899.418282,-18011.683883,10049.523121,-575.088033,-15080.587874,-187500.022352,15948.394352,20352.693838,-0.220000,0.858000,0.424000,192.000000,0.000000,0.000000,0.000000,0.000000,0.000000,0.000000,0.000000,0.000000,0.000000,1647752897.976065,0.000000
62.000000,-3906.168509,-18017.741205,10057.256825,-580.631266,-15081.861923,-187500.022352,15944.080465,20349.877518,-0.220000,0.858000,0.424000,192.000000,0.000000,0.000000,0.000000,0.000000,0.000000,0.000000,0.000000,0.000000,0.000000,1647752897.976072,0.000000
63.000000,-3935.225777,-18045.636183,10060.274310,-609.599127,-15070.820161,-187500.022352,15924.857965,20326.698759,-0.220000,0.858000,0.424000,192.000000,0.000000,0.000000,0.000000,0.000000,0.000000,0.000000,0.000000,0.000000,0.000000,1647752897.984081,0.000000
64.000000,-3937.885635,-18045.680886,10075.249979,-606.939269,-15043.148702,-187500.022352,15929.730645,20332.934896,-0.220000,0.858000,0.424000,192.000000,0.000000,0.000000,0.000000,0.000000,0.000000,0.000000,0.000000,0.000000,0.000000,1647752897.984086,0.000000
65.000000,-3933.616451,-18045.323258,10069.662043,-597.953868,-15041.025286,-187500.022352,15935.720913,20327.995161,-0.220000,0.858000,0.424000,192.000000,0.000000,0.000000,0.000000,0.000000,0.000000,0.000000,0.000000,0.000000,0.000000,1647752897.992155,0.000000
66.000000,-3917.277326,-18028.626505,10064.789363,-580.497155,-15049.273080,-187500.022352,15956.329221,20346.792978,-0.220000,0.858000,0.424000,192.000000,0.000000,0.000000,0.000000,0.000000,0.000000,0.000000,0.000000,0.000000,0.000000,1647752897.992160,0.000000
67.000000,-3893.070387,-18006.699444,10081.486116,-555.910236,-15041.181748,-187500.022352,15988.828658,20372.475132,-0.220000,0.858000,0.424000,192.000000,0.000000,0.000000,0.000000,0.000000,0.000000,0.000000,0.000000,0.000000,0.000000,1647752897.998665,0.000000
68.000000,-3922.440579,-18042.506938,10065.392860,-600.345504,-15050.435370,-187500.022352,15944.862776,20353.230280,-0.220000,0.858000,0.424000,192.000000,0.000000,0.000000,0.000000,0.000000,0.000000,0.000000,0.000000,0.000000,0.000000,1647752897.998669,0.000000
69.000000,-3944.837027,-18049.413627,10060.050793,-615.052952,-15051.910585,-187500.022352,15928.054265,20326.296428,-0.224000,0.862000,0.422000,192.000000,249.000000,0.000000,26.000000,240.000000,13.000000,48.000000,0.000000,0.000000,0.000000,1647752898.005878,0.000000
70.000000,-3954.537684,-18052.297002,10071.427831,-613.331868,-15034.386818,-187500.022352,15930.781177,20327.436367,-0.224000,0.862000,0.422000,192.000000,0.000000,0.000000,0.000000,0.000000,0.000000,0.000000,0.000000,0.000000,0.000000,1647752898.013795,0.000000
71.000000,-3939.517312,-18042.998677,10066.823371,-604.257060,-15040.175920,-187500.022352,15945.756846,20338.545184,-0.224000,0.862000,0.422000,192.000000,0.000000,0.000000,0.000000,0.000000,0.000000,0.000000,0.000000,0.000000,0.000000,1647752898.013799,0.000000
72.000000,-3936.611585,-18033.119206,10065.169342,-600.367856,-15043.931013,-187500.022352,15950.271899,20342.993181,-0.224000,0.862000,0.422000,192.000000,0.000000,0.000000,0.000000,0.000000,0.000000,0.000000,0.000000,0.000000,0.000000,1647752898.021717,0.000000
73.000000,-3931.202463,-18025.139633,10072.187790,-594.064664,-15032.375161,-187500.022352,15946.941489,20342.523794,-0.224000,0.862000,0.422000,192.000000,0.000000,0.000000,0.000000,0.000000,0.000000,0.000000,0.000000,0.000000,0.000000,1647752898.021723,0.000000
74.000000,-3936.499826,-18033.812110,10061.503656,-599.227917,-15045.540338,-187500.022352,15949.377829,20351.106864,-0.224000,0.862000,0.422000,192.000000,0.000000,0.000000,0.000000,0.000000,0.000000,0.000000,0.000000,0.000000,0.000000,1647752898.028355,0.000000
75.000000,-3935.069315,-18033.923868,10053.501732,-602.245403,-15054.704553,-187500.022352,15949.377829,20349.542242,-0.224000,0.862000,0.422000,192.000000,0.000000,0.000000,0.000000,0.000000,0.000000,0.000000,0.000000,0.000000,0.000000,1647752898.028360,0.000000
76.000000,-3911.912908,-18010.163964,10063.828238,-586.599181,-15054.369277,-187500.022352,15971.662518,20378.107772,-0.224000,0.862000,0.422000,192.000000,0.000000,0.000000,0.000000,0.000000,0.000000,0.000000,0.000000,0.000000,0.000000,1647752898.036426,0.000000
77.000000,-3936.745696,-18031.487528,10069.438525,-601.083112,-15045.450931,-187500.022352,15959.279652,20351.486844,-0.224000,0.862000,0.422000,192.000000,0.000000,0.000000,0.000000,0.000000,0.000000,0.000000,0.000000,0.000000,0.000000,1647752898.036430,0.000000
78.000000,-3937.997393,-18037.544851,10060.631938,-602.133644,-15047.440237,-187500.022352,15944.125169,20323.122480,-0.224000,0.862000,0.422000,192.000000,0.000000,0.000000,0.000000,0.000000,0.000000,0.000000,0.000000,0.000000,0.000000,1647752898.044404,0.000000
79.000000,-3935.225777,-18032.895688,10070.712575,-591.225993,-15035.437350,-187500.022352,15957.536215,20330.632666,-0.222000,0.858000,0.428000,192.000000,249.000000,16.000000,26.000000,208.000000,13.000000,96.000000,0.000000,0.000000,0.000000,1647752898.044409,0.000000
80.000000,-3938.511483,-18030.951086,10073.774764,-585.906277,-15023.233297,-187500.022352,15963.504131,20328.397492,-0.222000,0.858000,0.428000,192.000000,0.000000,0.000000,0.000000,0.000000,0.000000,0.000000,0.000000,0.000000,0.000000,1647752898.051502,0.000000
81.000000,-3944.166475,-18037.254278,10055.088705,-604.659391,-15040.242975,-187500.022352,15955.435152,20361.522777,-0.222000,0.858000,0.428000,192.000000,0.000000,0.000000,0.000000,0.000000,0.000000,0.000000,0.000000,0.000000,0.000000,1647752898.051506,0.000000
82.000000,-3938.064449,-18032.895688,10050.081915,-603.318286,-15042.008763,-187500.022352,15952.819997,20352.246803,-0.222000,0.858000,0.428000,192.000000,0.000000,0.000000,0.000000,0.000000,0.000000,0.000000,0.000000,0.000000,0.000000,1647752898.058954,0.000000
83.000000,-3950.559074,-18039.869432,10045.075124,-612.460150,-15047.015553,-187500.022352,15947.321468,20330.923239,-0.222000,0.858000,0.428000,192.000000,0.000000,0.000000,0.000000,0.000000,0.000000,0.000000,0.000000,0.000000,0.000000,1647752898.058958,0.000000
84.000000,-3940.009050,-18029.945258,10056.183941,-600.971353,-15031.794015,-187500.022352,15938.403122,20330.252687,-0.222000,0.858000,0.428000,192.000000,0.000000,0.000000,0.000000,0.000000,0.000000,0.000000,0.000000,0.000000,0.000000,1647752898.066104,0.000000
85.000000,-3933.281175,-18022.122147,10060.050793,-593.304705,-15032.866899,-187500.022352,15941.912346,20336.265306,-0.222000,0.858000,0.428000,192.000000,0.000000,0.000000,0.000000,0.000000,0.000000,0.000000,0.000000,0.000000,0.000000,1647752898.074075,0.000000
86.000000,-3953.375394,-18039.332991,10062.062450,-607.162786,-15023.210946,-187500.022352,15922.153404,20308.862067,-0.222000,0.858000,0.428000,192.000000,0.000000,0.000000,0.000000,0.000000,0.000000,0.000000,0.000000,0.000000,0.000000,1647752898.074080,0.000000
87.000000,-3926.553300,-18016.645970,10055.468685,-595.629286,-15038.745408,-187500.022352,15935.922079,20333.270172,-0.222000,0.858000,0.428000,192.000000,0.000000,0.000000,0.000000,0.000000,0.000000,0.000000,0.000000,0.000000,0.000000,1647752898.080650,0.000000
88.000000,-3914.818634,-17997.401118,10074.691185,-577.949056,-15023.926201,-187500.022352,15956.373925,20355.711324,-0.222000,0.858000,0.428000,192.000000,0.000000,0.000000,0.000000,0.000000,0.000000,0.000000,0.000000,0.000000,0.000000,1647752898.080655,0.000000
89.000000,-3934.465818,-18021.183374,10065.839895,-593.438815,-15028.284792,-187500.022352,15937.106721,20330.207983,-0.222000,0.858000,0.428000,192.000000,0.000000,0.000000,0.000000,0.000000,0.000000,0.000000,0.000000,0.000000,0.000000,1647752898.088741,0.000000
90.000000,-3932.141236,-18016.109528,10053.278214,-587.157975,-15048.155492,-187500.022352,15934.648029,20322.139004,-0.216000,0.862000,0.428000,192.000000,249.000000,64.000000,26.000000,240.000000,13.000000,96.000000,0.000000,0.000000,0.000000,1647752898.088746,0.000000
91.000000,-3945.731097,-18035.443787,10060.386069,-607.431007,-15039.684181,-187500.022352,15927.115491,20317.825117,-0.216000,0.862000,0.428000,192.000000,0.000000,0.000000,0.000000,0.000000,0.000000,0.000000,0.000000,0.000000,0.000000,1647752898.096705,0.000000
92.000000,-3925.882748,-18026.324275,10060.251958,-604.637039,-15034.811501,-187500.022352,15940.325372,20339.774530,-0.216000,0.862000,0.428000,192.000000,0.000000,0.000000,0.000000,0.000000,0.000000,0.000000,0.000000,0.000000,0.000000,1647752898.096710,0.000000
93.000000,-3919.646611,-18018.836441,10071.807810,-595.383417,-15019.724073,-187500.022352,15959.257300,20333.314876,-0.216000,0.862000,0.428000,192.000000,0.000000,0.000000,0.000000,0.000000,0.000000,0.000000,0.000000,0.000000,0.000000,1647752898.103825,0.000000
94.000000,-3929.861358,-18032.873336,10070.779630,-605.106426,-15013.778509,-187500.022352,15949.444884,20342.970829,-0.216000,0.862000,0.428000,192.000000,0.000000,0.000000,0.000000,0.000000,0.000000,0.000000,0.000000,0.000000,0.000000,1647752898.103829,0.000000
95.000000,-3938.042097,-18047.513729,10043.041115,-613.398923,-15044.467454,-187500.022352,15931.205861,20315.478184,-0.216000,0.862000,0.428000,192.000000,0.000000,0.000000,0.000000,0.000000,0.000000,0.000000,0.000000,0.000000,0.000000,1647752898.111241,0.000000
96.000000,-3933.750562,-18036.874299,10034.256880,-608.213318,-15071.736583,-187500.022352,15939.766579,20320.015588,-0.216000,0.862000,0.428000,192.000000,0.000000,0.000000,0.000000,0.000000,0.000000,0.000000,0.000000,0.000000,0.000000,1647752898.111245,0.000000
97.000000,-3935.896329,-18036.740188,10059.782572,-604.771150,-15042.098170,-187500.022352,15937.933736,20335.527698,-0.216000,0.862000,0.428000,192.000000,0.000000,0.000000,0.000000,0.000000,0.000000,0.000000,0.000000,0.000000,0.000000,1647752898.119565,0.000000
98.000000,-3898.613620,-18008.644045,10069.974967,-576.093862,-15031.346980,-187500.022352,15953.177625,20352.135045,-0.216000,0.862000,0.428000,192.000000,0.000000,0.000000,0.000000,0.000000,0.000000,0.000000,0.000000,0.000000,0.000000,1647752898.119582,0.000000
99.000000,-3880.642817,-17996.864676,10068.589159,-572.785803,-15041.964059,-187500.022352,15958.005602,20363.400324,-0.216000,0.862000,0.428000,192.000000,0.000000,0.000000,0.000000,0.000000,0.000000,0.000000,0.000000,0.000000,0.000000,1647752898.126487,0.000000
100.000000,-3924.251071,-18028.850022,10049.545473,-605.955792,-15061.521836,-187500.022352,15924.075654,20322.630742,-0.218000,0.860000,0.428000,192.000000,249.000000,48.000000,26.000000,224.000000,13.000000,96.000000,0.000000,0.000000,0.000000,1647752898.126495,0.000000
101.000000,-3931.224815,-18032.873336,10052.115923,-607.475711,-15057.006783,-187500.022352,15919.672360,20302.558875,-0.218000,0.860000,0.428000,192.000000,0.000000,0.000000,0.000000,0.000000,0.000000,0.000000,0.000000,0.000000,0.000000,1647752898.133907,0.000000
102.000000,-3935.471646,-18039.847081,10046.438580,-607.609821,-15059.420772,-187500.022352,15914.196183,20295.339262,-0.218000,0.860000,0.428000,192.000000,0.000000,0.000000,0.000000,0.000000,0.000000,0.000000,0.000000,0.000000,0.000000,1647752898.141074,0.000000
103.000000,-3919.400742,-18020.848098,10064.364679,-582.352350,-15043.483978,-187500.022352,15941.174739,20317.020454,-0.218000,0.860000,0.428000,192.000000,0.000000,0.000000,0.000000,0.000000,0.000000,0.000000,0.000000,0.000000,0.000000,1647752898.141084,0.000000
104.000000,-3907.241393,-18009.225191,10063.269444,-581.614742,-15047.060257,-187500.022352,15952.730590,20343.686085,-0.218000,0.860000,0.428000,192.000000,0.000000,0.000000,0.000000,0.000000,0.000000,0.000000,0.000000,0.000000,0.000000,1647752898.149141,0.000000
105.000000,-3912.985791,-18018.389406,10046.840912,-593.639981,-15079.738507,-187500.022352,15944.482797,20328.553954,-0.218000,0.860000,0.428000,192.000000,0.000000,0.000000,0.000000,0.000000,0.000000,0.000000,0.000000,0.000000,0.000000,1647752898.149152,0.000000
106.000000,-3932.789437,-18033.476834,10052.562958,-605.195833,-15081.325481,-187500.022352,15934.692733,20326.743463,-0.218000,0.860000,0.428000,192.000000,0.000000,0.000000,0.000000,0.000000,0.000000,0.000000,0.000000,0.000000,0.000000,1647752898.157269,0.000000
107.000000,-3938.913815,-18037.276630,10067.091592,-607.229842,-15058.660812,-187500.022352,15932.971648,20327.391663,-0.218000,0.860000,0.428000,192.000000,0.000000,0.000000,0.000000,0.000000,0.000000,0.000000,0.000000,0.000000,0.000000,1647752898.157281,0.000000
108.000000,-3929.526082,-18030.325238,10076.121697,-596.478653,-15036.823158,-187500.022352,15942.113512,20335.259478,-0.218000,0.860000,0.428000,192.000000,0.000000,0.000000,0.000000,0.000000,0.000000,0.000000,0.000000,0.000000,0.000000,1647752898.163643,0.000000
109.000000,-3918.663134,-18021.518650,10079.161534,-586.442719,-15029.245917,-187500.022352,15952.976460,20322.183707,-0.218000,0.860000,0.428000,192.000000,0.000000,0.000000,0.000000,0.000000,0.000000,0.000000,0.000000,0.000000,0.000000,1647752898.163650,0.000000
110.000000,-3924.563995,-18030.995790,10076.568732,-594.399940,-15032.486919,-187500.022352,15945.600384,20320.149698,-0.222000,0.860000,0.432000,192.000000,249.000000,16.000000,26.000000,224.000000,13.000000,128.000000,0.000000,0.000000,0.000000,1647752898.171731,0.000000
111.000000,-3933.884672,-18036.874299,10067.270406,-597.931516,-15033.716265,-187500.022352,15931.183509,20310.650207,-0.222000,0.860000,0.432000,192.000000,0.000000,0.000000,0.000000,0.000000,0.000000,0.000000,0.000000,0.000000,0.000000,1647752898.171742,0.000000
112.000000,-3930.755428,-18039.668267,10047.779685,-600.211394,-15053.363449,-187500.022352,15938.805454,20323.189536,-0.222000,0.860000,0.432000,192.000000,0.000000,0.000000,0.000000,0.000000,0.000000,0.000000,0.000000,0.000000,0.000000,1647752898.179824,0.000000
113.000000,-3920.518329,-18044.876223,10044.248109,-598.892641,-15056.447990,-187500.022352,15926.109663,20294.422840,-0.222000,0.860000,0.432000,192.000000,0.000000,0.000000,0.000000,0.000000,0.000000,0.000000,0.000000,0.000000,0.000000,1647752898.179834,0.000000
114.000000,-3895.864355,-18020.736339,10053.389973,-576.160917,-15053.765780,-187500.022352,15943.678134,20329.537431,-0.222000,0.860000,0.432000,192.000000,0.000000,0.000000,0.000000,0.000000,0.000000,0.000000,0.000000,0.000000,0.000000,1647752898.186404,0.000000
115.000000,-3920.138350,-18039.444749,10050.864226,-585.638056,-15057.185597,-187500.022352,15926.310828,20320.663788,-0.222000,0.860000,0.432000,192.000000,0.000000,0.000000,0.000000,0.000000,0.000000,0.000000,0.000000,0.000000,0.000000,1647752898.186421,0.000000
116.000000,-3919.065466,-18037.991886,10044.672793,-577.837298,-15061.544187,-187500.022352,15928.501299,20310.046710,-0.222000,0.860000,0.432000,192.000000,0.000000,0.000000,0.000000,0.000000,0.000000,0.000000,0.000000,0.000000,0.000000,1647752898.193243,0.000000
117.000000,-3920.652440,-18035.332028,10056.742735,-590.175461,-15040.645306,-187500.022352,15938.716047,20314.226486,-0.222000,0.860000,0.432000,192.000000,0.000000,0.000000,0.000000,0.000000,0.000000,0.000000,0.000000,0.000000,0.000000,1647752898.201706,0.000000
118.000000,-3902.681637,-18025.273743,10061.950691,-577.054987,-15026.004914,-187500.022352,15955.971593,20322.563687,-0.222000,0.860000,0.432000,192.000000,0.000000,0.000000,0.000000,0.000000,0.000000,0.000000,0.000000,0.000000,0.000000,1647752898.201722,0.000000
119.000000,-3904.492128,-18033.745054,10054.216987,-583.984027,-15035.325591,-187500.022352,15952.685887,20333.292524,-0.222000,0.860000,0.432000,192.000000,0.000000,0.000000,0.000000,0.000000,0.000000,0.000000,0.000000,0.000000,0.000000,1647752898.209359,0.000000
120.000000,-3917.344381,-18044.049209,10059.246130,-591.784786,-15030.810539,-187500.022352,15947.366172,20320.082643,-0.218000,0.854000,0.430000,192.000000,249.000000,48.000000,26.000000,176.000000,13.000000,112.000000,0.000000,0.000000,0.000000,1647752898.209370,0.000000
121.000000,-3920.071294,-18044.473892,10054.261691,-587.582658,-15034.610335,-187500.022352,15952.305907,20336.779396,-0.218000,0.854000,0.430000,192.000000,0.000000,0.000000,0.000000,0.000000,0.000000,0.000000,0.000000,0.000000,0.000000,1647752898.216034,0.000000
122.000000,-3928.788475,-18050.866491,10037.699048,-594.891679,-15050.144798,-187500.022352,15942.359381,20321.826079,-0.218000,0.854000,0.430000,192.000000,0.000000,0.000000,0.000000,0.000000,0.000000,0.000000,0.000000,0.000000,0.000000,1647752898.216046,0.000000
123.000000,-3922.686448,-18036.896650,10052.428848,-587.984990,-15030.229393,-187500.022352,15954.518730,20332.934896,-0.218000,0.854000,0.430000,192.000000,0.000000,0.000000,0.000000,0.000000,0.000000,0.000000,0.000000,0.000000,0.000000,1647752898.224003,0.000000
124.000000,-3922.105303,-18038.014238,10053.457028,-587.940286,-15023.993257,-187500.022352,15952.082390,20330.163280,-0.218000,0.854000,0.430000,192.000000,0.000000,0.000000,0.000000,0.000000,0.000000,0.000000,0.000000,0.000000,0.000000,1647752898.224015,0.000000
125.000000,-3934.935204,-18050.866491,10038.459008,-596.501004,-15038.410132,-187500.022352,15943.119340,20304.682291,-0.218000,0.854000,0.430000,192.000000,0.000000,0.000000,0.000000,0.000000,0.000000,0.000000,0.000000,0.000000,0.000000,1647752898.232030,0.000000
126.000000,-3935.739867,-18043.445712,10035.888557,-594.042312,-15038.566594,-187500.022352,15943.521672,20301.888323,-0.218000,0.854000,0.430000,192.000000,0.000000,0.000000,0.000000,0.000000,0.000000,0.000000,0.000000,0.000000,0.000000,1647752898.232042,0.000000
127.000000,-3928.855530,-18039.914136,10047.287947,-588.990818,-15022.249821,-187500.022352,15945.980364,20329.313914,-0.218000,0.854000,0.430000,192.000000,0.000000,0.000000,0.000000,0.000000,0.000000,0.000000,0.000000,0.000000,0.000000,1647752898.239063,0.000000
128.000000,-3927.290908,-18040.472930,10054.328746,-578.574905,-15006.357730,-187500.022352,15948.349649,20327.972809,-0.218000,0.854000,0.430000,192.000000,0.000000,0.000000,0.000000,0.000000,0.000000,0.000000,0.000000,0.000000,0.000000,1647752898.239074,0.000000
129.000000,-3931.515387,-18047.446674,10037.252013,-593.505871,-15026.742521,-187500.022352,15932.949297,20314.897038,-0.218000,0.854000,0.430000,192.000000,0.000000,0.000000,0.000000,0.000000,0.000000,0.000000,0.000000,0.000000,0.000000,1647752898.246669,0.000000
130.000000,-3937.304489,-18058.153159,10032.781664,-607.989801,-15033.984486,-187500.022352,15929.216555,20311.164297,-0.218000,0.854000,0.428000,192.000000,249.000000,48.000000,26.000000,176.000000,13.000000,96.000000,0.000000,0.000000,0.000000,1647752898.246685,0.000000
131.000000,-3941.484266,-18057.549662,10035.061542,-606.134606,-15031.615201,-187500.022352,15932.099930,20318.205097,-0.218000,0.854000,0.428000,192.000000,0.000000,0.000000,0.000000,0.000000,0.000000,0.000000,0.000000,0.000000,0.000000,1647752898.253678,0.000000
132.000000,-3951.319033,-18070.848950,10045.566862,-612.035467,-15009.285809,-187500.022352,15928.925983,20313.891210,-0.218000,0.854000,0.428000,192.000000,0.000000,0.000000,0.000000,0.000000,0.000000,0.000000,0.000000,0.000000,0.000000,1647752898.261622,0.000000
133.000000,-3946.222835,-18077.062735,10052.115923,-610.582603,-14993.080794,-187500.022352,15925.215593,20298.312044,-0.218000,0.854000,0.428000,192.000000,0.000000,0.000000,0.000000,0.000000,0.000000,0.000000,0.000000,0.000000,0.000000,1647752898.261631,0.000000
134.000000,-3943.764143,-18076.235721,10030.501787,-617.109313,-15023.993257,-187500.022352,15925.170890,20279.335413,-0.218000,0.854000,0.428000,192.000000,0.000000,0.000000,0.000000,0.000000,0.000000,0.000000,0.000000,0.000000,0.000000,1647752898.269049,0.000000
135.000000,-3931.873015,-18066.177436,10012.642743,-609.487368,-15063.064106,-187500.022352,15934.379808,20307.073928,-0.218000,0.854000,0.428000,192.000000,0.000000,0.000000,0.000000,0.000000,0.000000,0.000000,0.000000,0.000000,0.000000,1647752898.269065,0.000000
136.000000,-3932.252995,-18060.008354,10044.046944,-598.535013,-15036.711399,-187500.022352,15954.250509,20324.977675,-0.218000,0.854000,0.428000,192.000000,0.000000,0.000000,0.000000,0.000000,0.000000,0.000000,0.000000,0.000000,0.000000,1647752898.276102,0.000000
137.000000,-3916.293850,-18046.172624,10066.711613,-577.323208,-15005.664826,-187500.022352,15961.492474,20357.857091,-0.218000,0.854000,0.428000,192.000000,0.000000,0.000000,0.000000,0.000000,0.000000,0.000000,0.000000,0.000000,0.000000,1647752898.276109,0.000000
138.000000,-3903.329838,-18038.148348,10063.783534,-569.947132,-15012.929143,-187500.022352,15971.215483,20350.123388,-0.218000,0.854000,0.428000,192.000000,0.000000,0.000000,0.000000,0.000000,0.000000,0.000000,0.000000,0.000000,0.000000,1647752898.284549,0.000000
139.000000,-3933.102361,-18070.826599,10035.106246,-596.210432,-15046.724981,-187500.022352,15942.113512,20306.068099,-0.218000,0.854000,0.428000,192.000000,0.000000,0.000000,0.000000,0.000000,0.000000,0.000000,0.000000,0.000000,0.000000,1647752898.284565,0.000000
140.000000,-3945.105248,-18085.243474,10033.787493,-614.069475,-15047.574347,-187500.022352,15924.410930,20277.234349,-0.222000,0.858000,0.428000,192.000000,249.000000,16.000000,26.000000,208.000000,13.000000,96.000000,0.000000,0.000000,0.000000,1647752898.291362,0.000000
141.000000,-3939.405553,-18080.370793,10027.529005,-619.456246,-15055.799789,-187500.022352,15923.807433,20328.889230,-0.222000,0.858000,0.428000,192.000000,0.000000,0.000000,0.000000,0.000000,0.000000,0.000000,0.000000,0.000000,0.000000,1647752898.291372,0.000000
142.000000,-3921.121826,-18061.416514,10043.286984,-594.623458,-15043.305164,-187500.022352,15936.078541,20319.657960,-0.222000,0.858000,0.428000,192.000000,0.000000,0.000000,0.000000,0.000000,0.000000,0.000000,0.000000,0.000000,0.000000,1647752898.298931,0.000000
143.000000,-3915.444483,-18053.772217,10057.167418,-579.871306,-15026.317838,-187500.022352,15945.354515,20332.800786,-0.222000,0.858000,0.428000,192.000000,0.000000,0.000000,0.000000,0.000000,0.000000,0.000000,0.000000,0.000000,0.000000,1647752898.298943,0.000000
144.000000,-3920.093646,-18056.387372,10059.536703,-588.275562,-15019.947591,-187500.022352,15939.923041,20327.861050,-0.222000,0.858000,0.428000,192.000000,0.000000,0.000000,0.000000,0.000000,0.000000,0.000000,0.000000,0.000000,0.000000,1647752898.307107,0.000000
145.000000,-3932.878844,-18076.973328,10037.229662,-612.013115,-15043.931013,-187500.022352,15918.063035,20288.812553,-0.222000,0.858000,0.428000,192.000000,0.000000,0.000000,0.000000,0.000000,0.000000,0.000000,0.000000,0.000000,0.000000,1647752898.307126,0.000000
146.000000,-3937.639765,-18085.466991,10032.200519,-624.440685,-15048.803693,-187500.022352,15912.899782,20286.644433,-0.222000,0.858000,0.428000,192.000000,0.000000,0.000000,0.000000,0.000000,0.000000,0.000000,0.000000,0.000000,0.000000,1647752898.313751,0.000000
147.000000,-3941.439562,-18080.862532,10058.441467,-616.371705,-15010.850431,-187500.022352,15929.909459,20294.020509,-0.222000,0.858000,0.428000,192.000000,0.000000,0.000000,0.000000,0.000000,0.000000,0.000000,0.000000,0.000000,0.000000,1647752898.321097,0.000000
148.000000,-3943.831199,-18085.645805,10065.683432,-620.126798,-14982.731936,-187500.022352,15924.299171,20304.458774,-0.222000,0.858000,0.428000,192.000000,0.000000,0.000000,0.000000,0.000000,0.000000,0.000000,0.000000,0.000000,0.000000,1647752898.321109,0.000000
149.000000,-3918.417265,-18062.981136,10054.976947,-608.325077,-14987.470506,-187500.022352,15941.353553,20321.110823,-0.222000,0.858000,0.428000,192.000000,0.000000,0.000000,0.000000,0.000000,0.000000,0.000000,0.000000,0.000000,0.000000,1647752898.328464,0.000000
150.000000,-3894.433843,-18029.319409,10072.947749,-580.340693,-14977.456925,-187500.022352,15972.645995,20352.336210,-0.216000,0.854000,0.422000,192.000000,249.000000,64.000000,26.000000,176.000000,13.000000,48.000000,0.000000,0.000000,0.000000,1647752898.328505,0.000000
151.000000,-3939.137332,-18073.709974,10030.859414,-620.886757,-15019.344094,-187500.022352,15923.360398,20285.638605,-0.216000,0.854000,0.422000,192.000000,0.000000,0.000000,0.000000,0.000000,0.000000,0.000000,0.000000,0.000000,0.000000,1647752898.336672,0.000000
152.000000,-3946.222835,-18080.661366,10034.525101,-620.909109,-15007.900001,-187500.022352,15915.000846,20274.239215,-0.216000,0.854000,0.422000,192.000000,0.000000,0.000000,0.000000,0.000000,0.000000,0.000000,0.000000,0.000000,0.000000,1647752898.336689,0.000000
153.000000,-3942.244225,-18079.901407,10046.751505,-627.838150,-14982.977805,-187500.022352,15910.821070,20278.597805,-0.216000,0.854000,0.422000,192.000000,0.000000,0.000000,0.000000,0.000000,0.000000,0.000000,0.000000,0.000000,0.000000,1647752898.344558,0.000000
154.000000,-3914.818634,-18068.479665,10037.587290,-619.724467,-14999.786317,-187500.022352,15917.861869,20302.022434,-0.216000,0.854000,0.422000,192.000000,0.000000,0.000000,0.000000,0.000000,0.000000,0.000000,0.000000,0.000000,0.000000,1647752898.344567,0.000000
155.000000,-3884.777890,-18039.914136,10055.289871,-591.360103,-14996.724128,-187500.022352,15956.910367,20348.469359,-0.216000,0.854000,0.422000,192.000000,0.000000,0.000000,0.000000,0.000000,0.000000,0.000000,0.000000,0.000000,0.000000,1647752898.351483,0.000000
156.000000,-3908.180166,-18045.367962,10060.721345,-598.803234,-14988.252817,-187500.022352,15948.975497,20350.548071,-0.216000,0.854000,0.422000,192.000000,0.000000,0.000000,0.000000,0.000000,0.000000,0.000000,0.000000,0.000000,0.000000,1647752898.351499,0.000000
157.000000,-3949.262673,-18085.355232,10046.729153,-633.515493,-14977.926311,-187500.022352,15891.330348,20263.242157,-0.216000,0.854000,0.422000,192.000000,0.000000,0.000000,0.000000,0.000000,0.000000,0.000000,0.000000,0.000000,0.000000,1647752898.358942,0.000000
158.000000,-3937.416248,-18077.643881,10043.711668,-625.915900,-14971.444305,-187500.022352,15894.861924,20257.900090,-0.216000,0.854000,0.422000,192.000000,0.000000,0.000000,0.000000,0.000000,0.000000,0.000000,0.000000,0.000000,0.000000,1647752898.358949,0.000000
159.000000,-3916.070332,-18057.996697,10030.255917,-614.583566,-14995.830059,-187500.022352,15915.269067,20290.131305,-0.216000,0.854000,0.422000,192.000000,0.000000,0.000000,0.000000,0.000000,0.000000,0.000000,0.000000,0.000000,0.000000,1647752898.367087,0.000000
160.000000,-3906.436730,-18044.719761,10035.888557,-601.798368,-15007.430614,-187500.022352,15941.554718,20307.319797,-0.220000,0.852000,0.418000,192.000000,249.000000,32.000000,26.000000,160.000000,13.000000,16.000000,0.000000,0.000000,0.000000,1647752898.367098,0.000000
161.000000,-3906.682599,-18049.123055,10052.428848,-598.669123,-14996.187686,-187500.022352,15949.154311,20309.242047,-0.220000,0.852000,0.418000,192.000000,0.000000,0.000000,0.000000,0.000000,0.000000,0.000000,0.000000,0.000000,0.000000,1647752898.374116,0.000000
162.000000,-3910.236527,-18057.147331,10062.688299,-604.748798,-14975.512323,-187500.022352,15934.871547,20319.054463,-0.220000,0.852000,0.418000,192.000000,0.000000,0.000000,0.000000,0.000000,0.000000,0.000000,0.000000,0.000000,0.000000,1647752898.374127,0.000000
163.000000,-3916.047980,-18066.646822,10055.133409,-608.168615,-14968.158599,-187500.022352,15915.269067,20291.315948,-0.220000,0.852000,0.418000,192.000000,0.000000,0.000000,0.000000,0.000000,0.000000,0.000000,0.000000,0.000000,0.000000,1647752898.380894,0.000000
164.000000,-3912.762274,-18063.159950,10038.704877,-598.400903,-14983.938931,-187500.022352,15924.701503,20281.771753,-0.220000,0.852000,0.418000,192.000000,0.000000,0.000000,0.000000,0.000000,0.000000,0.000000,0.000000,0.000000,0.000000,1647752898.388841,0.000000
165.000000,-3896.758425,-18042.797511,10039.196615,-582.598219,-14997.014701,-187500.022352,15948.372000,20311.946608,-0.220000,0.852000,0.418000,192.000000,0.000000,0.000000,0.000000,0.000000,0.000000,0.000000,0.000000,0.000000,0.000000,1647752898.388852,0.000000
166.000000,-3920.160701,-18068.792590,10044.359868,-608.235670,-14992.477297,-187500.022352,15932.256393,20291.673576,-0.220000,0.852000,0.418000,192.000000,0.000000,0.000000,0.000000,0.000000,0.000000,0.000000,0.000000,0.000000,0.000000,1647752898.396894,0.000000
167.000000,-3914.304544,-18066.378601,10053.859359,-602.781844,-14974.931177,-187500.022352,15933.083407,20301.508343,-0.220000,0.852000,0.418000,192.000000,0.000000,0.000000,0.000000,0.000000,0.000000,0.000000,0.000000,0.000000,0.000000,1647752898.396909,0.000000
168.000000,-3918.797245,-18074.179360,10065.862246,-603.653563,-14950.947756,-187500.022352,15929.596535,20292.947625,-0.220000,0.852000,0.418000,192.000000,0.000000,0.000000,0.000000,0.000000,0.000000,0.000000,0.000000,0.000000,0.000000,1647752898.403555,0.000000
169.000000,-3927.022687,-18079.856703,10034.279231,-610.001458,-14989.370404,-187500.022352,15911.513974,20268.539520,-0.220000,0.852000,0.418000,192.000000,0.000000,0.000000,0.000000,0.000000,0.000000,0.000000,0.000000,0.000000,0.000000,1647752898.403571,0.000000
170.000000,-3921.926489,-18066.825636,10031.105284,-604.212356,-15005.441309,-187500.022352,15919.024160,20301.038957,-0.220000,0.852000,0.418000,192.000000,0.000000,0.000000,0.000000,0.000000,0.000000,0.000000,0.000000,0.000000,0.000000,1647752898.411518,0.000000
171.000000,-3896.199631,-18045.435017,10054.015822,-581.637094,-14986.174105,-187500.022352,15944.773369,20324.016550,-0.222000,0.854000,0.416000,192.000000,249.000000,16.000000,26.000000,176.000000,13.000000,0.000000,0.000000,0.000000,0.000000,1647752898.411529,0.000000
172.000000,-3885.783718,-18031.576935,10072.500714,-573.299894,-14967.935081,-187500.022352,15969.270881,20357.655925,-0.222000,0.854000,0.416000,192.000000,0.000000,0.000000,0.000000,0.000000,0.000000,0.000000,0.000000,0.000000,0.000000,1647752898.419694,0.000000
173.000000,-3917.389085,-18071.295985,10063.180037,-603.698266,-14964.425858,-187500.022352,15928.546003,20307.744480,-0.222000,0.854000,0.416000,192.000000,0.000000,0.000000,0.000000,0.000000,0.000000,0.000000,0.000000,0.000000,0.000000,1647752898.419711,0.000000
174.000000,-3912.449349,-18078.537950,10052.428848,-610.895528,-14974.104163,-187500.022352,15926.042608,20296.680367,-0.222000,0.854000,0.416000,192.000000,0.000000,0.000000,0.000000,0.000000,0.000000,0.000000,0.000000,0.000000,0.000000,1647752898.426510,0.000000
175.000000,-3899.708855,-18071.631261,10057.413287,-597.976219,-14978.082773,-187500.022352,15950.540119,20321.781376,-0.222000,0.854000,0.416000,192.000000,0.000000,0.000000,0.000000,0.000000,0.000000,0.000000,0.000000,0.000000,0.000000,1647752898.426523,0.000000
176.000000,-3912.851681,-18082.874189,10046.215063,-605.218185,-14990.398585,-187500.022352,15938.760750,20301.731861,-0.222000,0.854000,0.416000,192.000000,0.000000,0.000000,0.000000,0.000000,0.000000,0.000000,0.000000,0.000000,0.000000,1647752898.434385,0.000000
177.000000,-3916.673829,-18082.673023,10054.127580,-601.977182,-14981.882570,-187500.022352,15944.706314,20323.524812,-0.222000,0.854000,0.416000,192.000000,0.000000,0.000000,0.000000,0.000000,0.000000,0.000000,0.000000,0.000000,0.000000,1647752898.434402,0.000000
178.000000,-3923.982850,-18091.993701,10049.903101,-614.494159,-14967.800971,-187500.022352,15930.289439,20298.200285,-0.222000,0.854000,0.416000,192.000000,0.000000,0.000000,0.000000,0.000000,0.000000,0.000000,0.000000,0.000000,0.000000,1647752898.441444,0.000000
179.000000,-3884.219096,-18058.443732,10051.870054,-582.888792,-14956.513340,-187500.022352,15951.970631,20322.206059,-0.222000,0.854000,0.416000,192.000000,0.000000,0.000000,0.000000,0.000000,0.000000,0.000000,0.000000,0.000000,0.000000,1647752898.449062,0.000000
180.000000,-3870.182201,-18041.523462,10049.590176,-567.577847,-14951.618308,-187500.022352,15973.584768,20323.234239,-0.222000,0.854000,0.416000,192.000000,0.000000,0.000000,0.000000,0.000000,0.000000,0.000000,0.000000,0.000000,0.000000,1647752898.449074,0.000000
181.000000,-3911.510576,-18078.806171,10040.940051,-606.760455,-14944.175177,-187500.022352,15947.097951,20307.722128,-0.222000,0.858000,0.420000,192.000000,249.000000,16.000000,26.000000,208.000000,13.000000,32.000000,0.000000,0.000000,0.000000,1647752898.456195,0.000000
182.000000,-3903.262782,-18085.489343,10052.942938,-610.135568,-14904.322017,-187500.022352,15946.360343,20314.382948,-0.222000,0.858000,0.420000,192.000000,0.000000,0.000000,0.000000,0.000000,0.000000,0.000000,0.000000,0.000000,0.000000,1647752898.456206,0.000000
183.000000,-3868.684634,-18041.031723,10061.615415,-577.725539,-14883.311377,-187500.022352,15977.697489,20334.164242,-0.222000,0.858000,0.420000,192.000000,0.000000,0.000000,0.000000,0.000000,0.000000,0.000000,0.000000,0.000000,0.000000,1647752898.463986,0.000000
184.000000,-3863.275512,-18029.878203,10060.944862,-571.422347,-14891.872095,-187500.022352,15980.625568,20350.078684,-0.222000,0.858000,0.420000,192.000000,0.000000,0.000000,0.000000,0.000000,0.000000,0.000000,0.000000,0.000000,0.000000,1647752898.463997,0.000000
185.000000,-3876.016006,-18045.993810,10070.489057,-579.737196,-14892.699110,-187500.022352,15974.188265,20335.415940,-0.222000,0.858000,0.420000,192.000000,0.000000,0.000000,0.000000,0.000000,0.000000,0.000000,0.000000,0.000000,0.000000,1647752898.471665,0.000000
186.000000,-3917.500844,-18082.114229,10071.696052,-601.865423,-14881.545589,-187500.022352,15941.398256,20299.988425,-0.222000,0.858000,0.420000,192.000000,0.000000,0.000000,0.000000,0.000000,0.000000,0.000000,0.000000,0.000000,0.000000,1647752898.471676,0.000000
187.000000,-3913.477530,-18086.517523,10063.448258,-608.146263,-14877.231702,-187500.022352,15934.156291,20295.540428,-0.222000,0.858000,0.420000,192.000000,0.000000,0.000000,0.000000,0.000000,0.000000,0.000000,0.000000,0.000000,0.000000,1647752898.480076,0.000000
188.000000,-3880.419300,-18063.606985,10058.441467,-597.596240,-14889.927493,-187500.022352,15954.854006,20298.803782,-0.222000,0.858000,0.420000,192.000000,0.000000,0.000000,0.000000,0.000000,0.000000,0.000000,0.000000,0.000000,0.000000,1647752898.480092,0.000000
189.000000,-3880.911038,-18049.704200,10062.598892,-585.548649,-14893.280255,-187500.022352,15964.174684,20324.195364,-0.222000,0.858000,0.420000,192.000000,0.000000,0.000000,0.000000,0.000000,0.000000,0.000000,0.000000,0.000000,0.000000,1647752898.486705,0.000000
190.000000,-3885.381387,-18061.930604,10038.749580,-601.463092,-14933.245174,-187500.022352,15952.775294,20308.146812,-0.222000,0.858000,0.420000,192.000000,0.000000,0.000000,0.000000,0.000000,0.000000,0.000000,0.000000,0.000000,0.000000,1647752898.486721,0.000000
191.000000,-3907.107283,-18079.812000,10046.885615,-615.142359,-14926.763168,-187500.022352,15944.348686,20298.982596,-0.218000,0.862000,0.418000,192.000000,249.000000,48.000000,26.000000,240.000000,13.000000,16.000000,0.000000,0.000000,0.000000,1647752898.494322,0.000000
192.000000,-3897.227811,-18061.863549,10070.600816,-595.696341,-14894.442546,-187500.022352,15953.915233,20308.303274,-0.218000,0.862000,0.418000,192.000000,0.000000,0.000000,0.000000,0.000000,0.000000,0.000000,0.000000,0.000000,0.000000,1647752898.494332,0.000000
193.000000,-3869.466945,-18044.764464,10061.213083,-579.916010,-14912.994494,-187500.022352,15971.684870,20317.579248,-0.218000,0.862000,0.418000,192.000000,0.000000,0.000000,0.000000,0.000000,0.000000,0.000000,0.000000,0.000000,0.000000,1647752898.501663,0.000000
194.000000,-3901.541698,-18068.278500,10055.245168,-606.559289,-14927.590183,-187500.022352,15953.155274,20315.522887,-0.218000,0.862000,0.418000,192.000000,0.000000,0.000000,0.000000,0.000000,0.000000,0.000000,0.000000,0.000000,0.000000,1647752898.508345,0.000000
195.000000,-3921.255937,-18093.066584,10053.278214,-619.746819,-14920.996418,-187500.022352,15938.783102,20301.061309,-0.218000,0.862000,0.418000,192.000000,0.000000,0.000000,0.000000,0.000000,0.000000,0.000000,0.000000,0.000000,0.000000,1647752898.508357,0.000000
196.000000,-3919.780722,-18103.594256,10062.218912,-626.653508,-14898.130584,-187500.022352,15931.787006,20283.157561,-0.218000,0.862000,0.418000,192.000000,0.000000,0.000000,0.000000,0.000000,0.000000,0.000000,0.000000,0.000000,0.000000,1647752898.516372,0.000000
197.000000,-3894.813823,-18073.598215,10077.127525,-602.625382,-14872.336670,-187500.022352,15953.535253,20324.173012,-0.218000,0.862000,0.418000,192.000000,0.000000,0.000000,0.000000,0.000000,0.000000,0.000000,0.000000,0.000000,0.000000,1647752898.516388,0.000000
198.000000,-3919.378390,-18088.216256,10062.263615,-617.913975,-14877.634034,-187500.022352,15933.865718,20284.990404,-0.218000,0.862000,0.418000,192.000000,0.000000,0.000000,0.000000,0.000000,0.000000,0.000000,0.000000,0.000000,0.000000,1647752898.523992,0.000000
199.000000,-3944.881731,-18113.093747,10046.572691,-647.351223,-14883.557246,-187500.022352,15911.491622,20259.487064,-0.218000,0.862000,0.418000,192.000000,0.000000,0.000000,0.000000,0.000000,0.000000,0.000000,0.000000,0.000000,0.000000,1647752898.524003,0.000000
200.000000,-3945.887559,-18111.640884,10036.760275,-646.010118,-14879.310415,-187500.022352,15910.731663,20266.192587,-0.218000,0.862000,0.418000,192.000000,0.000000,0.000000,0.000000,0.000000,0.000000,0.000000,0.000000,0.000000,0.000000,1647752898.532356,0.000000
201.000000,-3928.654364,-18096.106421,10036.961441,-634.767191,-14873.096630,-187500.022352,15922.153404,20270.327660,-0.220000,0.856000,0.424000,192.000000,249.000000,32.000000,26.000000,192.000000,13.000000,64.000000,0.000000,0.000000,0.000000,1647752898.532372,0.000000
202.000000,-3907.889594,-18085.176418,10031.798188,-629.581586,-14878.416345,-187500.022352,15925.573221,20275.446209,-0.220000,0.856000,0.424000,192.000000,0.000000,0.000000,0.000000,0.000000,0.000000,0.000000,0.000000,0.000000,0.000000,1647752898.538686,0.000000
203.000000,-3867.097660,-18049.592441,10049.500769,-591.762434,-14874.102458,-187500.022352,15961.134846,20322.943666,-0.220000,0.856000,0.424000,192.000000,0.000000,0.000000,0.000000,0.000000,0.000000,0.000000,0.000000,0.000000,0.000000,1647752898.538697,0.000000
204.000000,-3911.465873,-18087.456296,10048.338479,-621.400848,-14878.237531,-187500.022352,15941.621773,20295.428669,-0.220000,0.856000,0.424000,192.000000,0.000000,0.000000,0.000000,0.000000,0.000000,0.000000,0.000000,0.000000,0.000000,1647752898.546898,0.000000
205.000000,-3939.316146,-18114.501907,10020.309391,-651.754517,-14899.382281,-187500.022352,15895.800697,20262.593956,-0.220000,0.856000,0.424000,192.000000,0.000000,0.000000,0.000000,0.000000,0.000000,0.000000,0.000000,0.000000,0.000000,1647752898.546914,0.000000
206.000000,-3923.088780,-18104.443622,10018.923583,-650.748688,-14901.997435,-187500.022352,15913.324465,20264.091523,-0.220000,0.856000,0.424000,192.000000,0.000000,0.000000,0.000000,0.000000,0.000000,0.000000,0.000000,0.000000,0.000000,1647752898.554685,0.000000
207.000000,-3923.535815,-18101.716709,10034.703914,-639.461057,-14881.925569,-187500.022352,15914.799680,20268.405410,-0.220000,0.856000,0.424000,192.000000,0.000000,0.000000,0.000000,0.000000,0.000000,0.000000,0.000000,0.000000,0.000000,1647752898.554697,0.000000
208.000000,-3924.653402,-18100.129735,10027.014914,-636.152999,-14888.005243,-187500.022352,15909.547020,20286.689137,-0.220000,0.856000,0.424000,192.000000,0.000000,0.000000,0.000000,0.000000,0.000000,0.000000,0.000000,0.000000,0.000000,1647752898.561963,0.000000
209.000000,-3906.056751,-18074.782857,10034.033362,-614.516510,-14888.988720,-187500.022352,15927.830747,20291.159486,-0.220000,0.856000,0.424000,192.000000,0.000000,0.000000,0.000000,0.000000,0.000000,0.000000,0.000000,0.000000,0.000000,1647752898.568666,0.000000
210.000000,-3905.386198,-18071.854779,10036.827330,-627.078191,-14885.390089,-187500.022352,15924.098006,20292.098259,-0.220000,0.856000,0.424000,192.000000,0.000000,0.000000,0.000000,0.000000,0.000000,0.000000,0.000000,0.000000,0.000000,1647752898.568683,0.000000
211.000000,-3901.340532,-18074.067601,10033.139292,-634.476618,-14891.603874,-187500.022352,15909.144689,20274.283919,-0.222000,0.852000,0.424000,192.000000,249.000000,16.000000,26.000000,160.000000,13.000000,64.000000,0.000000,0.000000,0.000000,1647752898.576331,0.000000
212.000000,-3905.408550,-18079.364965,10054.529912,-633.426086,-14866.547569,-187500.022352,15910.731663,20271.266433,-0.222000,0.852000,0.424000,192.000000,0.000000,0.000000,0.000000,0.000000,0.000000,0.000000,0.000000,0.000000,0.000000,1647752898.576340,0.000000
213.000000,-3899.530041,-18077.465067,10040.805941,-629.358069,-14876.784668,-187500.022352,15906.976570,20271.087619,-0.222000,0.852000,0.424000,192.000000,0.000000,0.000000,0.000000,0.000000,0.000000,0.000000,0.000000,0.000000,0.000000,1647752898.584376,0.000000
214.000000,-3892.489242,-18063.584633,10031.865243,-621.602013,-14896.789479,-187500.022352,15924.120358,20291.025375,-0.222000,0.852000,0.424000,192.000000,0.000000,0.000000,0.000000,0.000000,0.000000,0.000000,0.000000,0.000000,0.000000,1647752898.584387,0.000000
215.000000,-3895.976114,-18067.183264,10030.255917,-623.881891,-14903.182078,-187500.022352,15917.526593,20293.484067,-0.222000,0.852000,0.424000,192.000000,0.000000,0.000000,0.000000,0.000000,0.000000,0.000000,0.000000,0.000000,0.000000,1647752898.591334,0.000000
216.000000,-3913.611640,-18082.360099,10023.595097,-635.214226,-14912.547459,-187500.022352,15902.036834,20277.077887,-0.222000,0.852000,0.424000,192.000000,0.000000,0.000000,0.000000,0.000000,0.000000,0.000000,0.000000,0.000000,0.000000,1647752898.591342,0.000000
217.000000,-3918.864300,-18086.070488,10047.600871,-634.409563,-14876.270577,-187500.022352,15895.845401,20270.886453,-0.222000,0.852000,0.424000,192.000000,0.000000,0.000000,0.000000,0.000000,0.000000,0.000000,0.000000,0.000000,0.000000,1647752898.599211,0.000000
218.000000,-3905.900288,-18074.782857,10026.120845,-627.905205,-14896.454203,-187500.022352,15897.655892,20257.251889,-0.222000,0.852000,0.424000,192.000000,0.000000,0.000000,0.000000,0.000000,0.000000,0.000000,0.000000,0.000000,0.000000,1647752898.599227,0.000000
219.000000,-3895.059692,-18065.998622,10028.847757,-618.495121,-14904.299665,-187500.022352,15912.340988,20270.998212,-0.222000,0.852000,0.424000,192.000000,0.000000,0.000000,0.000000,0.000000,0.000000,0.000000,0.000000,0.000000,0.000000,1647752898.606915,0.000000
220.000000,-3887.750672,-18052.676982,10040.582423,-600.591374,-14897.951770,-187500.022352,15919.560602,20297.105050,-0.222000,0.852000,0.424000,192.000000,0.000000,0.000000,0.000000,0.000000,0.000000,0.000000,0.000000,0.000000,0.000000,1647752898.606925,0.000000
221.000000,-3888.801204,-18049.078351,10038.369601,-601.217222,-14902.422118,-187500.022352,15923.382750,20296.456849,-0.228000,0.852000,0.426000,192.000000,248.000000,224.000000,26.000000,160.000000,13.000000,80.000000,0.000000,0.000000,0.000000,1647752898.614258,0.000000
222.000000,-3896.154928,-18054.532177,10034.458045,-620.395019,-14905.529011,-187500.022352,15928.948334,20295.696890,-0.228000,0.852000,0.426000,192.000000,0.000000,0.000000,0.000000,0.000000,0.000000,0.000000,0.000000,0.000000,0.000000,1647752898.614269,0.000000
223.000000,-3912.516405,-18070.290157,10016.531946,-640.332775,-14925.131491,-187500.022352,15917.236020,20283.001099,-0.228000,0.852000,0.426000,192.000000,0.000000,0.000000,0.000000,0.000000,0.000000,0.000000,0.000000,0.000000,0.000000,1647752898.620655,0.000000
224.000000,-3902.324009,-18059.337802,10025.606754,-625.871196,-14923.097482,-187500.022352,15930.378846,20292.925274,-0.228000,0.852000,0.426000,192.000000,0.000000,0.000000,0.000000,0.000000,0.000000,0.000000,0.000000,0.000000,0.000000,1647752898.620668,0.000000
225.000000,-3899.507689,-18053.459293,10029.697124,-614.896490,-14928.707770,-187500.022352,15935.385637,20285.280977,-0.228000,0.852000,0.426000,192.000000,0.000000,0.000000,0.000000,0.000000,0.000000,0.000000,0.000000,0.000000,0.000000,1647752898.628684,0.000000
226.000000,-3904.782701,-18058.846063,10049.098438,-613.935365,-14901.840973,-187500.022352,15928.590706,20284.722183,-0.228000,0.852000,0.426000,192.000000,0.000000,0.000000,0.000000,0.000000,0.000000,0.000000,0.000000,0.000000,0.000000,1647752898.636794,0.000000
227.000000,-3918.640783,-18079.297910,10047.645575,-628.218130,-14889.100479,-187500.022352,15914.553811,20275.557968,-0.228000,0.852000,0.426000,192.000000,0.000000,0.000000,0.000000,0.000000,0.000000,0.000000,0.000000,0.000000,0.000000,1647752898.636810,0.000000
228.000000,-3914.036323,-18073.553511,10032.535795,-623.300746,-14901.237476,-187500.022352,15909.055282,20274.395677,-0.228000,0.852000,0.426000,192.000000,0.000000,0.000000,0.000000,0.000000,0.000000,0.000000,0.000000,0.000000,0.000000,1647752898.643938,0.000000
229.000000,-3907.755483,-18064.076372,10034.547452,-615.835263,-14907.339502,-187500.022352,15920.655837,20275.893244,-0.228000,0.852000,0.426000,192.000000,0.000000,0.000000,0.000000,0.000000,0.000000,0.000000,0.000000,0.000000,0.000000,1647752898.643956,0.000000
230.000000,-3899.194765,-18057.840235,10043.868130,-606.089903,-14898.242342,-187500.022352,15927.070788,20286.130343,-0.228000,0.852000,0.426000,192.000000,0.000000,0.000000,0.000000,0.000000,0.000000,0.000000,0.000000,0.000000,0.000000,1647752898.651441,0.000000
231.000000,-3892.980980,-18049.190110,10041.543548,-600.524318,-14903.785575,-187500.022352,15936.592631,20302.670634,-0.222000,0.858000,0.430000,192.000000,249.000000,16.000000,26.000000,208.000000,13.000000,112.000000,0.000000,0.000000,0.000000,1647752898.651457,0.000000
232.000000,-3895.082044,-18044.518595,10057.793267,-599.965525,-14884.272502,-187500.022352,15945.242756,20305.531657,-0.222000,0.858000,0.430000,192.000000,0.000000,0.000000,0.000000,0.000000,0.000000,0.000000,0.000000,0.000000,0.000000,1647752898.659133,0.000000
233.000000,-3894.389140,-18043.691581,10043.622261,-605.262888,-14910.893430,-187500.022352,15944.326335,20288.969015,-0.222000,0.858000,0.430000,192.000000,0.000000,0.000000,0.000000,0.000000,0.000000,0.000000,0.000000,0.000000,0.000000,1647752898.659144,0.000000
234.000000,-3933.392934,-18088.439773,10028.020743,-628.419295,-14932.775787,-187500.022352,15905.613113,20259.487064,-0.222000,0.858000,0.430000,192.000000,0.000000,0.000000,0.000000,0.000000,0.000000,0.000000,0.000000,0.000000,0.000000,1647752898.667147,0.000000
235.000000,-3917.389085,-18077.018032,10026.143196,-623.546615,-14941.291802,-187500.022352,15912.676264,20270.238253,-0.222000,0.858000,0.430000,192.000000,0.000000,0.000000,0.000000,0.000000,0.000000,0.000000,0.000000,0.000000,0.000000,1647752898.667160,0.000000
236.000000,-3938.511483,-18092.485439,10046.058601,-645.116048,-14916.704883,-187500.022352,15906.797756,20262.213977,-0.222000,0.858000,0.430000,192.000000,0.000000,0.000000,0.000000,0.000000,0.000000,0.000000,0.000000,0.000000,0.000000,1647752898.673998,0.000000
237.000000,-3911.532928,-18076.995680,10063.805886,-624.083057,-14885.323034,-187500.022352,15918.666532,20281.123552,-0.222000,0.858000,0.430000,192.000000,0.000000,0.000000,0.000000,0.000000,0.000000,0.000000,0.000000,0.000000,0.000000,1647752898.674009,0.000000
238.000000,-3862.940235,-18044.228023,10050.618357,-595.249307,-14913.575639,-187500.022352,15954.183454,20312.773623,-0.222000,0.858000,0.430000,192.000000,0.000000,0.000000,0.000000,0.000000,0.000000,0.000000,0.000000,0.000000,0.000000,1647752898.682037,0.000000
239.000000,-3897.987771,-18066.333898,10018.253031,-618.293955,-14964.135285,-187500.022352,15928.501299,20276.899073,-0.222000,0.858000,0.430000,192.000000,0.000000,0.000000,0.000000,0.000000,0.000000,0.000000,0.000000,0.000000,0.000000,1647752898.682053,0.000000
240.000000,-3902.480471,-18054.778046,10029.317144,-610.314382,-14970.885512,-187500.022352,15929.931811,20295.920407,-0.222000,0.858000,0.430000,192.000000,0.000000,0.000000,0.000000,0.000000,0.000000,0.000000,0.000000,0.000000,0.000000,1647752898.688777,0.000000
241.000000,-3922.954669,-18069.910177,10054.261691,-619.366839,-14942.722314,-187500.022352,15929.730645,20292.008852,-0.220000,0.862000,0.432000,192.000000,249.000000,32.000000,26.000000,240.000000,13.000000,128.000000,0.000000,0.000000,0.000000,1647752898.696735,0.000000
242.000000,-3934.309356,-18093.983006,10061.593063,-632.532016,-14921.108177,-187500.022352,15914.643218,20263.040991,-0.220000,0.862000,0.432000,192.000000,0.000000,0.000000,0.000000,0.000000,0.000000,0.000000,0.000000,0.000000,0.000000,1647752898.696743,0.000000
243.000000,-3925.949803,-18084.170590,10061.190732,-626.497045,-14917.777767,-187500.022352,15921.460500,20270.327660,-0.220000,0.862000,0.432000,192.000000,0.000000,0.000000,0.000000,0.000000,0.000000,0.000000,0.000000,0.000000,0.000000,1647752898.703422,0.000000
244.000000,-3904.559184,-18062.131770,10077.172229,-606.380475,-14903.495002,-187500.022352,15945.645087,20291.584169,-0.220000,0.862000,0.432000,192.000000,0.000000,0.000000,0.000000,0.000000,0.000000,0.000000,0.000000,0.000000,0.000000,1647752898.703434,0.000000
245.000000,-3887.661265,-18046.306735,10089.711558,-591.471862,-14893.101441,-187500.022352,15963.638242,20321.937838,-0.220000,0.862000,0.432000,192.000000,0.000000,0.000000,0.000000,0.000000,0.000000,0.000000,0.000000,0.000000,0.000000,1647752898.711506,0.000000
246.000000,-3930.308393,-18080.191979,10072.120735,-621.669069,-14898.890543,-187500.022352,15928.031913,20283.962224,-0.220000,0.862000,0.432000,192.000000,0.000000,0.000000,0.000000,0.000000,0.000000,0.000000,0.000000,0.000000,0.000000,1647752898.711517,0.000000
247.000000,-3947.921568,-18100.733233,10052.272386,-634.968356,-14905.283142,-187500.022352,15900.271046,20272.160503,-0.220000,0.862000,0.432000,192.000000,0.000000,0.000000,0.000000,0.000000,0.000000,0.000000,0.000000,0.000000,0.000000,1647752898.719492,0.000000
248.000000,-3931.604794,-18090.026747,10043.108170,-626.787618,-14918.940058,-187500.022352,15910.217572,20270.707640,-0.220000,0.862000,0.432000,192.000000,0.000000,0.000000,0.000000,0.000000,0.000000,0.000000,0.000000,0.000000,0.000000,1647752898.719503,0.000000
249.000000,-3907.531966,-18071.430096,10041.990583,-622.071400,-14930.138282,-187500.022352,15930.535308,20282.509361,-0.220000,0.862000,0.432000,192.000000,0.000000,0.000000,0.000000,0.000000,0.000000,0.000000,0.000000,0.000000,0.000000,1647752898.726030,0.000000
250.000000,-3903.262782,-18055.493302,10042.862301,-613.756551,-14942.588203,-187500.022352,15942.918175,20306.537486,-0.220000,0.862000,0.432000,192.000000,0.000000,0.000000,0.000000,0.000000,0.000000,0.000000,0.000000,0.000000,0.000000,1647752898.726042,0.000000
251.000000,-3927.380315,-18075.542817,10059.268482,-622.585490,-14919.811776,-187500.022352,15924.567392,20272.987517,-0.222000,0.860000,0.428000,192.000000,249.000000,16.000000,26.000000,224.000000,13.000000,96.000000,0.000000,0.000000,0.000000,1647752898.734306,0.000000
252.000000,-3908.224870,-18064.478703,10068.700918,-612.393095,-14906.512488,-187500.022352,15934.737436,20307.655073,-0.222000,0.860000,0.428000,192.000000,0.000000,0.000000,0.000000,0.000000,0.000000,0.000000,0.000000,0.000000,0.000000,1647752898.734323,0.000000
253.000000,-3929.973117,-18080.683718,10052.406496,-632.934348,-14925.734988,-187500.022352,15919.493546,20282.978747,-0.222000,0.860000,0.428000,192.000000,0.000000,0.000000,0.000000,0.000000,0.000000,0.000000,0.000000,0.000000,0.000000,1647752898.742070,0.000000
254.000000,-3920.808902,-18079.141447,10038.101380,-629.603938,-14950.344259,-187500.022352,15920.946410,20276.228520,-0.222000,0.860000,0.428000,192.000000,0.000000,0.000000,0.000000,0.000000,0.000000,0.000000,0.000000,0.000000,0.000000,1647752898.742080,0.000000
255.000000,-3904.872108,-18056.722648,10055.066354,-605.553461,-14941.336506,-187500.022352,15943.208747,20290.935968,-0.222000,0.860000,0.428000,192.000000,0.000000,0.000000,0.000000,0.000000,0.000000,0.000000,0.000000,0.000000,0.000000,1647752898.749557,0.000000
0.000000,-3903.307486,-18053.481645,10074.132392,-598.065626,-14916.481366,-187500.022352,15936.190300,20290.399526,-0.222000,0.860000,0.428000,192.000000,0.000000,0.000000,0.000000,0.000000,0.000000,0.000000,0.000000,0.000000,0.000000,1647752898.755923,0.000000
1.000000,-3906.213213,-18056.946165,10072.456011,-602.535975,-14915.229668,-187500.022352,15930.065922,20293.819343,-0.222000,0.860000,0.428000,192.000000,0.000000,0.000000,0.000000,0.000000,0.000000,0.000000,0.000000,0.000000,0.000000,1647752898.755935,0.000000
2.000000,-3931.537739,-18081.242511,10060.050793,-612.080170,-14927.210203,-187500.022352,15912.899782,20263.309212,-0.222000,0.860000,0.428000,192.000000,0.000000,0.000000,0.000000,0.000000,0.000000,0.000000,0.000000,0.000000,0.000000,1647752898.763986,0.000000
3.000000,-3929.593137,-18074.782857,10053.725249,-614.717676,-14940.688305,-187500.022352,15917.884221,20272.853407,-0.222000,0.860000,0.428000,192.000000,0.000000,0.000000,0.000000,0.000000,0.000000,0.000000,0.000000,0.000000,0.000000,1647752898.764003,0.000000
4.000000,-3913.432826,-18069.239625,10069.147953,-615.365877,-14918.493023,-187500.022352,15928.657762,20300.211942,-0.222000,0.860000,0.428000,192.000000,0.000000,0.000000,0.000000,0.000000,0.000000,0.000000,0.000000,0.000000,0.000000,1647752898.771741,0.000000
5.000000,-3907.688428,-18064.523407,10095.299494,-604.592336,-14883.937226,-187500.022352,15950.338954,20324.485937,-0.222000,0.860000,0.428000,192.000000,0.000000,0.000000,0.000000,0.000000,0.000000,0.000000,0.000000,0.000000,0.000000,1647752898.771752,0.000000
6.000000,-3952.816600,-18105.628265,10071.159610,-638.634043,-14887.178229,-187500.022352,15902.439165,20262.392791,-0.222000,0.856000,0.432000,192.000000,249.000000,16.000000,26.000000,192.000000,13.000000,128.000000,0.000000,0.000000,0.000000,1647752898.779094,0.000000
7.000000,-3944.881731,-18095.055889,10060.676642,-630.565063,-14891.760336,-187500.022352,15910.441090,20265.790256,-0.222000,0.856000,0.432000,192.000000,0.000000,0.000000,0.000000,0.000000,0.000000,0.000000,0.000000,0.000000,0.000000,1647752898.779110,0.000000
8.000000,-3947.653347,-18102.700186,10046.326822,-640.511589,-14900.991607,-187500.022352,15904.495526,20255.910785,-0.222000,0.856000,0.432000,192.000000,0.000000,0.000000,0.000000,0.000000,0.000000,0.000000,0.000000,0.000000,0.000000,1647752898.786485,0.000000
9.000000,-3933.258824,-18093.334805,10047.578519,-629.179255,-14907.540668,-187500.022352,15921.326389,20254.413218,-0.222000,0.856000,0.432000,192.000000,0.000000,0.000000,0.000000,0.000000,0.000000,0.000000,0.000000,0.000000,0.000000,1647752898.786501,0.000000
10.000000,-3915.288021,-18070.200750,10065.191694,-607.386304,-14891.939150,-187500.022352,15939.587765,20299.094355,-0.222000,0.856000,0.432000,192.000000,0.000000,0.000000,0.000000,0.000000,0.000000,0.000000,0.000000,0.000000,0.000000,1647752898.794548,0.000000
11.000000,-3929.391972,-18083.544741,10068.589159,-618.495121,-14884.071336,-187500.022352,15931.228212,20299.429631,-0.222000,0.856000,0.432000,192.000000,0.000000,0.000000,0.000000,0.000000,0.000000,0.000000,0.000000,0.000000,0.000000,1647752898.794563,0.000000
12.000000,-3950.782591,-18104.734195,10057.078011,-636.085944,-14889.547514,-187500.022352,15919.202974,20280.385945,-0.222000,0.856000,0.432000,192.000000,0.000000,0.000000,0.000000,0.000000,0.000000,0.000000,0.000000,0.000000,0.000000,1647752898.802691,0.000000
13.000000,-3947.183960,-18100.263846,10050.081915,-631.012098,-14895.403671,-187500.022352,15913.235058,20276.183817,-0.222000,0.856000,0.432000,192.000000,0.000000,0.000000,0.000000,0.000000,0.000000,0.000000,0.000000,0.000000,0.000000,1647752898.802708,0.000000
14.000000,-3914.706876,-18074.112305,10049.433714,-610.292031,-14907.585371,-187500.022352,15942.627602,20294.132268,-0.222000,0.856000,0.432000,192.000000,0.000000,0.000000,0.000000,0.000000,0.000000,0.000000,0.000000,0.000000,0.000000,1647752898.808434,0.000000
15.000000,-3904.536832,-18068.591424,10051.534778,-607.162786,-14915.676703,-187500.022352,15949.064904,20300.100183,-0.222000,0.856000,0.432000,192.000000,0.000000,0.000000,0.000000,0.000000,0.000000,0.000000,0.000000,0.000000,0.000000,1647752898.816205,0.000000
16.000000,-3897.339570,-18056.365020,10071.427831,-590.220164,-14900.902200,-187500.022352,15951.076561,20297.060346,-0.222000,0.852000,0.432000,192.000000,249.000000,16.000000,26.000000,160.000000,13.000000,128.000000,0.000000,0.000000,0.000000,1647752898.816223,0.000000
17.000000,-3905.117977,-18061.707087,10064.677604,-596.769225,-14910.938133,-187500.022352,15951.389486,20287.963186,-0.222000,0.852000,0.432000,192.000000,0.000000,0.000000,0.000000,0.000000,0.000000,0.000000,0.000000,0.000000,0.000000,1647752898.824090,0.000000
18.000000,-3928.252033,-18084.908198,10049.880749,-629.916862,-14930.361799,-187500.022352,15930.937640,20280.654166,-0.222000,0.852000,0.432000,192.000000,0.000000,0.000000,0.000000,0.000000,0.000000,0.000000,0.000000,0.000000,0.000000,1647752898.824102,0.000000
19.000000,-3935.941033,-18088.797401,10067.069240,-632.487313,-14897.862363,-187500.022352,15915.045549,20277.413163,-0.222000,0.852000,0.432000,192.000000,0.000000,0.000000,0.000000,0.000000,0.000000,0.000000,0.000000,0.000000,0.000000,1647752898.832429,0.000000
20.000000,-3907.174338,-18060.902424,10085.308264,-603.474749,-14873.767182,-187500.022352,15945.041590,20304.883457,-0.222000,0.852000,0.432000,192.000000,0.000000,0.000000,0.000000,0.000000,0.000000,0.000000,0.000000,0.000000,0.000000,1647752898.832445,0.000000
21.000000,-3935.114018,-18084.885846,10073.171267,-625.670031,-14880.383298,-187500.022352,15921.393445,20271.981689,-0.222000,0.852000,0.432000,192.000000,0.000000,0.000000,0.000000,0.000000,0.000000,0.000000,0.000000,0.000000,0.000000,1647752898.838642,0.000000
22.000000,-3942.825370,-18092.396032,10055.423982,-636.242406,-14898.018825,-187500.022352,15914.576163,20267.533692,-0.222000,0.852000,0.432000,192.000000,0.000000,0.000000,0.000000,0.000000,0.000000,0.000000,0.000000,0.000000,0.000000,1647752898.838654,0.000000
23.000000,-3938.645594,-18087.702166,10053.345269,-630.676822,-14903.003264,-187500.022352,15924.522689,20283.850465,-0.222000,0.852000,0.432000,192.000000,0.000000,0.000000,0.000000,0.000000,0.000000,0.000000,0.000000,0.000000,0.000000,1647752898.846707,0.000000
24.000000,-3930.800132,-18070.737192,10060.900159,-624.373630,-14895.560133,-187500.022352,15937.956087,20278.642509,-0.222000,0.852000,0.432000,192.000000,0.000000,0.000000,0.000000,0.000000,0.000000,0.000000,0.000000,0.000000,0.000000,1647752898.846723,0.000000
25.000000,-3918.551376,-18048.653668,10078.558037,-607.006324,-14870.928511,-187500.022352,15945.041590,20313.846506,-0.222000,0.852000,0.432000,192.000000,0.000000,0.000000,0.000000,0.000000,0.000000,0.000000,0.000000,0.000000,0.000000,1647752898.854814,0.000000
26.000000,-3917.791416,-18053.928680,10075.294682,-606.626345,-14874.035403,-187500.022352,15941.577070,20314.315893,-0.214000,0.850000,0.434000,192.000000,249.000000,80.000000,26.000000,144.000000,13.000000,144.000000,0.000000,0.000000,0.000000,1647752898.854824,0.000000
27.000000,-3940.366678,-18076.615700,10059.022612,-628.821627,-14891.626226,-187500.022352,15916.118433,20262.929232,-0.214000,0.850000,0.434000,192.000000,0.000000,0.000000,0.000000,0.000000,0.000000,0.000000,0.000000,0.000000,0.000000,1647752898.861365,0.000000
28.000000,-3947.899216,-18084.595273,10051.378316,-637.672918,-14898.577618,-187500.022352,15895.510125,20253.340334,-0.214000,0.850000,0.434000,192.000000,0.000000,0.000000,0.000000,0.000000,0.000000,0.000000,0.000000,0.000000,0.000000,1647752898.861380,0.000000
29.000000,-3931.627146,-18070.066639,10056.295700,-629.358069,-14890.285121,-187500.022352,15906.797756,20270.081791,-0.214000,0.850000,0.434000,192.000000,0.000000,0.000000,0.000000,0.000000,0.000000,0.000000,0.000000,0.000000,0.000000,1647752898.868511,0.000000
30.000000,-3926.352135,-18068.524369,10071.047851,-620.417371,-14870.481476,-187500.022352,15917.303075,20289.103125,-0.214000,0.850000,0.434000,192.000000,0.000000,0.000000,0.000000,0.000000,0.000000,0.000000,0.000000,0.000000,0.000000,1647752898.868527,0.000000
31.000000,-3929.213158,-18081.510732,10070.801982,-615.544691,-14864.513560,-187500.022352,15919.672360,20296.479201,-0.214000,0.850000,0.434000,192.000000,0.000000,0.000000,0.000000,0.000000,0.000000,0.000000,0.000000,0.000000,0.000000,1647752898.876354,0.000000
32.000000,-3943.317109,-18095.704090,10058.732040,-635.214226,-14868.313356,-187500.022352,15910.083462,20277.346108,-0.214000,0.850000,0.434000,192.000000,0.000000,0.000000,0.000000,0.000000,0.000000,0.000000,0.000000,0.000000,0.000000,1647752898.884692,0.000000
33.000000,-3923.558166,-18084.438811,10055.446333,-634.029583,-14874.840066,-187500.022352,15922.354570,20281.481180,-0.214000,0.850000,0.434000,192.000000,0.000000,0.000000,0.000000,0.000000,0.000000,0.000000,0.000000,0.000000,0.000000,1647752898.884708,0.000000
34.000000,-3892.936277,-18059.069581,10081.910799,-602.714789,-14849.493188,-187500.022352,15958.676154,20310.896076,-0.214000,0.850000,0.434000,192.000000,0.000000,0.000000,0.000000,0.000000,0.000000,0.000000,0.000000,0.000000,0.000000,1647752898.890941,0.000000
35.000000,-3909.342457,-18071.743020,10075.249979,-616.148188,-14854.634089,-187500.022352,15938.269012,20300.323701,-0.214000,0.850000,0.434000,192.000000,0.000000,0.000000,0.000000,0.000000,0.000000,0.000000,0.000000,0.000000,0.000000,1647752898.890963,0.000000
36.000000,-3936.164550,-18099.392128,10058.307357,-644.020813,-14868.022784,-187500.022352,15906.730700,20271.489951,-0.218000,0.854000,0.426000,192.000000,249.000000,48.000000,26.000000,176.000000,13.000000,80.000000,0.000000,0.000000,0.000000,1647752898.898972,0.000000
37.000000,-3927.581480,-18096.486401,10038.034324,-641.718583,-14898.756432,-187500.022352,15912.072767,20272.384020,-0.218000,0.854000,0.426000,192.000000,0.000000,0.000000,0.000000,0.000000,0.000000,0.000000,0.000000,0.000000,0.000000,1647752898.899002,0.000000
38.000000,-3919.758370,-18075.319299,10052.674717,-621.177330,-14896.767127,-187500.022352,15934.759788,20276.899073,-0.218000,0.854000,0.426000,192.000000,0.000000,0.000000,0.000000,0.000000,0.000000,0.000000,0.000000,0.000000,0.000000,1647752898.906955,0.000000
39.000000,-3912.829329,-18066.199787,10064.610549,-608.302725,-14888.608740,-187500.022352,15947.366172,20299.317872,-0.218000,0.854000,0.426000,192.000000,0.000000,0.000000,0.000000,0.000000,0.000000,0.000000,0.000000,0.000000,0.000000,1647752898.906964,0.000000
40.000000,-3933.102361,-18086.562227,10080.033252,-622.764304,-14858.590348,-187500.022352,15936.056189,20297.842657,-0.218000,0.854000,0.426000,192.000000,0.000000,0.000000,0.000000,0.000000,0.000000,0.000000,0.000000,0.000000,0.000000,1647752898.914274,0.000000
41.000000,-3930.978946,-18087.858628,10068.432697,-628.128723,-14867.463990,-187500.022352,15938.425474,20289.818381,-0.218000,0.854000,0.426000,192.000000,0.000000,0.000000,0.000000,0.000000,0.000000,0.000000,0.000000,0.000000,0.000000,1647752898.914291,0.000000
42.000000,-3955.744678,-18103.706015,10056.094534,-647.038298,-14878.930435,-187500.022352,15915.850212,20258.213014,-0.218000,0.854000,0.426000,192.000000,0.000000,0.000000,0.000000,0.000000,0.000000,0.000000,0.000000,0.000000,0.000000,1647752898.921630,0.000000
43.000000,-3946.826332,-18091.345500,10040.135388,-643.864351,-14902.667988,-187500.022352,15917.370131,20270.998212,-0.218000,0.854000,0.426000,192.000000,0.000000,0.000000,0.000000,0.000000,0.000000,0.000000,0.000000,0.000000,0.000000,1647752898.921643,0.000000
44.000000,-3941.819542,-18085.466991,10057.033307,-633.202569,-14883.981929,-187500.022352,15922.443977,20272.607538,-0.218000,0.854000,0.426000,192.000000,0.000000,0.000000,0.000000,0.000000,0.000000,0.000000,0.000000,0.000000,0.000000,1647752898.929786,0.000000
45.000000,-3918.126693,-18066.333898,10053.389973,-630.922691,-14891.872095,-187500.022352,15934.625677,20262.929232,-0.218000,0.854000,0.426000,192.000000,0.000000,0.000000,0.000000,0.000000,0.000000,0.000000,0.000000,0.000000,0.000000,1647752898.929802,0.000000
46.000000,-3930.129579,-18065.618642,10064.789363,-637.270586,-14881.433830,-187500.022352,15930.669419,20281.123552,-0.222000,0.854000,0.428000,192.000000,249.000000,16.000000,26.000000,176.000000,13.000000,96.000000,0.000000,0.000000,0.000000,1647752898.936764,0.000000
47.000000,-3937.416248,-18076.280424,10063.291796,-634.051935,-14874.795362,-187500.022352,15920.052340,20268.874796,-0.222000,0.854000,0.428000,192.000000,0.000000,0.000000,0.000000,0.000000,0.000000,0.000000,0.000000,0.000000,0.000000,1647752898.943683,0.000000
48.000000,-3929.324917,-18081.354270,10064.521142,-626.944080,-14858.567996,-187500.022352,15939.632468,20285.795067,-0.222000,0.854000,0.428000,192.000000,0.000000,0.000000,0.000000,0.000000,0.000000,0.000000,0.000000,0.000000,0.000000,1647752898.943695,0.000000
49.000000,-3912.158777,-18073.821732,10073.014804,-609.599127,-14827.454368,-187500.022352,15956.865663,20301.888323,-0.222000,0.854000,0.428000,192.000000,0.000000,0.000000,0.000000,0.000000,0.000000,0.000000,0.000000,0.000000,0.000000,1647752898.951527,0.000000
50.000000,-3889.359997,-18050.575918,10061.235435,-599.026751,-14827.789644,-187500.022352,15968.779143,20328.621009,-0.222000,0.854000,0.428000,192.000000,0.000000,0.000000,0.000000,0.000000,0.000000,0.000000,0.000000,0.000000,0.000000,1647752898.951542,0.000000
51.000000,-3870.405718,-18028.894726,10065.482267,-587.292086,-14820.346513,-187500.022352,15997.277617,20352.112693,-0.222000,0.854000,0.428000,192.000000,0.000000,0.000000,0.000000,0.000000,0.000000,0.000000,0.000000,0.000000,0.000000,1647752898.959170,0.000000
52.000000,-3908.828367,-18068.256148,10052.674717,-623.054877,-14824.772158,-187500.022352,15960.866625,20308.660902,-0.222000,0.854000,0.428000,192.000000,0.000000,0.000000,0.000000,0.000000,0.000000,0.000000,0.000000,0.000000,0.000000,1647752898.959180,0.000000
53.000000,-3908.090759,-18070.647785,10058.843798,-623.568967,-14811.785795,-187500.022352,15950.070733,20283.023451,-0.222000,0.854000,0.428000,192.000000,0.000000,0.000000,0.000000,0.000000,0.000000,0.000000,0.000000,0.000000,0.000000,1647752898.966438,0.000000
54.000000,-3913.924565,-18075.229892,10065.124639,-621.713772,-14804.655588,-187500.022352,15948.103779,20283.716355,-0.222000,0.854000,0.428000,192.000000,0.000000,0.000000,0.000000,0.000000,0.000000,0.000000,0.000000,0.000000,0.000000,1647752898.966446,0.000000
55.000000,-3918.752541,-18079.923758,10076.792249,-615.991725,-14789.389347,-187500.022352,15953.602308,20309.845544,-0.222000,0.854000,0.428000,192.000000,0.000000,0.000000,0.000000,0.000000,0.000000,0.000000,0.000000,0.000000,0.000000,1647752898.973840,0.000000
56.000000,-3917.411437,-18082.494209,10077.440450,-625.357106,-14788.763498,-187500.022352,15952.283556,20299.630797,-0.218000,0.852000,0.428000,192.000000,249.000000,48.000000,26.000000,160.000000,13.000000,96.000000,0.000000,0.000000,0.000000,1647752898.973851,0.000000
57.000000,-3890.097605,-18054.979212,10068.231531,-605.374647,-14811.830498,-187500.022352,15977.161047,20307.588018,-0.218000,0.852000,0.428000,192.000000,0.000000,0.000000,0.000000,0.000000,0.000000,0.000000,0.000000,0.000000,0.000000,1647752898.982111,0.000000
58.000000,-3911.354114,-18070.245453,10061.973043,-627.927557,-14822.872260,-187500.022352,15965.873416,20305.755175,-0.218000,0.852000,0.428000,192.000000,0.000000,0.000000,0.000000,0.000000,0.000000,0.000000,0.000000,0.000000,0.000000,1647752898.982128,0.000000
59.000000,-3905.274439,-18067.138561,10062.643595,-621.132627,-14813.864507,-187500.022352,15953.468198,20261.364610,-0.218000,0.852000,0.428000,192.000000,0.000000,0.000000,0.000000,0.000000,0.000000,0.000000,0.000000,0.000000,0.000000,1647752898.990126,0.000000
60.000000,-3927.961460,-18083.030651,10061.146028,-634.163694,-14812.277533,-187500.022352,15939.230137,20246.344238,-0.218000,0.852000,0.428000,192.000000,0.000000,0.000000,0.000000,0.000000,0.000000,0.000000,0.000000,0.000000,0.000000,1647752898.990138,0.000000
61.000000,-3913.589288,-18071.854779,10055.982775,-619.724467,-14820.592382,-187500.022352,15956.686849,20306.917466,-0.218000,0.852000,0.428000,192.000000,0.000000,0.000000,0.000000,0.000000,0.000000,0.000000,0.000000,0.000000,0.000000,1647752898.996327,0.000000
62.000000,-3908.738960,-18063.159950,10060.095496,-608.213318,-14828.415493,-187500.022352,15981.273768,20332.130233,-0.218000,0.852000,0.428000,192.000000,0.000000,0.000000,0.000000,0.000000,0.000000,0.000000,0.000000,0.000000,0.000000,1647752899.003482,0.000000
63.000000,-3942.043059,-18097.179305,10042.661136,-643.014984,-14841.960650,-187500.022352,15935.407988,20282.263491,-0.218000,0.852000,0.428000,192.000000,0.000000,0.000000,0.000000,0.000000,0.000000,0.000000,0.000000,0.000000,0.000000,1647752899.003493,0.000000
64.000000,-3939.092629,-18094.161820,10061.213083,-641.919749,-14812.210478,-187500.022352,15934.759788,20255.486102,-0.218000,0.852000,0.428000,192.000000,0.000000,0.000000,0.000000,0.000000,0.000000,0.000000,0.000000,0.000000,0.000000,1647752899.011737,0.000000
65.000000,-3940.478437,-18093.983006,10061.280139,-639.572816,-14798.799431,-187500.022352,15924.567392,20236.375360,-0.218000,0.852000,0.428000,192.000000,0.000000,0.000000,0.000000,0.000000,0.000000,0.000000,0.000000,0.000000,0.000000,1647752899.011753,0.000000
66.000000,-3915.377428,-18066.713878,10066.152819,-605.642868,-14795.737242,-187500.022352,15942.113512,20285.415087,-0.214000,0.848000,0.424000,192.000000,249.000000,80.000000,26.000000,128.000000,13.000000,64.000000,0.000000,0.000000,0.000000,1647752899.019574,0.000000
67.000000,-3908.984829,-18061.617680,10046.930319,-599.116158,-14831.522385,-187500.022352,15936.413817,20298.893189,-0.214000,0.848000,0.424000,192.000000,0.000000,0.000000,0.000000,0.000000,0.000000,0.000000,0.000000,0.000000,0.000000,1647752899.019592,0.000000
68.000000,-3890.254067,-18044.496244,10039.464836,-601.440740,-14864.334746,-187500.022352,15949.467236,20291.807686,-0.214000,0.848000,0.424000,192.000000,0.000000,0.000000,0.000000,0.000000,0.000000,0.000000,0.000000,0.000000,0.000000,1647752899.026105,0.000000
69.000000,-3920.004239,-18067.227968,10062.867113,-617.824568,-14837.445597,-187500.022352,15945.175701,20286.197398,-0.214000,0.848000,0.424000,192.000000,0.000000,0.000000,0.000000,0.000000,0.000000,0.000000,0.000000,0.000000,0.000000,1647752899.026113,0.000000
70.000000,-3921.077123,-18078.180322,10063.358851,-620.730295,-14822.805205,-187500.022352,15932.099930,20264.940889,-0.214000,0.848000,0.424000,192.000000,0.000000,0.000000,0.000000,0.000000,0.000000,0.000000,0.000000,0.000000,0.000000,1647752899.034416,0.000000
71.000000,-3884.219096,-18043.535119,10057.212121,-591.650676,-14844.911080,-187500.022352,15963.951166,20303.497649,-0.214000,0.848000,0.424000,192.000000,0.000000,0.000000,0.000000,0.000000,0.000000,0.000000,0.000000,0.000000,0.000000,1647752899.034432,0.000000
72.000000,-3918.081989,-18071.988889,10056.787438,-617.377534,-14841.446560,-187500.022352,15946.494454,20276.452038,-0.214000,0.848000,0.424000,192.000000,0.000000,0.000000,0.000000,0.000000,0.000000,0.000000,0.000000,0.000000,0.000000,1647752899.042118,0.000000
73.000000,-3924.496940,-18081.510732,10040.582423,-632.599072,-14853.829426,-187500.022352,15922.220459,20241.940944,-0.214000,0.848000,0.424000,192.000000,0.000000,0.000000,0.000000,0.000000,0.000000,0.000000,0.000000,0.000000,0.000000,1647752899.042130,0.000000
74.000000,-3933.772914,-18092.708956,10036.983792,-640.578644,-14855.505807,-187500.022352,15915.202011,20279.044840,-0.214000,0.848000,0.424000,192.000000,0.000000,0.000000,0.000000,0.000000,0.000000,0.000000,0.000000,0.000000,0.000000,1647752899.049541,0.000000
75.000000,-3929.593137,-18092.753660,10056.139237,-635.504798,-14825.777987,-187500.022352,15913.391520,20255.039067,-0.214000,0.848000,0.424000,192.000000,0.000000,0.000000,0.000000,0.000000,0.000000,0.000000,0.000000,0.000000,0.000000,1647752899.049558,0.000000
76.000000,-3901.094663,-18068.725535,10054.507560,-614.158882,-14837.177376,-187500.022352,15939.990096,20281.615291,-0.220000,0.852000,0.432000,192.000000,249.000000,32.000000,26.000000,160.000000,13.000000,128.000000,0.000000,0.000000,0.000000,1647752899.055662,0.000000
77.000000,-3885.671960,-18056.588537,10063.247092,-599.451435,-14845.626336,-187500.022352,15965.135809,20294.199323,-0.220000,0.852000,0.432000,192.000000,0.000000,0.000000,0.000000,0.000000,0.000000,0.000000,0.000000,0.000000,0.000000,1647752899.063975,0.000000
78.000000,-3901.988733,-18078.627357,10064.230569,-612.437798,-14848.062676,-187500.022352,15944.683962,20248.646468,-0.220000,0.852000,0.432000,192.000000,0.000000,0.000000,0.000000,0.000000,0.000000,0.000000,0.000000,0.000000,0.000000,1647752899.063986,0.000000
79.000000,-3946.803981,-18123.152032,10058.642633,-661.142249,-14834.629278,-187500.022352,15893.945503,20241.359799,-0.220000,0.852000,0.432000,192.000000,0.000000,0.000000,0.000000,0.000000,0.000000,0.000000,0.000000,0.000000,0.000000,1647752899.071765,0.000000
80.000000,-3932.252995,-18104.287160,10066.197522,-649.519342,-14813.149251,-187500.022352,15904.026139,20243.885546,-0.220000,0.852000,0.432000,192.000000,0.000000,0.000000,0.000000,0.000000,0.000000,0.000000,0.000000,0.000000,0.000000,1647752899.071776,0.000000
81.000000,-3923.804036,-18093.066584,10073.663005,-638.298766,-14799.380577,-187500.022352,15917.168965,20261.431666,-0.220000,0.852000,0.432000,192.000000,0.000000,0.000000,0.000000,0.000000,0.000000,0.000000,0.000000,0.000000,0.000000,1647752899.078618,0.000000
82.000000,-3941.596024,-18118.927553,10040.358906,-659.197647,-14826.694408,-187500.022352,15894.236075,20235.101311,-0.220000,0.852000,0.432000,192.000000,0.000000,0.000000,0.000000,0.000000,0.000000,0.000000,0.000000,0.000000,0.000000,1647752899.078629,0.000000
83.000000,-3930.151931,-18108.042253,10033.899252,-643.685537,-14840.485435,-187500.022352,15908.317674,20250.076979,-0.220000,0.852000,0.432000,192.000000,0.000000,0.000000,0.000000,0.000000,0.000000,0.000000,0.000000,0.000000,0.000000,1647752899.086665,0.000000
84.000000,-3919.244280,-18097.514581,10057.256825,-629.849807,-14812.746920,-187500.022352,15918.733587,20265.119703,-0.220000,0.852000,0.432000,192.000000,0.000000,0.000000,0.000000,0.000000,0.000000,0.000000,0.000000,0.000000,0.000000,1647752899.086682,0.000000
85.000000,-3890.879916,-18075.900444,10053.278214,-609.621478,-14825.822690,-187500.022352,15935.407988,20270.305308,-0.220000,0.852000,0.432000,192.000000,0.000000,0.000000,0.000000,0.000000,0.000000,0.000000,0.000000,0.000000,0.000000,1647752899.094386,0.000000
86.000000,-3908.247221,-18093.603026,10032.960478,-625.155941,-14858.880920,-187500.022352,15918.197145,20259.352953,-0.220000,0.858000,0.432000,192.000000,249.000000,32.000000,26.000000,208.000000,13.000000,128.000000,0.000000,0.000000,0.000000,1647752899.094398,0.000000
87.000000,-3896.758425,-18081.264863,10034.703914,-616.259946,-14870.704993,-187500.022352,15932.234041,20279.491875,-0.220000,0.858000,0.432000,192.000000,0.000000,0.000000,0.000000,0.000000,0.000000,0.000000,0.000000,0.000000,0.000000,1647752899.101802,0.000000
88.000000,-3904.894460,-18092.083107,10045.633918,-623.300746,-14861.697240,-187500.022352,15928.993038,20277.301404,-0.220000,0.858000,0.432000,192.000000,0.000000,0.000000,0.000000,0.000000,0.000000,0.000000,0.000000,0.000000,0.000000,1647752899.101819,0.000000
89.000000,-3911.711742,-18099.392128,10058.955557,-623.546615,-14840.820711,-187500.022352,15928.925983,20273.859236,-0.220000,0.858000,0.432000,192.000000,0.000000,0.000000,0.000000,0.000000,0.000000,0.000000,0.000000,0.000000,0.000000,1647752899.108999,0.000000
90.000000,-3928.162626,-18116.670026,10045.231586,-641.696232,-14848.733228,-187500.022352,15906.037796,20246.455997,-0.220000,0.858000,0.432000,192.000000,0.000000,0.000000,0.000000,0.000000,0.000000,0.000000,0.000000,0.000000,0.000000,1647752899.109009,0.000000
91.000000,-3943.272405,-18124.068454,10037.743752,-647.418278,-14849.001449,-187500.022352,15894.839572,20237.962334,-0.220000,0.858000,0.432000,192.000000,0.000000,0.000000,0.000000,0.000000,0.000000,0.000000,0.000000,0.000000,0.000000,1647752899.115980,0.000000
92.000000,-3946.401649,-18124.627247,10025.338534,-644.423144,-14858.188016,-187500.022352,15894.303130,20242.656200,-0.220000,0.858000,0.432000,192.000000,0.000000,0.000000,0.000000,0.000000,0.000000,0.000000,0.000000,0.000000,0.000000,1647752899.115990,0.000000
93.000000,-3945.060545,-18122.883811,10032.714609,-657.476563,-14846.162778,-187500.022352,15900.382805,20246.187776,-0.220000,0.858000,0.432000,192.000000,0.000000,0.000000,0.000000,0.000000,0.000000,0.000000,0.000000,0.000000,0.000000,1647752899.124003,0.000000
94.000000,-3918.730190,-18103.706015,10047.802037,-639.595168,-14832.237641,-187500.022352,15919.940581,20266.058477,-0.220000,0.858000,0.432000,192.000000,0.000000,0.000000,0.000000,0.000000,0.000000,0.000000,0.000000,0.000000,0.000000,1647752899.131347,0.000000
95.000000,-3906.347323,-18087.858628,10055.982775,-628.240481,-14828.571955,-187500.022352,15934.491567,20283.604596,-0.220000,0.858000,0.432000,192.000000,0.000000,0.000000,0.000000,0.000000,0.000000,0.000000,0.000000,0.000000,0.000000,1647752899.131363,0.000000
96.000000,-3911.711742,-18078.068564,10067.359813,-624.664202,-14821.866431,-187500.022352,15939.610116,20293.796992,-0.220000,0.858000,0.432000,192.000000,0.000000,0.000000,0.000000,0.000000,0.000000,0.000000,0.000000,0.000000,0.000000,1647752899.138619,0.000000
97.000000,-3934.979908,-18106.924666,10045.544511,-649.340528,-14841.491263,-187500.022352,15906.909514,20269.254776,-0.220000,0.854000,0.428000,192.000000,249.000000,32.000000,26.000000,176.000000,13.000000,96.000000,0.000000,0.000000,0.000000,1647752899.138630,0.000000
98.000000,-3954.805905,-18120.782747,10040.358906,-661.768098,-14842.608850,-187500.022352,15887.731718,20247.953564,-0.220000,0.854000,0.428000,192.000000,0.000000,0.000000,0.000000,0.000000,0.000000,0.000000,0.000000,0.000000,0.000000,1647752899.146875,0.000000
99.000000,-3951.430792,-18118.011131,10038.369601,-652.939159,-14836.439769,-187500.022352,15889.519857,20240.353971,-0.220000,0.854000,0.428000,192.000000,0.000000,0.000000,0.000000,0.000000,0.000000,0.000000,0.000000,0.000000,0.000000,1647752899.146891,0.000000
100.000000,-3943.048888,-18110.433890,10037.900214,-645.294862,-14839.077275,-187500.022352,15899.935770,20254.167349,-0.220000,0.854000,0.428000,192.000000,0.000000,0.000000,0.000000,0.000000,0.000000,0.000000,0.000000,0.000000,0.000000,1647752899.154703,0.000000
101.000000,-3916.807940,-18091.300796,10048.919624,-628.598109,-14832.729379,-187500.022352,15925.036779,20284.856294,-0.220000,0.854000,0.428000,192.000000,0.000000,0.000000,0.000000,0.000000,0.000000,0.000000,0.000000,0.000000,0.000000,1647752899.154715,0.000000
102.000000,-3918.394913,-18097.626340,10040.470665,-635.571854,-14849.582595,-187500.022352,15922.332218,20284.230445,-0.220000,0.854000,0.428000,192.000000,0.000000,0.000000,0.000000,0.000000,0.000000,0.000000,0.000000,0.000000,0.000000,1647752899.161373,0.000000
103.000000,-3919.199576,-18089.982044,10052.384144,-631.637947,-14847.570938,-187500.022352,15928.054265,20284.945701,-0.220000,0.854000,0.428000,192.000000,0.000000,0.000000,0.000000,0.000000,0.000000,0.000000,0.000000,0.000000,0.000000,1647752899.161384,0.000000
104.000000,-3957.130487,-18118.547573,10057.301528,-658.057709,-14832.729379,-187500.022352,15896.068918,20254.703791,-0.220000,0.854000,0.428000,192.000000,0.000000,0.000000,0.000000,0.000000,0.000000,0.000000,0.000000,0.000000,0.000000,1647752899.169613,0.000000
105.000000,-3950.693184,-18111.886753,10052.965290,-647.842961,-14828.773120,-187500.022352,15900.762785,20247.707694,-0.220000,0.854000,0.428000,192.000000,0.000000,0.000000,0.000000,0.000000,0.000000,0.000000,0.000000,0.000000,0.000000,1647752899.169629,0.000000
106.000000,-3959.030385,-18116.804137,10049.947804,-653.676767,-14829.175452,-187500.022352,15909.099985,20249.518186,-0.220000,0.854000,0.428000,192.000000,0.000000,0.000000,0.000000,0.000000,0.000000,0.000000,0.000000,0.000000,0.000000,1647752899.177466,0.000000
107.000000,-3948.793286,-18114.144279,10045.119827,-658.080060,-14834.003429,-187500.022352,15905.367244,20244.891375,-0.224000,0.858000,0.426000,192.000000,249.000000,0.000000,26.000000,208.000000,13.000000,80.000000,0.000000,0.000000,0.000000,1647752899.177479,0.000000
108.000000,-3925.949803,-18094.050061,10044.337516,-641.338604,-14842.050057,-187500.022352,15923.561564,20262.929232,-0.224000,0.858000,0.426000,192.000000,0.000000,0.000000,0.000000,0.000000,0.000000,0.000000,0.000000,0.000000,0.000000,1647752899.184765,0.000000
109.000000,-3924.787512,-18086.897503,10063.224740,-631.302670,-14820.346513,-187500.022352,15935.072712,20271.065267,-0.224000,0.858000,0.426000,192.000000,0.000000,0.000000,0.000000,0.000000,0.000000,0.000000,0.000000,0.000000,0.000000,1647752899.190911,0.000000
110.000000,-3925.100437,-18083.589445,10061.771877,-629.402772,-14819.698312,-187500.022352,15923.561564,20257.520110,-0.224000,0.858000,0.426000,192.000000,0.000000,0.000000,0.000000,0.000000,0.000000,0.000000,0.000000,0.000000,0.000000,1647752899.190919,0.000000
111.000000,-3914.908041,-18073.419401,10053.881711,-623.546615,-14839.189033,-187500.022352,15933.508090,20286.622082,-0.224000,0.858000,0.426000,192.000000,0.000000,0.000000,0.000000,0.000000,0.000000,0.000000,0.000000,0.000000,0.000000,1647752899.198778,0.000000
112.000000,-3920.004239,-18074.358174,10054.194636,-623.881891,-14849.627298,-187500.022352,15939.788930,20302.156544,-0.224000,0.858000,0.426000,192.000000,0.000000,0.000000,0.000000,0.000000,0.000000,0.000000,0.000000,0.000000,0.000000,1647752899.198783,0.000000
113.000000,-3972.821411,-18124.157861,10040.381258,-665.634950,-14850.856644,-187500.022352,15894.839572,20242.678552,-0.224000,0.858000,0.426000,192.000000,0.000000,0.000000,0.000000,0.000000,0.000000,0.000000,0.000000,0.000000,0.000000,1647752899.206804,0.000000
114.000000,-3960.662062,-18116.960599,10043.108170,-659.957607,-14840.932469,-187500.022352,15896.158325,20228.395787,-0.224000,0.858000,0.426000,192.000000,0.000000,0.000000,0.000000,0.000000,0.000000,0.000000,0.000000,0.000000,0.000000,1647752899.206809,0.000000
115.000000,-3934.063486,-18089.847933,10054.865188,-637.896435,-14824.436882,-187500.022352,15910.776366,20253.765017,-0.224000,0.858000,0.426000,192.000000,0.000000,0.000000,0.000000,0.000000,0.000000,0.000000,0.000000,0.000000,0.000000,1647752899.213466,0.000000
116.000000,-3911.465873,-18067.384430,10046.684450,-615.455284,-14851.527196,-187500.022352,15932.211689,20284.409259,-0.224000,0.858000,0.426000,192.000000,0.000000,0.000000,0.000000,0.000000,0.000000,0.000000,0.000000,0.000000,0.000000,1647752899.213472,0.000000
117.000000,-3937.907986,-18095.704090,10054.775781,-630.319194,-14845.916908,-187500.022352,15912.296285,20277.927253,-0.226000,0.864000,0.432000,192.000000,248.000000,240.000000,27.000000,0.000000,13.000000,128.000000,0.000000,0.000000,0.000000,1647752899.221601,0.000000
118.000000,-3952.257806,-18116.692378,10054.060525,-650.100487,-14834.450464,-187500.022352,15899.086404,20250.971049,-0.226000,0.864000,0.432000,192.000000,0.000000,0.000000,0.000000,0.000000,0.000000,0.000000,0.000000,0.000000,0.000000,1647752899.221613,0.000000
119.000000,-3949.821466,-18108.936323,10060.944862,-650.614578,-14817.999580,-187500.022352,15909.636427,20238.208203,-0.226000,0.864000,0.432000,192.000000,0.000000,0.000000,0.000000,0.000000,0.000000,0.000000,0.000000,0.000000,0.000000,1647752899.229936,0.000000
120.000000,-3943.786495,-18099.906218,10062.442429,-647.217112,-14813.529231,-187500.022352,15901.634503,20253.541500,-0.226000,0.864000,0.432000,192.000000,0.000000,0.000000,0.000000,0.000000,0.000000,0.000000,0.000000,0.000000,0.000000,1647752899.229952,0.000000
121.000000,-3926.061562,-18091.680776,10048.807865,-637.248234,-14840.083103,-187500.022352,15909.658779,20269.031259,-0.226000,0.864000,0.432000,192.000000,0.000000,0.000000,0.000000,0.000000,0.000000,0.000000,0.000000,0.000000,0.000000,1647752899.236925,0.000000
122.000000,-3919.512501,-18089.132677,10051.154798,-632.867293,-14853.158874,-187500.022352,15921.684017,20274.775657,-0.226000,0.864000,0.432000,192.000000,0.000000,0.000000,0.000000,0.000000,0.000000,0.000000,0.000000,0.000000,0.000000,1647752899.236941,0.000000
123.000000,-3921.948841,-18094.072413,10050.461894,-639.818685,-14861.831351,-187500.022352,15920.409968,20248.020619,-0.226000,0.864000,0.432000,192.000000,0.000000,0.000000,0.000000,0.000000,0.000000,0.000000,0.000000,0.000000,0.000000,1647752899.243213,0.000000
124.000000,-3913.365771,-18081.689546,10080.212066,-624.328926,-14834.897498,-187500.022352,15954.854006,20299.831963,-0.226000,0.864000,0.432000,192.000000,0.000000,0.000000,0.000000,0.000000,0.000000,0.000000,0.000000,0.000000,0.000000,1647752899.251520,0.000000
125.000000,-3936.075143,-18105.561209,10082.983683,-644.110220,-14819.698312,-187500.022352,15929.104797,20274.865064,-0.226000,0.864000,0.432000,192.000000,0.000000,0.000000,0.000000,0.000000,0.000000,0.000000,0.000000,0.000000,0.000000,1647752899.251536,0.000000
126.000000,-3940.456085,-18110.031558,10059.179075,-650.860447,-14839.546661,-187500.022352,15913.592686,20234.654276,-0.226000,0.864000,0.432000,192.000000,0.000000,0.000000,0.000000,0.000000,0.000000,0.000000,0.000000,0.000000,0.000000,1647752899.259240,0.000000
127.000000,-3939.472609,-18098.654520,10056.005127,-647.708851,-14849.068504,-187500.022352,15927.897802,20252.535671,-0.224000,0.856000,0.432000,192.000000,249.000000,0.000000,26.000000,192.000000,13.000000,128.000000,0.000000,0.000000,0.000000,1647752899.259252,0.000000
128.000000,-3930.151931,-18083.388279,10077.038118,-636.443572,-14825.867394,-187500.022352,15937.889032,20281.503532,-0.224000,0.856000,0.432000,192.000000,0.000000,0.000000,0.000000,0.000000,0.000000,0.000000,0.000000,0.000000,0.000000,1647752899.266701,0.000000
129.000000,-3940.813713,-18090.049099,10067.337461,-650.525171,-14831.298868,-187500.022352,15923.047474,20264.449151,-0.224000,0.856000,0.432000,192.000000,0.000000,0.000000,0.000000,0.000000,0.000000,0.000000,0.000000,0.000000,0.000000,1647752899.266718,0.000000
130.000000,-3944.278234,-18097.402823,10058.262653,-651.262778,-14833.936373,-187500.022352,15905.210782,20253.027410,-0.224000,0.856000,0.432000,192.000000,0.000000,0.000000,0.000000,0.000000,0.000000,0.000000,0.000000,0.000000,0.000000,1647752899.274078,0.000000
131.000000,-3943.004184,-18093.737137,10054.060525,-646.524208,-14840.373676,-187500.022352,15904.339064,20247.931212,-0.224000,0.856000,0.432000,192.000000,0.000000,0.000000,0.000000,0.000000,0.000000,0.000000,0.000000,0.000000,0.000000,1647752899.274090,0.000000
132.000000,-3936.835103,-18085.936378,10055.669851,-636.756496,-14837.467949,-187500.022352,15914.419700,20267.086657,-0.224000,0.856000,0.432000,192.000000,0.000000,0.000000,0.000000,0.000000,0.000000,0.000000,0.000000,0.000000,0.000000,1647752899.282208,0.000000
133.000000,-3919.132521,-18068.792590,10057.927377,-632.532016,-14838.876109,-187500.022352,15931.563488,20290.958320,-0.224000,0.856000,0.432000,192.000000,0.000000,0.000000,0.000000,0.000000,0.000000,0.000000,0.000000,0.000000,0.000000,1647752899.282224,0.000000
134.000000,-3919.154873,-18061.528273,10074.557075,-622.429028,-14816.993751,-187500.022352,15934.960954,20290.265416,-0.224000,0.856000,0.432000,192.000000,0.000000,0.000000,0.000000,0.000000,0.000000,0.000000,0.000000,0.000000,0.000000,1647752899.290083,0.000000
135.000000,-3915.019800,-18056.409723,10066.711613,-616.170539,-14830.583612,-187500.022352,15944.013410,20284.632776,-0.224000,0.856000,0.432000,192.000000,0.000000,0.000000,0.000000,0.000000,0.000000,0.000000,0.000000,0.000000,0.000000,1647752899.290094,0.000000
136.000000,-3958.292777,-18100.867343,10038.570766,-660.449345,-14857.226891,-187500.022352,15896.962988,20246.187776,-0.224000,0.856000,0.432000,192.000000,0.000000,0.000000,0.000000,0.000000,0.000000,0.000000,0.000000,0.000000,0.000000,1647752899.296878,0.000000
137.000000,-3955.901141,-18099.101555,10031.328801,-661.745746,-14870.079144,-187500.022352,15891.039776,20227.904049,-0.224000,0.856000,0.426000,192.000000,249.000000,0.000000,26.000000,192.000000,13.000000,80.000000,0.000000,0.000000,0.000000,1647752899.296894,0.000000
138.000000,-3948.078030,-18091.323148,10054.954595,-648.289996,-14842.944126,-187500.022352,15900.673378,20237.738816,-0.224000,0.856000,0.426000,192.000000,0.000000,0.000000,0.000000,0.000000,0.000000,0.000000,0.000000,0.000000,0.000000,1647752899.303697,0.000000
139.000000,-3957.041080,-18099.749756,10073.506543,-644.937235,-14809.684731,-187500.022352,15900.673378,20248.490006,-0.224000,0.856000,0.426000,192.000000,0.000000,0.000000,0.000000,0.000000,0.000000,0.000000,0.000000,0.000000,0.000000,1647752899.311770,0.000000
140.000000,-3954.492981,-18105.561209,10061.168380,-648.178237,-14812.925734,-187500.022352,15899.332273,20252.222747,-0.224000,0.856000,0.426000,192.000000,0.000000,0.000000,0.000000,0.000000,0.000000,0.000000,0.000000,0.000000,0.000000,1647752899.311781,0.000000
141.000000,-3937.997393,-18086.025785,10045.745676,-635.705964,-14837.020914,-187500.022352,15911.402215,20262.124570,-0.224000,0.856000,0.426000,192.000000,0.000000,0.000000,0.000000,0.000000,0.000000,0.000000,0.000000,0.000000,0.000000,1647752899.319090,0.000000
142.000000,-3938.846760,-18085.064660,10056.966252,-644.110220,-14829.600135,-187500.022352,15913.525631,20267.220767,-0.224000,0.856000,0.426000,192.000000,0.000000,0.000000,0.000000,0.000000,0.000000,0.000000,0.000000,0.000000,0.000000,1647752899.319107,0.000000
143.000000,-3914.840986,-18074.201712,10070.556113,-634.566025,-14822.045245,-187500.022352,15924.343875,20268.472465,-0.224000,0.856000,0.426000,192.000000,0.000000,0.000000,0.000000,0.000000,0.000000,0.000000,0.000000,0.000000,0.000000,1647752899.326225,0.000000
144.000000,-3913.522233,-18062.981136,10096.819412,-622.049048,-14793.457364,-187500.022352,15937.084369,20282.174084,-0.224000,0.856000,0.426000,192.000000,0.000000,0.000000,0.000000,0.000000,0.000000,0.000000,0.000000,0.000000,0.000000,1647752899.326237,0.000000
145.000000,-3956.169362,-18103.773070,10065.057583,-659.868200,-14812.813975,-187500.022352,15889.206933,20232.664970,-0.224000,0.856000,0.426000,192.000000,0.000000,0.000000,0.000000,0.000000,0.000000,0.000000,0.000000,0.000000,0.000000,1647752899.334193,0.000000
146.000000,-3970.720347,-18121.319189,10042.571729,-669.926485,-14831.812958,-187500.022352,15872.063145,20217.756357,-0.224000,0.856000,0.426000,192.000000,0.000000,0.000000,0.000000,0.000000,0.000000,0.000000,0.000000,0.000000,0.000000,1647752899.334203,0.000000
147.000000,-3949.352080,-18097.335767,10043.152874,-646.837133,-14836.551528,-187500.022352,15900.874543,20248.914689,-0.232000,0.856000,0.428000,192.000000,248.000000,192.000000,26.000000,192.000000,13.000000,96.000000,0.000000,0.000000,0.000000,1647752899.342377,0.000000
148.000000,-3937.192731,-18080.370793,10060.542531,-631.123856,-14827.074388,-187500.022352,15927.271953,20270.953509,-0.232000,0.856000,0.428000,192.000000,0.000000,0.000000,0.000000,0.000000,0.000000,0.000000,0.000000,0.000000,0.000000,1647752899.342389,0.000000
149.000000,-3948.055678,-18088.529180,10076.859305,-633.448438,-14799.291170,-187500.022352,15916.341950,20255.240232,-0.232000,0.856000,0.428000,192.000000,0.000000,0.000000,0.000000,0.000000,0.000000,0.000000,0.000000,0.000000,0.000000,1647752899.349120,0.000000
150.000000,-3950.782591,-18089.579712,10051.423019,-642.076211,-14821.844080,-187500.022352,15905.747224,20234.430758,-0.232000,0.856000,0.428000,192.000000,0.000000,0.000000,0.000000,0.000000,0.000000,0.000000,0.000000,0.000000,0.000000,1647752899.349138,0.000000
151.000000,-3945.798152,-18078.381488,10052.317089,-638.566987,-14829.443673,-187500.022352,15923.136881,20243.997305,-0.232000,0.856000,0.428000,192.000000,0.000000,0.000000,0.000000,0.000000,0.000000,0.000000,0.000000,0.000000,0.000000,1647752899.356833,0.000000
152.000000,-3916.293850,-18052.453465,10061.771877,-612.035467,-14830.941240,-187500.022352,15949.422532,20290.958320,-0.232000,0.856000,0.428000,192.000000,0.000000,0.000000,0.000000,0.000000,0.000000,0.000000,0.000000,0.000000,0.000000,1647752899.356843,0.000000
153.000000,-3939.182036,-18074.626395,10057.234473,-631.481484,-14836.819748,-187500.022352,15930.959991,20269.500645,-0.232000,0.856000,0.428000,192.000000,0.000000,0.000000,0.000000,0.000000,0.000000,0.000000,0.000000,0.000000,0.000000,1647752899.363855,0.000000
154.000000,-3940.679603,-18076.794514,10067.605682,-624.373630,-14822.179356,-187500.022352,15929.998866,20260.828168,-0.232000,0.856000,0.428000,192.000000,0.000000,0.000000,0.000000,0.000000,0.000000,0.000000,0.000000,0.000000,0.000000,1647752899.363863,0.000000
155.000000,-3962.740774,-18098.945093,10065.616377,-655.710775,-14814.378597,-187500.022352,15916.297247,20250.322849,-0.232000,0.856000,0.428000,192.000000,0.000000,0.000000,0.000000,0.000000,0.000000,0.000000,0.000000,0.000000,0.000000,1647752899.372007,0.000000
156.000000,-3973.782536,-18115.105404,10050.327784,-676.676712,-14817.552545,-187500.022352,15899.578142,20228.105215,-0.232000,0.856000,0.428000,192.000000,0.000000,0.000000,0.000000,0.000000,0.000000,0.000000,0.000000,0.000000,0.000000,1647752899.378597,0.000000
