%OpenBCI Raw EEG Data
%Number of channels = 8
%Sample Rate = 256 Hz
%Board = OpenBCI_GUI$BoardCytonSerial
%Channels = Fp1, Fp2, F3, F4, Fz, Pz, O1, O2
%Data recorded at AIMS Lab (http://aimsl.uiu.ac.bd) by Rana Depto (mail@ranadepto.com)
%Brainwaves were obtained via the Ultracortex Mark IV Headset using the OpenBCI Cyton Board
%Recording Application = ConcentrateToday (https://concentrate.today)
%Data type = RAW data with noise
%Day No = 5
%Subject ID = 8
%Session ID = 7
%Record starting timestamp (UTC+6) = 2022-03-22T15:38:36.670642
%Record ending timestamp (UTC+6)   = 2022-03-22T15:39:03.008421
%Recorded durations = ~26 seconds
Sample Index, EXG Channel 0, EXG Channel 1, EXG Channel 2, EXG Channel 3, EXG Channel 4, EXG Channel 5, EXG Channel 6, EXG Channel 7, Accel Channel 0, Accel Channel 1, Accel Channel 2, Other, Other, Other, Other, Other, Other, Other, Analog Channel 0, Analog Channel 1, Analog Channel 2, Timestamp, Timestamp (Formatted)
219.000000,-2316.892423,-27439.873211,8532.756094,13099.485707,-13068.528541,27080.948899,32968.331333,37601.557386,-0.006000,0.976000,0.130000,192.000000,0.000000,0.000000,0.000000,0.000000,0.000000,0.000000,0.000000,0.000000,0.000000,1647941916.672503,0.000000
220.000000,-2315.730133,-27442.130738,8536.019449,13102.614951,-13067.120381,27082.357059,32969.404217,37604.753686,-0.006000,0.976000,0.130000,192.000000,0.000000,0.000000,0.000000,0.000000,0.000000,0.000000,0.000000,0.000000,0.000000,1647941916.672514,0.000000
221.000000,-2317.227699,-27447.785729,8528.039876,13093.584847,-13076.351652,27073.192844,32961.290534,37605.357183,-0.006000,0.976000,0.130000,192.000000,0.000000,0.000000,0.000000,0.000000,0.000000,0.000000,0.000000,0.000000,0.000000,1647941916.679583,0.000000
222.000000,-2317.898252,-27450.624400,8526.497606,13090.612065,-13079.771469,27069.773027,32961.111720,37604.999555,-0.002000,0.970000,0.130000,192.000000,255.000000,240.000000,30.000000,80.000000,4.000000,16.000000,0.000000,0.000000,0.000000,1647941916.679589,0.000000
223.000000,-2319.485226,-27453.641886,8524.307135,13089.762698,-13078.720937,27069.974192,32963.883336,37604.999555,-0.002000,0.970000,0.130000,192.000000,0.000000,0.000000,0.000000,0.000000,0.000000,0.000000,0.000000,0.000000,0.000000,1647941916.687134,0.000000
224.000000,-2314.523138,-27451.741988,8525.558832,13091.059100,-13076.910445,27071.248242,32970.566508,37608.419372,-0.002000,0.970000,0.130000,192.000000,0.000000,0.000000,0.000000,0.000000,0.000000,0.000000,0.000000,0.000000,0.000000,1647941916.687139,0.000000
225.000000,-2316.981830,-27454.513604,8517.534556,13087.751041,-13081.827829,27063.782759,32965.984400,37607.614709,-0.002000,0.970000,0.130000,192.000000,0.000000,0.000000,0.000000,0.000000,0.000000,0.000000,0.000000,0.000000,0.000000,1647941916.695221,0.000000
226.000000,-2318.837025,-27449.082130,8523.211899,13093.070757,-13076.508114,27070.622393,32966.744359,37605.245424,-0.002000,0.970000,0.130000,192.000000,0.000000,0.000000,0.000000,0.000000,0.000000,0.000000,0.000000,0.000000,0.000000,1647941916.695226,0.000000
227.000000,-2320.580461,-27444.075339,8530.051533,13099.485707,-13069.690832,27081.954727,32974.880394,37609.961642,-0.002000,0.970000,0.130000,192.000000,0.000000,0.000000,0.000000,0.000000,0.000000,0.000000,0.000000,0.000000,0.000000,1647941916.702204,0.000000
228.000000,-2318.121769,-27446.422272,8531.325582,13096.915257,-13070.674309,27079.831312,32972.712275,37613.716735,-0.002000,0.970000,0.130000,192.000000,0.000000,0.000000,0.000000,0.000000,0.000000,0.000000,0.000000,0.000000,0.000000,1647941916.702210,0.000000
229.000000,-2309.650458,-27442.220145,8535.862987,13102.927876,-13065.265186,27083.362887,32972.198185,37608.441723,-0.002000,0.970000,0.130000,192.000000,0.000000,0.000000,0.000000,0.000000,0.000000,0.000000,0.000000,0.000000,0.000000,1647941916.710242,0.000000
230.000000,-2306.789435,-27437.392168,8541.942661,13107.957018,-13059.207864,27091.096591,32981.384752,37608.777000,-0.002000,0.970000,0.130000,192.000000,0.000000,0.000000,0.000000,0.000000,0.000000,0.000000,0.000000,0.000000,0.000000,1647941916.710248,0.000000
231.000000,-2310.969211,-27442.264848,8536.891167,13100.893867,-13066.807457,27087.542664,32980.490682,37611.570968,-0.002000,0.970000,0.130000,192.000000,0.000000,0.000000,0.000000,0.000000,0.000000,0.000000,0.000000,0.000000,0.000000,1647941916.716717,0.000000
232.000000,-2315.081932,-27447.070473,8529.246870,13096.021187,-13073.267111,27082.580576,32975.148615,37611.772133,-0.002000,0.970000,0.130000,192.000000,0.000000,0.000000,30.000000,96.000000,3.000000,224.000000,0.000000,0.000000,0.000000,1647941916.716724,0.000000
233.000000,-2317.786493,-27446.645790,8528.889242,13099.195135,-13071.478971,27083.653460,32976.377961,37610.967471,-0.002000,0.970000,0.130000,192.000000,0.000000,0.000000,0.000000,0.000000,0.000000,0.000000,0.000000,0.000000,0.000000,1647941916.726069,0.000000
234.000000,-2314.523138,-27450.400883,8527.346972,13097.205829,-13071.344861,27080.345402,32975.439188,37607.257081,-0.002000,0.970000,0.130000,192.000000,0.000000,0.000000,0.000000,0.000000,0.000000,0.000000,0.000000,0.000000,0.000000,1647941916.732228,0.000000
235.000000,-2312.533833,-27448.858613,8527.749303,13098.681044,-13068.640300,27084.189902,32974.500415,37602.429104,-0.002000,0.970000,0.130000,192.000000,0.000000,0.000000,0.000000,0.000000,0.000000,0.000000,0.000000,0.000000,0.000000,1647941916.732238,0.000000
236.000000,-2311.706819,-27440.834336,8534.253661,13106.593562,-13062.471218,27092.191826,32977.652011,37602.518511,-0.002000,0.970000,0.130000,192.000000,0.000000,0.000000,0.000000,0.000000,0.000000,0.000000,0.000000,0.000000,0.000000,1647941916.739525,0.000000
237.000000,-2311.617412,-27443.404787,8535.639469,13103.553725,-13063.834675,27090.157818,32974.321601,37603.457284,-0.002000,0.970000,0.130000,192.000000,0.000000,0.000000,0.000000,0.000000,0.000000,0.000000,0.000000,0.000000,0.000000,1647941916.739531,0.000000
238.000000,-2314.545490,-27444.969409,8536.645298,13100.759757,-13066.427477,27086.827408,32974.589822,37600.193930,-0.002000,0.970000,0.130000,192.000000,0.000000,0.000000,0.000000,0.000000,0.000000,0.000000,0.000000,0.000000,0.000000,1647941916.747454,0.000000
239.000000,-2313.092627,-27444.790595,8529.895071,13093.406033,-13073.155352,27079.294870,32970.857080,37595.656526,-0.002000,0.970000,0.130000,192.000000,0.000000,0.000000,0.000000,0.000000,0.000000,0.000000,0.000000,0.000000,0.000000,1647941916.747480,0.000000
240.000000,-2312.824406,-27442.555421,8528.151635,13094.233047,-13073.580035,27077.931413,32970.924136,37594.270717,-0.002000,0.970000,0.130000,192.000000,0.000000,0.000000,0.000000,0.000000,0.000000,0.000000,0.000000,0.000000,0.000000,1647941916.756001,0.000000
241.000000,-2313.182034,-27445.885831,8528.352800,13091.483783,-13075.077602,27070.175358,32965.760883,37593.778979,-0.002000,0.970000,0.130000,192.000000,0.000000,0.000000,0.000000,0.000000,0.000000,0.000000,0.000000,0.000000,0.000000,1647941916.756006,0.000000
242.000000,-2313.740827,-27441.169613,8531.236175,13096.378815,-13070.182570,27071.561166,32965.760883,37593.600165,-0.002000,0.970000,0.130000,192.000000,0.000000,0.000000,30.000000,112.000000,3.000000,224.000000,0.000000,0.000000,0.000000,1647941916.762259,0.000000
243.000000,-2314.433731,-27442.063682,8531.616155,13098.301065,-13069.668480,27067.291983,32965.559717,37594.270717,-0.002000,0.970000,0.130000,192.000000,0.000000,0.000000,0.000000,0.000000,0.000000,0.000000,0.000000,0.000000,0.000000,1647941916.762263,0.000000
244.000000,-2320.446351,-27450.043255,8527.525786,13088.823925,-13079.145620,27056.831367,32959.792967,37590.985011,-0.002000,0.970000,0.130000,192.000000,0.000000,0.000000,0.000000,0.000000,0.000000,0.000000,0.000000,0.000000,0.000000,1647941916.770051,0.000000
245.000000,-2323.374429,-27453.016037,8522.630754,13083.593617,-13084.085355,27058.552451,32961.961086,37588.503967,-0.002000,0.970000,0.130000,192.000000,0.000000,0.000000,0.000000,0.000000,0.000000,0.000000,0.000000,0.000000,0.000000,1647941916.770055,0.000000
246.000000,-2321.049848,-27453.887755,8522.697809,13083.012472,-13084.577094,27064.140387,32969.583031,37593.019020,-0.002000,0.970000,0.130000,192.000000,0.000000,0.000000,0.000000,0.000000,0.000000,0.000000,0.000000,0.000000,0.000000,1647941916.778041,0.000000
247.000000,-2324.402609,-27457.039351,8522.451940,13081.850181,-13085.404108,27067.739018,32972.913441,37600.953889,-0.002000,0.970000,0.130000,192.000000,0.000000,0.000000,0.000000,0.000000,0.000000,0.000000,0.000000,0.000000,0.000000,1647941916.778045,0.000000
248.000000,-2328.738848,-27452.993685,8523.658934,13084.554742,-13083.615969,27073.952803,32978.255508,37607.502950,-0.002000,0.970000,0.130000,192.000000,0.000000,0.000000,0.000000,0.000000,0.000000,0.000000,0.000000,0.000000,0.000000,1647941916.785323,0.000000
249.000000,-2324.112037,-27447.808081,8525.022390,13087.885152,-13079.682062,27081.127713,32982.569394,37609.849883,-0.002000,0.970000,0.130000,192.000000,0.000000,0.000000,0.000000,0.000000,0.000000,0.000000,0.000000,0.000000,0.000000,1647941916.791649,0.000000
250.000000,-2320.423999,-27448.657447,8523.480120,13088.376890,-13078.385660,27085.687469,32979.306040,37610.498084,-0.002000,0.970000,0.130000,192.000000,0.000000,0.000000,0.000000,0.000000,0.000000,0.000000,0.000000,0.000000,0.000000,1647941916.791653,0.000000
251.000000,-2319.641688,-27446.355217,8522.787216,13092.042576,-13075.099954,27087.632070,32977.272031,37609.179331,-0.002000,0.970000,0.130000,192.000000,0.000000,0.000000,0.000000,0.000000,0.000000,0.000000,0.000000,0.000000,0.000000,1647941916.801231,0.000000
252.000000,-2319.373467,-27445.751720,8527.883414,13095.395338,-13071.277806,27084.860454,32976.824996,37608.866407,-0.002000,0.970000,0.130000,192.000000,0.000000,0.000000,30.000000,176.000000,3.000000,224.000000,0.000000,0.000000,0.000000,1647941916.801234,0.000000
253.000000,-2323.977926,-27451.719636,8524.374190,13091.528486,-13074.518809,27075.249204,32968.398388,37606.027735,-0.002000,0.970000,0.130000,192.000000,0.000000,0.000000,0.000000,0.000000,0.000000,0.000000,0.000000,0.000000,0.000000,1647941916.807711,0.000000
254.000000,-2322.279194,-27445.617610,8529.448036,13094.948303,-13071.434268,27076.232681,32969.404217,37599.791598,-0.002000,0.970000,0.130000,192.000000,0.000000,0.000000,0.000000,0.000000,0.000000,0.000000,0.000000,0.000000,0.000000,1647941916.807716,0.000000
255.000000,-2322.279194,-27446.131700,8530.543271,13092.824887,-13073.021242,27070.957669,32969.963011,37594.427180,-0.002000,0.970000,0.130000,192.000000,0.000000,0.000000,0.000000,0.000000,0.000000,0.000000,0.000000,0.000000,0.000000,1647941916.814965,0.000000
0.000000,-2326.123694,-27445.617610,8530.051533,13090.947341,-13074.228236,27067.314335,32969.650086,37594.449531,-0.002000,0.970000,0.130000,192.000000,0.000000,0.000000,0.000000,0.000000,0.000000,0.000000,0.000000,0.000000,0.000000,1647941916.814969,0.000000
1.000000,-2330.772857,-27442.376607,8532.197300,13095.909428,-13070.651957,27071.963498,32973.651048,37596.327078,-0.002000,0.970000,0.130000,192.000000,0.000000,0.000000,0.000000,0.000000,0.000000,0.000000,0.000000,0.000000,0.000000,1647941916.822360,0.000000
2.000000,-2329.297641,-27443.807118,8533.627812,13092.243742,-13072.708317,27069.169530,32974.634525,37597.645831,-0.002000,0.970000,0.130000,192.000000,0.000000,0.000000,0.000000,0.000000,0.000000,0.000000,0.000000,0.000000,0.000000,1647941916.822374,0.000000
3.000000,-2328.112999,-27443.829470,8526.810530,13087.862800,-13076.597521,27065.861471,32971.684095,37593.264889,-0.002000,0.970000,0.130000,192.000000,0.000000,0.000000,0.000000,0.000000,0.000000,0.000000,0.000000,0.000000,0.000000,1647941916.830373,0.000000
4.000000,-2326.414266,-27445.572906,8522.071960,13085.001777,-13078.631530,27065.459140,32971.170005,37594.024848,-0.002000,0.970000,0.130000,192.000000,0.000000,0.000000,0.000000,0.000000,0.000000,0.000000,0.000000,0.000000,0.000000,1647941916.830377,0.000000
5.000000,-2328.247109,-27444.723540,8524.910632,13087.147544,-13077.603349,27073.125788,32974.992153,37594.494235,-0.002000,0.970000,0.130000,192.000000,0.000000,0.000000,0.000000,0.000000,0.000000,0.000000,0.000000,0.000000,0.000000,1647941916.838438,0.000000
6.000000,-2332.449237,-27442.108386,8528.933946,13091.774355,-13075.681099,27086.112152,32985.564528,37598.830473,-0.002000,0.970000,0.130000,192.000000,0.000000,0.000000,30.000000,192.000000,4.000000,16.000000,0.000000,0.000000,0.000000,1647941916.838469,0.000000
7.000000,-2330.661098,-27441.259020,8529.559795,13094.613027,-13071.791896,27093.734097,32993.409990,37603.859616,-0.002000,0.970000,0.130000,192.000000,0.000000,0.000000,0.000000,0.000000,0.000000,0.000000,0.000000,0.000000,0.000000,1647941916.844541,0.000000
8.000000,-2325.363734,-27441.594296,8525.357667,13095.507097,-13071.344861,27093.756448,32994.393467,37607.502950,-0.002000,0.970000,0.130000,192.000000,0.000000,0.000000,0.000000,0.000000,0.000000,0.000000,0.000000,0.000000,0.000000,1647941916.851993,0.000000
9.000000,-2325.430790,-27440.454357,8531.370286,13097.585809,-13068.103858,27094.985794,32994.482874,37606.988860,-0.002000,0.970000,0.130000,192.000000,0.000000,0.000000,0.000000,0.000000,0.000000,0.000000,0.000000,0.000000,0.000000,1647941916.851997,0.000000
10.000000,-2331.309298,-27449.775034,8523.994210,13088.600408,-13075.591692,27085.195730,32986.659764,37606.072438,-0.002000,0.970000,0.130000,192.000000,0.000000,0.000000,0.000000,0.000000,0.000000,0.000000,0.000000,0.000000,0.000000,1647941916.860066,0.000000
11.000000,-2336.696069,-27447.852784,8519.389751,13084.688852,-13078.206847,27077.864358,32979.306040,37604.530168,-0.002000,0.970000,0.130000,192.000000,0.000000,0.000000,0.000000,0.000000,0.000000,0.000000,0.000000,0.000000,0.000000,1647941916.860070,0.000000
12.000000,-2338.595967,-27448.657447,8515.075864,13080.531428,-13082.721899,27069.951841,32974.858043,37601.423276,-0.002000,0.970000,0.130000,192.000000,0.000000,0.000000,0.000000,0.000000,0.000000,0.000000,0.000000,0.000000,0.000000,1647941916.867245,0.000000
13.000000,-2333.410362,-27450.736159,8514.114739,13077.357480,-13086.566399,27065.146216,32970.454749,37595.745933,-0.002000,0.970000,0.130000,192.000000,0.000000,0.000000,0.000000,0.000000,0.000000,0.000000,0.000000,0.000000,0.000000,1647941916.867249,0.000000
14.000000,-2326.235452,-27442.331903,8519.546213,13082.051347,-13082.319567,27068.878957,32973.762807,37593.577813,-0.002000,0.970000,0.130000,192.000000,0.000000,0.000000,0.000000,0.000000,0.000000,0.000000,0.000000,0.000000,0.000000,1647941916.874612,0.000000
15.000000,-2325.229624,-27437.079243,8518.674495,13082.990120,-13079.436192,27068.141349,32975.975630,37595.142435,-0.002000,0.970000,0.130000,192.000000,0.000000,0.000000,0.000000,0.000000,0.000000,0.000000,0.000000,0.000000,0.000000,1647941916.874616,0.000000
16.000000,-2333.656232,-27443.404787,8513.801815,13074.585864,-13084.621797,27062.352248,32969.359513,37594.717752,-0.002000,0.970000,0.130000,192.000000,0.000000,0.000000,0.000000,0.000000,0.000000,0.000000,0.000000,0.000000,0.000000,1647941916.882637,0.000000
17.000000,-2336.807828,-27439.962618,8518.830957,13077.066908,-13082.297216,27067.157873,32973.852214,37594.874215,-0.004000,0.980000,0.136000,192.000000,255.000000,224.000000,30.000000,160.000000,4.000000,64.000000,0.000000,0.000000,0.000000,1647941916.882640,0.000000
18.000000,-2333.633880,-27443.896525,8513.757111,13070.830771,-13088.890980,27059.155948,32970.275935,37595.030677,-0.004000,0.980000,0.136000,192.000000,0.000000,0.000000,0.000000,0.000000,0.000000,0.000000,0.000000,0.000000,0.000000,1647941916.891328,0.000000
19.000000,-2336.539607,-27444.120043,8512.840690,13070.182570,-13088.421594,27062.106378,32968.934830,37588.526319,-0.004000,0.980000,0.136000,192.000000,0.000000,0.000000,0.000000,0.000000,0.000000,0.000000,0.000000,0.000000,0.000000,1647941916.891332,0.000000
20.000000,-2337.679546,-27444.991761,8518.786254,13074.541160,-13086.700509,27064.475663,32970.030066,37592.571985,-0.004000,0.980000,0.136000,192.000000,0.000000,0.000000,0.000000,0.000000,0.000000,0.000000,0.000000,0.000000,0.000000,1647941916.897915,0.000000
21.000000,-2344.988566,-27451.764339,8512.505414,13069.601425,-13093.629550,27058.753617,32966.878470,37595.812988,-0.004000,0.980000,0.136000,192.000000,0.000000,0.000000,0.000000,0.000000,0.000000,0.000000,0.000000,0.000000,0.000000,1647941916.897918,0.000000
22.000000,-2343.133371,-27446.668142,8513.175966,13070.875474,-13091.461431,27063.380428,32970.186528,37598.741066,-0.004000,0.980000,0.136000,192.000000,0.000000,0.000000,0.000000,0.000000,0.000000,0.000000,0.000000,0.000000,0.000000,1647941916.904936,0.000000
23.000000,-2332.717458,-27437.526278,8519.590917,13079.324434,-13083.526562,27070.935317,32975.260374,37610.833360,-0.004000,0.980000,0.136000,192.000000,0.000000,0.000000,0.000000,0.000000,0.000000,0.000000,0.000000,0.000000,0.000000,1647941916.912118,0.000000
24.000000,-2331.465761,-27435.693435,8519.903841,13080.866704,-13082.118402,27073.617527,32971.684095,37611.325098,-0.004000,0.980000,0.136000,192.000000,0.000000,0.000000,0.000000,0.000000,0.000000,0.000000,0.000000,0.000000,0.000000,1647941916.912122,0.000000
25.000000,-2326.347211,-27428.362063,8525.938812,13087.616931,-13075.211713,27078.289041,32975.908575,37615.393116,-0.004000,0.980000,0.136000,192.000000,0.000000,0.000000,0.000000,0.000000,0.000000,0.000000,0.000000,0.000000,0.000000,1647941916.919577,0.000000
26.000000,-2328.649441,-27433.771185,8524.553004,13086.655806,-13075.569341,27070.868262,32971.304115,37614.566101,-0.004000,0.980000,0.136000,192.000000,0.000000,0.000000,0.000000,0.000000,0.000000,0.000000,0.000000,0.000000,0.000000,1647941916.919581,0.000000
27.000000,-2333.075086,-27438.912086,8519.836786,13084.957073,-13078.542123,27066.062637,32967.012580,37610.855712,0.002000,0.968000,0.130000,192.000000,0.000000,16.000000,30.000000,64.000000,4.000000,16.000000,0.000000,0.000000,0.000000,1647941916.927531,0.000000
28.000000,-2329.297641,-27435.782842,8520.060303,13082.408974,-13077.849219,27064.229794,32967.660781,37603.032601,0.002000,0.968000,0.130000,192.000000,0.000000,0.000000,0.000000,0.000000,0.000000,0.000000,0.000000,0.000000,0.000000,1647941916.927534,0.000000
29.000000,-2324.827293,-27433.838240,8521.177890,13082.252512,-13079.771469,27063.827463,32971.818205,37602.451456,0.002000,0.968000,0.130000,192.000000,0.000000,0.000000,0.000000,0.000000,0.000000,0.000000,0.000000,0.000000,0.000000,1647941916.935574,0.000000
30.000000,-2331.242243,-27441.840165,8516.416969,13073.892960,-13085.851143,27061.614640,32973.025200,37598.405790,0.002000,0.968000,0.130000,192.000000,0.000000,0.000000,0.000000,0.000000,0.000000,0.000000,0.000000,0.000000,0.000000,1647941916.935579,0.000000
31.000000,-2343.267482,-27443.181270,8518.629792,13073.602387,-13083.884190,27064.542718,32977.272031,37588.258098,0.002000,0.968000,0.130000,192.000000,0.000000,0.000000,0.000000,0.000000,0.000000,0.000000,0.000000,0.000000,0.000000,1647941916.942211,0.000000
32.000000,-2345.279139,-27442.153089,8525.111797,13073.848256,-13081.850181,27066.129692,32979.618964,37587.252270,0.002000,0.968000,0.130000,192.000000,0.000000,0.000000,0.000000,0.000000,0.000000,0.000000,0.000000,0.000000,0.000000,1647941916.942215,0.000000
33.000000,-2336.204330,-27437.749796,8529.224518,13078.318605,-13077.312777,27072.008201,32985.899804,37590.336810,0.002000,0.968000,0.130000,192.000000,0.000000,0.000000,0.000000,0.000000,0.000000,0.000000,0.000000,0.000000,0.000000,1647941916.950214,0.000000
34.000000,-2338.193636,-27444.343560,8526.274088,13074.809381,-13082.856009,27067.694314,32983.910499,37596.282374,0.002000,0.968000,0.130000,192.000000,0.000000,0.000000,0.000000,0.000000,0.000000,0.000000,0.000000,0.000000,0.000000,1647941916.950218,0.000000
35.000000,-2344.295662,-27447.204584,8522.250774,13073.289463,-13084.219466,27064.810939,32976.199147,37592.706095,0.002000,0.968000,0.130000,192.000000,0.000000,0.000000,0.000000,0.000000,0.000000,0.000000,0.000000,0.000000,0.000000,1647941916.958214,0.000000
36.000000,-2345.525008,-27442.041331,8525.961164,13077.223370,-13080.330262,27069.281288,32979.015467,37595.634174,0.002000,0.968000,0.130000,192.000000,0.000000,0.000000,0.000000,0.000000,0.000000,0.000000,0.000000,0.000000,0.000000,1647941916.958217,0.000000
37.000000,-2343.826275,-27438.934438,8526.877585,13080.442021,-13078.877399,27074.690410,32982.569394,37598.182273,0.004000,0.976000,0.128000,192.000000,0.000000,32.000000,30.000000,128.000000,4.000000,0.000000,0.000000,0.000000,0.000000,1647941916.964318,0.000000
38.000000,-2338.238339,-27433.346502,8527.257565,13083.839486,-13078.028033,27073.908099,32978.970764,37603.367877,0.004000,0.976000,0.128000,192.000000,0.000000,0.000000,0.000000,0.000000,0.000000,0.000000,0.000000,0.000000,0.000000,1647941916.964322,0.000000
39.000000,-2328.984717,-27429.412595,8526.341143,13083.571265,-13077.692756,27071.225890,32972.578165,37603.211415,0.004000,0.976000,0.128000,192.000000,0.000000,0.000000,0.000000,0.000000,0.000000,0.000000,0.000000,0.000000,0.000000,1647941916.971889,0.000000
40.000000,-2332.471589,-27436.632208,8528.553966,13085.404108,-13074.921140,27078.087876,32978.523729,37607.905282,0.004000,0.976000,0.128000,192.000000,0.000000,0.000000,0.000000,0.000000,0.000000,0.000000,0.000000,0.000000,0.000000,1647941916.979887,0.000000
41.000000,-2347.916645,-27448.970371,8523.457768,13083.347748,-13078.318605,27078.646669,32982.859967,37614.879026,0.004000,0.976000,0.128000,192.000000,0.000000,0.000000,0.000000,0.000000,0.000000,0.000000,0.000000,0.000000,0.000000,1647941916.979892,0.000000
42.000000,-2347.648424,-27449.707979,8520.909670,13081.604312,-13080.397317,27073.997506,32977.227327,37614.923729,0.004000,0.976000,0.128000,192.000000,0.000000,0.000000,0.000000,0.000000,0.000000,0.000000,0.000000,0.000000,0.000000,1647941916.987846,0.000000
43.000000,-2335.600833,-27443.740063,8534.655992,13088.712166,-13070.763716,27082.893501,32981.720028,37615.370764,0.004000,0.976000,0.128000,192.000000,0.000000,0.000000,0.000000,0.000000,0.000000,0.000000,0.000000,0.000000,0.000000,1647941916.987888,0.000000
44.000000,-2337.098400,-27453.910107,8528.956298,13083.303044,-13075.390527,27080.300698,32981.407104,37614.476694,0.004000,0.976000,0.128000,192.000000,0.000000,0.000000,0.000000,0.000000,0.000000,0.000000,0.000000,0.000000,0.000000,1647941916.994477,0.000000
45.000000,-2339.870017,-27448.568040,8530.453864,13087.236951,-13072.373041,27084.346364,32982.502339,37610.252215,0.004000,0.976000,0.128000,192.000000,0.000000,0.000000,0.000000,0.000000,0.000000,0.000000,0.000000,0.000000,0.000000,1647941916.994481,0.000000
46.000000,-2346.977871,-27449.260944,8528.263393,13085.024129,-13076.128134,27080.993602,32982.859967,37611.593319,0.004000,0.976000,0.128000,192.000000,0.000000,0.000000,0.000000,0.000000,0.000000,0.000000,0.000000,0.000000,0.000000,1647941917.002501,0.000000
47.000000,-2347.514313,-27450.825566,8529.001001,13086.409937,-13075.971672,27081.999431,32984.513996,37610.408677,0.008000,0.978000,0.130000,192.000000,0.000000,64.000000,30.000000,144.000000,4.000000,16.000000,0.000000,0.000000,0.000000,1647941917.002506,0.000000
48.000000,-2342.775743,-27454.982991,8520.775559,13083.504210,-13081.000815,27071.516463,32978.389618,37607.391191,0.008000,0.978000,0.130000,192.000000,0.000000,0.000000,0.000000,0.000000,0.000000,0.000000,0.000000,0.000000,0.000000,1647941917.010516,0.000000
49.000000,-2338.640671,-27452.770168,8517.936887,13080.151448,-13083.012472,27067.537852,32976.132092,37603.054953,0.008000,0.978000,0.130000,192.000000,0.000000,0.000000,0.000000,0.000000,0.000000,0.000000,0.000000,0.000000,0.000000,1647941917.010520,0.000000
50.000000,-2337.299566,-27450.222069,8516.931059,13080.822001,-13080.173800,27068.476625,32977.897880,37601.602090,0.008000,0.978000,0.130000,192.000000,0.000000,0.000000,0.000000,0.000000,0.000000,0.000000,0.000000,0.000000,0.000000,1647941917.017604,0.000000
51.000000,-2343.848627,-27448.433929,8519.881489,13082.900713,-13077.849219,27068.051942,32979.529557,37604.954851,0.008000,0.978000,0.130000,192.000000,0.000000,0.000000,0.000000,0.000000,0.000000,0.000000,0.000000,0.000000,0.000000,1647941917.017610,0.000000
52.000000,-2350.531799,-27442.734235,8522.586050,13081.425498,-13076.016376,27067.917832,32979.797778,37604.932500,0.008000,0.978000,0.130000,192.000000,0.000000,0.000000,0.000000,0.000000,0.000000,0.000000,0.000000,0.000000,0.000000,1647941917.025178,0.000000
53.000000,-2344.586235,-27435.514621,8528.375152,13086.767565,-13070.719012,27076.299736,32983.195243,37607.346488,0.008000,0.978000,0.130000,192.000000,0.000000,0.000000,0.000000,0.000000,0.000000,0.000000,0.000000,0.000000,0.000000,1647941917.025183,0.000000
54.000000,-2340.384107,-27440.879040,8527.950469,13081.984291,-13076.843390,27073.841044,32981.094179,37609.358145,0.008000,0.978000,0.130000,192.000000,0.000000,0.000000,0.000000,0.000000,0.000000,0.000000,0.000000,0.000000,0.000000,1647941917.032198,0.000000
55.000000,-2341.278176,-27445.639961,8522.563699,13075.032899,-13085.135887,27071.114131,32977.160272,37610.408677,0.008000,0.978000,0.130000,192.000000,0.000000,0.000000,0.000000,0.000000,0.000000,0.000000,0.000000,0.000000,0.000000,1647941917.040173,0.000000
56.000000,-2342.887502,-27450.110310,8521.267297,13069.981405,-13089.159201,27070.823559,32972.868737,37610.341622,0.008000,0.978000,0.130000,192.000000,0.000000,0.000000,0.000000,0.000000,0.000000,0.000000,0.000000,0.000000,0.000000,1647941917.040179,0.000000
57.000000,-2343.736868,-27449.439758,8523.457768,13073.200056,-13088.041614,27072.946974,32975.618002,37614.968433,0.004000,0.980000,0.126000,192.000000,0.000000,32.000000,30.000000,160.000000,3.000000,240.000000,0.000000,0.000000,0.000000,1647941917.047222,0.000000
58.000000,-2342.775743,-27451.093787,8518.473329,13071.613082,-13092.109632,27065.347381,32972.958144,37614.431991,0.004000,0.980000,0.126000,192.000000,0.000000,0.000000,0.000000,0.000000,0.000000,0.000000,0.000000,0.000000,0.000000,1647941917.047226,0.000000
59.000000,-2342.060488,-27444.298857,8517.668667,13074.608216,-13088.779222,27068.253108,32976.176796,37606.944157,0.004000,0.980000,0.126000,192.000000,0.000000,0.000000,0.000000,0.000000,0.000000,0.000000,0.000000,0.000000,0.000000,1647941917.054820,0.000000
60.000000,-2341.479342,-27445.058816,8521.222594,13074.272939,-13087.169896,27069.325992,32976.668534,37603.703154,0.004000,0.980000,0.126000,192.000000,0.000000,0.000000,0.000000,0.000000,0.000000,0.000000,0.000000,0.000000,0.000000,1647941917.054825,0.000000
61.000000,-2346.508485,-27444.611781,8519.210937,13077.201018,-13088.980387,27069.527157,32975.439188,37602.652622,0.004000,0.980000,0.126000,192.000000,0.000000,0.000000,0.000000,0.000000,0.000000,0.000000,0.000000,0.000000,0.000000,1647941917.062779,0.000000
62.000000,-2347.737831,-27442.734235,8523.346010,13081.716070,-13085.359405,27071.449408,32973.718104,37598.316383,0.004000,0.980000,0.126000,192.000000,0.000000,0.000000,0.000000,0.000000,0.000000,0.000000,0.000000,0.000000,0.000000,1647941917.062783,0.000000
63.000000,-2343.379240,-27444.678836,8525.089446,13079.033861,-13087.147544,27066.755541,32970.812377,37595.343601,0.004000,0.980000,0.126000,192.000000,0.000000,0.000000,0.000000,0.000000,0.000000,0.000000,0.000000,0.000000,0.000000,1647941917.070892,0.000000
64.000000,-2347.514313,-27446.444624,8515.634658,13069.467314,-13094.635379,27059.781797,32967.504319,37592.996668,0.004000,0.980000,0.126000,192.000000,0.000000,0.000000,0.000000,0.000000,0.000000,0.000000,0.000000,0.000000,0.000000,1647941917.070896,0.000000
65.000000,-2350.911778,-27439.783804,8521.893146,13068.573245,-13091.372024,27068.610736,32971.974668,37595.120084,0.004000,0.980000,0.126000,192.000000,0.000000,0.000000,0.000000,0.000000,0.000000,0.000000,0.000000,0.000000,0.000000,1647941917.077415,0.000000
66.000000,-2353.012842,-27446.958714,8520.105007,13062.202997,-13096.132946,27064.743884,32970.030066,37598.942232,0.004000,0.980000,0.126000,192.000000,0.000000,0.000000,0.000000,0.000000,0.000000,0.000000,0.000000,0.000000,0.000000,1647941917.077419,0.000000
67.000000,-2352.789325,-27443.516546,8521.691981,13064.505227,-13093.249571,27067.180224,32970.231231,37594.538938,0.002000,0.974000,0.124000,192.000000,0.000000,16.000000,30.000000,112.000000,3.000000,224.000000,0.000000,0.000000,0.000000,1647941917.085369,0.000000
68.000000,-2348.810714,-27446.578735,8515.858175,13062.828846,-13096.289408,27062.598117,32969.448920,37596.617651,0.002000,0.974000,0.124000,192.000000,0.000000,0.000000,0.000000,0.000000,0.000000,0.000000,0.000000,0.000000,0.000000,1647941917.085373,0.000000
69.000000,-2348.341328,-27448.053950,8517.445149,13063.991137,-13094.143640,27068.320163,32971.147653,37594.427180,0.002000,0.974000,0.124000,192.000000,0.000000,0.000000,0.000000,0.000000,0.000000,0.000000,0.000000,0.000000,0.000000,1647941917.092440,0.000000
70.000000,-2348.430735,-27447.316342,8520.105007,13064.058192,-13093.137812,27071.963498,32975.059208,37596.394133,0.002000,0.974000,0.124000,192.000000,0.000000,0.000000,0.000000,0.000000,0.000000,0.000000,0.000000,0.000000,0.000000,1647941917.100470,0.000000
71.000000,-2348.631900,-27451.898450,8516.506376,13057.442076,-13099.530411,27063.447483,32969.873604,37599.858654,0.002000,0.974000,0.124000,192.000000,0.000000,0.000000,0.000000,0.000000,0.000000,0.000000,0.000000,0.000000,0.000000,1647941917.100475,0.000000
72.000000,-2353.549284,-27454.357142,8512.438358,13054.156369,-13103.061986,27059.155948,32961.312885,37595.902395,0.002000,0.974000,0.124000,192.000000,0.000000,0.000000,0.000000,0.000000,0.000000,0.000000,0.000000,0.000000,0.000000,1647941917.107018,0.000000
73.000000,-2346.396726,-27447.964543,8516.819300,13060.973652,-13098.010492,27063.849814,32965.336199,37592.281412,0.002000,0.974000,0.124000,192.000000,0.000000,0.000000,0.000000,0.000000,0.000000,0.000000,0.000000,0.000000,0.000000,1647941917.107021,0.000000
74.000000,-2344.876807,-27444.231802,8521.133187,13067.120381,-13092.511963,27069.996544,32971.773502,37595.365953,0.002000,0.974000,0.124000,192.000000,0.000000,0.000000,0.000000,0.000000,0.000000,0.000000,0.000000,0.000000,0.000000,1647941917.115756,0.000000
75.000000,-2349.145991,-27445.751720,8522.094312,13069.132038,-13090.589713,27071.516463,32974.299249,37595.701229,0.002000,0.974000,0.124000,192.000000,0.000000,0.000000,0.000000,0.000000,0.000000,0.000000,0.000000,0.000000,0.000000,1647941917.115760,0.000000
76.000000,-2353.549284,-27450.199717,8518.562736,13069.243797,-13092.020225,27069.996544,32975.841519,37597.489369,0.002000,0.974000,0.124000,192.000000,0.000000,0.000000,0.000000,0.000000,0.000000,0.000000,0.000000,0.000000,0.000000,1647941917.123116,0.000000
77.000000,-2359.248979,-27456.189985,8515.679361,13065.578111,-13094.367158,27065.123864,32972.153482,37597.131741,0.006000,0.970000,0.126000,192.000000,0.000000,48.000000,30.000000,80.000000,3.000000,240.000000,0.000000,0.000000,0.000000,1647941917.123121,0.000000
78.000000,-2358.131392,-27457.955773,8518.093350,13065.064021,-13097.071719,27056.965477,32964.643295,37597.176444,0.006000,0.970000,0.126000,192.000000,0.000000,0.000000,0.000000,0.000000,0.000000,0.000000,0.000000,0.000000,0.000000,1647941917.129692,0.000000
79.000000,-2356.075031,-27457.419331,8509.264411,13061.487742,-13101.095033,27051.198727,32957.155461,37586.492310,0.006000,0.970000,0.126000,192.000000,0.000000,0.000000,0.000000,0.000000,0.000000,0.000000,0.000000,0.000000,0.000000,1647941917.129696,0.000000
80.000000,-2355.180962,-27451.540822,8511.901916,13064.438172,-13094.635379,27055.490262,32962.117548,37587.453435,0.006000,0.970000,0.126000,192.000000,0.000000,0.000000,0.000000,0.000000,0.000000,0.000000,0.000000,0.000000,0.000000,1647941917.137713,0.000000
81.000000,-2354.711575,-27449.462110,8521.893146,13071.814248,-13086.097012,27060.206480,32968.756016,37594.583642,0.006000,0.970000,0.126000,192.000000,0.000000,0.000000,0.000000,0.000000,0.000000,0.000000,0.000000,0.000000,0.000000,1647941917.137717,0.000000
82.000000,-2353.795153,-27452.792520,8524.240079,13071.814248,-13085.404108,27056.429035,32967.101987,37596.997630,0.006000,0.970000,0.126000,192.000000,0.000000,0.000000,0.000000,0.000000,0.000000,0.000000,0.000000,0.000000,0.000000,1647941917.145721,0.000000
83.000000,-2345.279139,-27448.143357,8526.587013,13074.474105,-13080.665538,27058.775968,32964.665647,37589.576851,0.006000,0.970000,0.126000,192.000000,0.000000,0.000000,0.000000,0.000000,0.000000,0.000000,0.000000,0.000000,0.000000,1647941917.145725,0.000000
84.000000,-2334.885578,-27447.942191,8528.375152,13074.876437,-13079.145620,27058.574803,32963.592763,37588.571023,0.006000,0.970000,0.126000,192.000000,0.000000,0.000000,0.000000,0.000000,0.000000,0.000000,0.000000,0.000000,0.000000,1647941917.152817,0.000000
85.000000,-2337.813656,-27449.819738,8526.274088,13069.959053,-13083.414803,27054.126806,32961.491699,37589.330982,0.006000,0.970000,0.126000,192.000000,0.000000,0.000000,0.000000,0.000000,0.000000,0.000000,0.000000,0.000000,0.000000,1647941917.159371,0.000000
86.000000,-2345.055621,-27449.707979,8525.961164,13068.193265,-13085.627626,27054.372675,32963.793929,37587.676953,0.006000,0.970000,0.126000,192.000000,0.000000,0.000000,0.000000,0.000000,0.000000,0.000000,0.000000,0.000000,0.000000,1647941917.159382,0.000000
87.000000,-2350.978834,-27451.496118,8526.475254,13067.120381,-13084.755908,27057.747788,32964.486833,37589.018057,0.004000,0.978000,0.136000,192.000000,0.000000,32.000000,30.000000,144.000000,4.000000,64.000000,0.000000,0.000000,0.000000,1647941917.167315,0.000000
88.000000,-2345.368546,-27447.517508,8530.386809,13070.763716,-13083.079527,27062.843986,32965.425606,37586.894642,0.004000,0.978000,0.136000,192.000000,0.000000,0.000000,0.000000,0.000000,0.000000,0.000000,0.000000,0.000000,0.000000,1647941917.167319,0.000000
89.000000,-2345.122677,-27453.127796,8528.285745,13067.567416,-13090.433251,27057.479567,32962.184603,37586.425255,0.004000,0.978000,0.136000,192.000000,0.000000,0.000000,0.000000,0.000000,0.000000,0.000000,0.000000,0.000000,0.000000,1647941917.175704,0.000000
90.000000,-2345.301490,-27454.312438,8526.765827,13065.019317,-13092.556666,27055.222041,32961.022313,37588.168691,0.004000,0.978000,0.136000,192.000000,0.000000,0.000000,0.000000,0.000000,0.000000,0.000000,0.000000,0.000000,0.000000,1647941917.175721,0.000000
91.000000,-2345.860284,-27447.293991,8528.509263,13067.746230,-13088.846277,27058.440692,32965.716179,37595.947098,0.004000,0.978000,0.136000,192.000000,0.000000,0.000000,0.000000,0.000000,0.000000,0.000000,0.000000,0.000000,0.000000,1647941917.182879,0.000000
92.000000,-2349.257749,-27449.752682,8529.425684,13064.125247,-13091.684948,27051.958686,32959.904726,37597.131741,0.004000,0.978000,0.136000,192.000000,0.000000,0.000000,0.000000,0.000000,0.000000,0.000000,0.000000,0.000000,0.000000,1647941917.182896,0.000000
93.000000,-2345.390897,-27451.674932,8532.085542,13065.958091,-13089.159201,27051.489300,32961.134071,37594.829511,0.004000,0.978000,0.136000,192.000000,0.000000,0.000000,0.000000,0.000000,0.000000,0.000000,0.000000,0.000000,0.000000,1647941917.190430,0.000000
94.000000,-2342.105191,-27452.144319,8529.246870,13067.254492,-13089.941512,27055.065579,32962.318714,37592.907261,0.004000,0.978000,0.136000,192.000000,0.000000,0.000000,0.000000,0.000000,0.000000,0.000000,0.000000,0.000000,0.000000,1647941917.190446,0.000000
95.000000,-2341.971081,-27450.155014,8534.387771,13071.233102,-13085.001777,27062.374599,32967.571374,37593.354296,0.004000,0.978000,0.136000,192.000000,0.000000,0.000000,0.000000,0.000000,0.000000,0.000000,0.000000,0.000000,0.000000,1647941917.198335,0.000000
96.000000,-2339.333575,-27449.931496,8535.013620,13072.127172,-13082.632492,27062.776931,32968.398388,37596.014153,0.004000,0.978000,0.136000,192.000000,0.000000,0.000000,0.000000,0.000000,0.000000,0.000000,0.000000,0.000000,0.000000,1647941917.198351,0.000000
97.000000,-2341.121714,-27451.116139,8531.906728,13070.316681,-13084.554742,27062.016971,32967.325505,37600.104523,0.004000,0.978000,0.136000,192.000000,0.000000,0.000000,30.000000,128.000000,4.000000,0.000000,0.000000,0.000000,0.000000,1647941917.206361,0.000000
98.000000,-2340.764086,-27444.500022,8538.545196,13075.524637,-13078.117440,27067.649611,32970.745322,37600.126874,0.004000,0.978000,0.136000,192.000000,0.000000,0.000000,0.000000,0.000000,0.000000,0.000000,0.000000,0.000000,0.000000,1647941917.206378,0.000000
99.000000,-2339.646499,-27448.836261,8533.560757,13071.233102,-13083.325396,27061.055846,32966.073807,37601.713848,0.004000,0.978000,0.136000,192.000000,0.000000,0.000000,0.000000,0.000000,0.000000,0.000000,0.000000,0.000000,0.000000,1647941917.212348,0.000000
100.000000,-2343.222778,-27445.617610,8530.677382,13072.373041,-13083.191286,27064.654477,32969.135996,37600.193930,0.004000,0.978000,0.136000,192.000000,0.000000,0.000000,0.000000,0.000000,0.000000,0.000000,0.000000,0.000000,0.000000,1647941917.212358,0.000000
101.000000,-2348.788363,-27446.243459,8531.370286,13070.070812,-13083.638320,27065.369733,32972.198185,37598.785770,0.004000,0.978000,0.136000,192.000000,0.000000,0.000000,0.000000,0.000000,0.000000,0.000000,0.000000,0.000000,0.000000,1647941917.220092,0.000000
102.000000,-2347.156685,-27441.124909,8539.573376,13073.915312,-13078.810344,27070.734152,32976.087389,37601.132703,0.004000,0.978000,0.136000,192.000000,0.000000,0.000000,0.000000,0.000000,0.000000,0.000000,0.000000,0.000000,0.000000,1647941917.228043,0.000000
103.000000,-2340.249996,-27437.481575,8541.853254,13076.709280,-13079.503248,27071.360001,32975.953278,37605.558348,0.004000,0.978000,0.136000,192.000000,0.000000,0.000000,0.000000,0.000000,0.000000,0.000000,0.000000,0.000000,0.000000,1647941917.228060,0.000000
104.000000,-2342.753392,-27446.154052,8531.906728,13068.148561,-13088.309835,27064.810939,32970.141825,37602.786732,0.004000,0.978000,0.136000,192.000000,0.000000,0.000000,0.000000,0.000000,0.000000,0.000000,0.000000,0.000000,0.000000,1647941917.236011,0.000000
105.000000,-2345.189732,-27444.790595,8528.553966,13064.684041,-13091.081451,27062.843986,32969.895955,37597.198796,0.004000,0.978000,0.136000,192.000000,0.000000,0.000000,0.000000,0.000000,0.000000,0.000000,0.000000,0.000000,0.000000,1647941917.236027,0.000000
106.000000,-2348.810714,-27445.349389,8525.871757,13064.326413,-13093.741309,27059.267707,32968.197223,37594.874215,0.004000,0.978000,0.136000,192.000000,0.000000,0.000000,0.000000,0.000000,0.000000,0.000000,0.000000,0.000000,0.000000,1647941917.242627,0.000000
107.000000,-2354.219836,-27438.263886,8528.106931,13069.489666,-13090.634416,27061.547585,32970.007714,37592.214357,0.004000,0.978000,0.136000,192.000000,0.000000,0.000000,30.000000,112.000000,3.000000,192.000000,0.000000,0.000000,0.000000,1647941917.242662,0.000000
108.000000,-2350.531799,-27436.408691,8528.531614,13068.573245,-13090.477954,27060.228832,32969.381865,37589.688610,0.004000,0.978000,0.136000,192.000000,0.000000,0.000000,0.000000,0.000000,0.000000,0.000000,0.000000,0.000000,0.000000,1647941917.250309,0.000000
109.000000,-2348.475438,-27436.855726,8532.465521,13069.154390,-13087.616931,27061.279364,32971.482929,37591.253232,0.004000,0.978000,0.136000,192.000000,0.000000,0.000000,0.000000,0.000000,0.000000,0.000000,0.000000,0.000000,0.000000,1647941917.250319,0.000000
110.000000,-2344.742697,-27430.306665,8536.801760,13076.418707,-13081.403146,27065.235623,32974.209842,37591.499101,0.004000,0.978000,0.136000,192.000000,0.000000,0.000000,0.000000,0.000000,0.000000,0.000000,0.000000,0.000000,0.000000,1647941917.258328,0.000000
111.000000,-2342.395764,-27427.691511,8539.729838,13081.224332,-13078.609178,27064.050980,32976.556775,37593.376648,0.004000,0.978000,0.136000,192.000000,0.000000,0.000000,0.000000,0.000000,0.000000,0.000000,0.000000,0.000000,0.000000,1647941917.258333,0.000000
112.000000,-2350.174171,-27437.794499,8531.280879,13070.428439,-13087.594579,27053.992695,32972.265240,37593.533110,0.004000,0.978000,0.136000,192.000000,0.000000,0.000000,0.000000,0.000000,0.000000,0.000000,0.000000,0.000000,0.000000,1647941917.265828,0.000000
113.000000,-2346.530836,-27436.051063,8535.170082,13072.484800,-13084.197114,27061.391123,32974.858043,37595.097732,0.004000,0.978000,0.136000,192.000000,0.000000,0.000000,0.000000,0.000000,0.000000,0.000000,0.000000,0.000000,0.000000,1647941917.265845,0.000000
114.000000,-2343.669813,-27439.247363,8534.812455,13074.228236,-13081.939588,27066.152044,32978.702543,37602.183235,0.004000,0.978000,0.136000,192.000000,0.000000,0.000000,0.000000,0.000000,0.000000,0.000000,0.000000,0.000000,0.000000,1647941917.272978,0.000000
115.000000,-2343.043964,-27439.314418,8533.739571,13077.737460,-13079.257378,27070.398876,32979.283688,37603.278470,0.004000,0.978000,0.136000,192.000000,0.000000,0.000000,0.000000,0.000000,0.000000,0.000000,0.000000,0.000000,0.000000,1647941917.272988,0.000000
116.000000,-2343.781572,-27432.139508,8537.718181,13079.458544,-13076.731631,27071.851739,32979.373095,37602.853787,0.004000,0.978000,0.136000,192.000000,0.000000,0.000000,0.000000,0.000000,0.000000,0.000000,0.000000,0.000000,0.000000,1647941917.280274,0.000000
117.000000,-2343.334537,-27436.207525,8545.071905,13082.274864,-13072.283634,27074.198672,32978.970764,37604.127837,0.002000,0.974000,0.116000,192.000000,0.000000,16.000000,30.000000,112.000000,3.000000,160.000000,0.000000,0.000000,0.000000,1647941917.288796,0.000000
118.000000,-2336.517255,-27434.218220,8549.877530,13084.800611,-13069.802591,27076.456198,32981.161235,37603.434933,0.002000,0.974000,0.116000,192.000000,0.000000,0.000000,0.000000,0.000000,0.000000,0.000000,0.000000,0.000000,0.000000,1647941917.288807,0.000000
119.000000,-2342.865150,-27433.838240,8550.570434,13087.505172,-13068.506189,27077.327916,32982.055304,37605.535997,0.002000,0.974000,0.116000,192.000000,0.000000,0.000000,0.000000,0.000000,0.000000,0.000000,0.000000,0.000000,0.000000,1647941917.295443,0.000000
120.000000,-2353.638691,-27442.957752,8542.188530,13081.045518,-13074.362346,27070.108303,32976.154444,37604.373706,0.002000,0.974000,0.116000,192.000000,0.000000,0.000000,0.000000,0.000000,0.000000,0.000000,0.000000,0.000000,0.000000,1647941917.295459,0.000000
121.000000,-2355.806810,-27440.275543,8540.668612,13082.632492,-13071.166047,27073.505768,32977.294383,37603.546691,0.002000,0.974000,0.116000,192.000000,0.000000,0.000000,0.000000,0.000000,0.000000,0.000000,0.000000,0.000000,0.000000,1647941917.302802,0.000000
122.000000,-2355.225665,-27441.415482,8541.070943,13080.844352,-13072.775373,27070.756503,32977.540252,37601.870311,0.002000,0.974000,0.116000,192.000000,0.000000,0.000000,0.000000,0.000000,0.000000,0.000000,0.000000,0.000000,0.000000,1647941917.302819,0.000000
123.000000,-2343.490999,-27432.318322,8543.999022,13084.174762,-13069.154390,27072.678753,32976.847348,37597.891700,0.002000,0.974000,0.116000,192.000000,0.000000,0.000000,0.000000,0.000000,0.000000,0.000000,0.000000,0.000000,0.000000,1647941917.310971,0.000000
124.000000,-2338.730078,-27429.077319,8544.736629,13085.426460,-13068.282672,27073.349306,32974.254545,37602.429104,0.002000,0.974000,0.116000,192.000000,0.000000,0.000000,0.000000,0.000000,0.000000,0.000000,0.000000,0.000000,0.000000,1647941917.310987,0.000000
125.000000,-2345.480304,-27428.697339,8540.422742,13082.006643,-13073.133001,27070.398876,32968.823072,37601.937366,0.002000,0.974000,0.116000,192.000000,0.000000,0.000000,0.000000,0.000000,0.000000,0.000000,0.000000,0.000000,0.000000,1647941917.318869,0.000000
126.000000,-2348.006052,-27424.226990,8544.781333,13083.638320,-13068.953224,27074.757466,32974.299249,37604.932500,0.002000,0.974000,0.116000,192.000000,0.000000,0.000000,0.000000,0.000000,0.000000,0.000000,0.000000,0.000000,0.000000,1647941917.318884,0.000000
127.000000,-2348.430735,-27426.529220,8543.775504,13083.459506,-13069.109687,27076.366791,32976.132092,37606.161845,0.002000,0.980000,0.118000,192.000000,0.000000,16.000000,30.000000,160.000000,3.000000,176.000000,0.000000,0.000000,0.000000,1647941917.325369,0.000000
128.000000,-2342.887502,-27427.870325,8541.674440,13082.878361,-13071.166047,27075.919756,32974.813339,37606.005383,0.002000,0.980000,0.118000,192.000000,0.000000,0.000000,0.000000,0.000000,0.000000,0.000000,0.000000,0.000000,0.000000,1647941917.325385,0.000000
129.000000,-2338.685374,-27434.933476,8538.098161,13082.096050,-13073.423573,27075.428018,32970.141825,37604.373706,0.002000,0.980000,0.118000,192.000000,0.000000,0.000000,0.000000,0.000000,0.000000,0.000000,0.000000,0.000000,0.000000,1647941917.333541,0.000000
130.000000,-2333.633880,-27425.322226,8550.615138,13093.115460,-13061.845370,27084.882806,32977.428493,37606.251252,0.002000,0.980000,0.118000,192.000000,0.000000,0.000000,0.000000,0.000000,0.000000,0.000000,0.000000,0.000000,0.000000,1647941917.333558,0.000000
131.000000,-2344.407421,-27432.899467,8544.803684,13087.192248,-13069.109687,27077.506730,32980.088351,37605.088962,0.002000,0.980000,0.118000,192.000000,0.000000,0.000000,0.000000,0.000000,0.000000,0.000000,0.000000,0.000000,0.000000,1647941917.340676,0.000000
132.000000,-2351.671738,-27433.614723,8543.529635,13081.604312,-13072.373041,27076.880881,32985.341011,37597.556424,0.002000,0.980000,0.118000,192.000000,0.000000,0.000000,0.000000,0.000000,0.000000,0.000000,0.000000,0.000000,0.000000,1647941917.347609,0.000000
133.000000,-2353.169305,-27435.246400,8541.115646,13074.608216,-13078.117440,27069.393047,32981.094179,37595.142435,0.002000,0.980000,0.118000,192.000000,0.000000,0.000000,0.000000,0.000000,0.000000,0.000000,0.000000,0.000000,0.000000,1647941917.347625,0.000000
134.000000,-2354.465706,-27430.954865,8541.070943,13076.284596,-13077.960977,27071.672925,32976.646182,37595.142435,0.002000,0.980000,0.118000,192.000000,0.000000,0.000000,0.000000,0.000000,0.000000,0.000000,0.000000,0.000000,0.000000,1647941917.355184,0.000000
135.000000,-2350.442392,-27433.681778,8540.020411,13074.362346,-13077.357480,27071.181187,32974.925098,37595.410656,0.002000,0.980000,0.118000,192.000000,0.000000,0.000000,0.000000,0.000000,0.000000,0.000000,0.000000,0.000000,0.000000,1647941917.355200,0.000000
136.000000,-2345.189732,-27438.040368,8542.702620,13071.411916,-13076.910445,27070.801207,32974.768636,37600.193930,0.002000,0.980000,0.118000,192.000000,0.000000,0.000000,0.000000,0.000000,0.000000,0.000000,0.000000,0.000000,0.000000,1647941917.363186,0.000000
137.000000,-2345.256787,-27436.431043,8543.529635,13074.272939,-13073.311814,27073.416361,32976.914403,37602.764380,0.002000,0.980000,0.118000,192.000000,0.000000,0.000000,0.000000,0.000000,0.000000,0.000000,0.000000,0.000000,0.000000,1647941917.363202,0.000000
138.000000,-2349.883598,-27432.608894,8544.133132,13077.312777,-13072.998890,27071.963498,32976.690886,37598.875177,0.004000,0.982000,0.120000,192.000000,0.000000,32.000000,30.000000,176.000000,3.000000,192.000000,0.000000,0.000000,0.000000,1647941917.370968,0.000000
139.000000,-2351.224703,-27426.596275,8542.076772,13079.682062,-13073.289463,27071.181187,32976.400313,37594.851863,0.004000,0.982000,0.120000,192.000000,0.000000,0.000000,0.000000,0.000000,0.000000,0.000000,0.000000,0.000000,0.000000,1647941917.370985,0.000000
140.000000,-2350.375336,-27418.996682,8542.076772,13085.471163,-13068.662652,27077.529082,32980.155406,37592.192005,0.004000,0.982000,0.120000,192.000000,0.000000,0.000000,0.000000,0.000000,0.000000,0.000000,0.000000,0.000000,0.000000,1647941917.377838,0.000000
141.000000,-2353.325767,-27425.165764,8538.858120,13080.240855,-13072.842428,27072.142312,32975.819168,37594.874215,0.004000,0.982000,0.120000,192.000000,0.000000,0.000000,0.000000,0.000000,0.000000,0.000000,0.000000,0.000000,0.000000,1647941917.377855,0.000000
142.000000,-2349.928302,-27430.686644,8537.159388,13077.536294,-13076.776335,27070.734152,32971.929964,37590.292107,0.004000,0.982000,0.120000,192.000000,0.000000,0.000000,0.000000,0.000000,0.000000,0.000000,0.000000,0.000000,0.000000,1647941917.385708,0.000000
143.000000,-2349.727136,-27431.893639,8535.415952,13076.262245,-13079.994986,27065.682657,32969.918307,37585.285316,0.004000,0.982000,0.120000,192.000000,0.000000,0.000000,0.000000,0.000000,0.000000,0.000000,0.000000,0.000000,0.000000,1647941917.385720,0.000000
144.000000,-2346.396726,-27429.099671,8538.880472,13080.911408,-13075.301120,27070.734152,32971.952316,37580.613802,0.004000,0.982000,0.120000,192.000000,0.000000,0.000000,0.000000,0.000000,0.000000,0.000000,0.000000,0.000000,0.000000,1647941917.393551,0.000000
145.000000,-2344.385069,-27426.618627,8544.267242,13084.554742,-13070.830771,27077.976117,32976.489720,37582.424293,0.004000,0.982000,0.120000,192.000000,0.000000,0.000000,0.000000,0.000000,0.000000,0.000000,0.000000,0.000000,0.000000,1647941917.393563,0.000000
146.000000,-2353.124601,-27429.658464,8536.019449,13077.536294,-13078.966806,27072.589346,32974.276897,37583.385418,0.004000,0.982000,0.120000,192.000000,0.000000,0.000000,0.000000,0.000000,0.000000,0.000000,0.000000,0.000000,0.000000,1647941917.400976,0.000000
147.000000,-2356.142087,-27428.831450,8534.812455,13075.234064,-13079.570303,27074.176320,32975.595650,37580.971429,0.004000,0.982000,0.120000,192.000000,0.000000,0.000000,0.000000,0.000000,0.000000,0.000000,0.000000,0.000000,0.000000,1647941917.407168,0.000000
148.000000,-2350.822371,-27425.501040,8534.588937,13074.094126,-13078.989158,27071.404704,32975.059208,37583.497177,0.004000,0.980000,0.120000,192.000000,0.000000,32.000000,30.000000,160.000000,3.000000,192.000000,0.000000,0.000000,0.000000,1647941917.407180,0.000000
149.000000,-2345.279139,-27425.590447,8532.979612,13071.970710,-13080.062041,27069.705971,32973.271069,37585.106502,0.004000,0.980000,0.120000,192.000000,0.000000,0.000000,0.000000,0.000000,0.000000,0.000000,0.000000,0.000000,0.000000,1647941917.415435,0.000000
150.000000,-2348.363679,-27426.439813,8530.945603,13071.881303,-13081.984291,27068.834253,32976.109740,37586.022924,0.004000,0.980000,0.120000,192.000000,0.000000,0.000000,0.000000,0.000000,0.000000,0.000000,0.000000,0.000000,0.000000,1647941917.415470,0.000000
151.000000,-2356.119735,-27432.720653,8527.995173,13070.875474,-13082.498381,27067.493149,32971.661743,37589.465092,0.004000,0.980000,0.120000,192.000000,0.000000,0.000000,0.000000,0.000000,0.000000,0.000000,0.000000,0.000000,0.000000,1647941917.423373,0.000000
152.000000,-2359.181924,-27432.385377,8531.079713,13074.384698,-13078.385660,27072.499940,32975.103912,37593.175482,0.004000,0.980000,0.120000,192.000000,0.000000,0.000000,0.000000,0.000000,0.000000,0.000000,0.000000,0.000000,0.000000,1647941917.423385,0.000000
153.000000,-2351.492924,-27427.132717,8532.085542,13079.190323,-13077.580998,27075.293908,32977.339086,37593.421351,0.004000,0.980000,0.120000,192.000000,0.000000,0.000000,0.000000,0.000000,0.000000,0.000000,0.000000,0.000000,0.000000,1647941917.430654,0.000000
154.000000,-2348.564845,-27421.231856,8533.761923,13079.033861,-13079.167972,27076.255033,32981.272993,37595.321249,0.004000,0.980000,0.120000,192.000000,0.000000,0.000000,0.000000,0.000000,0.000000,0.000000,0.000000,0.000000,0.000000,1647941917.430686,0.000000
155.000000,-2352.252883,-27426.551572,8529.403332,13070.584902,-13083.615969,27070.331820,32980.758903,37597.176444,0.004000,0.980000,0.120000,192.000000,0.000000,0.000000,0.000000,0.000000,0.000000,0.000000,0.000000,0.000000,0.000000,1647941917.438637,0.000000
156.000000,-2355.136258,-27425.612798,8532.130245,13070.115515,-13080.307910,27071.337649,32979.864833,37600.328040,0.004000,0.980000,0.120000,192.000000,0.000000,0.000000,0.000000,0.000000,0.000000,0.000000,0.000000,0.000000,0.000000,1647941917.438654,0.000000
157.000000,-2357.080860,-27424.070528,8535.661821,13070.696660,-13081.738422,27070.734152,32978.322563,37603.166712,0.004000,0.980000,0.120000,192.000000,0.000000,0.000000,0.000000,0.000000,0.000000,0.000000,0.000000,0.000000,0.000000,1647941917.446742,0.000000
158.000000,-2349.213046,-27420.538952,8538.500492,13072.998890,-13078.475067,27074.735114,32978.322563,37596.841168,0.006000,0.982000,0.116000,192.000000,0.000000,48.000000,30.000000,176.000000,3.000000,160.000000,0.000000,0.000000,0.000000,1647941917.446758,0.000000
159.000000,-2346.866113,-27425.277522,8531.794969,13068.819114,-13083.571265,27069.661268,32974.053380,37591.588508,0.006000,0.982000,0.116000,192.000000,0.000000,0.000000,0.000000,0.000000,0.000000,0.000000,0.000000,0.000000,0.000000,1647941917.454154,0.000000
160.000000,-2355.113906,-27431.714825,8526.587013,13063.633509,-13086.879323,27067.873128,32970.186528,37585.464130,0.006000,0.982000,0.116000,192.000000,0.000000,0.000000,0.000000,0.000000,0.000000,0.000000,0.000000,0.000000,0.000000,1647941917.454171,0.000000
161.000000,-2361.282988,-27425.769261,8530.476216,13067.478009,-13079.391489,27073.572823,32974.723932,37586.067627,0.006000,0.982000,0.116000,192.000000,0.000000,0.000000,0.000000,0.000000,0.000000,0.000000,0.000000,0.000000,0.000000,1647941917.460362,0.000000
162.000000,-2363.719328,-27422.371795,8534.186606,13073.714146,-13074.742326,27078.981945,32979.596612,37586.984049,0.006000,0.982000,0.116000,192.000000,0.000000,0.000000,0.000000,0.000000,0.000000,0.000000,0.000000,0.000000,0.000000,1647941917.460378,0.000000
163.000000,-2352.275235,-27417.767336,8539.193396,13077.424535,-13071.836599,27085.754524,32986.771522,37592.817854,0.006000,0.982000,0.116000,192.000000,0.000000,0.000000,0.000000,0.000000,0.000000,0.000000,0.000000,0.000000,0.000000,1647941917.467886,0.000000
164.000000,-2348.386031,-27422.952941,8535.773580,13072.618910,-13078.318605,27079.764256,32983.642278,37601.624441,0.006000,0.982000,0.116000,192.000000,0.000000,0.000000,0.000000,0.000000,0.000000,0.000000,0.000000,0.000000,0.000000,1647941917.475727,0.000000
165.000000,-2355.918569,-27431.670121,8527.838710,13063.834675,-13087.415765,27071.225890,32977.048514,37599.903357,0.006000,0.982000,0.116000,192.000000,0.000000,0.000000,0.000000,0.000000,0.000000,0.000000,0.000000,0.000000,0.000000,1647941917.475743,0.000000
166.000000,-2358.243151,-27433.234743,8529.515091,13063.544102,-13086.588751,27073.684582,32980.133054,37601.177406,0.006000,0.982000,0.116000,192.000000,0.000000,0.000000,0.000000,0.000000,0.000000,0.000000,0.000000,0.000000,0.000000,1647941917.483780,0.000000
167.000000,-2360.724194,-27436.900429,8525.156501,13058.649070,-13092.109632,27069.147178,32979.238984,37601.736200,0.006000,0.982000,0.116000,192.000000,0.000000,0.000000,0.000000,0.000000,0.000000,0.000000,0.000000,0.000000,0.000000,1647941917.483796,0.000000
168.000000,-2356.678528,-27427.825621,8531.683210,13063.454695,-13085.180591,27073.818692,32982.323525,37602.809084,0.010000,0.978000,0.112000,192.000000,0.000000,80.000000,30.000000,144.000000,3.000000,128.000000,0.000000,0.000000,0.000000,1647941917.490377,0.000000
169.000000,-2351.425868,-27419.041386,8536.757056,13069.936701,-13077.402184,27077.037344,32983.776389,37599.858654,0.010000,0.978000,0.112000,192.000000,0.000000,0.000000,0.000000,0.000000,0.000000,0.000000,0.000000,0.000000,0.000000,1647941917.490393,0.000000
170.000000,-2354.800982,-27419.264903,8535.885338,13070.584902,-13076.575169,27075.964460,32982.144711,37595.634174,0.010000,0.978000,0.112000,192.000000,0.000000,0.000000,0.000000,0.000000,0.000000,0.000000,0.000000,0.000000,0.000000,1647941917.498342,0.000000
171.000000,-2353.459877,-27417.946150,8537.964051,13075.792858,-13072.283634,27079.674849,32985.788046,37599.523377,0.010000,0.978000,0.112000,192.000000,0.000000,0.000000,0.000000,0.000000,0.000000,0.000000,0.000000,0.000000,0.000000,1647941917.498377,0.000000
172.000000,-2354.957444,-27420.471897,8537.874644,13077.379832,-13073.825905,27075.584480,32979.708371,37599.232805,0.010000,0.978000,0.112000,192.000000,0.000000,0.000000,0.000000,0.000000,0.000000,0.000000,0.000000,0.000000,0.000000,1647941917.506347,0.000000
173.000000,-2352.386993,-27410.368909,8545.362478,13083.191286,-13066.181608,27082.222948,32979.775426,37597.221148,0.010000,0.978000,0.112000,192.000000,0.000000,0.000000,0.000000,0.000000,0.000000,0.000000,0.000000,0.000000,0.000000,1647941917.506365,0.000000
174.000000,-2350.777668,-27415.040423,8540.959184,13079.212675,-13069.333204,27075.092742,32975.260374,37602.876139,0.010000,0.978000,0.112000,192.000000,0.000000,0.000000,0.000000,0.000000,0.000000,0.000000,0.000000,0.000000,0.000000,1647941917.514435,0.000000
175.000000,-2349.637729,-27412.671138,8539.103989,13078.877399,-13068.662652,27075.718591,32974.209842,37598.271680,0.010000,0.978000,0.112000,192.000000,0.000000,0.000000,0.000000,0.000000,0.000000,0.000000,0.000000,0.000000,0.000000,1647941917.514453,0.000000
176.000000,-2350.241226,-27412.358214,8538.366382,13078.542123,-13068.975576,27072.790512,32971.661743,37594.471883,0.010000,0.978000,0.112000,192.000000,0.000000,0.000000,0.000000,0.000000,0.000000,0.000000,0.000000,0.000000,0.000000,1647941917.520900,0.000000
177.000000,-2346.910816,-27407.619644,8541.070943,13084.465335,-13064.974614,27075.405666,32973.025200,37594.449531,0.010000,0.978000,0.112000,192.000000,0.000000,0.000000,0.000000,0.000000,0.000000,0.000000,0.000000,0.000000,0.000000,1647941917.520911,0.000000
178.000000,-2342.440467,-27408.916045,8539.998059,13082.923065,-13067.209788,27075.092742,32973.583993,37597.712886,0.004000,0.984000,0.108000,192.000000,0.000000,32.000000,30.000000,192.000000,3.000000,96.000000,0.000000,0.000000,0.000000,1647941917.527988,0.000000
179.000000,-2344.966214,-27418.661406,8535.080675,13075.502285,-13073.781201,27071.203538,32972.220537,37597.958755,0.004000,0.984000,0.108000,192.000000,0.000000,0.000000,0.000000,0.000000,0.000000,0.000000,0.000000,0.000000,0.000000,1647941917.536039,0.000000
180.000000,-2356.589121,-27429.703168,8525.983515,13062.605329,-13084.018300,27061.838157,32967.057284,37591.208528,0.004000,0.984000,0.108000,192.000000,0.000000,0.000000,0.000000,0.000000,0.000000,0.000000,0.000000,0.000000,0.000000,1647941917.536055,0.000000
181.000000,-2358.801944,-27423.399976,8531.526748,13067.656823,-13077.379832,27071.963498,32976.042685,37585.955868,0.004000,0.984000,0.108000,192.000000,0.000000,0.000000,0.000000,0.000000,0.000000,0.000000,0.000000,0.000000,0.000000,1647941917.542679,0.000000
182.000000,-2356.298549,-27424.025825,8533.448998,13069.154390,-13076.977501,27071.136483,32981.407104,37591.186177,0.004000,0.984000,0.108000,192.000000,0.000000,0.000000,0.000000,0.000000,0.000000,0.000000,0.000000,0.000000,0.000000,1647941917.542697,0.000000
183.000000,-2348.341328,-27420.270731,8542.814379,13073.065945,-13072.261282,27075.293908,32984.424589,37595.433008,0.004000,0.984000,0.108000,192.000000,0.000000,0.000000,0.000000,0.000000,0.000000,0.000000,0.000000,0.000000,0.000000,1647941917.550292,0.000000
184.000000,-2349.704784,-27424.003473,8537.919347,13067.634471,-13078.966806,27069.325992,32977.741418,37595.656526,0.004000,0.984000,0.108000,192.000000,0.000000,0.000000,0.000000,0.000000,0.000000,0.000000,0.000000,0.000000,0.000000,1647941917.550298,0.000000
185.000000,-2357.706709,-27423.847011,8533.203129,13066.986271,-13080.620835,27070.555338,32974.209842,37586.916993,0.004000,0.984000,0.108000,192.000000,0.000000,0.000000,0.000000,0.000000,0.000000,0.000000,0.000000,0.000000,0.000000,1647941917.558294,0.000000
186.000000,-2357.684357,-27422.617665,8535.192434,13072.261282,-13076.105783,27077.573785,32978.970764,37588.526319,0.004000,0.984000,0.108000,192.000000,0.000000,0.000000,0.000000,0.000000,0.000000,0.000000,0.000000,0.000000,0.000000,1647941917.558306,0.000000
187.000000,-2352.051717,-27421.701243,8535.058324,13073.580035,-13075.658748,27075.472722,32978.791950,37586.604069,0.004000,0.984000,0.108000,192.000000,0.000000,0.000000,0.000000,0.000000,0.000000,0.000000,0.000000,0.000000,0.000000,1647941917.565582,0.000000
188.000000,-2343.870979,-27416.873266,8534.186606,13076.284596,-13072.730669,27075.495073,32976.713237,37586.782883,0.004000,0.984000,0.106000,192.000000,0.000000,32.000000,30.000000,192.000000,3.000000,80.000000,0.000000,0.000000,0.000000,1647941917.565592,0.000000
189.000000,-2341.032307,-27410.972406,8536.332373,13078.765640,-13067.343899,27082.401762,32979.261336,37592.147302,0.004000,0.984000,0.106000,192.000000,0.000000,0.000000,0.000000,0.000000,0.000000,0.000000,0.000000,0.000000,0.000000,1647941917.573144,0.000000
190.000000,-2339.087706,-27407.686699,8534.097199,13075.055251,-13071.076640,27077.774951,32980.557737,37596.952927,0.004000,0.984000,0.106000,192.000000,0.000000,0.000000,0.000000,0.000000,0.000000,0.000000,0.000000,0.000000,0.000000,1647941917.573161,0.000000
191.000000,-2340.384107,-27410.860647,8534.097199,13070.875474,-13075.703451,27073.796341,32979.238984,37598.182273,0.004000,0.984000,0.106000,192.000000,0.000000,0.000000,0.000000,0.000000,0.000000,0.000000,0.000000,0.000000,0.000000,1647941917.581382,0.000000
192.000000,-2349.637729,-27422.438851,8531.906728,13067.723878,-13075.144658,27081.686506,32981.585918,37599.366915,0.004000,0.984000,0.106000,192.000000,0.000000,0.000000,0.000000,0.000000,0.000000,0.000000,0.000000,0.000000,0.000000,1647941917.581399,0.000000
193.000000,-2341.881674,-27415.509810,8532.666687,13075.971672,-13072.618910,27085.642765,32984.558700,37600.059819,0.004000,0.984000,0.106000,192.000000,0.000000,0.000000,0.000000,0.000000,0.000000,0.000000,0.000000,0.000000,0.000000,1647941917.588127,0.000000
194.000000,-2340.272348,-27412.045290,8535.304193,13082.297216,-13070.830771,27084.435771,32983.709333,37599.121046,0.004000,0.984000,0.106000,192.000000,0.000000,0.000000,0.000000,0.000000,0.000000,0.000000,0.000000,0.000000,0.000000,1647941917.595421,0.000000
195.000000,-2352.610511,-27422.729423,8533.247832,13074.384698,-13078.072736,27076.277384,32980.445979,37596.170616,0.004000,0.984000,0.106000,192.000000,0.000000,0.000000,0.000000,0.000000,0.000000,0.000000,0.000000,0.000000,0.000000,1647941917.595437,0.000000
196.000000,-2365.351005,-27427.870325,8526.050571,13066.293367,-13085.806440,27067.023762,32973.807511,37589.174520,0.004000,0.984000,0.106000,192.000000,0.000000,0.000000,0.000000,0.000000,0.000000,0.000000,0.000000,0.000000,0.000000,1647941917.602805,0.000000
197.000000,-2370.357796,-27433.458261,8521.446111,13063.320585,-13087.706338,27061.793454,32969.895955,37584.368895,0.004000,0.984000,0.106000,192.000000,0.000000,0.000000,0.000000,0.000000,0.000000,0.000000,0.000000,0.000000,0.000000,1647941917.602822,0.000000
198.000000,-2359.763069,-27424.361101,8529.962126,13071.546027,-13078.698585,27066.040285,32970.298287,37581.865499,0.004000,0.976000,0.108000,192.000000,0.000000,32.000000,30.000000,128.000000,3.000000,96.000000,0.000000,0.000000,0.000000,1647941917.612293,0.000000
199.000000,-2351.202351,-27419.823697,8531.392638,13069.444963,-13079.927931,27063.738056,32967.549022,37585.441778,0.004000,0.976000,0.108000,192.000000,0.000000,0.000000,0.000000,0.000000,0.000000,0.000000,0.000000,0.000000,0.000000,1647941917.612309,0.000000
200.000000,-2346.352022,-27416.985025,8536.019449,13072.373041,-13075.032899,27071.225890,32971.192356,37586.760531,0.004000,0.976000,0.108000,192.000000,0.000000,0.000000,0.000000,0.000000,0.000000,0.000000,0.000000,0.000000,0.000000,1647941917.618733,0.000000
201.000000,-2353.504581,-27417.074432,8537.338202,13076.195189,-13071.724841,27075.293908,32976.802644,37588.280450,0.004000,0.976000,0.108000,192.000000,0.000000,0.000000,0.000000,0.000000,0.000000,0.000000,0.000000,0.000000,0.000000,1647941917.618750,0.000000
202.000000,-2361.014767,-27422.751775,8529.358629,13071.098992,-13078.810344,27067.403742,32973.852214,37593.354296,0.004000,0.976000,0.108000,192.000000,0.000000,0.000000,0.000000,0.000000,0.000000,0.000000,0.000000,0.000000,0.000000,1647941917.625620,0.000000
203.000000,-2354.309243,-27416.627397,8528.732780,13072.060117,-13076.865742,27070.309469,32972.533461,37584.838281,0.004000,0.976000,0.108000,192.000000,0.000000,0.000000,0.000000,0.000000,0.000000,0.000000,0.000000,0.000000,0.000000,1647941917.625636,0.000000
204.000000,-2353.415174,-27413.162877,8535.170082,13074.965844,-13074.429402,27076.813826,32978.747246,37584.547709,0.004000,0.976000,0.108000,192.000000,0.000000,0.000000,0.000000,0.000000,0.000000,0.000000,0.000000,0.000000,0.000000,1647941917.633498,0.000000
205.000000,-2355.002148,-27408.692528,8538.008754,13075.435230,-13072.283634,27083.340536,32986.838578,37591.588508,0.004000,0.976000,0.108000,192.000000,0.000000,0.000000,0.000000,0.000000,0.000000,0.000000,0.000000,0.000000,0.000000,1647941917.633514,0.000000
206.000000,-2351.559979,-27409.810115,8539.528673,13076.083431,-13071.993062,27082.848797,32987.956165,37595.187139,0.004000,0.976000,0.108000,192.000000,0.000000,0.000000,0.000000,0.000000,0.000000,0.000000,0.000000,0.000000,0.000000,1647941917.641644,0.000000
207.000000,-2356.902046,-27410.033633,8538.120513,13076.083431,-13072.909483,27080.837140,32984.871624,37595.142435,0.004000,0.976000,0.108000,192.000000,0.000000,0.000000,0.000000,0.000000,0.000000,0.000000,0.000000,0.000000,0.000000,1647941917.641661,0.000000
208.000000,-2356.633825,-27412.492324,8537.874644,13072.395393,-13075.122306,27079.049001,32981.518862,37594.158959,0.004000,0.980000,0.106000,192.000000,0.000000,32.000000,30.000000,160.000000,3.000000,80.000000,0.000000,0.000000,0.000000,1647941917.648715,0.000000
209.000000,-2356.678528,-27415.062775,8534.924213,13072.574207,-13077.893922,27078.758428,32979.618964,37595.097732,0.004000,0.980000,0.106000,192.000000,0.000000,0.000000,0.000000,0.000000,0.000000,0.000000,0.000000,0.000000,0.000000,1647941917.655125,0.000000
210.000000,-2359.763069,-27414.056947,8536.265318,13073.401221,-13075.479934,27082.290004,32980.557737,37594.874215,0.004000,0.980000,0.106000,192.000000,0.000000,0.000000,0.000000,0.000000,0.000000,0.000000,0.000000,0.000000,0.000000,1647941917.655141,0.000000
211.000000,-2361.014767,-27406.770278,8540.825074,13079.659710,-13070.428439,27086.067448,32983.284650,37597.981107,0.004000,0.980000,0.106000,192.000000,0.000000,0.000000,0.000000,0.000000,0.000000,0.000000,0.000000,0.000000,0.000000,1647941917.662847,0.000000
212.000000,-2359.316034,-27406.300891,8542.635565,13080.464373,-13069.713184,27084.368716,32982.882319,37598.226976,0.004000,0.980000,0.106000,192.000000,0.000000,0.000000,0.000000,0.000000,0.000000,0.000000,0.000000,0.000000,0.000000,1647941917.662858,0.000000
213.000000,-2354.063374,-27417.588522,8538.656955,13076.664576,-13074.630567,27080.613623,32982.524691,37596.729409,0.004000,0.980000,0.106000,192.000000,0.000000,0.000000,0.000000,0.000000,0.000000,0.000000,0.000000,0.000000,0.000000,1647941917.671238,0.000000
214.000000,-2350.867075,-27420.270731,8532.264356,13071.389564,-13080.352614,27075.763294,32977.629659,37594.762456,0.004000,0.980000,0.106000,192.000000,0.000000,0.000000,0.000000,0.000000,0.000000,0.000000,0.000000,0.000000,0.000000,1647941917.671273,0.000000
215.000000,-2350.934130,-27421.053043,8537.762885,13072.887131,-13075.591692,27079.205463,32980.177758,37595.902395,0.004000,0.980000,0.106000,192.000000,0.000000,0.000000,0.000000,0.000000,0.000000,0.000000,0.000000,0.000000,0.000000,1647941917.677813,0.000000
216.000000,-2353.169305,-27420.673063,8540.445094,13075.994024,-13073.088297,27078.289041,32985.542176,37599.165749,0.004000,0.980000,0.106000,192.000000,0.000000,0.000000,0.000000,0.000000,0.000000,0.000000,0.000000,0.000000,0.000000,1647941917.677829,0.000000
217.000000,-2356.969101,-27418.348481,8539.014583,13077.089259,-13073.267111,27074.869224,32986.503301,37602.585566,0.004000,0.980000,0.106000,192.000000,0.000000,0.000000,0.000000,0.000000,0.000000,0.000000,0.000000,0.000000,0.000000,1647941917.685618,0.000000
218.000000,-2358.354909,-27416.895618,8538.768713,13078.184495,-13073.736498,27074.377486,32980.758903,37600.752723,0.006000,0.986000,0.112000,192.000000,0.000000,48.000000,30.000000,208.000000,3.000000,128.000000,0.000000,0.000000,0.000000,1647941917.685630,0.000000
219.000000,-2360.679491,-27417.432060,8539.819245,13076.575169,-13072.998890,27075.942108,32980.893014,37592.862558,0.006000,0.986000,0.112000,192.000000,0.000000,0.000000,0.000000,0.000000,0.000000,0.000000,0.000000,0.000000,0.000000,1647941917.693897,0.000000
220.000000,-2359.092517,-27421.030691,8542.300289,13076.955149,-13072.909483,27078.579614,32985.318659,37591.812026,0.006000,0.986000,0.112000,192.000000,0.000000,0.000000,0.000000,0.000000,0.000000,0.000000,0.000000,0.000000,0.000000,1647941917.693913,0.000000
221.000000,-2359.114869,-27427.199772,8536.980574,13071.076640,-13078.363309,27075.964460,32981.563566,37591.364991,0.006000,0.986000,0.112000,192.000000,0.000000,0.000000,0.000000,0.000000,0.000000,0.000000,0.000000,0.000000,0.000000,1647941917.700908,0.000000
222.000000,-2354.353947,-27425.076357,8537.874644,13077.245721,-13072.753021,27081.664155,32987.442075,37599.903357,0.006000,0.986000,0.112000,192.000000,0.000000,0.000000,0.000000,0.000000,0.000000,0.000000,0.000000,0.000000,0.000000,1647941917.700925,0.000000
223.000000,-2350.375336,-27420.091918,8539.662783,13082.118402,-13067.656823,27083.362887,32989.856063,37600.305688,0.006000,0.986000,0.112000,192.000000,0.000000,0.000000,0.000000,0.000000,0.000000,0.000000,0.000000,0.000000,0.000000,1647941917.707312,0.000000
224.000000,-2347.201389,-27418.460240,8545.317774,13083.347748,-13064.773448,27081.910024,32987.330316,37597.981107,0.006000,0.986000,0.112000,192.000000,0.000000,0.000000,0.000000,0.000000,0.000000,0.000000,0.000000,0.000000,0.000000,1647941917.707323,0.000000
225.000000,-2347.715479,-27417.499115,8550.011641,13087.147544,-13061.152465,27085.910986,32984.558700,37597.958755,0.006000,0.986000,0.112000,192.000000,0.000000,0.000000,0.000000,0.000000,0.000000,0.000000,0.000000,0.000000,0.000000,1647941917.715442,0.000000
226.000000,-2355.985624,-27417.610874,8554.370231,13091.483783,-13058.716125,27087.900291,32986.011563,37601.602090,0.006000,0.986000,0.112000,192.000000,0.000000,0.000000,0.000000,0.000000,0.000000,0.000000,0.000000,0.000000,0.000000,1647941917.723549,0.000000
227.000000,-2357.371432,-27424.271694,8549.966937,13086.186419,-13064.482875,27082.200597,32984.938679,37602.742029,0.006000,0.986000,0.112000,192.000000,0.000000,0.000000,0.000000,0.000000,0.000000,0.000000,0.000000,0.000000,0.000000,1647941917.723565,0.000000
228.000000,-2352.118773,-27422.908237,8548.849350,13084.957073,-13064.527579,27082.580576,32984.245775,37606.251252,0.004000,0.986000,0.110000,192.000000,0.000000,32.000000,30.000000,208.000000,3.000000,112.000000,0.000000,0.000000,0.000000,1647941917.730542,0.000000
229.000000,-2352.923435,-27423.221162,8547.038859,13080.978463,-13066.919216,27078.713724,32983.843444,37608.173502,0.004000,0.986000,0.110000,192.000000,0.000000,0.000000,0.000000,0.000000,0.000000,0.000000,0.000000,0.000000,0.000000,1647941917.730558,0.000000
230.000000,-2352.699918,-27427.557400,8548.558777,13080.263207,-13067.366250,27078.937242,32982.904671,37605.893625,0.004000,0.986000,0.110000,192.000000,0.000000,0.000000,0.000000,0.000000,0.000000,0.000000,0.000000,0.000000,0.000000,1647941917.738025,0.000000
231.000000,-2349.257749,-27427.646807,8552.336222,13082.274864,-13065.935739,27080.323050,32982.859967,37603.926671,0.004000,0.986000,0.110000,192.000000,0.000000,0.000000,0.000000,0.000000,0.000000,0.000000,0.000000,0.000000,0.000000,1647941917.738041,0.000000
232.000000,-2351.939959,-27431.714825,8549.564606,13081.269035,-13067.120381,27078.423152,32980.647144,37600.551558,0.004000,0.986000,0.110000,192.000000,0.000000,0.000000,0.000000,0.000000,0.000000,0.000000,0.000000,0.000000,0.000000,1647941917.745907,0.000000
233.000000,-2348.341328,-27434.285275,8550.257510,13082.140754,-13066.047498,27081.708858,32980.714200,37599.970412,0.004000,0.986000,0.110000,192.000000,0.000000,0.000000,0.000000,0.000000,0.000000,0.000000,0.000000,0.000000,0.000000,1647941917.745923,0.000000
234.000000,-2347.424906,-27443.360084,8540.959184,13074.272939,-13075.032899,27075.495073,32972.198185,37597.109389,0.004000,0.986000,0.110000,192.000000,0.000000,0.000000,0.000000,0.000000,0.000000,0.000000,0.000000,0.000000,0.000000,1647941917.754164,0.000000
235.000000,-2349.436563,-27440.543764,8541.920309,13071.791896,-13073.647091,27081.910024,32974.209842,37592.259060,0.004000,0.986000,0.110000,192.000000,0.000000,0.000000,0.000000,0.000000,0.000000,0.000000,0.000000,0.000000,0.000000,1647941917.754198,0.000000
236.000000,-2349.190694,-27440.499060,8545.787161,13072.887131,-13071.501323,27083.854626,32976.221499,37592.236709,0.004000,0.986000,0.110000,192.000000,0.000000,0.000000,0.000000,0.000000,0.000000,0.000000,0.000000,0.000000,0.000000,1647941917.760755,0.000000
237.000000,-2348.810714,-27436.676912,8550.659841,13078.095088,-13065.689870,27088.973175,32980.378923,37590.113293,0.004000,0.986000,0.110000,192.000000,0.000000,0.000000,0.000000,0.000000,0.000000,0.000000,0.000000,0.000000,0.000000,1647941917.760772,0.000000
238.000000,-2346.799057,-27428.742043,8554.593748,13082.543085,-13060.124285,27090.537797,32984.022258,37590.314459,0.004000,0.986000,0.110000,192.000000,0.000000,0.000000,30.000000,128.000000,3.000000,96.000000,0.000000,0.000000,0.000000,1647941917.769113,0.000000
239.000000,-2353.929264,-27439.716749,8541.294460,13074.474105,-13070.875474,27078.043172,32981.094179,37590.962659,0.004000,0.986000,0.110000,192.000000,0.000000,0.000000,0.000000,0.000000,0.000000,0.000000,0.000000,0.000000,0.000000,1647941917.769130,0.000000
240.000000,-2356.455011,-27447.606915,8539.394562,13067.187436,-13077.133963,27070.600041,32973.226365,37584.324191,0.004000,0.986000,0.110000,192.000000,0.000000,0.000000,0.000000,0.000000,0.000000,0.000000,0.000000,0.000000,0.000000,1647941917.775892,0.000000
241.000000,-2357.885523,-27449.663275,8541.294460,13066.025146,-13078.720937,27064.073332,32972.354647,37584.301839,0.004000,0.986000,0.110000,192.000000,0.000000,0.000000,0.000000,0.000000,0.000000,0.000000,0.000000,0.000000,0.000000,1647941917.783738,0.000000
242.000000,-2367.072090,-27454.804177,8529.716257,13059.833713,-13088.488649,27051.757521,32963.816281,37580.524395,0.004000,0.986000,0.110000,192.000000,0.000000,0.000000,0.000000,0.000000,0.000000,0.000000,0.000000,0.000000,0.000000,1647941917.783755,0.000000
243.000000,-2362.713499,-27439.157956,8538.344030,13069.802591,-13078.743288,27064.073332,32970.678266,37573.908278,0.004000,0.986000,0.110000,192.000000,0.000000,0.000000,0.000000,0.000000,0.000000,0.000000,0.000000,0.000000,0.000000,1647941917.790207,0.000000
244.000000,-2359.204276,-27438.710921,8536.108856,13068.059155,-13081.671367,27062.195785,32971.818205,37579.138586,0.004000,0.986000,0.110000,192.000000,0.000000,0.000000,0.000000,0.000000,0.000000,0.000000,0.000000,0.000000,0.000000,1647941917.790218,0.000000
245.000000,-2371.900066,-27447.405749,8529.336277,13061.308928,-13087.751041,27060.362942,32969.359513,37579.227993,0.004000,0.986000,0.110000,192.000000,0.000000,0.000000,0.000000,0.000000,0.000000,0.000000,0.000000,0.000000,0.000000,1647941917.798303,0.000000
246.000000,-2379.723177,-27448.433929,8532.443170,13062.135942,-13085.292349,27063.983925,32974.500415,37581.574927,0.004000,0.986000,0.110000,192.000000,0.000000,0.000000,0.000000,0.000000,0.000000,0.000000,0.000000,0.000000,0.000000,1647941917.798315,0.000000
247.000000,-2378.627941,-27444.947057,8535.885338,13066.986271,-13080.576131,27071.248242,32978.657839,37582.983086,0.004000,0.986000,0.110000,192.000000,0.000000,0.000000,0.000000,0.000000,0.000000,0.000000,0.000000,0.000000,0.000000,1647941917.806275,0.000000
248.000000,-2371.900066,-27441.504889,8538.031106,13071.478971,-13073.110649,27078.333745,32980.513034,37580.837319,0.004000,0.986000,0.110000,192.000000,0.000000,0.000000,0.000000,0.000000,0.000000,0.000000,0.000000,0.000000,0.000000,1647941917.806286,0.000000
249.000000,-2362.937017,-27435.916953,8545.407181,13079.279730,-13065.421649,27085.218082,32984.111665,37583.519528,0.004000,0.984000,0.104000,192.000000,0.000000,32.000000,30.000000,192.000000,3.000000,64.000000,0.000000,0.000000,0.000000,1647941917.813330,0.000000
250.000000,-2360.187752,-27432.318322,8548.514074,13084.375928,-13063.119419,27090.001355,32986.235081,37588.705133,0.004000,0.984000,0.104000,192.000000,0.000000,0.000000,0.000000,0.000000,0.000000,0.000000,0.000000,0.000000,0.000000,1647941917.813347,0.000000
251.000000,-2363.965197,-27439.359121,8542.188530,13078.966806,-13070.495495,27083.631108,32983.128188,37595.276546,0.004000,0.984000,0.104000,192.000000,0.000000,0.000000,0.000000,0.000000,0.000000,0.000000,0.000000,0.000000,0.000000,1647941917.820973,0.000000
252.000000,-2366.446241,-27437.548630,8543.239062,13077.245721,-13070.428439,27083.899329,32980.065999,37594.561290,0.004000,0.984000,0.104000,192.000000,0.000000,0.000000,0.000000,0.000000,0.000000,0.000000,0.000000,0.000000,0.000000,1647941917.820990,0.000000
253.000000,-2367.697938,-27434.329979,8541.942661,13075.591692,-13072.395393,27079.049001,32977.964935,37593.041371,0.004000,0.984000,0.104000,192.000000,0.000000,0.000000,0.000000,0.000000,0.000000,0.000000,0.000000,0.000000,0.000000,1647941917.829086,0.000000
254.000000,-2367.876752,-27434.687607,8540.109818,13073.781201,-13074.585864,27078.065524,32976.579127,37588.705133,0.004000,0.984000,0.104000,192.000000,0.000000,0.000000,0.000000,0.000000,0.000000,0.000000,0.000000,0.000000,0.000000,1647941917.829101,0.000000
255.000000,-2371.989473,-27435.671083,8537.651126,13073.937663,-13076.105783,27079.898367,32977.160272,37586.000572,0.004000,0.984000,0.104000,192.000000,0.000000,0.000000,0.000000,0.000000,0.000000,0.000000,0.000000,0.000000,0.000000,1647941917.835864,0.000000
0.000000,-2377.286837,-27436.118118,8540.333335,13072.618910,-13075.368175,27080.099533,32975.707409,37582.089017,0.004000,0.984000,0.104000,192.000000,0.000000,0.000000,0.000000,0.000000,0.000000,0.000000,0.000000,0.000000,0.000000,1647941917.842662,0.000000
1.000000,-2373.263523,-27440.990799,8539.282803,13072.373041,-13076.552817,27078.311393,32975.193319,37581.753741,0.004000,0.984000,0.104000,192.000000,0.000000,0.000000,0.000000,0.000000,0.000000,0.000000,0.000000,0.000000,0.000000,1647941917.842696,0.000000
2.000000,-2366.960331,-27443.158918,8536.757056,13070.987233,-13079.167972,27076.612660,32975.305077,37581.910203,0.004000,0.984000,0.104000,192.000000,0.000000,0.000000,0.000000,0.000000,0.000000,0.000000,0.000000,0.000000,0.000000,1647941917.850667,0.000000
3.000000,-2362.378223,-27437.570982,8541.272109,13072.820076,-13075.569341,27079.473684,32978.568432,37581.507871,0.006000,0.982000,0.104000,192.000000,0.000000,48.000000,30.000000,176.000000,3.000000,64.000000,0.000000,0.000000,0.000000,1647941917.850684,0.000000
4.000000,-2365.887447,-27435.246400,8540.668612,13071.143695,-13075.725803,27082.759390,32980.088351,37582.848976,0.006000,0.982000,0.104000,192.000000,0.000000,0.000000,0.000000,0.000000,0.000000,0.000000,0.000000,0.000000,0.000000,1647941917.858685,0.000000
5.000000,-2374.448165,-27436.296932,8540.623908,13068.193265,-13076.731631,27083.139370,32979.931889,37590.403866,0.006000,0.982000,0.104000,192.000000,0.000000,0.000000,0.000000,0.000000,0.000000,0.000000,0.000000,0.000000,0.000000,1647941917.858702,0.000000
6.000000,-2377.689168,-27439.560287,8539.975708,13065.980442,-13078.184495,27083.564053,32982.524691,37592.281412,0.006000,0.982000,0.104000,192.000000,0.000000,0.000000,0.000000,0.000000,0.000000,0.000000,0.000000,0.000000,0.000000,1647941917.865755,0.000000
7.000000,-2373.017654,-27439.292066,8535.527710,13064.661689,-13081.492553,27081.395934,32984.402237,37590.493273,0.006000,0.982000,0.104000,192.000000,0.000000,0.000000,0.000000,0.000000,0.000000,0.000000,0.000000,0.000000,0.000000,1647941917.865771,0.000000
8.000000,-2375.811622,-27445.774072,8526.989344,13059.051402,-13089.494477,27072.231719,32976.824996,37589.241575,0.006000,0.982000,0.104000,192.000000,0.000000,0.000000,0.000000,0.000000,0.000000,0.000000,0.000000,0.000000,0.000000,1647941917.873241,0.000000
9.000000,-2376.817450,-27441.437833,8533.761923,13065.533407,-13082.856009,27078.132579,32975.640354,37586.000572,0.006000,0.982000,0.104000,192.000000,0.000000,0.000000,0.000000,0.000000,0.000000,0.000000,0.000000,0.000000,0.000000,1647941917.873257,0.000000
10.000000,-2378.136203,-27439.873211,8534.253661,13069.064983,-13080.598483,27080.121884,32981.071828,37589.487444,0.006000,0.982000,0.104000,192.000000,0.000000,0.000000,0.000000,0.000000,0.000000,0.000000,0.000000,0.000000,0.000000,1647941917.881189,0.000000
11.000000,-2382.852421,-27442.354255,8531.638507,13064.125247,-13082.610140,27076.992640,32979.663668,37587.051104,0.006000,0.982000,0.104000,192.000000,0.000000,0.000000,0.000000,0.000000,0.000000,0.000000,0.000000,0.000000,0.000000,1647941917.881205,0.000000
12.000000,-2382.070110,-27445.662313,8528.933946,13056.413896,-13089.181553,27069.102474,32976.757941,37583.363066,0.006000,0.982000,0.104000,192.000000,0.000000,0.000000,0.000000,0.000000,0.000000,0.000000,0.000000,0.000000,0.000000,1647941917.889298,0.000000
13.000000,-2377.532706,-27447.673970,8529.492739,13054.759867,-13089.762698,27068.633088,32975.416836,37582.357238,0.002000,0.980000,0.110000,192.000000,0.000000,16.000000,30.000000,160.000000,3.000000,112.000000,0.000000,0.000000,0.000000,1647941917.889314,0.000000
14.000000,-2380.505488,-27449.529165,8531.973783,13057.531483,-13085.627626,27073.215195,32979.686019,37582.848976,0.002000,0.980000,0.110000,192.000000,0.000000,0.000000,0.000000,0.000000,0.000000,0.000000,0.000000,0.000000,0.000000,1647941917.895060,0.000000
15.000000,-2376.951561,-27439.381473,8539.394562,13067.254492,-13077.290425,27078.490207,32984.044610,37584.301839,0.002000,0.980000,0.110000,192.000000,0.000000,0.000000,0.000000,0.000000,0.000000,0.000000,0.000000,0.000000,0.000000,1647941917.902691,0.000000
16.000000,-2376.146898,-27435.425214,8535.460655,13065.220483,-13081.514905,27067.604907,32979.306040,37584.793578,0.002000,0.980000,0.110000,192.000000,0.000000,0.000000,0.000000,0.000000,0.000000,0.000000,0.000000,0.000000,0.000000,1647941917.902704,0.000000
17.000000,-2370.268389,-27435.134642,8533.426646,13061.890073,-13083.012472,27064.028628,32973.293420,37577.953944,0.002000,0.980000,0.110000,192.000000,0.000000,0.000000,0.000000,0.000000,0.000000,0.000000,0.000000,0.000000,0.000000,1647941917.910858,0.000000
18.000000,-2380.729005,-27445.125871,8533.583109,13061.152465,-13081.671367,27071.494111,32976.936755,37578.020999,0.002000,0.980000,0.110000,192.000000,0.000000,0.000000,0.000000,0.000000,0.000000,0.000000,0.000000,0.000000,0.000000,1647941917.910875,0.000000
19.000000,-2392.508375,-27442.734235,8535.326545,13059.409029,-13083.057175,27071.985849,32979.797778,37579.250345,0.002000,0.980000,0.110000,192.000000,0.000000,0.000000,0.000000,0.000000,0.000000,0.000000,0.000000,0.000000,0.000000,1647941917.918821,0.000000
20.000000,-2388.552116,-27443.002456,8529.515091,13051.876492,-13089.181553,27065.861471,32971.818205,37576.434025,0.002000,0.980000,0.110000,192.000000,0.000000,0.000000,0.000000,0.000000,0.000000,0.000000,0.000000,0.000000,0.000000,1647941917.918837,0.000000
21.000000,-2391.591953,-27445.192927,8527.369324,13052.681154,-13089.583884,27070.108303,32974.411008,37577.864537,0.002000,0.980000,0.110000,192.000000,0.000000,0.000000,0.000000,0.000000,0.000000,0.000000,0.000000,0.000000,0.000000,1647941917.925640,0.000000
22.000000,-2389.580296,-27444.008284,8526.989344,13052.435285,-13091.260265,27067.001410,32972.712275,37584.860633,0.002000,0.980000,0.110000,192.000000,0.000000,0.000000,0.000000,0.000000,0.000000,0.000000,0.000000,0.000000,0.000000,1647941917.925675,0.000000
23.000000,-2385.378168,-27436.967485,8531.862024,13055.609233,-13087.281655,27071.516463,32974.165139,37586.827587,0.004000,0.976000,0.112000,192.000000,0.000000,32.000000,30.000000,128.000000,3.000000,128.000000,0.000000,0.000000,0.000000,1647941917.933561,0.000000
24.000000,-2387.434529,-27436.498098,8530.520920,13055.028088,-13087.818097,27073.192844,32976.199147,37588.571023,0.004000,0.976000,0.112000,192.000000,0.000000,0.000000,0.000000,0.000000,0.000000,0.000000,0.000000,0.000000,0.000000,1647941917.933576,0.000000
25.000000,-2389.043854,-27431.290141,8538.053458,13063.097067,-13078.318605,27082.446466,32983.038781,37595.164787,0.004000,0.976000,0.112000,192.000000,0.000000,0.000000,0.000000,0.000000,0.000000,0.000000,0.000000,0.000000,0.000000,1647941917.942871,0.000000
26.000000,-2389.446186,-27428.742043,8538.969879,13064.728745,-13076.597521,27081.842969,32986.168025,37597.221148,0.004000,0.976000,0.112000,192.000000,0.000000,0.000000,0.000000,0.000000,0.000000,0.000000,0.000000,0.000000,0.000000,1647941917.942887,0.000000
27.000000,-2384.908782,-27435.022883,8531.750266,13056.950338,-13082.274864,27075.383315,32982.815264,37591.543805,0.004000,0.976000,0.112000,192.000000,0.000000,0.000000,0.000000,0.000000,0.000000,0.000000,0.000000,0.000000,0.000000,1647941917.949054,0.000000
28.000000,-2378.046796,-27436.118118,8532.845501,13057.956166,-13081.604312,27076.120922,32981.183586,37587.609898,0.004000,0.976000,0.112000,192.000000,0.000000,0.000000,0.000000,0.000000,0.000000,0.000000,0.000000,0.000000,0.000000,1647941917.949071,0.000000
29.000000,-2380.058453,-27431.044272,8543.082600,13070.495495,-13071.858951,27082.804094,32984.513996,37593.488406,0.004000,0.976000,0.112000,192.000000,0.000000,0.000000,0.000000,0.000000,0.000000,0.000000,0.000000,0.000000,0.000000,1647941917.955234,0.000000
30.000000,-2384.282933,-27435.447566,8539.126341,13066.472181,-13074.965844,27076.076219,32979.909537,37596.684706,0.004000,0.976000,0.112000,192.000000,0.000000,0.000000,0.000000,0.000000,0.000000,0.000000,0.000000,0.000000,0.000000,1647941917.955250,0.000000
31.000000,-2389.267372,-27429.814926,8534.790103,13062.493570,-13077.491591,27075.092742,32976.199147,37593.019020,0.004000,0.976000,0.112000,192.000000,0.000000,0.000000,0.000000,0.000000,0.000000,0.000000,0.000000,0.000000,0.000000,1647941917.963227,0.000000
32.000000,-2388.194488,-27425.389281,8534.588937,13064.460524,-13078.139791,27079.116056,32977.093217,37594.136607,0.004000,0.976000,0.112000,192.000000,0.000000,0.000000,0.000000,0.000000,0.000000,0.000000,0.000000,0.000000,0.000000,1647941917.971169,0.000000
33.000000,-2380.281971,-27422.796479,8540.825074,13069.981405,-13074.362346,27081.462989,32978.076694,37593.354296,0.002000,0.980000,0.108000,192.000000,0.000000,16.000000,30.000000,160.000000,3.000000,96.000000,0.000000,0.000000,0.000000,1647941917.971185,0.000000
34.000000,-2375.364587,-27425.098708,8541.808551,13068.506189,-13075.077602,27081.574748,32976.154444,37590.202700,0.002000,0.980000,0.108000,192.000000,0.000000,0.000000,0.000000,0.000000,0.000000,0.000000,0.000000,0.000000,0.000000,1647941917.978363,0.000000
35.000000,-2373.218819,-27430.708996,8542.277937,13065.667518,-13076.083431,27081.395934,32976.154444,37585.531185,0.002000,0.980000,0.108000,192.000000,0.000000,0.000000,0.000000,0.000000,0.000000,0.000000,0.000000,0.000000,0.000000,1647941917.978379,0.000000
36.000000,-2377.577409,-27432.385377,8542.523806,13063.007660,-13075.748155,27079.205463,32975.215670,37581.574927,0.002000,0.980000,0.108000,192.000000,0.000000,0.000000,0.000000,0.000000,0.000000,0.000000,0.000000,0.000000,0.000000,1647941917.985735,0.000000
37.000000,-2375.074014,-27429.569057,8542.121475,13064.527579,-13074.854085,27079.943070,32977.897880,37582.625459,0.002000,0.980000,0.108000,192.000000,0.000000,0.000000,0.000000,0.000000,0.000000,0.000000,0.000000,0.000000,0.000000,1647941917.985752,0.000000
38.000000,-2388.373302,-27444.410615,8525.536481,13052.591747,-13089.941512,27068.431922,32970.164176,37583.340714,0.002000,0.980000,0.108000,192.000000,0.000000,0.000000,0.000000,0.000000,0.000000,0.000000,0.000000,0.000000,0.000000,1647941917.993826,0.000000
39.000000,-2392.150747,-27440.767281,8530.051533,13060.638375,-13083.079527,27080.367754,32976.176796,37584.055970,0.002000,0.980000,0.108000,192.000000,0.000000,0.000000,0.000000,0.000000,0.000000,0.000000,0.000000,0.000000,0.000000,1647941917.993842,0.000000
40.000000,-2386.004017,-27428.429118,8533.963088,13069.757887,-13075.904617,27086.983870,32983.284650,37587.073456,0.002000,0.980000,0.108000,192.000000,0.000000,0.000000,0.000000,0.000000,0.000000,0.000000,0.000000,0.000000,0.000000,1647941918.001593,0.000000
41.000000,-2386.316942,-27430.105499,8536.019449,13066.226311,-13079.659710,27078.847835,32978.769598,37586.447607,0.002000,0.980000,0.108000,192.000000,0.000000,0.000000,0.000000,0.000000,0.000000,0.000000,0.000000,0.000000,0.000000,1647941918.001611,0.000000
42.000000,-2384.506450,-27435.358159,8538.031106,13062.046535,-13082.744251,27071.270594,32970.968839,37581.887851,0.002000,0.980000,0.108000,192.000000,0.000000,0.000000,0.000000,0.000000,0.000000,0.000000,0.000000,0.000000,0.000000,1647941918.008448,0.000000
43.000000,-2389.781462,-27439.269714,8530.342106,13055.788047,-13090.030919,27063.291021,32963.369246,37576.858708,0.004000,0.976000,0.104000,192.000000,0.000000,32.000000,30.000000,128.000000,3.000000,64.000000,0.000000,0.000000,0.000000,1647941918.008473,0.000000
44.000000,-2395.861136,-27441.638999,8524.798873,13051.004773,-13094.680082,27061.435826,32963.481005,37574.109444,0.004000,0.976000,0.104000,192.000000,0.000000,0.000000,0.000000,0.000000,0.000000,0.000000,0.000000,0.000000,0.000000,1647941918.016149,0.000000
45.000000,-2393.894183,-27442.488365,8522.608402,13049.395448,-13096.132946,27060.765274,32960.351760,37568.856784,0.004000,0.976000,0.104000,192.000000,0.000000,0.000000,0.000000,0.000000,0.000000,0.000000,0.000000,0.000000,0.000000,1647941918.016161,0.000000
46.000000,-2387.769805,-27438.733272,8526.363495,13054.826922,-13090.276789,27065.034457,32963.838633,37566.643961,0.004000,0.976000,0.104000,192.000000,0.000000,0.000000,0.000000,0.000000,0.000000,0.000000,0.000000,0.000000,0.000000,1647941918.023448,0.000000
47.000000,-2387.278067,-27438.710921,8524.575356,13053.776390,-13092.623722,27062.665172,32963.481005,37562.933572,0.004000,0.976000,0.104000,192.000000,0.000000,0.000000,0.000000,0.000000,0.000000,0.000000,0.000000,0.000000,0.000000,1647941918.030460,0.000000
48.000000,-2385.959314,-27432.698301,8527.369324,13059.498436,-13089.338015,27064.006277,32967.325505,37564.162918,0.004000,0.976000,0.104000,192.000000,0.000000,0.000000,0.000000,0.000000,0.000000,0.000000,0.000000,0.000000,0.000000,1647941918.030477,0.000000
49.000000,-2393.871831,-27434.955828,8523.301306,13054.402239,-13094.188344,27060.809977,32963.637467,37565.571078,0.004000,0.976000,0.104000,192.000000,0.000000,0.000000,0.000000,0.000000,0.000000,0.000000,0.000000,0.000000,0.000000,1647941918.038062,0.000000
50.000000,-2397.537517,-27437.682740,8520.619097,13047.964936,-13096.490573,27060.877032,32962.944563,37569.348522,0.004000,0.976000,0.104000,192.000000,0.000000,0.000000,0.000000,0.000000,0.000000,0.000000,0.000000,0.000000,0.000000,1647941918.038079,0.000000
51.000000,-2392.687189,-27435.760490,8524.508300,13047.294384,-13095.462393,27062.799282,32962.944563,37574.534127,0.004000,0.976000,0.104000,192.000000,0.000000,0.000000,0.000000,0.000000,0.000000,0.000000,0.000000,0.000000,0.000000,1647941918.046184,0.000000
52.000000,-2393.335389,-27436.833374,8522.921327,13043.561643,-13098.658693,27061.569936,32960.083539,37572.455415,0.004000,0.976000,0.104000,192.000000,0.000000,0.000000,0.000000,0.000000,0.000000,0.000000,0.000000,0.000000,0.000000,1647941918.046200,0.000000
53.000000,-2393.849479,-27439.761453,8520.306172,13039.493625,-13100.580943,27056.317277,32958.116586,37567.202755,0.002000,0.978000,0.102000,192.000000,0.000000,16.000000,30.000000,144.000000,3.000000,48.000000,0.000000,0.000000,0.000000,1647941918.053898,0.000000
54.000000,-2402.387846,-27446.757549,8510.292591,13034.688000,-13106.079472,27048.315352,32954.048568,37565.146394,0.002000,0.978000,0.102000,192.000000,0.000000,0.000000,0.000000,0.000000,0.000000,0.000000,0.000000,0.000000,0.000000,1647941918.053910,0.000000
55.000000,-2400.242078,-27441.214316,8517.758074,13044.321602,-13098.502230,27054.909117,32955.926115,37565.928705,0.002000,0.978000,0.102000,192.000000,0.000000,0.000000,0.000000,0.000000,0.000000,0.000000,0.000000,0.000000,0.000000,1647941918.060247,0.000000
56.000000,-2386.518107,-27430.731348,8533.203129,13060.414858,-13083.392451,27068.767198,32962.989266,37571.427235,0.002000,0.978000,0.102000,192.000000,0.000000,0.000000,0.000000,0.000000,0.000000,0.000000,0.000000,0.000000,0.000000,1647941918.060253,0.000000
57.000000,-2378.605590,-27421.321263,8536.712353,13065.019317,-13078.162143,27072.701105,32966.766711,37574.645886,0.002000,0.978000,0.102000,192.000000,0.000000,0.000000,0.000000,0.000000,0.000000,0.000000,0.000000,0.000000,0.000000,1647941918.068335,0.000000
58.000000,-2384.774671,-27425.277522,8533.806626,13060.258396,-13081.894884,27069.504806,32965.649124,37574.601182,0.002000,0.978000,0.102000,192.000000,0.000000,0.000000,0.000000,0.000000,0.000000,0.000000,0.000000,0.000000,0.000000,1647941918.068340,0.000000
59.000000,-2392.776596,-27425.299874,8539.282803,13064.616986,-13077.268073,27076.769123,32969.940659,37572.924801,0.002000,0.978000,0.102000,192.000000,0.000000,0.000000,0.000000,0.000000,0.000000,0.000000,0.000000,0.000000,0.000000,1647941918.076230,0.000000
60.000000,-2386.898087,-27418.236723,8547.172969,13070.607253,-13071.389564,27080.859492,32976.847348,37576.590488,0.002000,0.978000,0.102000,192.000000,0.000000,0.000000,0.000000,0.000000,0.000000,0.000000,0.000000,0.000000,0.000000,1647941918.076234,0.000000
61.000000,-2379.276142,-27423.824659,8543.350821,13065.779277,-13076.038727,27074.153969,32972.801682,37577.439854,0.002000,0.978000,0.102000,192.000000,0.000000,0.000000,0.000000,0.000000,0.000000,0.000000,0.000000,0.000000,0.000000,1647941918.083207,0.000000
62.000000,-2374.895200,-27428.831450,8544.647222,13061.532445,-13076.530466,27074.869224,32973.047551,37572.120139,0.002000,0.978000,0.102000,192.000000,0.000000,0.000000,0.000000,0.000000,0.000000,0.000000,0.000000,0.000000,0.000000,1647941918.089953,0.000000
63.000000,-2373.442337,-27424.674025,8539.998059,13060.705431,-13077.916274,27072.812864,32972.354647,37569.102653,0.002000,0.980000,0.102000,192.000000,0.000000,16.000000,30.000000,160.000000,3.000000,48.000000,0.000000,0.000000,0.000000,1647941918.089957,0.000000
64.000000,-2377.242133,-27420.538952,8540.109818,13063.789971,-13075.479934,27078.378448,32974.209842,37571.896621,0.002000,0.980000,0.102000,192.000000,0.000000,0.000000,0.000000,0.000000,0.000000,0.000000,0.000000,0.000000,0.000000,1647941918.098342,0.000000
65.000000,-2384.752319,-27428.630284,8537.829940,13060.191340,-13080.777297,27075.629184,32974.187490,37579.563270,0.002000,0.980000,0.102000,192.000000,0.000000,0.000000,0.000000,0.000000,0.000000,0.000000,0.000000,0.000000,0.000000,1647941918.098379,0.000000
66.000000,-2385.959314,-27433.480612,8531.638507,13055.586881,-13088.421594,27067.604907,32970.633563,37580.412636,0.002000,0.980000,0.102000,192.000000,0.000000,0.000000,0.000000,0.000000,0.000000,0.000000,0.000000,0.000000,0.000000,1647941918.107856,0.000000
67.000000,-2384.417043,-27430.753700,8532.085542,13060.079582,-13086.633454,27070.175358,32967.280801,37573.304781,0.002000,0.980000,0.102000,192.000000,0.000000,0.000000,0.000000,0.000000,0.000000,0.000000,0.000000,0.000000,0.000000,1647941918.107873,0.000000
68.000000,-2378.940866,-27426.372758,8539.036934,13065.913387,-13081.269035,27074.958631,32974.343952,37579.987953,0.002000,0.980000,0.102000,192.000000,0.000000,0.000000,0.000000,0.000000,0.000000,0.000000,0.000000,0.000000,0.000000,1647941918.113990,0.000000
69.000000,-2390.541421,-27431.111328,8530.520920,13060.861893,-13086.521695,27070.935317,32972.309944,37580.926726,0.002000,0.980000,0.102000,192.000000,0.000000,0.000000,0.000000,0.000000,0.000000,0.000000,0.000000,0.000000,0.000000,1647941918.114006,0.000000
70.000000,-2385.579334,-27429.569057,8536.421780,13066.561588,-13079.547951,27079.160759,32977.786121,37583.296011,0.002000,0.980000,0.102000,192.000000,0.000000,0.000000,0.000000,0.000000,0.000000,0.000000,0.000000,0.000000,0.000000,1647941918.120768,0.000000
71.000000,-2383.321808,-27429.300836,8532.063190,13064.616986,-13085.202943,27071.784684,32975.215670,37583.117197,0.002000,0.980000,0.102000,192.000000,0.000000,0.000000,0.000000,0.000000,0.000000,0.000000,0.000000,0.000000,0.000000,1647941918.120779,0.000000
72.000000,-2379.410253,-27422.505906,8529.112760,13065.153428,-13086.611102,27068.543681,32971.304115,37577.931592,0.002000,0.980000,0.102000,192.000000,0.000000,0.000000,0.000000,0.000000,0.000000,0.000000,0.000000,0.000000,0.000000,1647941918.128940,0.000000
73.000000,-2380.617247,-27422.483554,8529.403332,13062.985309,-13086.856972,27068.208405,32967.392560,37578.289220,0.002000,0.980000,0.102000,192.000000,0.000000,0.000000,30.000000,176.000000,3.000000,64.000000,0.000000,0.000000,0.000000,1647941918.128957,0.000000
74.000000,-2392.530726,-27430.798403,8529.559795,13060.705431,-13087.795745,27073.215195,32969.448920,37580.792616,0.002000,0.980000,0.102000,192.000000,0.000000,0.000000,0.000000,0.000000,0.000000,0.000000,0.000000,0.000000,0.000000,1647941918.136868,0.000000
75.000000,-2399.191546,-27438.040368,8524.262431,13052.725858,-13095.060062,27063.648649,32965.671476,37581.150243,0.002000,0.980000,0.102000,192.000000,0.000000,0.000000,0.000000,0.000000,0.000000,0.000000,0.000000,0.000000,0.000000,1647941918.136886,0.000000
76.000000,-2396.486985,-27431.804232,8523.904803,13053.821093,-13093.316626,27063.223966,32965.380903,37573.796519,0.002000,0.980000,0.102000,192.000000,0.000000,0.000000,0.000000,0.000000,0.000000,0.000000,0.000000,0.000000,0.000000,1647941918.143160,0.000000
77.000000,-2382.159517,-27417.141487,8538.098161,13065.622814,-13079.324434,27076.523254,32976.623830,37573.371836,0.002000,0.980000,0.102000,192.000000,0.000000,0.000000,0.000000,0.000000,0.000000,0.000000,0.000000,0.000000,0.000000,1647941918.150555,0.000000
78.000000,-2381.958351,-27424.562266,8531.839673,13059.207864,-13084.621797,27069.124826,32973.494586,37576.322267,0.002000,0.980000,0.102000,192.000000,0.000000,0.000000,0.000000,0.000000,0.000000,0.000000,0.000000,0.000000,0.000000,1647941918.150572,0.000000
79.000000,-2389.759110,-27425.076357,8527.592841,13060.124285,-13084.442983,27072.589346,32976.422665,37575.808176,0.002000,0.980000,0.102000,192.000000,0.000000,0.000000,0.000000,0.000000,0.000000,0.000000,0.000000,0.000000,0.000000,1647941918.158758,0.000000
80.000000,-2389.826165,-27429.300836,8519.948544,13055.385715,-13089.472126,27067.314335,32975.618002,37578.535089,0.002000,0.980000,0.102000,192.000000,0.000000,0.000000,0.000000,0.000000,0.000000,0.000000,0.000000,0.000000,0.000000,1647941918.158775,0.000000
81.000000,-2384.171174,-27429.166726,8521.803739,13055.296308,-13089.740347,27064.363905,32973.382827,37576.411674,0.002000,0.980000,0.102000,192.000000,0.000000,0.000000,0.000000,0.000000,0.000000,0.000000,0.000000,0.000000,0.000000,1647941918.166759,0.000000
82.000000,-2385.579334,-27425.881019,8523.725989,13060.571320,-13089.561533,27066.017934,32970.879432,37575.361142,0.002000,0.980000,0.102000,192.000000,0.000000,0.000000,0.000000,0.000000,0.000000,0.000000,0.000000,0.000000,0.000000,1647941918.166775,0.000000
83.000000,-2382.897125,-27421.813002,8524.888280,13064.214654,-13086.745213,27067.023762,32974.031028,37579.943249,0.002000,0.980000,0.102000,192.000000,0.000000,0.000000,30.000000,208.000000,3.000000,48.000000,0.000000,0.000000,0.000000,1647941918.173619,0.000000
84.000000,-2387.479232,-27427.736214,8518.272164,13059.364326,-13091.170858,27062.553413,32971.482929,37577.506909,0.002000,0.980000,0.102000,192.000000,0.000000,0.000000,0.000000,0.000000,0.000000,0.000000,0.000000,0.000000,0.000000,1647941918.173629,0.000000
85.000000,-2384.752319,-27429.077319,8524.463597,13059.319622,-13089.561533,27066.576727,32972.913441,37576.769302,0.002000,0.980000,0.102000,192.000000,0.000000,0.000000,0.000000,0.000000,0.000000,0.000000,0.000000,0.000000,0.000000,1647941918.181063,0.000000
86.000000,-2379.812584,-27427.512697,8524.351838,13056.279785,-13092.131983,27060.206480,32969.247755,37580.703209,0.002000,0.980000,0.102000,192.000000,0.000000,0.000000,0.000000,0.000000,0.000000,0.000000,0.000000,0.000000,0.000000,1647941918.181094,0.000000
87.000000,-2383.835898,-27433.145336,8516.305210,13048.411971,-13100.491536,27049.835271,32958.809490,37568.879136,0.002000,0.980000,0.102000,192.000000,0.000000,0.000000,0.000000,0.000000,0.000000,0.000000,0.000000,0.000000,0.000000,1647941918.188962,0.000000
88.000000,-2381.377206,-27425.568095,8521.222594,13053.932852,-13092.713129,27056.853718,32964.106853,37563.626476,0.002000,0.980000,0.102000,192.000000,0.000000,0.000000,0.000000,0.000000,0.000000,0.000000,0.000000,0.000000,0.000000,1647941918.188970,0.000000
89.000000,-2382.830069,-27424.964598,8522.943678,13056.346840,-13090.679120,27060.720570,32966.654952,37568.208583,0.002000,0.980000,0.102000,192.000000,0.000000,0.000000,0.000000,0.000000,0.000000,0.000000,0.000000,0.000000,0.000000,1647941918.195656,0.000000
90.000000,-2386.272238,-27428.742043,8521.133187,13054.312832,-13092.221390,27060.675867,32968.331333,37567.605086,0.002000,0.980000,0.102000,192.000000,0.000000,0.000000,0.000000,0.000000,0.000000,0.000000,0.000000,0.000000,0.000000,1647941918.195666,0.000000
91.000000,-2386.138128,-27429.077319,8520.194414,13048.859006,-13094.478916,27053.679771,32964.933868,37566.979237,0.002000,0.980000,0.102000,192.000000,0.000000,0.000000,0.000000,0.000000,0.000000,0.000000,0.000000,0.000000,0.000000,1647941918.202741,0.000000
92.000000,-2391.167270,-27432.206563,8512.773635,13041.192358,-13101.519716,27045.007294,32958.898897,37559.893734,0.002000,0.980000,0.102000,192.000000,0.000000,0.000000,0.000000,0.000000,0.000000,0.000000,0.000000,0.000000,0.000000,1647941918.202752,0.000000
93.000000,-2392.329561,-27436.654560,8510.136129,13038.912480,-13103.464318,27046.348398,32957.110757,37554.194040,0.002000,0.980000,0.102000,192.000000,0.000000,0.000000,30.000000,176.000000,3.000000,176.000000,0.000000,0.000000,0.000000,1647941918.210686,0.000000
94.000000,-2391.904878,-27434.061758,8513.623001,13044.209843,-13098.368120,27054.842061,32961.067016,37551.355368,0.002000,0.980000,0.102000,192.000000,0.000000,0.000000,0.000000,0.000000,0.000000,0.000000,0.000000,0.000000,0.000000,1647941918.218575,0.000000
95.000000,-2385.668741,-27421.768298,8524.374190,13054.692811,-13087.549876,27064.855643,32968.957182,37558.217354,0.002000,0.980000,0.102000,192.000000,0.000000,0.000000,0.000000,0.000000,0.000000,0.000000,0.000000,0.000000,0.000000,1647941918.218585,0.000000
96.000000,-2385.177003,-27422.550609,8520.775559,13052.256471,-13089.785050,27059.200652,32965.202089,37564.878173,0.002000,0.980000,0.102000,192.000000,0.000000,0.000000,0.000000,0.000000,0.000000,0.000000,0.000000,0.000000,0.000000,1647941918.225569,0.000000
97.000000,-2384.595857,-27418.527295,8521.267297,13053.083486,-13089.785050,27056.943125,32962.810452,37564.386435,0.002000,0.980000,0.102000,192.000000,0.000000,0.000000,0.000000,0.000000,0.000000,0.000000,0.000000,0.000000,0.000000,1647941918.225586,0.000000
98.000000,-2386.831032,-27414.548685,8519.568565,13051.049477,-13091.148507,27053.433901,32959.301228,37563.805290,0.002000,0.980000,0.102000,192.000000,0.000000,0.000000,0.000000,0.000000,0.000000,0.000000,0.000000,0.000000,0.000000,1647941918.233459,0.000000
99.000000,-2392.396616,-27418.639054,8517.825129,13047.875529,-13091.617893,27053.769178,32958.921249,37564.073511,0.002000,0.980000,0.102000,192.000000,0.000000,0.000000,0.000000,0.000000,0.000000,0.000000,0.000000,0.000000,0.000000,1647941918.233474,0.000000
100.000000,-2396.330523,-27418.482592,8516.841652,13046.310907,-13093.517791,27053.277439,32960.552926,37561.793633,0.002000,0.980000,0.102000,192.000000,0.000000,0.000000,0.000000,0.000000,0.000000,0.000000,0.000000,0.000000,0.000000,1647941918.241235,0.000000
101.000000,-2396.956372,-27419.264903,8512.572469,13045.550948,-13096.691739,27048.449462,32959.748263,37559.357293,0.002000,0.980000,0.102000,192.000000,0.000000,0.000000,0.000000,0.000000,0.000000,0.000000,0.000000,0.000000,0.000000,1647941918.241245,0.000000
102.000000,-2390.720235,-27426.238647,8510.002018,13040.767675,-13100.290370,27046.393102,32957.446034,37557.569153,0.002000,0.980000,0.102000,192.000000,0.000000,0.000000,0.000000,0.000000,0.000000,0.000000,0.000000,0.000000,0.000000,1647941918.248364,0.000000
103.000000,-2388.909744,-27422.863534,8512.617172,13046.623832,-13096.244704,27054.775006,32963.883336,37557.658560,0.002000,0.980000,0.102000,192.000000,0.000000,0.000000,0.000000,0.000000,0.000000,0.000000,0.000000,0.000000,0.000000,1647941918.248376,0.000000
104.000000,-2394.430625,-27421.388319,8511.834861,13048.411971,-13095.149469,27058.172471,32970.208880,37561.815984,-0.004000,0.978000,0.114000,192.000000,255.000000,224.000000,30.000000,144.000000,3.000000,144.000000,0.000000,0.000000,0.000000,1647941918.256154,0.000000
105.000000,-2389.826165,-27412.827601,8524.709466,13058.537311,-13083.459506,27069.929489,32978.613136,37567.068644,-0.004000,0.978000,0.114000,192.000000,0.000000,0.000000,0.000000,0.000000,0.000000,0.000000,0.000000,0.000000,0.000000,1647941918.256171,0.000000
106.000000,-2386.451052,-27415.845086,8525.648239,13058.067925,-13084.398280,27068.744846,32979.149578,37569.907316,-0.004000,0.978000,0.114000,192.000000,0.000000,0.000000,0.000000,0.000000,0.000000,0.000000,0.000000,0.000000,0.000000,1647941918.263951,0.000000
107.000000,-2388.149785,-27419.823697,8522.518995,13051.876492,-13087.818097,27064.922698,32975.372133,37566.308685,-0.004000,0.978000,0.114000,192.000000,0.000000,0.000000,0.000000,0.000000,0.000000,0.000000,0.000000,0.000000,0.000000,1647941918.263972,0.000000
108.000000,-2385.534630,-27410.637130,8527.726952,13056.525654,-13080.531428,27070.689448,32977.450845,37565.951057,-0.004000,0.978000,0.114000,192.000000,0.000000,0.000000,0.000000,0.000000,0.000000,0.000000,0.000000,0.000000,0.000000,1647941918.272369,0.000000
109.000000,-2390.519069,-27412.022938,8521.513167,13054.558701,-13085.068832,27066.487320,32977.160272,37566.800423,-0.004000,0.978000,0.114000,192.000000,0.000000,0.000000,0.000000,0.000000,0.000000,0.000000,0.000000,0.000000,0.000000,1647941918.279470,0.000000
110.000000,-2393.961238,-27411.106516,8522.027257,13056.838579,-13084.934722,27068.320163,32977.495548,37568.722674,-0.004000,0.978000,0.114000,192.000000,0.000000,0.000000,0.000000,0.000000,0.000000,0.000000,0.000000,0.000000,0.000000,1647941918.279477,0.000000
111.000000,-2393.424796,-27409.139563,8524.195376,13060.638375,-13084.308873,27069.750675,32979.082522,37569.572040,-0.004000,0.978000,0.114000,192.000000,0.000000,0.000000,0.000000,0.000000,0.000000,0.000000,0.000000,0.000000,0.000000,1647941918.285669,0.000000
112.000000,-2389.423834,-27408.178438,8530.967955,13061.644204,-13081.604312,27067.247280,32977.517900,37570.331999,-0.004000,0.978000,0.114000,192.000000,0.000000,0.000000,0.000000,0.000000,0.000000,0.000000,0.000000,0.000000,0.000000,1647941918.285686,0.000000
113.000000,-2386.629866,-27404.400993,8533.896033,13064.415820,-13079.033861,27066.487320,32977.607307,37572.701284,-0.004000,0.978000,0.114000,192.000000,0.000000,0.000000,0.000000,0.000000,0.000000,0.000000,0.000000,0.000000,0.000000,1647941918.293886,0.000000
114.000000,-2392.173099,-27403.350461,8534.074847,13063.164122,-13077.938626,27067.381390,32975.394484,37573.081264,-0.006000,0.972000,0.114000,192.000000,255.000000,208.000000,30.000000,96.000000,3.000000,144.000000,0.000000,0.000000,0.000000,1647941918.293902,0.000000
115.000000,-2392.776596,-27405.898560,8535.505359,13063.365288,-13076.351652,27066.800245,32973.762807,37572.745988,-0.006000,0.972000,0.114000,192.000000,0.000000,0.000000,0.000000,0.000000,0.000000,0.000000,0.000000,0.000000,0.000000,1647941918.301532,0.000000
116.000000,-2392.351913,-27405.607987,8537.941699,13064.371117,-13075.569341,27066.487320,32972.868737,37573.193022,-0.006000,0.972000,0.114000,192.000000,0.000000,0.000000,0.000000,0.000000,0.000000,0.000000,0.000000,0.000000,0.000000,1647941918.301543,0.000000
117.000000,-2393.290686,-27407.932569,8532.867853,13057.285614,-13083.794783,27058.977134,32969.471272,37575.919935,-0.006000,0.972000,0.114000,192.000000,0.000000,0.000000,0.000000,0.000000,0.000000,0.000000,0.000000,0.000000,0.000000,1647941918.308163,0.000000
118.000000,-2400.555003,-27416.806211,8520.999076,13047.741419,-13096.244704,27052.271611,32965.805586,37571.114310,-0.006000,0.972000,0.114000,192.000000,0.000000,0.000000,0.000000,0.000000,0.000000,0.000000,0.000000,0.000000,0.000000,1647941918.308176,0.000000
119.000000,-2407.707561,-27420.583656,8517.556908,13044.567471,-13099.373948,27053.478605,32967.727836,37573.260078,-0.006000,0.972000,0.114000,192.000000,0.000000,0.000000,0.000000,0.000000,0.000000,0.000000,0.000000,0.000000,0.000000,1647941918.316015,0.000000
120.000000,-2408.109892,-27422.952941,8512.706579,13039.895957,-13103.084338,27049.030608,32961.290534,37572.567174,-0.006000,0.972000,0.114000,192.000000,0.000000,0.000000,0.000000,0.000000,0.000000,0.000000,0.000000,0.000000,0.000000,1647941918.316023,0.000000
121.000000,-2402.834881,-27415.129830,8521.960201,13049.373096,-13093.026053,27060.273535,32967.437263,37569.572040,-0.006000,0.972000,0.114000,192.000000,0.000000,0.000000,0.000000,0.000000,0.000000,0.000000,0.000000,0.000000,0.000000,1647941918.324238,0.000000
122.000000,-2403.170157,-27414.034595,8526.676420,13053.999907,-13090.433251,27064.363905,32969.515976,37570.086130,-0.006000,0.972000,0.114000,192.000000,0.000000,0.000000,0.000000,0.000000,0.000000,0.000000,0.000000,0.000000,0.000000,1647941918.324251,0.000000
123.000000,-2402.834881,-27414.280464,8528.241042,13057.799704,-13087.393413,27065.637954,32970.186528,37567.180403,-0.006000,0.972000,0.114000,192.000000,0.000000,0.000000,0.000000,0.000000,0.000000,0.000000,0.000000,0.000000,0.000000,1647941918.331280,0.000000
124.000000,-2405.181814,-27418.013205,8523.122492,13053.150541,-13090.187382,27059.312410,32964.777406,37563.067682,-0.006000,0.978000,0.118000,192.000000,255.000000,208.000000,30.000000,144.000000,3.000000,176.000000,0.000000,0.000000,0.000000,1647941918.338048,0.000000
125.000000,-2408.981610,-27423.355272,8515.209975,13046.690887,-13093.920123,27056.160814,32958.250696,37561.972447,-0.006000,0.978000,0.118000,192.000000,0.000000,0.000000,0.000000,0.000000,0.000000,0.000000,0.000000,0.000000,0.000000,1647941918.338064,0.000000
126.000000,-2408.556927,-27424.025825,8514.315905,13043.762808,-13095.954132,27055.982000,32957.647199,37564.095862,-0.006000,0.978000,0.118000,192.000000,0.000000,0.000000,0.000000,0.000000,0.000000,0.000000,0.000000,0.000000,0.000000,1647941918.345756,0.000000
127.000000,-2399.213898,-27418.192019,8519.613268,13047.629660,-13092.824887,27060.340591,32962.586935,37566.308685,-0.006000,0.978000,0.118000,192.000000,0.000000,0.000000,0.000000,0.000000,0.000000,0.000000,0.000000,0.000000,0.000000,1647941918.345767,0.000000
128.000000,-2398.789215,-27413.274635,8517.892184,13048.255509,-13095.574152,27056.987829,32962.653990,37564.207621,-0.006000,0.978000,0.118000,192.000000,0.000000,0.000000,0.000000,0.000000,0.000000,0.000000,0.000000,0.000000,0.000000,1647941918.354559,0.000000
129.000000,-2394.698846,-27397.918987,8524.284783,13057.464428,-13087.527524,27060.608811,32963.682170,37558.440871,-0.006000,0.978000,0.118000,192.000000,0.000000,0.000000,0.000000,0.000000,0.000000,0.000000,0.000000,0.000000,0.000000,1647941918.354583,0.000000
130.000000,-2397.090482,-27401.830542,8525.223556,13059.140808,-13085.962902,27062.843986,32969.493624,37567.448624,-0.006000,0.978000,0.118000,192.000000,0.000000,0.000000,0.000000,0.000000,0.000000,0.000000,0.000000,0.000000,0.000000,1647941918.362183,0.000000
131.000000,-2408.087541,-27410.838295,8524.351838,13056.100971,-13087.304006,27065.459140,32973.829862,37573.595354,-0.006000,0.978000,0.118000,192.000000,0.000000,0.000000,0.000000,0.000000,0.000000,0.000000,0.000000,0.000000,0.000000,1647941918.362193,0.000000
132.000000,-2409.361590,-27418.683758,8518.898013,13050.535387,-13095.082414,27058.060713,32969.515976,37572.030732,-0.006000,0.978000,0.118000,192.000000,0.000000,0.000000,0.000000,0.000000,0.000000,0.000000,0.000000,0.000000,0.000000,1647941918.368515,0.000000
133.000000,-2405.181814,-27417.275598,8517.668667,13050.401276,-13097.027015,27057.770140,32964.687999,37563.805290,-0.006000,0.978000,0.118000,192.000000,0.000000,0.000000,0.000000,0.000000,0.000000,0.000000,0.000000,0.000000,0.000000,1647941918.368529,0.000000
134.000000,-2407.461692,-27416.739156,8517.355742,13048.970765,-13097.697568,27057.032532,32964.308019,37563.760586,-0.002000,0.980000,0.118000,192.000000,255.000000,240.000000,30.000000,160.000000,3.000000,176.000000,0.000000,0.000000,0.000000,1647941918.376766,0.000000
135.000000,-2411.462654,-27417.543819,8520.328524,13047.115570,-13097.027015,27056.607849,32961.290534,37560.273714,-0.002000,0.980000,0.118000,192.000000,0.000000,0.000000,0.000000,0.000000,0.000000,0.000000,0.000000,0.000000,0.000000,1647941918.376783,0.000000
136.000000,-2407.886375,-27409.072508,8527.056399,13052.770561,-13090.410899,27063.291021,32966.543194,37567.359217,-0.002000,0.980000,0.118000,192.000000,0.000000,0.000000,0.000000,0.000000,0.000000,0.000000,0.000000,0.000000,0.000000,1647941918.383681,0.000000
137.000000,-2402.589012,-27401.852894,8524.553004,13056.078619,-13089.047443,27063.469835,32964.039798,37569.817909,-0.002000,0.980000,0.118000,192.000000,0.000000,0.000000,0.000000,0.000000,0.000000,0.000000,0.000000,0.000000,0.000000,1647941918.383698,0.000000
138.000000,-2399.750340,-27403.305757,8519.546213,13058.559663,-13090.924989,27059.938259,32963.212784,37568.722674,-0.002000,0.980000,0.118000,192.000000,0.000000,0.000000,0.000000,0.000000,0.000000,0.000000,0.000000,0.000000,0.000000,1647941918.390094,0.000000
139.000000,-2400.778520,-27405.607987,8520.373228,13057.307965,-13091.886114,27060.429997,32968.599554,37571.583697,-0.002000,0.980000,0.118000,192.000000,0.000000,0.000000,0.000000,0.000000,0.000000,0.000000,0.000000,0.000000,0.000000,1647941918.397835,0.000000
140.000000,-2399.102139,-27407.217313,8520.015600,13053.016430,-13093.406033,27060.519404,32966.453787,37573.885926,-0.002000,0.980000,0.118000,192.000000,0.000000,0.000000,0.000000,0.000000,0.000000,0.000000,0.000000,0.000000,0.000000,1647941918.397842,0.000000
141.000000,-2394.408273,-27403.261054,8527.414027,13059.967823,-13083.325396,27075.137445,32971.460577,37580.144415,-0.002000,0.980000,0.118000,192.000000,0.000000,0.000000,0.000000,0.000000,0.000000,0.000000,0.000000,0.000000,0.000000,1647941918.406108,0.000000
142.000000,-2396.822261,-27410.860647,8521.446111,13052.837617,-13089.270960,27068.498977,32967.370208,37584.927688,-0.002000,0.980000,0.118000,192.000000,0.000000,0.000000,0.000000,0.000000,0.000000,0.000000,0.000000,0.000000,0.000000,1647941918.406116,0.000000
143.000000,-2396.308171,-27407.686699,8521.401408,13050.535387,-13091.059100,27066.755541,32967.325505,37587.341677,-0.002000,0.980000,0.118000,192.000000,0.000000,0.000000,0.000000,0.000000,0.000000,0.000000,0.000000,0.000000,0.000000,1647941918.413241,0.000000
144.000000,-2397.962200,-27405.831505,8520.596745,13049.306041,-13091.282617,27068.655439,32971.907612,37589.308630,-0.002000,0.978000,0.122000,192.000000,255.000000,240.000000,30.000000,144.000000,3.000000,208.000000,0.000000,0.000000,0.000000,1647941918.413253,0.000000
145.000000,-2397.761035,-27402.143467,8523.502472,13052.725858,-13089.315663,27071.360001,32975.170967,37588.503967,-0.002000,0.978000,0.122000,192.000000,0.000000,0.000000,0.000000,0.000000,0.000000,0.000000,0.000000,0.000000,0.000000,1647941918.421449,0.000000
146.000000,-2400.420892,-27405.004490,8519.993248,13050.669497,-13095.551800,27062.531061,32971.214708,37584.324191,-0.002000,0.978000,0.122000,192.000000,0.000000,0.000000,0.000000,0.000000,0.000000,0.000000,0.000000,0.000000,0.000000,1647941918.421462,0.000000
147.000000,-2395.168232,-27405.049194,8521.312001,13051.652974,-13095.507097,27064.341553,32971.013543,37577.305743,-0.002000,0.978000,0.122000,192.000000,0.000000,0.000000,0.000000,0.000000,0.000000,0.000000,0.000000,0.000000,0.000000,1647941918.428906,0.000000
148.000000,-2395.123529,-27408.647824,8515.277030,13047.361439,-13098.770451,27063.581593,32970.186528,37571.002551,-0.002000,0.978000,0.122000,192.000000,0.000000,0.000000,0.000000,0.000000,0.000000,0.000000,0.000000,0.000000,0.000000,1647941918.428943,0.000000
149.000000,-2400.175023,-27406.971444,8516.841652,13050.825960,-13096.222353,27066.174396,32972.421702,37568.230935,-0.002000,0.978000,0.122000,192.000000,0.000000,0.000000,0.000000,0.000000,0.000000,0.000000,0.000000,0.000000,0.000000,1647941918.436776,0.000000
150.000000,-2401.940811,-27410.078336,8515.545251,13049.350744,-13096.579980,27065.615602,32970.678266,37568.745025,-0.002000,0.978000,0.122000,192.000000,0.000000,0.000000,0.000000,0.000000,0.000000,0.000000,0.000000,0.000000,0.000000,1647941918.436798,0.000000
151.000000,-2389.356779,-27410.525371,8519.099178,13051.362401,-13094.501268,27066.442617,32971.102950,37569.795557,-0.002000,0.978000,0.122000,192.000000,0.000000,0.000000,0.000000,0.000000,0.000000,0.000000,0.000000,0.000000,0.000000,1647941918.443621,0.000000
152.000000,-2388.842689,-27412.939359,8517.780425,13047.942585,-13097.116422,27064.363905,32968.554851,37566.889830,-0.002000,0.978000,0.122000,192.000000,0.000000,0.000000,0.000000,0.000000,0.000000,0.000000,0.000000,0.000000,0.000000,1647941918.443638,0.000000
153.000000,-2386.138128,-27404.155124,8528.933946,13056.503303,-13086.678158,27074.623355,32976.109740,37570.309647,-0.002000,0.978000,0.122000,192.000000,0.000000,0.000000,0.000000,0.000000,0.000000,0.000000,0.000000,0.000000,0.000000,1647941918.450719,0.000000
154.000000,-2391.949581,-27409.005452,8532.756094,13058.202035,-13085.895847,27074.757466,32977.786121,37572.567174,-0.002000,0.976000,0.122000,192.000000,255.000000,240.000000,30.000000,128.000000,3.000000,208.000000,0.000000,0.000000,0.000000,1647941918.450735,0.000000
155.000000,-2397.470462,-27415.710976,8528.732780,13055.341012,-13091.170858,27065.772064,32974.522766,37573.573002,-0.002000,0.976000,0.122000,192.000000,0.000000,0.000000,0.000000,0.000000,0.000000,0.000000,0.000000,0.000000,0.000000,1647941918.458734,0.000000
156.000000,-2394.587087,-27413.721670,8528.375152,13055.743343,-13090.880286,27064.229794,32973.271069,37569.773205,-0.002000,0.976000,0.122000,192.000000,0.000000,0.000000,0.000000,0.000000,0.000000,0.000000,0.000000,0.000000,0.000000,1647941918.466668,0.000000
157.000000,-2400.063264,-27419.153144,8521.133187,13050.244814,-13096.267056,27056.876070,32971.371170,37572.723636,-0.002000,0.976000,0.122000,192.000000,0.000000,0.000000,0.000000,0.000000,0.000000,0.000000,0.000000,0.000000,0.000000,1647941918.466684,0.000000
158.000000,-2400.242078,-27422.215333,8518.741550,13047.495550,-13098.144603,27056.607849,32970.588859,37575.472900,-0.002000,0.976000,0.122000,192.000000,0.000000,0.000000,0.000000,0.000000,0.000000,0.000000,0.000000,0.000000,0.000000,1647941918.473315,0.000000
159.000000,-2402.767825,-27419.667234,8525.201204,13055.609233,-13091.170858,27064.006277,32976.735589,37578.468034,-0.002000,0.976000,0.122000,192.000000,0.000000,0.000000,0.000000,0.000000,0.000000,0.000000,0.000000,0.000000,0.000000,1647941918.473331,0.000000
