%OpenBCI Raw EEG Data
%Number of channels = 8
%Sample Rate = 256 Hz
%Board = OpenBCI_GUI$BoardCytonSerial
%Channels = Fp1, Fp2, F3, F4, Fz, Pz, O1, O2
%Data recorded at AIMS Lab (http://aimsl.uiu.ac.bd) by Rana Depto (mail@ranadepto.com)
%Brainwaves were obtained via the Ultracortex Mark IV Headset using the OpenBCI Cyton Board
%Recording Application = ConcentrateToday (https://concentrate.today)
%Data type = RAW data with noise
%Day No = 5
%Subject ID = 2
%Session ID = 7
%Record starting timestamp (UTC+6) = 2022-03-10T15:20:31.395932
%Record ending timestamp (UTC+6)   = 2022-03-10T15:21:02.319420
%Recorded durations = ~30 seconds
Sample Index, EXG Channel 0, EXG Channel 1, EXG Channel 2, EXG Channel 3, EXG Channel 4, EXG Channel 5, EXG Channel 6, EXG Channel 7, Accel Channel 0, Accel Channel 1, Accel Channel 2, Other, Other, Other, Other, Other, Other, Other, Analog Channel 0, Analog Channel 1, Analog Channel 2, Timestamp, Timestamp (Formatted)
219.000000,26009.853305,28045.225506,29335.077624,22492.918073,9727.233318,17448.509329,24679.075143,21780.523274,0.044000,0.982000,0.116000,192.000000,0.000000,0.000000,0.000000,0.000000,0.000000,0.000000,0.000000,0.000000,0.000000,1646904031.400414,0.000000
220.000000,26024.471345,28059.664733,29346.432310,22508.385480,9738.789170,17457.137103,24693.961405,21789.083992,0.044000,0.982000,0.116000,192.000000,0.000000,0.000000,0.000000,0.000000,0.000000,0.000000,0.000000,0.000000,0.000000,1646904031.400424,0.000000
221.000000,26026.013616,28054.367370,29337.804537,22497.410774,9728.350905,17441.245012,24680.528007,21756.204576,0.044000,0.982000,0.116000,192.000000,0.000000,0.000000,0.000000,0.000000,0.000000,0.000000,0.000000,0.000000,0.000000,1646904031.407355,0.000000
222.000000,26037.055378,28063.509233,29342.945438,22500.875294,9733.760027,17445.380085,24678.829274,21762.708934,0.044000,0.982000,0.116000,192.000000,0.000000,0.000000,0.000000,0.000000,0.000000,0.000000,0.000000,0.000000,0.000000,1646904031.407362,0.000000
223.000000,26049.013561,28073.791036,29346.588772,22506.954969,9738.588004,17448.151701,24667.295774,21789.553379,0.048000,0.978000,0.108000,192.000000,1.000000,128.000000,30.000000,144.000000,3.000000,96.000000,0.000000,0.000000,0.000000,1646904031.415273,0.000000
224.000000,26058.177776,28085.324536,29348.645133,22507.491411,9741.113751,17446.788245,24652.923602,21778.288100,0.048000,0.978000,0.108000,192.000000,0.000000,0.000000,0.000000,0.000000,0.000000,0.000000,0.000000,0.000000,0.000000,1646904031.422495,0.000000
225.000000,26066.492625,28089.437257,29351.997894,22511.246504,9742.164283,17453.672582,24677.018783,21778.601024,0.048000,0.978000,0.108000,192.000000,0.000000,0.000000,0.000000,0.000000,0.000000,0.000000,0.000000,0.000000,0.000000,1646904031.422499,0.000000
226.000000,26069.398352,28093.505274,29347.974580,22510.687710,9736.308126,17452.823216,24697.470629,21779.629204,0.048000,0.978000,0.108000,192.000000,0.000000,0.000000,0.000000,0.000000,0.000000,0.000000,0.000000,0.000000,0.000000,1646904031.429947,0.000000
227.000000,26072.572300,28108.279778,29368.761703,22518.913152,9745.382934,17458.366449,24700.219893,21778.444562,0.048000,0.978000,0.108000,192.000000,0.000000,0.000000,0.000000,0.000000,0.000000,0.000000,0.000000,0.000000,0.000000,1646904031.429951,0.000000
228.000000,26078.137884,28113.331272,29364.514871,22518.801393,9743.103056,17455.058391,24697.470629,21776.812884,0.048000,0.978000,0.108000,192.000000,0.000000,0.000000,0.000000,0.000000,0.000000,0.000000,0.000000,0.000000,0.000000,1646904031.437903,0.000000
229.000000,26084.172855,28117.019310,29356.535298,22514.465155,9739.347963,17444.843643,24684.730135,21765.882881,0.048000,0.978000,0.108000,192.000000,0.000000,0.000000,0.000000,0.000000,0.000000,0.000000,0.000000,0.000000,0.000000,1646904031.437908,0.000000
230.000000,26089.313756,28121.266141,29358.569307,22511.313559,9739.504425,17444.038980,24684.841893,21764.966460,0.048000,0.978000,0.108000,192.000000,0.000000,0.000000,0.000000,0.000000,0.000000,0.000000,0.000000,0.000000,0.000000,1646904031.445905,0.000000
231.000000,26087.704431,28126.742318,29362.033828,22514.733376,9739.973812,17440.485053,24677.264652,21756.361038,0.048000,0.978000,0.108000,192.000000,0.000000,0.000000,0.000000,0.000000,0.000000,0.000000,0.000000,0.000000,0.000000,1646904031.445909,0.000000
232.000000,26087.056230,28131.257371,29358.949287,22519.494297,9739.526777,17442.183786,24665.306469,21779.137466,0.048000,0.978000,0.108000,192.000000,0.000000,0.000000,0.000000,0.000000,0.000000,0.000000,0.000000,0.000000,0.000000,1646904031.452538,0.000000
233.000000,26093.068849,28135.906534,29357.339961,22519.918981,9743.103056,17445.648306,24673.151931,21779.763315,0.046000,0.980000,0.108000,192.000000,1.000000,112.000000,30.000000,160.000000,3.000000,96.000000,0.000000,0.000000,0.000000,1646904031.452544,0.000000
234.000000,26110.816134,28148.490566,29376.026020,22534.984056,9762.303205,17451.884443,24687.010013,21776.589367,0.046000,0.980000,0.108000,192.000000,0.000000,0.000000,0.000000,0.000000,0.000000,0.000000,0.000000,0.000000,0.000000,1646904031.460599,0.000000
235.000000,26111.978425,28144.824880,29369.141682,22524.031702,9755.374164,17447.324687,24682.517312,21770.152065,0.046000,0.980000,0.108000,192.000000,0.000000,0.000000,0.000000,0.000000,0.000000,0.000000,0.000000,0.000000,0.000000,1646904031.460611,0.000000
236.000000,26111.956073,28144.444900,29362.056179,22524.389329,9748.333365,17442.496710,24678.628108,21784.814809,0.046000,0.980000,0.108000,192.000000,0.000000,0.000000,0.000000,0.000000,0.000000,0.000000,0.000000,0.000000,0.000000,1646904031.468539,0.000000
237.000000,26120.382681,28150.368112,29373.947307,22531.363074,9755.396516,17453.337306,24682.763181,21801.086879,0.046000,0.980000,0.108000,192.000000,0.000000,0.000000,0.000000,0.000000,0.000000,0.000000,0.000000,0.000000,0.000000,1646904031.468543,0.000000
238.000000,26131.513850,28166.416665,29381.502197,22544.260030,9762.213798,17455.438370,24679.790399,21785.105382,0.046000,0.980000,0.108000,192.000000,0.000000,0.000000,0.000000,0.000000,0.000000,0.000000,0.000000,0.000000,0.000000,1646904031.475736,0.000000
239.000000,26138.487594,28169.478854,29379.937575,22545.556431,9763.689013,17448.688143,24678.002259,21776.611719,0.046000,0.980000,0.108000,192.000000,0.000000,0.000000,0.000000,0.000000,0.000000,0.000000,0.000000,0.000000,0.000000,1646904031.482215,0.000000
240.000000,26137.884097,28165.299078,29358.993990,22532.815937,9749.339193,17439.970963,24677.778742,21771.068486,0.046000,0.980000,0.108000,192.000000,0.000000,0.000000,0.000000,0.000000,0.000000,0.000000,0.000000,0.000000,0.000000,1646904031.482221,0.000000
241.000000,26144.299048,28169.724723,29373.522624,22534.469966,9764.337214,17441.647344,24677.421114,21769.459161,0.046000,0.980000,0.108000,192.000000,0.000000,0.000000,0.000000,0.000000,0.000000,0.000000,0.000000,0.000000,0.000000,1646904031.490190,0.000000
242.000000,26148.657638,28179.693601,29392.611014,22547.344571,9819.434264,17451.750332,24677.577576,21774.130675,0.046000,0.980000,0.108000,192.000000,0.000000,0.000000,0.000000,0.000000,0.000000,0.000000,0.000000,0.000000,0.000000,1646904031.490194,0.000000
243.000000,26142.265039,28175.670287,29386.978374,22543.209498,9839.819055,17450.141007,24676.102361,21778.936300,0.046000,0.982000,0.116000,192.000000,1.000000,112.000000,30.000000,176.000000,3.000000,160.000000,0.000000,0.000000,0.000000,1646904031.498216,0.000000
244.000000,26145.282524,28174.597403,29389.504121,22540.102606,9850.503188,17447.794074,24683.836065,21773.326012,0.046000,0.982000,0.116000,192.000000,0.000000,0.000000,0.000000,0.000000,0.000000,0.000000,0.000000,0.000000,0.000000,1646904031.498220,0.000000
245.000000,26147.718864,28174.552700,29390.822874,22538.135652,9858.102782,17447.727018,24683.925472,21769.615623,0.046000,0.982000,0.116000,192.000000,0.000000,0.000000,0.000000,0.000000,0.000000,0.000000,0.000000,0.000000,0.000000,1646904031.504788,0.000000
246.000000,26152.993876,28186.332069,29398.936558,22553.714818,9877.705261,17455.460722,24686.473571,21776.343498,0.046000,0.982000,0.116000,192.000000,0.000000,0.000000,0.000000,0.000000,0.000000,0.000000,0.000000,0.000000,0.000000,1646904031.504792,0.000000
247.000000,26143.740254,28179.760656,29385.033773,22538.783853,9871.714994,17444.843643,24678.024611,21761.747809,0.046000,0.982000,0.116000,192.000000,0.000000,0.000000,0.000000,0.000000,0.000000,0.000000,0.000000,0.000000,0.000000,1646904031.512787,0.000000
248.000000,26146.266001,28176.340839,29373.366162,22530.826632,9867.222293,17440.775626,24680.595062,21762.418361,0.046000,0.982000,0.116000,192.000000,0.000000,0.000000,0.000000,0.000000,0.000000,0.000000,0.000000,0.000000,0.000000,1646904031.512816,0.000000
249.000000,26155.743141,28181.258223,29386.933671,22537.219231,9877.481744,17446.676486,24686.272405,21769.615623,0.046000,0.982000,0.116000,192.000000,0.000000,0.000000,0.000000,0.000000,0.000000,0.000000,0.000000,0.000000,0.000000,1646904031.520809,0.000000
250.000000,26163.856824,28190.176569,29396.299052,22552.932507,9890.110480,17450.677449,24689.535760,21771.068486,0.046000,0.982000,0.116000,192.000000,0.000000,0.000000,0.000000,0.000000,0.000000,0.000000,0.000000,0.000000,0.000000,1646904031.520813,0.000000
251.000000,26156.257231,28182.621680,29393.683898,22545.176452,9886.757718,17450.990373,24679.812751,21765.033515,0.046000,0.982000,0.116000,192.000000,0.000000,0.000000,0.000000,0.000000,0.000000,0.000000,0.000000,0.000000,0.000000,1646904031.527916,0.000000
252.000000,26169.198891,28202.022994,29408.972491,22563.482531,9904.125023,17466.010745,24682.673774,21773.281309,0.046000,0.982000,0.116000,192.000000,0.000000,0.000000,0.000000,0.000000,0.000000,0.000000,0.000000,0.000000,0.000000,1646904031.527920,0.000000
253.000000,26168.953022,28201.151276,29406.983186,22562.253185,9907.254268,17465.295489,24686.786495,21772.878977,0.038000,0.982000,0.114000,192.000000,1.000000,48.000000,30.000000,176.000000,3.000000,144.000000,0.000000,0.000000,0.000000,1646904031.534357,0.000000
254.000000,26160.772283,28190.042459,29398.042488,22550.272650,9899.609971,17456.131274,24674.917719,21777.796361,0.038000,0.982000,0.114000,192.000000,0.000000,0.000000,0.000000,0.000000,0.000000,0.000000,0.000000,0.000000,0.000000,1646904031.542475,0.000000
255.000000,26156.301934,28187.427305,29398.355412,22546.606963,9895.541954,17453.940803,24675.521216,21776.768181,0.038000,0.982000,0.114000,192.000000,0.000000,0.000000,0.000000,0.000000,0.000000,0.000000,0.000000,0.000000,0.000000,1646904031.542479,0.000000
0.000000,26158.224184,28190.914177,29397.416639,22543.343609,9894.849049,17458.746428,24692.575597,21776.030573,0.038000,0.982000,0.114000,192.000000,0.000000,0.000000,0.000000,0.000000,0.000000,0.000000,0.000000,0.000000,0.000000,1646904031.550471,0.000000
1.000000,26168.103655,28203.297043,29400.210607,22560.397990,9905.197907,17465.273138,24692.240321,21777.751658,0.038000,0.982000,0.114000,192.000000,0.000000,0.000000,0.000000,0.000000,0.000000,0.000000,0.000000,0.000000,0.000000,1646904031.550481,0.000000
2.000000,26166.896661,28203.341747,29402.848113,22563.370772,9910.674085,17468.402382,24693.626129,21779.517446,0.038000,0.982000,0.114000,192.000000,0.000000,0.000000,0.000000,0.000000,0.000000,0.000000,0.000000,0.000000,0.000000,1646904031.557658,0.000000
3.000000,26164.125045,28196.658575,29393.616842,22554.631240,9905.846108,17462.166245,24684.953652,21781.327937,0.038000,0.982000,0.114000,192.000000,0.000000,0.000000,0.000000,0.000000,0.000000,0.000000,0.000000,0.000000,0.000000,1646904031.557662,0.000000
4.000000,26159.185309,28183.895729,29382.575081,22539.074426,9894.804346,17450.856263,24670.380315,21770.442637,0.038000,0.982000,0.114000,192.000000,0.000000,0.000000,0.000000,0.000000,0.000000,0.000000,0.000000,0.000000,0.000000,1646904031.565065,0.000000
5.000000,26169.020077,28190.713011,29393.438029,22547.992772,9902.403939,17462.278004,24690.385126,21778.511617,0.038000,0.982000,0.114000,192.000000,0.000000,0.000000,0.000000,0.000000,0.000000,0.000000,0.000000,0.000000,0.000000,1646904031.565069,0.000000
6.000000,26165.689667,28188.611947,29390.062915,22552.329010,9901.196945,17461.652155,24693.849646,21775.382373,0.038000,0.982000,0.114000,192.000000,0.000000,0.000000,0.000000,0.000000,0.000000,0.000000,0.000000,0.000000,0.000000,1646904031.573311,0.000000
7.000000,26167.276641,28193.842255,29394.801485,22552.887804,9903.119195,17458.589966,24688.887559,21776.902291,0.040000,0.976000,0.116000,192.000000,1.000000,64.000000,30.000000,128.000000,3.000000,160.000000,0.000000,0.000000,0.000000,1646904031.573316,0.000000
8.000000,26173.803350,28203.609968,29404.524494,22564.466007,9914.429178,17465.831931,24696.308338,21781.730268,0.040000,0.976000,0.116000,192.000000,0.000000,0.000000,0.000000,0.000000,0.000000,0.000000,0.000000,0.000000,0.000000,1646904031.581118,0.000000
9.000000,26171.925804,28195.228063,29402.199912,22557.805187,9910.182346,17470.369335,24697.962367,21779.383335,0.040000,0.976000,0.116000,192.000000,0.000000,0.000000,0.000000,0.000000,0.000000,0.000000,0.000000,0.000000,0.000000,1646904031.581123,0.000000
10.000000,26168.796559,28190.891825,29400.143552,22554.988868,9904.728520,17469.139990,24700.890446,21778.913948,0.040000,0.976000,0.116000,192.000000,0.000000,0.000000,0.000000,0.000000,0.000000,0.000000,0.000000,0.000000,0.000000,1646904031.587719,0.000000
11.000000,26174.853882,28199.206674,29403.026927,22553.893632,9906.427253,17470.034059,24697.135353,21791.363870,0.040000,0.976000,0.116000,192.000000,0.000000,0.000000,0.000000,0.000000,0.000000,0.000000,0.000000,0.000000,0.000000,1646904031.587723,0.000000
12.000000,26167.500158,28194.021069,29397.886026,22547.791606,9900.660503,17458.589966,24679.253957,21773.236605,0.040000,0.976000,0.116000,192.000000,0.000000,0.000000,0.000000,0.000000,0.000000,0.000000,0.000000,0.000000,0.000000,1646904031.594753,0.000000
13.000000,26167.477807,28192.121171,29397.930729,22552.329010,9903.700340,17463.529702,24685.579501,21776.432905,0.040000,0.976000,0.116000,192.000000,0.000000,0.000000,0.000000,0.000000,0.000000,0.000000,0.000000,0.000000,0.000000,1646904031.603316,0.000000
14.000000,26170.182368,28193.395220,29393.482732,22548.395103,9900.660503,17459.819312,24691.323899,21778.288100,0.040000,0.976000,0.116000,192.000000,0.000000,0.000000,0.000000,0.000000,0.000000,0.000000,0.000000,0.000000,0.000000,1646904031.603320,0.000000
15.000000,26172.886929,28196.926796,29394.086229,22550.429112,9898.447680,17457.405324,24685.959481,21778.466914,0.040000,0.976000,0.116000,192.000000,0.000000,0.000000,0.000000,0.000000,0.000000,0.000000,0.000000,0.000000,0.000000,1646904031.610716,0.000000
16.000000,26164.370914,28187.807284,29392.789828,22546.674019,9894.580828,17457.807655,24680.080972,21773.549530,0.040000,0.976000,0.116000,192.000000,0.000000,0.000000,0.000000,0.000000,0.000000,0.000000,0.000000,0.000000,0.000000,1646904031.610719,0.000000
17.000000,26173.512778,28192.098819,29396.455514,22554.653591,9902.605105,17463.395591,24684.059582,21774.935338,0.040000,0.976000,0.116000,192.000000,0.000000,0.000000,0.000000,0.000000,0.000000,0.000000,0.000000,0.000000,0.000000,1646904031.617465,0.000000
18.000000,26167.053123,28193.417572,29392.901587,22549.803263,9900.615800,17455.192501,24681.064448,21776.209387,0.042000,0.976000,0.110000,192.000000,1.000000,80.000000,30.000000,128.000000,3.000000,112.000000,0.000000,0.000000,0.000000,1646904031.617469,0.000000
19.000000,26166.471978,28199.877226,29398.735392,22553.156025,9904.527355,17455.773646,24676.996431,21777.081105,0.042000,0.976000,0.110000,192.000000,0.000000,0.000000,0.000000,0.000000,0.000000,0.000000,0.000000,0.000000,0.000000,1646904031.625362,0.000000
20.000000,26168.304821,28202.157104,29401.842284,22557.693429,9906.270791,17462.993260,24688.753449,21777.438733,0.042000,0.976000,0.110000,192.000000,0.000000,0.000000,0.000000,0.000000,0.000000,0.000000,0.000000,0.000000,0.000000,1646904031.625365,0.000000
21.000000,26175.949118,28206.135715,29401.372898,22558.185167,9907.991875,17458.344097,24691.301547,21779.204521,0.042000,0.976000,0.110000,192.000000,0.000000,0.000000,0.000000,0.000000,0.000000,0.000000,0.000000,0.000000,0.000000,1646904031.633509,0.000000
22.000000,26172.752818,28208.661462,29395.516741,22560.196824,9906.695474,17448.218757,24685.199521,21771.962556,0.042000,0.976000,0.110000,192.000000,0.000000,0.000000,0.000000,0.000000,0.000000,0.000000,0.000000,0.000000,0.000000,1646904031.633522,0.000000
23.000000,26176.150283,28211.567189,29405.463267,22570.143350,9915.658524,17466.569539,24689.491056,21772.744867,0.042000,0.976000,0.110000,192.000000,0.000000,0.000000,0.000000,0.000000,0.000000,0.000000,0.000000,0.000000,0.000000,1646904031.640060,0.000000
24.000000,26172.439894,28201.084221,29404.144514,22560.934432,9911.679913,17463.797923,24691.927396,21768.520387,0.042000,0.976000,0.110000,192.000000,0.000000,0.000000,0.000000,0.000000,0.000000,0.000000,0.000000,0.000000,0.000000,1646904031.640067,0.000000
25.000000,26162.515719,28192.143523,29399.450648,22552.887804,9906.449605,17460.825141,24682.763181,21784.479533,0.042000,0.976000,0.110000,192.000000,0.000000,0.000000,0.000000,0.000000,0.000000,0.000000,0.000000,0.000000,0.000000,1646904031.648057,0.000000
26.000000,26162.895699,28195.093953,29391.493427,22549.065655,9901.778090,17453.605527,24663.138349,21770.822617,0.042000,0.976000,0.110000,192.000000,0.000000,0.000000,0.000000,0.000000,0.000000,0.000000,0.000000,0.000000,0.000000,1646904031.648062,0.000000
27.000000,26177.156112,28211.947168,29403.384555,22567.505845,9918.586602,17473.766801,24691.569768,21784.077201,0.042000,0.976000,0.110000,192.000000,0.000000,0.000000,0.000000,0.000000,0.000000,0.000000,0.000000,0.000000,0.000000,1646904031.655118,0.000000
28.000000,26170.696458,28200.391316,29394.689726,22555.659420,9913.490404,17462.657984,24688.507579,21761.077256,0.044000,0.980000,0.118000,192.000000,1.000000,96.000000,30.000000,160.000000,3.000000,176.000000,0.000000,0.000000,0.000000,1646904031.655123,0.000000
29.000000,26170.182368,28198.714936,29395.762610,22555.726475,9908.729483,17454.946632,24683.232568,21741.854756,0.044000,0.980000,0.118000,192.000000,0.000000,0.000000,0.000000,0.000000,0.000000,0.000000,0.000000,0.000000,0.000000,1646904031.663190,0.000000
30.000000,26173.088094,28207.499171,29402.803409,22564.309545,9911.679913,17463.216777,24671.073219,21789.665137,0.044000,0.980000,0.118000,192.000000,0.000000,0.000000,0.000000,0.000000,0.000000,0.000000,0.000000,0.000000,0.000000,1646904031.669717,0.000000
31.000000,26170.942327,28207.812096,29404.971529,22562.342592,9911.411692,17464.691992,24685.311280,21784.211312,0.044000,0.980000,0.118000,192.000000,0.000000,0.000000,0.000000,0.000000,0.000000,0.000000,0.000000,0.000000,0.000000,1646904031.669721,0.000000
32.000000,26177.893719,28204.012299,29405.083287,22559.414513,9912.931611,17466.144856,24698.409402,21774.443600,0.044000,0.980000,0.118000,192.000000,0.000000,0.000000,0.000000,0.000000,0.000000,0.000000,0.000000,0.000000,0.000000,1646904031.677716,0.000000
33.000000,26179.011307,28205.979253,29404.546846,22554.407722,9910.338808,17459.953423,24691.726231,21781.059716,0.044000,0.980000,0.118000,192.000000,0.000000,0.000000,0.000000,0.000000,0.000000,0.000000,0.000000,0.000000,0.000000,1646904031.677720,0.000000
34.000000,26179.726562,28213.556494,29405.843247,22566.030629,9914.831509,17457.025344,24691.726231,21779.048059,0.044000,0.980000,0.118000,192.000000,0.000000,0.000000,0.000000,0.000000,0.000000,0.000000,0.000000,0.000000,0.000000,1646904031.685718,0.000000
35.000000,26173.356315,28208.147372,29406.603206,22568.019935,9914.295067,17467.687126,24683.053754,21776.879940,0.044000,0.980000,0.118000,192.000000,0.000000,0.000000,0.000000,0.000000,0.000000,0.000000,0.000000,0.000000,0.000000,1646904031.685722,0.000000
36.000000,26165.510853,28199.810171,29402.110505,22561.537929,9906.918991,17464.155550,24676.035306,21772.476646,0.044000,0.980000,0.118000,192.000000,0.000000,0.000000,0.000000,0.000000,0.000000,0.000000,0.000000,0.000000,0.000000,1646904031.692756,0.000000
37.000000,26175.971469,28206.806267,29401.909340,22564.801283,9910.271753,17471.084591,24694.743716,21781.126771,0.044000,0.980000,0.118000,192.000000,0.000000,0.000000,0.000000,0.000000,0.000000,0.000000,0.000000,0.000000,0.000000,1646904031.692762,0.000000
38.000000,26181.224129,28214.003529,29405.530322,22567.394086,9912.194003,17475.443181,24702.566827,21786.401783,0.042000,0.976000,0.120000,192.000000,1.000000,80.000000,30.000000,128.000000,3.000000,192.000000,0.000000,0.000000,0.000000,1646904031.700289,0.000000
39.000000,26186.476789,28218.652692,29410.805334,22572.691449,9913.780977,17478.013632,24702.209199,21790.916835,0.042000,0.976000,0.120000,192.000000,0.000000,0.000000,0.000000,0.000000,0.000000,0.000000,0.000000,0.000000,0.000000,1646904031.700293,0.000000
40.000000,26184.934519,28215.299930,29407.586683,22572.087952,9910.852898,17473.811504,24691.659175,21782.199655,0.042000,0.976000,0.120000,192.000000,0.000000,0.000000,0.000000,0.000000,0.000000,0.000000,0.000000,0.000000,0.000000,1646904031.708293,0.000000
41.000000,26184.733353,28213.489439,29408.324290,22578.368792,9913.356294,17476.918397,24692.955577,21779.696259,0.042000,0.976000,0.120000,192.000000,0.000000,0.000000,0.000000,0.000000,0.000000,0.000000,0.000000,0.000000,0.000000,1646904031.708297,0.000000
42.000000,26187.013231,28217.445697,29409.419526,22578.368792,9915.770282,17476.583120,24684.752486,21774.644765,0.042000,0.976000,0.120000,192.000000,0.000000,0.000000,0.000000,0.000000,0.000000,0.000000,0.000000,0.000000,0.000000,1646904031.716289,0.000000
43.000000,26179.324231,28214.338805,29403.697479,22571.283289,9910.897602,17466.122504,24666.401704,21764.988812,0.042000,0.976000,0.120000,192.000000,0.000000,0.000000,0.000000,0.000000,0.000000,0.000000,0.000000,0.000000,0.000000,1646904031.716300,0.000000
44.000000,26178.944251,28214.964654,29404.993880,22569.226929,9911.679913,17460.691030,24672.168454,21766.396972,0.042000,0.976000,0.120000,192.000000,0.000000,0.000000,0.000000,0.000000,0.000000,0.000000,0.000000,0.000000,0.000000,1646904031.722589,0.000000
45.000000,26187.326156,28222.072509,29418.896665,22577.675888,9922.296992,17477.454838,24693.067335,21784.971271,0.042000,0.976000,0.120000,192.000000,0.000000,0.000000,0.000000,0.000000,0.000000,0.000000,0.000000,0.000000,0.000000,1646904031.729915,0.000000
46.000000,26177.200815,28209.287311,29409.777154,22568.176397,9913.177480,17471.173998,24685.087762,21776.768181,0.042000,0.976000,0.120000,192.000000,0.000000,0.000000,0.000000,0.000000,0.000000,0.000000,0.000000,0.000000,0.000000,1646904031.729918,0.000000
47.000000,26178.385458,28217.468049,29404.703308,22571.775028,9915.949096,17471.486923,24688.060544,21775.918815,0.042000,0.976000,0.120000,192.000000,0.000000,0.000000,0.000000,0.000000,0.000000,0.000000,0.000000,0.000000,0.000000,1646904031.737959,0.000000
48.000000,26186.096810,28218.719747,29408.614863,22572.870263,9919.771244,17477.790115,24691.480361,21779.204521,0.040000,0.982000,0.114000,192.000000,1.000000,64.000000,30.000000,176.000000,3.000000,144.000000,0.000000,0.000000,0.000000,1646904031.737964,0.000000
49.000000,26186.230920,28219.278541,29410.313596,22574.121961,9920.508852,17479.019461,24689.535760,21774.756524,0.040000,0.982000,0.114000,192.000000,0.000000,0.000000,0.000000,0.000000,0.000000,0.000000,0.000000,0.000000,0.000000,1646904031.745023,0.000000
50.000000,26189.315461,28226.475802,29409.575988,22578.368792,9920.441797,17479.511199,24687.524103,21777.662251,0.040000,0.982000,0.114000,192.000000,0.000000,0.000000,0.000000,0.000000,0.000000,0.000000,0.000000,0.000000,0.000000,1646904031.745027,0.000000
51.000000,26182.319365,28213.847067,29399.651813,22564.689525,9909.936477,17471.531626,24688.373469,21772.655460,0.040000,0.982000,0.114000,192.000000,0.000000,0.000000,0.000000,0.000000,0.000000,0.000000,0.000000,0.000000,0.000000,1646904031.752492,0.000000
52.000000,26168.505987,28202.872360,29387.380706,22551.434940,9897.866535,17464.937862,24685.691260,21767.447504,0.040000,0.982000,0.114000,192.000000,0.000000,0.000000,0.000000,0.000000,0.000000,0.000000,0.000000,0.000000,0.000000,1646904031.752496,0.000000
53.000000,26166.047295,28203.408802,29389.437066,22558.967478,9901.621628,17468.044754,24683.321975,21770.844969,0.040000,0.982000,0.114000,192.000000,0.000000,0.000000,0.000000,0.000000,0.000000,0.000000,0.000000,0.000000,0.000000,1646904031.760646,0.000000
54.000000,26164.795597,28198.357308,29392.007517,22549.065655,9897.285390,17463.753219,24680.192730,21772.566053,0.040000,0.982000,0.114000,192.000000,0.000000,0.000000,0.000000,0.000000,0.000000,0.000000,0.000000,0.000000,0.000000,1646904031.760651,0.000000
55.000000,26175.435028,28213.981177,29404.680956,22562.275536,9906.203736,17477.477190,24683.500789,21799.499905,0.040000,0.982000,0.114000,192.000000,0.000000,0.000000,0.000000,0.000000,0.000000,0.000000,0.000000,0.000000,0.000000,1646904031.768545,0.000000
56.000000,26174.786827,28213.914122,29401.775229,22561.962612,9905.711997,17476.359603,24694.386088,21785.977100,0.040000,0.982000,0.114000,192.000000,0.000000,0.000000,0.000000,0.000000,0.000000,0.000000,0.000000,0.000000,0.000000,1646904031.768548,0.000000
57.000000,26174.965641,28210.427250,29395.248520,22556.285269,9904.125023,17471.598681,24694.989585,21780.076239,0.040000,0.982000,0.114000,192.000000,0.000000,0.000000,0.000000,0.000000,0.000000,0.000000,0.000000,0.000000,0.000000,1646904031.775735,0.000000
58.000000,26180.374763,28214.785840,29396.030831,22560.822673,9908.997704,17473.409173,24695.548379,21780.076239,0.036000,0.986000,0.120000,192.000000,1.000000,32.000000,30.000000,208.000000,3.000000,192.000000,0.000000,0.000000,0.000000,1646904031.775739,0.000000
59.000000,26180.732391,28220.843163,29402.132857,22567.304679,9911.299933,17477.186618,24695.704841,21772.677812,0.036000,0.986000,0.120000,192.000000,0.000000,0.000000,0.000000,0.000000,0.000000,0.000000,0.000000,0.000000,0.000000,1646904031.782168,0.000000
60.000000,26178.765437,28219.658520,29400.992918,22565.069504,9909.221221,17477.924225,24696.844780,21783.585463,0.036000,0.986000,0.120000,192.000000,0.000000,0.000000,0.000000,0.000000,0.000000,0.000000,0.000000,0.000000,0.000000,1646904031.790258,0.000000
61.000000,26179.793618,28212.818886,29400.568235,22558.140464,9907.455433,17472.760972,24688.105248,21784.077201,0.036000,0.986000,0.120000,192.000000,0.000000,0.000000,0.000000,0.000000,0.000000,0.000000,0.000000,0.000000,0.000000,1646904031.790263,0.000000
62.000000,26185.582720,28215.121116,29402.892816,22564.108379,9913.602163,17477.231321,24684.618376,21790.715669,0.036000,0.986000,0.120000,192.000000,0.000000,0.000000,0.000000,0.000000,0.000000,0.000000,0.000000,0.000000,0.000000,1646904031.798230,0.000000
63.000000,26181.559406,28213.824715,29402.982223,22565.225967,9914.920916,17481.835780,24698.342347,21794.537818,0.036000,0.986000,0.120000,192.000000,0.000000,0.000000,0.000000,0.000000,0.000000,0.000000,0.000000,0.000000,0.000000,1646904031.798234,0.000000
64.000000,26172.752818,28208.415593,29397.371936,22553.714818,9906.941343,17468.961176,24684.417210,21775.024745,0.036000,0.986000,0.120000,192.000000,0.000000,0.000000,0.000000,0.000000,0.000000,0.000000,0.000000,0.000000,0.000000,1646904031.804818,0.000000
65.000000,26174.496254,28215.411689,29403.563369,22565.382429,9914.809157,17473.364469,24689.334594,21776.298794,0.036000,0.986000,0.120000,192.000000,0.000000,0.000000,0.000000,0.000000,0.000000,0.000000,0.000000,0.000000,0.000000,1646904031.804830,0.000000
66.000000,26179.324231,28218.809154,29407.586683,22572.534987,9919.994762,17483.959196,24697.068298,21785.261844,0.036000,0.986000,0.120000,192.000000,0.000000,0.000000,0.000000,0.000000,0.000000,0.000000,0.000000,0.000000,0.000000,1646904031.812772,0.000000
67.000000,26183.794580,28221.044328,29407.810200,22574.278423,9920.285335,17482.171057,24685.646556,21780.500922,0.036000,0.986000,0.120000,192.000000,0.000000,0.000000,0.000000,0.000000,0.000000,0.000000,0.000000,0.000000,0.000000,1646904031.812800,0.000000
68.000000,26187.169693,28225.537029,29410.291244,22577.206502,9921.604088,17481.433449,24690.049850,21784.881864,0.036000,0.984000,0.118000,192.000000,1.000000,32.000000,30.000000,192.000000,3.000000,176.000000,0.000000,0.000000,0.000000,1646904031.820810,0.000000
69.000000,26197.116220,28235.260038,29417.488506,22583.621452,9928.555480,17492.341100,24695.950710,21791.810905,0.036000,0.984000,0.118000,192.000000,0.000000,0.000000,0.000000,0.000000,0.000000,0.000000,0.000000,0.000000,0.000000,1646904031.820814,0.000000
70.000000,26200.603092,28242.300837,29418.784907,22585.744868,9928.846053,17490.083574,24694.922530,21784.010146,0.036000,0.984000,0.118000,192.000000,0.000000,0.000000,0.000000,0.000000,0.000000,0.000000,0.000000,0.000000,0.000000,1646904031.827995,0.000000
71.000000,26193.182313,28227.816907,29412.749936,22578.234682,9923.079303,17483.333347,24688.865207,21761.412532,0.036000,0.984000,0.118000,192.000000,0.000000,0.000000,0.000000,0.000000,0.000000,0.000000,0.000000,0.000000,0.000000,1646904031.827998,0.000000
72.000000,26188.622557,28220.597293,29410.335947,22578.167627,9924.062779,17488.250731,24693.492018,21789.486324,0.036000,0.984000,0.118000,192.000000,0.000000,0.000000,0.000000,0.000000,0.000000,0.000000,0.000000,0.000000,0.000000,1646904031.835441,0.000000
73.000000,26196.736240,28227.995721,29413.509895,22578.905234,9926.208547,17492.117583,24699.191713,21800.483382,0.036000,0.984000,0.118000,192.000000,0.000000,0.000000,0.000000,0.000000,0.000000,0.000000,0.000000,0.000000,0.000000,1646904031.835445,0.000000
74.000000,26186.454438,28216.104593,29406.580854,22568.444618,9916.887869,17485.345004,24693.939053,21789.396917,0.036000,0.984000,0.118000,192.000000,0.000000,0.000000,0.000000,0.000000,0.000000,0.000000,0.000000,0.000000,0.000000,1646904031.842470,0.000000
75.000000,26173.222205,28207.163895,29400.791752,22557.559318,9907.254268,17474.906740,24682.070277,21774.018916,0.036000,0.984000,0.118000,192.000000,0.000000,0.000000,0.000000,0.000000,0.000000,0.000000,0.000000,0.000000,0.000000,1646904031.850503,0.000000
76.000000,26171.054086,28205.062831,29398.981261,22552.306658,9903.677988,17466.189559,24678.091666,21755.422265,0.036000,0.984000,0.118000,192.000000,0.000000,0.000000,0.000000,0.000000,0.000000,0.000000,0.000000,0.000000,0.000000,1646904031.850507,0.000000
77.000000,26185.314499,28220.217314,29411.833514,22566.343554,9918.228974,17484.070955,24691.726231,21790.358042,0.036000,0.984000,0.118000,192.000000,0.000000,0.000000,0.000000,0.000000,0.000000,0.000000,0.000000,0.000000,0.000000,1646904031.857568,0.000000
78.000000,26187.616728,28229.448584,29414.582779,22568.668135,9921.313515,17482.886312,24687.233530,21793.308472,0.042000,0.982000,0.124000,192.000000,1.000000,80.000000,30.000000,176.000000,3.000000,224.000000,0.000000,0.000000,0.000000,1646904031.857572,0.000000
79.000000,26193.450534,28227.526334,29415.409793,22569.271632,9921.782901,17480.025289,24687.948786,21781.283233,0.042000,0.982000,0.124000,192.000000,0.000000,0.000000,0.000000,0.000000,0.000000,0.000000,0.000000,0.000000,0.000000,1646904031.865119,0.000000
80.000000,26188.063763,28218.540933,29408.145476,22562.387295,9913.088073,17472.537455,24687.054716,21769.392105,0.042000,0.982000,0.124000,192.000000,0.000000,0.000000,0.000000,0.000000,0.000000,0.000000,0.000000,0.000000,0.000000,1646904031.865123,0.000000
81.000000,26198.457324,28233.717767,29420.908322,22574.814865,9922.565213,17483.400402,24701.046908,21788.301681,0.042000,0.982000,0.124000,192.000000,0.000000,0.000000,0.000000,0.000000,0.000000,0.000000,0.000000,0.000000,0.000000,1646904031.873082,0.000000
82.000000,26192.042374,28226.587561,29418.695500,22573.987850,9919.100692,17482.908664,24700.733984,21797.175324,0.042000,0.982000,0.124000,192.000000,0.000000,0.000000,0.000000,0.000000,0.000000,0.000000,0.000000,0.000000,0.000000,1646904031.873087,0.000000
83.000000,26183.749876,28221.401956,29416.817953,22570.188054,9916.776111,17481.366394,24697.425925,21797.711765,0.042000,0.982000,0.124000,192.000000,0.000000,0.000000,0.000000,0.000000,0.000000,0.000000,0.000000,0.000000,0.000000,1646904031.880170,0.000000
84.000000,26186.499141,28224.531200,29419.947197,22568.846949,9915.546765,17484.205065,24703.483248,21792.526161,0.042000,0.982000,0.124000,192.000000,0.000000,0.000000,0.000000,0.000000,0.000000,0.000000,0.000000,0.000000,0.000000,1646904031.880174,0.000000
85.000000,26191.617691,28226.766375,29415.521552,22568.198749,9912.842204,17483.713327,24698.096478,21785.708879,0.042000,0.982000,0.124000,192.000000,0.000000,0.000000,0.000000,0.000000,0.000000,0.000000,0.000000,0.000000,0.000000,1646904031.887719,0.000000
86.000000,26196.155095,28227.325169,29416.192104,22571.350345,9915.502061,17483.378051,24692.217969,21792.526161,0.042000,0.982000,0.124000,192.000000,0.000000,0.000000,0.000000,0.000000,0.000000,0.000000,0.000000,0.000000,0.000000,1646904031.887728,0.000000
87.000000,26181.402943,28216.596331,29408.883084,22561.157949,9908.550669,17475.152609,24689.826332,21787.832294,0.042000,0.982000,0.124000,192.000000,0.000000,0.000000,0.000000,0.000000,0.000000,0.000000,0.000000,0.000000,0.000000,1646904031.895718,0.000000
88.000000,26176.396153,28216.953959,29410.335947,22562.655516,9910.450567,17480.651138,24697.850609,21781.193826,0.044000,0.986000,0.124000,192.000000,1.000000,96.000000,30.000000,208.000000,3.000000,224.000000,0.000000,0.000000,0.000000,1646904031.895721,0.000000
89.000000,26183.325193,28225.827602,29416.192104,22570.210406,9916.485538,17483.892141,24701.493943,21784.457181,0.044000,0.986000,0.124000,192.000000,0.000000,0.000000,0.000000,0.000000,0.000000,0.000000,0.000000,0.000000,0.000000,1646904031.902816,0.000000
90.000000,26186.946176,28228.688625,29418.561389,22573.406705,9918.296029,17486.641405,24706.187809,21783.943091,0.044000,0.986000,0.124000,192.000000,0.000000,0.000000,0.000000,0.000000,0.000000,0.000000,0.000000,0.000000,0.000000,1646904031.902820,0.000000
91.000000,26187.259100,28230.141488,29415.700366,22571.529159,9916.485538,17484.674452,24702.991510,21788.279329,0.044000,0.986000,0.124000,192.000000,0.000000,0.000000,0.000000,0.000000,0.000000,0.000000,0.000000,0.000000,0.000000,1646904031.909818,0.000000
92.000000,26196.669185,28238.031654,29420.170715,22578.033516,9923.436931,17488.742469,24702.276254,21786.446486,0.044000,0.986000,0.124000,192.000000,0.000000,0.000000,0.000000,0.000000,0.000000,0.000000,0.000000,0.000000,0.000000,1646904031.917438,0.000000
93.000000,26193.919920,28229.985026,29413.755764,22571.819731,9917.871346,17476.091382,24691.614472,21769.637974,0.044000,0.986000,0.124000,192.000000,0.000000,0.000000,0.000000,0.000000,0.000000,0.000000,0.000000,0.000000,0.000000,1646904031.917441,0.000000
94.000000,26186.163865,28221.290198,29409.687747,22569.428095,9913.713922,17474.236187,24685.959481,21765.882881,0.044000,0.986000,0.124000,192.000000,0.000000,0.000000,0.000000,0.000000,0.000000,0.000000,0.000000,0.000000,0.000000,1646904031.925416,0.000000
95.000000,26184.375725,28218.429174,29410.492410,22566.902347,9912.283410,17475.264367,24682.204387,21781.596158,0.044000,0.986000,0.124000,192.000000,0.000000,0.000000,0.000000,0.000000,0.000000,0.000000,0.000000,0.000000,0.000000,1646904031.925419,0.000000
96.000000,26188.108467,28220.664349,29414.091040,22566.030629,9915.300896,17476.761934,24688.149951,21787.742887,0.044000,0.986000,0.124000,192.000000,0.000000,0.000000,0.000000,0.000000,0.000000,0.000000,0.000000,0.000000,0.000000,1646904031.933413,0.000000
97.000000,26183.414600,28215.992834,29408.056069,22559.570975,9910.025884,17468.961176,24687.546454,21777.774009,0.044000,0.986000,0.124000,192.000000,0.000000,0.000000,0.000000,0.000000,0.000000,0.000000,0.000000,0.000000,0.000000,1646904031.933417,0.000000
98.000000,26182.006440,28218.563285,29405.709136,22563.326068,9909.556497,17469.207045,24689.535760,21769.705030,0.040000,0.980000,0.124000,192.000000,1.000000,64.000000,30.000000,160.000000,3.000000,224.000000,0.000000,0.000000,0.000000,1646904031.939993,0.000000
99.000000,26187.817894,28225.000587,29408.212532,22567.349382,9912.238707,17473.096248,24686.250053,21776.052925,0.040000,0.980000,0.124000,192.000000,0.000000,0.000000,0.000000,0.000000,0.000000,0.000000,0.000000,0.000000,0.000000,1646904031.939997,0.000000
100.000000,26184.487484,28225.984064,29404.457439,22564.689525,9911.188175,17475.554940,24690.720402,21788.346385,0.040000,0.980000,0.124000,192.000000,0.000000,0.000000,0.000000,0.000000,0.000000,0.000000,0.000000,0.000000,0.000000,1646904031.947993,0.000000
101.000000,26179.368935,28221.536067,29398.422468,22558.967478,9906.091977,17468.402382,24683.769010,21776.388201,0.040000,0.980000,0.124000,192.000000,0.000000,0.000000,0.000000,0.000000,0.000000,0.000000,0.000000,0.000000,0.000000,1646904031.947997,0.000000
102.000000,26184.196911,28228.375701,29405.262101,22562.811978,9911.277582,17465.586062,24679.119847,21751.443654,0.040000,0.980000,0.124000,192.000000,0.000000,0.000000,0.000000,0.000000,0.000000,0.000000,0.000000,0.000000,0.000000,1646904031.956016,0.000000
103.000000,26180.128894,28226.073471,29405.127991,22559.123940,9910.718788,17470.548149,24691.055678,21778.869245,0.040000,0.980000,0.124000,192.000000,0.000000,0.000000,0.000000,0.000000,0.000000,0.000000,0.000000,0.000000,0.000000,1646904031.956020,0.000000
104.000000,26175.189158,28222.184267,29400.948215,22557.939298,9906.695474,17473.431524,24697.738850,21800.997472,0.040000,0.980000,0.124000,192.000000,0.000000,0.000000,0.000000,0.000000,0.000000,0.000000,0.000000,0.000000,0.000000,1646904031.963119,0.000000
105.000000,26172.506949,28219.725575,29394.510912,22555.458254,9901.822794,17469.631728,24694.743716,21811.972178,0.040000,0.980000,0.124000,192.000000,0.000000,0.000000,0.000000,0.000000,0.000000,0.000000,0.000000,0.000000,0.000000,1646904031.963123,0.000000
106.000000,26177.446685,28219.546761,29393.326270,22555.949993,9901.621628,17467.553016,24693.335556,21790.022765,0.040000,0.980000,0.124000,192.000000,0.000000,0.000000,0.000000,0.000000,0.000000,0.000000,0.000000,0.000000,0.000000,1646904031.969763,0.000000
107.000000,26193.651699,28230.655578,29409.933616,22568.981060,9916.284372,17478.661833,24700.599873,21779.919777,0.040000,0.980000,0.124000,192.000000,0.000000,0.000000,0.000000,0.000000,0.000000,0.000000,0.000000,0.000000,0.000000,1646904031.977794,0.000000
108.000000,26193.964624,28233.918933,29418.583741,22576.513598,9924.710980,17484.361527,24695.078992,21784.613643,0.038000,0.980000,0.126000,192.000000,1.000000,48.000000,30.000000,160.000000,3.000000,240.000000,0.000000,0.000000,0.000000,1646904031.977798,0.000000
109.000000,26187.370859,28230.253247,29408.726622,22569.808074,9915.926744,17475.689051,24689.535760,21780.255053,0.038000,0.980000,0.126000,192.000000,0.000000,0.000000,0.000000,0.000000,0.000000,0.000000,0.000000,0.000000,0.000000,1646904031.985719,0.000000
110.000000,26184.152208,28229.247419,29404.926825,22563.415475,9907.902468,17471.933958,24692.173265,21777.975175,0.038000,0.980000,0.126000,192.000000,0.000000,0.000000,0.000000,0.000000,0.000000,0.000000,0.000000,0.000000,0.000000,1646904031.985723,0.000000
111.000000,26189.114295,28230.499116,29406.469096,22562.163778,9909.265925,17471.933958,24692.106210,21775.538835,0.038000,0.980000,0.126000,192.000000,0.000000,0.000000,0.000000,0.000000,0.000000,0.000000,0.000000,0.000000,0.000000,1646904031.992884,0.000000
112.000000,26201.787734,28237.003474,29413.398136,22571.551510,9917.312553,17481.612263,24701.806867,21785.440658,0.038000,0.980000,0.126000,192.000000,0.000000,0.000000,0.000000,0.000000,0.000000,0.000000,0.000000,0.000000,0.000000,1646904031.992888,0.000000
113.000000,26196.177446,28241.183250,29414.158096,22573.272595,9918.631306,17484.965025,24707.372452,21793.822562,0.038000,0.980000,0.126000,192.000000,0.000000,0.000000,0.000000,0.000000,0.000000,0.000000,0.000000,0.000000,0.000000,1646904032.000388,0.000000
114.000000,26182.565234,28231.750814,29408.257235,22564.287193,9909.154166,17477.276024,24704.354966,21790.335690,0.038000,0.980000,0.126000,192.000000,0.000000,0.000000,0.000000,0.000000,0.000000,0.000000,0.000000,0.000000,0.000000,1646904032.000393,0.000000
115.000000,26177.469036,28222.519543,29402.624595,22557.291097,9900.928724,17464.513178,24693.737888,21776.052925,0.038000,0.980000,0.126000,192.000000,0.000000,0.000000,0.000000,0.000000,0.000000,0.000000,0.000000,0.000000,0.000000,1646904032.008318,0.000000
116.000000,26174.652716,28219.211485,29400.054145,22554.340667,9898.559439,17458.679373,24680.416248,21774.041268,0.038000,0.980000,0.126000,192.000000,0.000000,0.000000,0.000000,0.000000,0.000000,0.000000,0.000000,0.000000,0.000000,1646904032.008323,0.000000
117.000000,26188.354336,28231.795517,29412.325253,22568.534025,9912.730445,17471.084591,24691.390954,21794.381356,0.038000,0.980000,0.126000,192.000000,0.000000,0.000000,0.000000,0.000000,0.000000,0.000000,0.000000,0.000000,0.000000,1646904032.016414,0.000000
118.000000,26193.897568,28236.534087,29417.153229,22571.842083,9916.910221,17472.984490,24693.961405,21788.614606,0.038000,0.980000,0.126000,192.000000,0.000000,0.000000,0.000000,0.000000,0.000000,0.000000,0.000000,0.000000,0.000000,1646904032.016418,0.000000
119.000000,26183.973394,28228.822735,29408.056069,22557.961650,9907.567192,17466.949519,24693.894350,21789.776896,0.040000,0.976000,0.128000,192.000000,1.000000,64.000000,30.000000,128.000000,4.000000,0.000000,0.000000,0.000000,0.000000,1646904032.022893,0.000000
120.000000,26187.728487,28233.360140,29412.124087,22559.973307,9910.741140,17477.119562,24706.187809,21801.243341,0.040000,0.976000,0.128000,192.000000,0.000000,0.000000,0.000000,0.000000,0.000000,0.000000,0.000000,0.000000,0.000000,1646904032.022896,0.000000
121.000000,26189.628385,28238.813965,29411.542942,22564.354249,9911.724616,17478.214798,24705.494905,21794.716632,0.040000,0.976000,0.128000,192.000000,0.000000,0.000000,0.000000,0.000000,0.000000,0.000000,0.000000,0.000000,0.000000,1646904032.030005,0.000000
122.000000,26191.148304,28241.250305,29411.006500,22568.064638,9917.021980,17483.400402,24712.155725,21798.449373,0.040000,0.976000,0.128000,192.000000,0.000000,0.000000,0.000000,0.000000,0.000000,0.000000,0.000000,0.000000,0.000000,1646904032.038035,0.000000
123.000000,26191.863560,28240.557401,29414.292206,22568.958708,9918.944230,17484.406231,24714.815583,21801.422155,0.040000,0.976000,0.128000,192.000000,0.000000,0.000000,0.000000,0.000000,0.000000,0.000000,0.000000,0.000000,0.000000,1646904032.038039,0.000000
124.000000,26193.137609,28239.752738,29416.303863,22568.288156,9918.653657,17484.093307,24711.328710,21804.819620,0.040000,0.976000,0.128000,192.000000,0.000000,0.000000,0.000000,0.000000,0.000000,0.000000,0.000000,0.000000,0.000000,1646904032.045165,0.000000
125.000000,26189.382516,28234.880058,29411.162962,22564.264842,9914.138605,17475.331423,24700.622225,21796.683585,0.040000,0.976000,0.128000,192.000000,0.000000,0.000000,0.000000,0.000000,0.000000,0.000000,0.000000,0.000000,0.000000,1646904032.045169,0.000000
126.000000,26184.196911,28226.140526,29405.038584,22558.118112,9909.176518,17468.312975,24688.708745,21786.379431,0.040000,0.976000,0.128000,192.000000,0.000000,0.000000,0.000000,0.000000,0.000000,0.000000,0.000000,0.000000,0.000000,1646904032.052618,0.000000
127.000000,26174.742123,28216.976311,29396.544921,22545.131748,9900.280523,17455.795998,24673.218986,21773.750695,0.040000,0.976000,0.128000,192.000000,0.000000,0.000000,0.000000,0.000000,0.000000,0.000000,0.000000,0.000000,0.000000,1646904032.052622,0.000000
128.000000,26187.348507,28229.158012,29410.782982,22561.090894,9914.630343,17466.167207,24680.103323,21784.703050,0.040000,0.976000,0.128000,192.000000,0.000000,0.000000,0.000000,0.000000,0.000000,0.000000,0.000000,0.000000,0.000000,1646904032.060624,0.000000
129.000000,26191.684746,28228.420404,29411.230017,22559.034533,9915.390303,17469.654080,24689.066373,21795.431888,0.042000,0.972000,0.132000,192.000000,1.000000,80.000000,30.000000,96.000000,4.000000,32.000000,0.000000,0.000000,0.000000,1646904032.060633,0.000000
130.000000,26201.631272,28236.779956,29418.337872,22567.304679,9923.436931,17481.053469,24712.580408,21804.774917,0.042000,0.972000,0.132000,192.000000,0.000000,0.000000,0.000000,0.000000,0.000000,0.000000,0.000000,0.000000,0.000000,1646904032.068590,0.000000
131.000000,26204.984034,28241.786747,29425.021043,22572.423228,9928.488425,17484.607397,24716.201391,21800.617492,0.042000,0.972000,0.132000,192.000000,0.000000,0.000000,0.000000,0.000000,0.000000,0.000000,0.000000,0.000000,0.000000,1646904032.068593,0.000000
132.000000,26198.904359,28235.058872,29419.097831,22565.471836,9923.012247,17478.572426,24711.082841,21792.950844,0.042000,0.972000,0.132000,192.000000,0.000000,0.000000,0.000000,0.000000,0.000000,0.000000,0.000000,0.000000,0.000000,1646904032.075360,0.000000
133.000000,26197.116220,28232.242552,29413.174619,22559.995658,9919.413617,17471.799847,24700.532818,21808.731176,0.042000,0.972000,0.132000,192.000000,0.000000,0.000000,0.000000,0.000000,0.000000,0.000000,0.000000,0.000000,0.000000,1646904032.075365,0.000000
134.000000,26197.987938,28235.595314,29413.800468,22560.979135,9919.503024,17471.889254,24700.555170,21814.207353,0.042000,0.972000,0.132000,192.000000,0.000000,0.000000,0.000000,0.000000,0.000000,0.000000,0.000000,0.000000,0.000000,1646904032.083192,0.000000
135.000000,26200.670147,28238.076358,29415.812125,22564.778932,9920.732370,17478.460667,24695.548379,21795.521295,0.042000,0.972000,0.132000,192.000000,0.000000,0.000000,0.000000,0.000000,0.000000,0.000000,0.000000,0.000000,0.000000,1646904032.083195,0.000000
136.000000,26192.757629,28227.034596,29406.469096,22552.329010,9909.064759,17466.301318,24677.532873,21770.621451,0.042000,0.972000,0.132000,192.000000,0.000000,0.000000,0.000000,0.000000,0.000000,0.000000,0.000000,0.000000,0.000000,1646904032.090281,0.000000
137.000000,26208.873237,28242.837279,29422.540000,22570.031592,9923.146358,17483.199237,24697.694146,21790.894483,0.042000,0.972000,0.132000,192.000000,0.000000,0.000000,0.000000,0.000000,0.000000,0.000000,0.000000,0.000000,0.000000,1646904032.098260,0.000000
138.000000,26208.940292,28246.167689,29420.461288,22571.216234,9925.873271,17487.200199,24706.210161,21800.885713,0.042000,0.972000,0.132000,192.000000,0.000000,0.000000,0.000000,0.000000,0.000000,0.000000,0.000000,0.000000,0.000000,1646904032.098264,0.000000
139.000000,26200.156057,28235.572962,29415.633311,22565.784760,9922.028771,17480.941711,24697.247111,21790.112172,0.034000,0.974000,0.126000,192.000000,1.000000,16.000000,30.000000,112.000000,3.000000,240.000000,0.000000,0.000000,0.000000,1646904032.105019,0.000000
140.000000,26195.551598,28230.543820,29415.096869,22564.756580,9921.537032,17482.081650,24699.191713,21801.891542,0.034000,0.974000,0.126000,192.000000,0.000000,0.000000,0.000000,0.000000,0.000000,0.000000,0.000000,0.000000,0.000000,1646904032.105046,0.000000
141.000000,26190.947138,28229.381529,29411.855866,22561.426170,9917.759587,17481.858132,24700.152838,21795.051908,0.034000,0.974000,0.126000,192.000000,0.000000,0.000000,0.000000,0.000000,0.000000,0.000000,0.000000,0.000000,0.000000,1646904032.112929,0.000000
142.000000,26189.270757,28231.057910,29409.330119,22565.002449,9918.228974,17485.210894,24704.623187,21808.284141,0.034000,0.974000,0.126000,192.000000,0.000000,0.000000,0.000000,0.000000,0.000000,0.000000,0.000000,0.000000,0.000000,1646904032.112934,0.000000
143.000000,26184.733353,28224.777070,29396.209645,22555.011219,9909.355332,17474.124429,24695.235454,21798.605835,0.034000,0.974000,0.126000,192.000000,0.000000,0.000000,0.000000,0.000000,0.000000,0.000000,0.000000,0.000000,0.000000,1646904032.121017,0.000000
144.000000,26192.914092,28226.028767,29403.742183,22559.638030,9912.283410,17479.935882,24701.002205,21799.790478,0.034000,0.974000,0.126000,192.000000,0.000000,0.000000,0.000000,0.000000,0.000000,0.000000,0.000000,0.000000,0.000000,1646904032.121021,0.000000
145.000000,26191.863560,28227.302817,29403.585720,22557.961650,9911.076416,17479.891179,24696.397745,21800.461030,0.034000,0.974000,0.126000,192.000000,0.000000,0.000000,0.000000,0.000000,0.000000,0.000000,0.000000,0.000000,0.000000,1646904032.128401,0.000000
146.000000,26185.090981,28226.408747,29399.271834,22556.285269,9909.891773,17478.728888,24701.851571,21798.494077,0.034000,0.974000,0.126000,192.000000,0.000000,0.000000,0.000000,0.000000,0.000000,0.000000,0.000000,0.000000,0.000000,1646904032.128410,0.000000
147.000000,26181.291185,28217.356291,29392.275738,22550.429112,9905.667294,17476.761934,24698.856437,21793.062603,0.034000,0.974000,0.126000,192.000000,0.000000,0.000000,0.000000,0.000000,0.000000,0.000000,0.000000,0.000000,0.000000,1646904032.135915,0.000000
148.000000,26186.365031,28221.916046,29390.331136,22551.166719,9904.706169,17475.286719,24696.442449,21798.203504,0.034000,0.974000,0.126000,192.000000,0.000000,0.000000,0.000000,0.000000,0.000000,0.000000,0.000000,0.000000,0.000000,1646904032.135926,0.000000
149.000000,26179.905376,28222.966578,29387.134837,22546.271687,9898.045349,17469.989356,24690.832161,21798.672891,0.040000,0.976000,0.128000,192.000000,1.000000,64.000000,30.000000,128.000000,4.000000,0.000000,0.000000,0.000000,0.000000,1646904032.143769,0.000000
150.000000,26189.203702,28236.936419,29399.875331,22557.022876,9906.203736,17481.388745,24703.393841,21797.220027,0.040000,0.976000,0.128000,192.000000,0.000000,0.000000,0.000000,0.000000,0.000000,0.000000,0.000000,0.000000,0.000000,1646904032.143803,0.000000
151.000000,26192.735278,28231.504945,29398.422468,22554.541833,9906.471957,17483.690975,24701.985681,21800.505734,0.040000,0.976000,0.128000,192.000000,0.000000,0.000000,0.000000,0.000000,0.000000,0.000000,0.000000,0.000000,0.000000,1646904032.151089,0.000000
152.000000,26182.364068,28215.635206,29390.062915,22547.568088,9901.241648,17479.511199,24695.503675,21793.308472,0.040000,0.976000,0.128000,192.000000,0.000000,0.000000,0.000000,0.000000,0.000000,0.000000,0.000000,0.000000,0.000000,1646904032.151107,0.000000
153.000000,26173.333964,28209.108497,29382.508025,22539.364998,9893.530297,17469.676431,24691.614472,21773.951861,0.040000,0.976000,0.128000,192.000000,0.000000,0.000000,0.000000,0.000000,0.000000,0.000000,0.000000,0.000000,0.000000,1646904032.157553,0.000000
154.000000,26173.848054,28207.923854,29381.703363,22540.817862,9893.172669,17463.194425,24687.792324,21770.040306,0.040000,0.976000,0.128000,192.000000,0.000000,0.000000,0.000000,0.000000,0.000000,0.000000,0.000000,0.000000,0.000000,1646904032.165334,0.000000
155.000000,26179.748914,28209.421421,29385.749028,22545.221155,9896.279561,17470.525798,24699.281120,21795.498943,0.040000,0.976000,0.128000,192.000000,0.000000,0.000000,0.000000,0.000000,0.000000,0.000000,0.000000,0.000000,0.000000,1646904032.165345,0.000000
156.000000,26179.123065,28211.544837,29388.654755,22545.243507,9896.816003,17472.760972,24702.611530,21798.784649,0.040000,0.976000,0.128000,192.000000,0.000000,0.000000,0.000000,0.000000,0.000000,0.000000,0.000000,0.000000,0.000000,1646904032.173589,0.000000
157.000000,26184.353374,28218.473878,29393.974470,22547.344571,9902.694512,17475.174961,24698.856437,21790.916835,0.040000,0.976000,0.128000,192.000000,0.000000,0.000000,0.000000,0.000000,0.000000,0.000000,0.000000,0.000000,0.000000,1646904032.173606,0.000000
158.000000,26185.247443,28218.809154,29394.332098,22546.785777,9904.236782,17476.024327,24700.912798,21795.364832,0.040000,0.976000,0.128000,192.000000,0.000000,0.000000,0.000000,0.000000,0.000000,0.000000,0.000000,0.000000,0.000000,1646904032.180742,0.000000
159.000000,26175.412676,28213.534142,29389.101790,22544.483548,9899.431157,17472.425696,24697.872960,21790.805076,0.046000,0.976000,0.126000,192.000000,1.000000,112.000000,30.000000,128.000000,3.000000,240.000000,0.000000,0.000000,0.000000,1646904032.180759,0.000000
160.000000,26173.065743,28211.500133,29385.301994,22541.309600,9895.452547,17465.586062,24696.285986,21787.429963,0.046000,0.976000,0.126000,192.000000,0.000000,0.000000,0.000000,0.000000,0.000000,0.000000,0.000000,0.000000,0.000000,1646904032.188114,0.000000
161.000000,26173.333964,28212.505962,29385.637270,22540.773158,9892.971503,17466.457780,24699.214065,21793.420231,0.046000,0.976000,0.126000,192.000000,0.000000,0.000000,0.000000,0.000000,0.000000,0.000000,0.000000,0.000000,0.000000,1646904032.188125,0.000000
162.000000,26182.922862,28218.473878,29393.840360,22548.015123,9898.268866,17473.051545,24702.477420,21801.019824,0.046000,0.976000,0.126000,192.000000,0.000000,0.000000,0.000000,0.000000,0.000000,0.000000,0.000000,0.000000,0.000000,1646904032.195967,0.000000
163.000000,26176.574966,28211.500133,29385.637270,22543.969458,9890.825735,17466.837760,24685.132466,21779.964480,0.046000,0.976000,0.126000,192.000000,0.000000,0.000000,0.000000,0.000000,0.000000,0.000000,0.000000,0.000000,0.000000,1646904032.195984,0.000000
164.000000,26175.256214,28209.153200,29379.714057,22542.427187,9886.288331,17468.804713,24697.671795,21777.416382,0.046000,0.976000,0.126000,192.000000,0.000000,0.000000,0.000000,0.000000,0.000000,0.000000,0.000000,0.000000,0.000000,1646904032.204255,0.000000
165.000000,26188.533150,28221.491363,29391.940462,22553.044266,9898.090052,17483.623920,24712.826277,21806.317187,0.046000,0.976000,0.126000,192.000000,0.000000,0.000000,0.000000,0.000000,0.000000,0.000000,0.000000,0.000000,0.000000,1646904032.204272,0.000000
166.000000,26184.353374,28218.853857,29391.560482,22546.942240,9897.754776,17480.449972,24702.097440,21811.122812,0.046000,0.976000,0.126000,192.000000,0.000000,0.000000,0.000000,0.000000,0.000000,0.000000,0.000000,0.000000,0.000000,1646904032.210806,0.000000
167.000000,26180.464170,28218.786802,29389.928805,22540.259068,9892.524468,17471.196350,24696.844780,21801.444507,0.046000,0.976000,0.126000,192.000000,0.000000,0.000000,0.000000,0.000000,0.000000,0.000000,0.000000,0.000000,0.000000,1646904032.210822,0.000000
168.000000,26184.688650,28225.648788,29388.587700,22543.500071,9889.954017,17466.480132,24691.994452,21797.398841,0.046000,0.976000,0.126000,192.000000,0.000000,0.000000,0.000000,0.000000,0.000000,0.000000,0.000000,0.000000,0.000000,1646904032.217672,0.000000
169.000000,26181.939385,28224.173573,29390.331136,22546.115225,9893.396186,17467.798885,24684.774838,21788.279329,0.060000,0.974000,0.126000,192.000000,1.000000,224.000000,30.000000,112.000000,3.000000,240.000000,0.000000,0.000000,0.000000,1646904032.225668,0.000000
170.000000,26170.785865,28219.300892,29388.274776,22547.836309,9893.083262,17472.403344,24690.586292,21789.709841,0.060000,0.974000,0.126000,192.000000,0.000000,0.000000,0.000000,0.000000,0.000000,0.000000,0.000000,0.000000,0.000000,1646904032.225684,0.000000
171.000000,26174.116275,28219.814982,29388.610052,22548.819786,9894.357311,17475.130257,24695.503675,21793.308472,0.060000,0.974000,0.126000,192.000000,0.000000,0.000000,0.000000,0.000000,0.000000,0.000000,0.000000,0.000000,0.000000,1646904032.233780,0.000000
172.000000,26175.032696,28216.641035,29387.648927,22543.589478,9891.473936,17472.984490,24699.974024,21797.600007,0.060000,0.974000,0.126000,192.000000,0.000000,0.000000,0.000000,0.000000,0.000000,0.000000,0.000000,0.000000,0.000000,1646904032.233796,0.000000
173.000000,26175.211510,28213.489439,29387.581871,22542.158966,9888.881134,17472.716269,24701.963330,21791.587388,0.060000,0.974000,0.126000,192.000000,0.000000,0.000000,0.000000,0.000000,0.000000,0.000000,0.000000,0.000000,0.000000,1646904032.240348,0.000000
174.000000,26167.723676,28205.420459,29380.474017,22537.956838,9882.890866,17466.949519,24703.013862,21771.157893,0.060000,0.974000,0.126000,192.000000,0.000000,0.000000,0.000000,0.000000,0.000000,0.000000,0.000000,0.000000,0.000000,1646904032.240359,0.000000
175.000000,26175.122103,28213.981177,29383.223281,22544.997638,9889.082299,17469.028231,24701.382184,21780.880902,0.060000,0.974000,0.126000,192.000000,0.000000,0.000000,0.000000,0.000000,0.000000,0.000000,0.000000,0.000000,0.000000,1646904032.248465,0.000000
176.000000,26177.893719,28217.490401,29387.715982,22548.775083,9892.837392,17474.325594,24704.846705,21806.630112,0.060000,0.974000,0.126000,192.000000,0.000000,0.000000,0.000000,0.000000,0.000000,0.000000,0.000000,0.000000,0.000000,1646904032.248481,0.000000
177.000000,26176.686725,28219.591465,29390.867578,22550.540870,9892.680930,17472.157475,24698.096478,21802.740908,0.060000,0.974000,0.126000,192.000000,0.000000,0.000000,0.000000,0.000000,0.000000,0.000000,0.000000,0.000000,0.000000,1646904032.256450,0.000000
178.000000,26181.402943,28225.514677,29395.874369,22555.055923,9891.853916,17472.403344,24692.687356,21803.187943,0.060000,0.974000,0.126000,192.000000,0.000000,0.000000,0.000000,0.000000,0.000000,0.000000,0.000000,0.000000,0.000000,1646904032.256467,0.000000
179.000000,26187.594377,28225.849953,29397.506046,22559.705086,9893.373834,17473.900911,24692.821466,21796.057736,0.054000,0.970000,0.128000,192.000000,1.000000,176.000000,30.000000,80.000000,4.000000,0.000000,0.000000,0.000000,0.000000,1646904032.262969,0.000000
180.000000,26182.676993,28214.830543,29389.168845,22551.189071,9886.936532,17464.535530,24677.756390,21784.971271,0.054000,0.970000,0.128000,192.000000,0.000000,0.000000,0.000000,0.000000,0.000000,0.000000,0.000000,0.000000,0.000000,1646904032.262981,0.000000
181.000000,26173.713943,28211.097802,29383.983241,22542.762463,9881.214485,17459.104056,24689.312242,21774.465951,0.054000,0.970000,0.128000,192.000000,0.000000,0.000000,0.000000,0.000000,0.000000,0.000000,0.000000,0.000000,0.000000,1646904032.270904,0.000000
182.000000,26180.106542,28219.479706,29394.913244,22553.156025,9893.932628,17475.040850,24712.513353,21801.913893,0.054000,0.970000,0.128000,192.000000,0.000000,0.000000,0.000000,0.000000,0.000000,0.000000,0.000000,0.000000,0.000000,1646904032.270921,0.000000
183.000000,26185.761533,28225.179401,29398.422468,22558.028705,9897.732424,17475.778458,24705.494905,21800.773954,0.054000,0.970000,0.128000,192.000000,0.000000,0.000000,0.000000,0.000000,0.000000,0.000000,0.000000,0.000000,0.000000,1646904032.277976,0.000000
184.000000,26174.563309,28216.685738,29389.280604,22549.713856,9886.936532,17465.541359,24693.223797,21789.687489,0.054000,0.970000,0.128000,192.000000,0.000000,0.000000,0.000000,0.000000,0.000000,0.000000,0.000000,0.000000,0.000000,1646904032.286159,0.000000
185.000000,26179.078362,28216.752793,29394.086229,22551.189071,9890.110480,17467.530664,24699.392879,21793.688451,0.054000,0.970000,0.128000,192.000000,0.000000,0.000000,0.000000,0.000000,0.000000,0.000000,0.000000,0.000000,0.000000,1646904032.286175,0.000000
186.000000,26172.417542,28216.797497,29389.325308,22551.323182,9890.289294,17464.937862,24691.078030,21790.201579,0.054000,0.970000,0.128000,192.000000,0.000000,0.000000,0.000000,0.000000,0.000000,0.000000,0.000000,0.000000,0.000000,1646904032.292604,0.000000
187.000000,26178.988955,28221.826639,29394.399154,22557.738132,9896.927762,17470.302280,24691.010975,21793.375527,0.054000,0.970000,0.128000,192.000000,0.000000,0.000000,0.000000,0.000000,0.000000,0.000000,0.000000,0.000000,0.000000,1646904032.292615,0.000000
188.000000,26184.711001,28225.760546,29398.847151,22562.566109,9902.739215,17476.471362,24703.550303,21799.991643,0.054000,0.970000,0.128000,192.000000,0.000000,0.000000,0.000000,0.000000,0.000000,0.000000,0.000000,0.000000,0.000000,1646904032.300710,0.000000
189.000000,26188.689612,28226.654616,29402.378726,22566.879996,9906.337846,17482.260464,24711.038138,21802.472687,0.058000,0.970000,0.132000,192.000000,1.000000,208.000000,30.000000,80.000000,4.000000,32.000000,0.000000,0.000000,0.000000,1646904032.300727,0.000000
190.000000,26189.315461,28224.866477,29400.389421,22564.756580,9905.220259,17481.142876,24708.311225,21805.199600,0.058000,0.970000,0.132000,192.000000,0.000000,0.000000,0.000000,0.000000,0.000000,0.000000,0.000000,0.000000,0.000000,1646904032.308569,0.000000
191.000000,26178.452513,28217.356291,29393.303918,22553.021914,9891.876267,17469.967004,24706.813658,21792.593216,0.058000,0.970000,0.132000,192.000000,0.000000,0.000000,0.000000,0.000000,0.000000,0.000000,0.000000,0.000000,0.000000,1646904032.308586,0.000000
192.000000,26181.984089,28226.341692,29398.824799,22559.056885,9895.005512,17473.163304,24708.422984,21796.884751,0.058000,0.970000,0.132000,192.000000,0.000000,0.000000,0.000000,0.000000,0.000000,0.000000,0.000000,0.000000,0.000000,1646904032.315801,0.000000
193.000000,26189.740144,28233.918933,29402.848113,22568.042286,9900.548744,17478.505370,24709.875847,21796.750640,0.058000,0.970000,0.132000,192.000000,0.000000,0.000000,0.000000,0.000000,0.000000,0.000000,0.000000,0.000000,0.000000,1646904032.315836,0.000000
194.000000,26185.023926,28225.089994,29393.840360,22559.436865,9892.010378,17469.765838,24701.896274,21782.222007,0.058000,0.970000,0.132000,192.000000,0.000000,0.000000,0.000000,0.000000,0.000000,0.000000,0.000000,0.000000,0.000000,1646904032.323375,0.000000
195.000000,26185.538016,28224.419442,29396.142590,22558.095760,9893.016206,17468.782362,24696.621263,21795.029556,0.058000,0.970000,0.132000,192.000000,0.000000,0.000000,0.000000,0.000000,0.000000,0.000000,0.000000,0.000000,0.000000,1646904032.323392,0.000000
196.000000,26188.957833,28225.693491,29398.310709,22560.487397,9895.497250,17468.782362,24689.736925,21793.442582,0.058000,0.970000,0.132000,192.000000,0.000000,0.000000,0.000000,0.000000,0.000000,0.000000,0.000000,0.000000,0.000000,1646904032.331372,0.000000
197.000000,26188.443743,28223.704186,29395.561444,22559.325106,9895.609009,17470.190522,24697.917664,21791.676794,0.058000,0.970000,0.132000,192.000000,0.000000,0.000000,0.000000,0.000000,0.000000,0.000000,0.000000,0.000000,0.000000,1646904032.331389,0.000000
198.000000,26183.660469,28224.307683,29390.398191,22558.296926,9894.312608,17470.794019,24698.699975,21792.794382,0.058000,0.970000,0.132000,192.000000,0.000000,0.000000,0.000000,0.000000,0.000000,0.000000,0.000000,0.000000,0.000000,1646904032.338400,0.000000
199.000000,26187.728487,28230.275599,29394.913244,22563.616641,9900.191116,17477.432487,24705.450202,21797.600007,0.056000,0.978000,0.130000,192.000000,1.000000,192.000000,30.000000,144.000000,4.000000,16.000000,0.000000,0.000000,0.000000,1646904032.345321,0.000000
200.000000,26188.823722,28232.175497,29402.378726,22567.125865,9901.331055,17477.700708,24703.080917,21791.855608,0.056000,0.978000,0.130000,192.000000,0.000000,0.000000,0.000000,0.000000,0.000000,0.000000,0.000000,0.000000,0.000000,1646904032.345338,0.000000
201.000000,26187.147342,28233.471898,29402.848113,22568.534025,9901.465166,17480.248807,24703.907931,21797.734117,0.056000,0.978000,0.130000,192.000000,0.000000,0.000000,0.000000,0.000000,0.000000,0.000000,0.000000,0.000000,0.000000,1646904032.352973,0.000000
202.000000,26183.459304,28230.722634,29398.288357,22564.510711,9899.542916,17478.594777,24693.268501,21801.913893,0.056000,0.978000,0.130000,192.000000,0.000000,0.000000,0.000000,0.000000,0.000000,0.000000,0.000000,0.000000,0.000000,1646904032.352990,0.000000
203.000000,26187.236749,28233.695416,29405.217398,22568.332859,9901.509869,17481.858132,24698.007071,21796.996510,0.056000,0.978000,0.130000,192.000000,0.000000,0.000000,0.000000,0.000000,0.000000,0.000000,0.000000,0.000000,0.000000,1646904032.360763,0.000000
204.000000,26186.923824,28228.219238,29400.098848,22565.002449,9895.072567,17479.712365,24703.706766,21792.704975,0.056000,0.978000,0.130000,192.000000,0.000000,0.000000,0.000000,0.000000,0.000000,0.000000,0.000000,0.000000,0.000000,1646904032.360774,0.000000
205.000000,26182.185254,28225.313512,29390.599357,22560.263879,9888.724671,17473.766801,24699.638748,21788.860475,0.056000,0.978000,0.130000,192.000000,0.000000,0.000000,0.000000,0.000000,0.000000,0.000000,0.000000,0.000000,0.000000,1646904032.368916,0.000000
206.000000,26177.983126,28223.614779,29385.681973,22558.609850,9887.048291,17470.056411,24691.927396,21796.057736,0.056000,0.978000,0.130000,192.000000,0.000000,0.000000,0.000000,0.000000,0.000000,0.000000,0.000000,0.000000,0.000000,1646904032.368927,0.000000
207.000000,26185.403906,28228.532163,29389.973508,22566.544720,9895.407843,17473.766801,24690.251015,21805.177248,0.056000,0.978000,0.130000,192.000000,0.000000,0.000000,0.000000,0.000000,0.000000,0.000000,0.000000,0.000000,0.000000,1646904032.375523,0.000000
208.000000,26187.437914,28226.989892,29396.209645,22567.528196,9897.240686,17475.398478,24694.699013,21794.604873,0.056000,0.978000,0.130000,192.000000,0.000000,0.000000,0.000000,0.000000,0.000000,0.000000,0.000000,0.000000,0.000000,1646904032.375540,0.000000
209.000000,26182.185254,28221.916046,29392.387497,22562.901385,9891.675102,17472.045716,24688.932263,21783.250187,0.052000,0.974000,0.124000,192.000000,1.000000,160.000000,30.000000,112.000000,3.000000,224.000000,0.000000,0.000000,0.000000,1646904032.383679,0.000000
210.000000,26175.747952,28219.390299,29389.370011,22560.710914,9886.623607,17472.962138,24686.875902,21792.526161,0.052000,0.974000,0.124000,192.000000,0.000000,0.000000,0.000000,0.000000,0.000000,0.000000,0.000000,0.000000,0.000000,1646904032.383696,0.000000
211.000000,26177.044353,28222.407785,29392.499255,22563.907214,9890.624570,17478.818295,24705.450202,21799.946940,0.052000,0.974000,0.124000,192.000000,0.000000,0.000000,0.000000,0.000000,0.000000,0.000000,0.000000,0.000000,0.000000,1646904032.391695,0.000000
212.000000,26183.794580,28225.782898,29395.941424,22569.361039,9896.637189,17486.484943,24713.608588,21805.199600,0.052000,0.974000,0.124000,192.000000,0.000000,0.000000,0.000000,0.000000,0.000000,0.000000,0.000000,0.000000,0.000000,1646904032.391711,0.000000
213.000000,26174.630365,28216.573979,29389.370011,22557.827539,9885.841296,17477.074859,24702.857399,21796.840047,0.052000,0.974000,0.124000,192.000000,0.000000,0.000000,0.000000,0.000000,0.000000,0.000000,0.000000,0.000000,0.000000,1646904032.397858,0.000000
214.000000,26174.362144,28217.803325,29392.052220,22555.480606,9884.857820,17478.259501,24698.632920,21798.605835,0.052000,0.974000,0.124000,192.000000,0.000000,0.000000,0.000000,0.000000,0.000000,0.000000,0.000000,0.000000,0.000000,1646904032.397893,0.000000
215.000000,26175.882062,28219.546761,29392.611014,22556.598193,9886.198924,17480.204103,24705.763126,21798.851704,0.052000,0.974000,0.124000,192.000000,0.000000,0.000000,0.000000,0.000000,0.000000,0.000000,0.000000,0.000000,0.000000,1646904032.405159,0.000000
216.000000,26180.911205,28221.379605,29393.952119,22561.694391,9889.395224,17484.070955,24712.289835,21804.260827,0.052000,0.974000,0.124000,192.000000,0.000000,0.000000,0.000000,0.000000,0.000000,0.000000,0.000000,0.000000,0.000000,1646904032.413294,0.000000
217.000000,26186.007403,28226.095823,29395.404982,22563.661344,9891.451584,17482.662795,24703.773821,21800.393975,0.052000,0.974000,0.124000,192.000000,0.000000,0.000000,0.000000,0.000000,0.000000,0.000000,0.000000,0.000000,0.000000,1646904032.413311,0.000000
218.000000,26177.379629,28224.151221,29389.213549,22561.806150,9885.640131,17478.125391,24696.911835,21795.856571,0.052000,0.974000,0.124000,192.000000,0.000000,0.000000,0.000000,0.000000,0.000000,0.000000,0.000000,0.000000,0.000000,1646904032.421099,0.000000
219.000000,26181.514702,28224.330035,29395.986127,22563.080199,9889.417576,17482.439277,24704.779649,21799.634016,0.052000,0.974000,0.124000,192.000000,0.000000,0.000000,0.000000,0.000000,0.000000,0.000000,0.000000,0.000000,0.000000,1646904032.421110,0.000000
220.000000,26176.440856,28219.814982,29397.014308,22557.514615,9888.724671,17484.115658,24707.484210,21805.043138,0.052000,0.980000,0.126000,192.000000,1.000000,160.000000,30.000000,160.000000,3.000000,240.000000,0.000000,0.000000,0.000000,1646904032.427920,0.000000
221.000000,26171.098789,28219.032671,29392.275738,22553.625411,9884.880171,17479.108868,24703.907931,21794.023728,0.052000,0.980000,0.126000,192.000000,0.000000,0.000000,0.000000,0.000000,0.000000,0.000000,0.000000,0.000000,0.000000,1646904032.427936,0.000000
222.000000,26172.864577,28220.954921,29388.431238,22552.686638,9884.053157,17476.694879,24700.801039,21792.906140,0.052000,0.980000,0.126000,192.000000,0.000000,0.000000,0.000000,0.000000,0.000000,0.000000,0.000000,0.000000,0.000000,1646904032.435913,0.000000
223.000000,26181.626461,28231.035558,29395.762610,22562.275536,9893.954980,17485.166190,24709.205295,21803.545571,0.052000,0.980000,0.126000,192.000000,0.000000,0.000000,0.000000,0.000000,0.000000,0.000000,0.000000,0.000000,0.000000,1646904032.435930,0.000000
224.000000,26183.235786,28229.269770,29393.952119,22562.946089,9894.334959,17483.914493,24705.517257,21797.979986,0.052000,0.980000,0.126000,192.000000,0.000000,0.000000,0.000000,0.000000,0.000000,0.000000,0.000000,0.000000,0.000000,1646904032.443897,0.000000
225.000000,26191.125952,28234.857706,29401.350546,22569.539853,9902.739215,17491.201161,24712.446298,21810.318149,0.052000,0.980000,0.126000,192.000000,0.000000,0.000000,0.000000,0.000000,0.000000,0.000000,0.000000,0.000000,0.000000,1646904032.443908,0.000000
226.000000,26175.055048,28221.804288,29388.766514,22553.334839,9888.903485,17477.119562,24700.286949,21799.276388,0.052000,0.980000,0.126000,192.000000,0.000000,0.000000,0.000000,0.000000,0.000000,0.000000,0.000000,0.000000,0.000000,1646904032.451019,0.000000
227.000000,26175.926766,28222.698357,29385.011421,22552.217251,9887.383567,17471.084591,24689.334594,21777.595195,0.052000,0.980000,0.126000,192.000000,0.000000,0.000000,0.000000,0.000000,0.000000,0.000000,0.000000,0.000000,0.000000,1646904032.451035,0.000000
228.000000,26186.879121,28230.096785,29396.880197,22562.409647,9895.810174,17476.404306,24694.363736,21792.950844,0.052000,0.980000,0.126000,192.000000,0.000000,0.000000,0.000000,0.000000,0.000000,0.000000,0.000000,0.000000,0.000000,1646904032.458443,0.000000
229.000000,26187.974356,28232.935456,29400.165904,22566.097685,9899.207640,17477.521894,24702.343309,21787.206446,0.052000,0.980000,0.126000,192.000000,0.000000,0.000000,0.000000,0.000000,0.000000,0.000000,0.000000,0.000000,0.000000,1646904032.458460,0.000000
230.000000,26185.269795,28237.048177,29401.551712,22568.578728,9901.889849,17482.618091,24710.434641,21801.265693,0.042000,0.974000,0.122000,192.000000,1.000000,80.000000,30.000000,112.000000,3.000000,208.000000,0.000000,0.000000,0.000000,1646904032.465605,0.000000
231.000000,26181.425295,28234.813003,29398.556578,22565.337725,9897.866535,17474.079725,24701.493943,21788.815771,0.042000,0.974000,0.122000,192.000000,0.000000,0.000000,0.000000,0.000000,0.000000,0.000000,0.000000,0.000000,0.000000,1646904032.473442,0.000000
232.000000,26176.306746,28232.086090,29393.706249,22562.074371,9893.373834,17470.324632,24691.748582,21779.629204,0.042000,0.974000,0.122000,192.000000,0.000000,0.000000,0.000000,0.000000,0.000000,0.000000,0.000000,0.000000,0.000000,1646904032.473460,0.000000
233.000000,26192.578816,28246.927648,29406.714965,22575.127789,9903.365064,17482.752202,24699.683452,21795.186018,0.042000,0.974000,0.122000,192.000000,0.000000,0.000000,0.000000,0.000000,0.000000,0.000000,0.000000,0.000000,0.000000,1646904032.480540,0.000000
234.000000,26200.379574,28249.989837,29405.373860,22576.178321,9903.968561,17484.562693,24711.038138,21799.835181,0.042000,0.974000,0.122000,192.000000,0.000000,0.000000,0.000000,0.000000,0.000000,0.000000,0.000000,0.000000,0.000000,1646904032.480551,0.000000
235.000000,26198.233807,28240.825622,29399.875331,22570.590385,9898.470032,17476.583120,24704.824353,21792.235588,0.042000,0.974000,0.122000,192.000000,0.000000,0.000000,0.000000,0.000000,0.000000,0.000000,0.000000,0.000000,0.000000,1646904032.488229,0.000000
236.000000,26193.204664,28237.517564,29395.293223,22568.690487,9894.670235,17474.347946,24700.488114,21788.413440,0.042000,0.974000,0.122000,192.000000,0.000000,0.000000,0.000000,0.000000,0.000000,0.000000,0.000000,0.000000,0.000000,1646904032.488246,0.000000
237.000000,26197.898531,28248.536974,29405.016232,22574.613699,9902.672160,17487.758993,24714.994397,21807.434774,0.042000,0.974000,0.122000,192.000000,0.000000,0.000000,0.000000,0.000000,0.000000,0.000000,0.000000,0.000000,0.000000,1646904032.496008,0.000000
238.000000,26189.360164,28241.831451,29400.232959,22565.225967,9893.887924,17482.618091,24705.629016,21811.726309,0.042000,0.974000,0.122000,192.000000,0.000000,0.000000,0.000000,0.000000,0.000000,0.000000,0.000000,0.000000,0.000000,1646904032.496020,0.000000
239.000000,26178.206644,28230.879096,29392.633366,22556.285269,9884.030805,17474.794981,24696.509504,21794.135486,0.042000,0.974000,0.122000,192.000000,0.000000,0.000000,0.000000,0.000000,0.000000,0.000000,0.000000,0.000000,0.000000,1646904032.503950,0.000000
240.000000,26183.459304,28234.075395,29393.572139,22561.314411,9890.266942,17480.248807,24695.749545,21797.063565,0.046000,0.974000,0.126000,192.000000,1.000000,112.000000,30.000000,112.000000,3.000000,240.000000,0.000000,0.000000,0.000000,1646904032.503961,0.000000
241.000000,26190.611862,28242.636113,29393.952119,22565.404781,9893.060910,17481.321690,24700.935149,21794.604873,0.046000,0.974000,0.126000,192.000000,0.000000,0.000000,0.000000,0.000000,0.000000,0.000000,0.000000,0.000000,0.000000,1646904032.510539,0.000000
242.000000,26189.069592,28241.272657,29395.628499,22564.376600,9893.440890,17483.333347,24706.567789,21802.092707,0.046000,0.974000,0.126000,192.000000,0.000000,0.000000,0.000000,0.000000,0.000000,0.000000,0.000000,0.000000,0.000000,1646904032.510551,0.000000
243.000000,26183.593414,28236.981122,29389.727639,22561.090894,9886.891828,17476.493713,24705.271388,21796.415364,0.046000,0.974000,0.126000,192.000000,0.000000,0.000000,0.000000,0.000000,0.000000,0.000000,0.000000,0.000000,0.000000,1646904032.518553,0.000000
244.000000,26178.117237,28232.555477,29383.916185,22554.608888,9882.287369,17467.083629,24693.559074,21783.406649,0.046000,0.974000,0.126000,192.000000,0.000000,0.000000,0.000000,0.000000,0.000000,0.000000,0.000000,0.000000,0.000000,1646904032.518565,0.000000
245.000000,26185.023926,28238.143413,29389.481770,22561.023839,9889.149355,17473.051545,24695.056641,21795.521295,0.046000,0.974000,0.126000,192.000000,0.000000,0.000000,0.000000,0.000000,0.000000,0.000000,0.000000,0.000000,0.000000,1646904032.525841,0.000000
246.000000,26195.171618,28241.607933,29394.242691,22565.695353,9893.373834,17472.872731,24694.006109,21777.729306,0.046000,0.974000,0.126000,192.000000,0.000000,0.000000,0.000000,0.000000,0.000000,0.000000,0.000000,0.000000,0.000000,1646904032.532987,0.000000
247.000000,26204.268778,28252.806157,29396.880197,22574.054906,9901.711035,17480.986414,24702.879751,21800.841010,0.046000,0.974000,0.126000,192.000000,0.000000,0.000000,0.000000,0.000000,0.000000,0.000000,0.000000,0.000000,0.000000,1646904032.533004,0.000000
248.000000,26200.647795,28252.694398,29393.527435,22574.993679,9903.387416,17483.936844,24704.287911,21804.350234,0.046000,0.974000,0.126000,192.000000,0.000000,0.000000,0.000000,0.000000,0.000000,0.000000,0.000000,0.000000,0.000000,1646904032.540526,0.000000
249.000000,26196.110391,28249.252230,29396.209645,22574.881920,9902.515698,17479.913530,24703.595007,21788.614606,0.046000,0.974000,0.126000,192.000000,0.000000,0.000000,0.000000,0.000000,0.000000,0.000000,0.000000,0.000000,0.000000,1646904032.540543,0.000000
250.000000,26199.105525,28252.470881,29404.278625,22579.240510,9907.142509,17483.825086,24701.225722,21794.716632,0.050000,0.984000,0.128000,192.000000,1.000000,144.000000,30.000000,192.000000,4.000000,0.000000,0.000000,0.000000,0.000000,1646904032.548320,0.000000
251.000000,26197.272682,28246.525317,29403.183389,22572.982022,9902.158070,17480.673490,24695.034289,21795.990681,0.050000,0.984000,0.128000,192.000000,0.000000,0.000000,0.000000,0.000000,0.000000,0.000000,0.000000,0.000000,0.000000,1646904032.548337,0.000000
252.000000,26193.070554,28243.530183,29397.081363,22568.534025,9898.492384,17484.853266,24710.389937,21802.852667,0.050000,0.984000,0.128000,192.000000,0.000000,0.000000,0.000000,0.000000,0.000000,0.000000,0.000000,0.000000,0.000000,1646904032.556512,0.000000
253.000000,26193.718754,28246.145337,29396.522569,22565.985926,9897.821831,17486.104964,24706.076051,21805.937207,0.050000,0.984000,0.128000,192.000000,0.000000,0.000000,0.000000,0.000000,0.000000,0.000000,0.000000,0.000000,0.000000,1646904032.556528,0.000000
254.000000,26188.466095,28242.971390,29393.907415,22563.102551,9893.686759,17485.009728,24708.467687,21805.110193,0.050000,0.984000,0.128000,192.000000,0.000000,0.000000,0.000000,0.000000,0.000000,0.000000,0.000000,0.000000,0.000000,1646904032.563189,0.000000
255.000000,26191.014193,28245.318323,29396.164941,22564.041324,9894.580828,17485.277949,24713.116850,21801.668024,0.050000,0.984000,0.128000,192.000000,0.000000,0.000000,0.000000,0.000000,0.000000,0.000000,0.000000,0.000000,0.000000,1646904032.563205,0.000000
0.000000,26189.538978,28244.737177,29395.069706,22563.929565,9891.496288,17478.594777,24705.517257,21790.581559,0.050000,0.984000,0.128000,192.000000,0.000000,0.000000,0.000000,0.000000,0.000000,0.000000,0.000000,0.000000,0.000000,1646904032.571105,0.000000
1.000000,26198.054993,28245.430082,29401.104677,22568.824597,9895.988988,17483.042775,24711.731042,21793.867265,0.050000,0.984000,0.128000,192.000000,0.000000,0.000000,0.000000,0.000000,0.000000,0.000000,0.000000,0.000000,0.000000,1646904032.571130,0.000000
2.000000,26197.764420,28246.882945,29403.809238,22570.702144,9897.374797,17488.586007,24713.832106,21812.486269,0.050000,0.984000,0.128000,192.000000,0.000000,0.000000,0.000000,0.000000,0.000000,0.000000,0.000000,0.000000,0.000000,1646904032.579049,0.000000
3.000000,26186.119161,28241.742044,29395.740258,22565.002449,9889.059948,17481.299338,24698.767030,21805.378414,0.050000,0.984000,0.128000,192.000000,0.000000,0.000000,0.000000,0.000000,0.000000,0.000000,0.000000,0.000000,0.000000,1646904032.579061,0.000000
4.000000,26184.956871,28241.451471,29392.566310,22565.829464,9888.814078,17481.768725,24700.733984,21801.600969,0.048000,0.978000,0.126000,192.000000,1.000000,128.000000,30.000000,144.000000,3.000000,240.000000,0.000000,0.000000,0.000000,1646904032.586200,0.000000
5.000000,26188.644909,28242.904334,29395.092058,22565.784760,9890.266942,17481.612263,24700.197542,21797.398841,0.048000,0.978000,0.126000,192.000000,0.000000,0.000000,0.000000,0.000000,0.000000,0.000000,0.000000,0.000000,0.000000,1646904032.592742,0.000000
6.000000,26196.088039,28248.626381,29404.345680,22574.770161,9896.301913,17489.725946,24707.215989,21805.646635,0.048000,0.978000,0.126000,192.000000,0.000000,0.000000,0.000000,0.000000,0.000000,0.000000,0.000000,0.000000,0.000000,1646904032.592753,0.000000
7.000000,26195.909225,28246.257096,29405.239750,22576.424191,9894.737291,17491.558789,24705.807830,21805.825449,0.048000,0.978000,0.126000,192.000000,0.000000,0.000000,0.000000,0.000000,0.000000,0.000000,0.000000,0.000000,0.000000,1646904032.600942,0.000000
8.000000,26202.525342,28253.186137,29409.486581,22581.363926,9899.967599,17497.929036,24718.503620,21811.972178,0.048000,0.978000,0.126000,192.000000,0.000000,0.000000,0.000000,0.000000,0.000000,0.000000,0.000000,0.000000,0.000000,1646904032.600959,0.000000
9.000000,26195.752763,28247.508794,29401.328194,22574.680755,9895.988988,17491.111754,24709.004129,21805.668987,0.048000,0.978000,0.126000,192.000000,0.000000,0.000000,0.000000,0.000000,0.000000,0.000000,0.000000,0.000000,0.000000,1646904032.608535,0.000000
10.000000,26191.662394,28243.999570,29396.097886,22571.864435,9894.066738,17490.754126,24707.193638,21807.881809,0.048000,0.978000,0.126000,192.000000,0.000000,0.000000,0.000000,0.000000,0.000000,0.000000,0.000000,0.000000,0.000000,1646904032.608552,0.000000
11.000000,26189.561330,28241.898506,29399.160075,22571.484455,9894.089090,17491.715251,24718.637731,21806.294835,0.048000,0.978000,0.126000,192.000000,0.000000,0.000000,0.000000,0.000000,0.000000,0.000000,0.000000,0.000000,0.000000,1646904032.615898,0.000000
12.000000,26185.716830,28234.365968,29393.661546,22564.890690,9888.590561,17484.383879,24710.255827,21793.979024,0.048000,0.978000,0.126000,192.000000,0.000000,0.000000,0.000000,0.000000,0.000000,0.000000,0.000000,0.000000,0.000000,1646904032.615915,0.000000
13.000000,26195.261025,28236.757605,29392.834531,22566.723533,9892.390358,17483.959196,24697.850609,21802.785611,0.048000,0.978000,0.126000,192.000000,0.000000,0.000000,0.000000,0.000000,0.000000,0.000000,0.000000,0.000000,0.000000,1646904032.623175,0.000000
14.000000,26192.802333,28237.606971,29389.504121,22567.081161,9891.943323,17485.523818,24707.953597,21803.746736,0.048000,0.978000,0.126000,192.000000,1.000000,128.000000,30.000000,144.000000,3.000000,240.000000,0.000000,0.000000,0.000000,1646904032.623192,0.000000
15.000000,26198.457324,28243.887811,29394.197988,22570.903310,9896.570134,17494.732737,24718.727138,21815.056719,0.048000,0.978000,0.126000,192.000000,0.000000,0.000000,0.000000,0.000000,0.000000,0.000000,0.000000,0.000000,0.000000,1646904032.631462,0.000000
16.000000,26198.390269,28247.754663,29396.231997,22574.434885,9896.748948,17498.085499,24725.834993,21819.124737,0.048000,0.978000,0.126000,192.000000,0.000000,0.000000,0.000000,0.000000,0.000000,0.000000,0.000000,0.000000,0.000000,1646904032.631478,0.000000
17.000000,26195.283377,28247.777015,29398.377764,22574.211368,9895.541954,17493.771612,24715.933170,21799.388146,0.048000,0.978000,0.126000,192.000000,0.000000,0.000000,0.000000,0.000000,0.000000,0.000000,0.000000,0.000000,0.000000,1646904032.639409,0.000000
18.000000,26200.357223,28251.263887,29407.541979,22577.809999,9902.806270,17501.706481,24719.867077,21806.764222,0.048000,0.978000,0.126000,192.000000,0.000000,0.000000,0.000000,0.000000,0.000000,0.000000,0.000000,0.000000,0.000000,1646904032.639424,0.000000
19.000000,26203.777040,28255.711884,29407.027889,22578.301737,9905.600239,17500.030100,24718.168344,21808.887638,0.048000,0.978000,0.126000,192.000000,0.000000,0.000000,0.000000,0.000000,0.000000,0.000000,0.000000,0.000000,0.000000,1646904032.645564,0.000000
20.000000,26200.759554,28248.536974,29401.730526,22573.294946,9901.129890,17492.966949,24706.746603,21809.625245,0.048000,0.978000,0.126000,192.000000,0.000000,0.000000,0.000000,0.000000,0.000000,0.000000,0.000000,0.000000,0.000000,1646904032.645581,0.000000
21.000000,26194.210493,28242.144375,29397.371936,22567.528196,9894.267904,17488.541304,24707.797135,21815.459051,0.048000,0.978000,0.126000,192.000000,0.000000,0.000000,0.000000,0.000000,0.000000,0.000000,0.000000,0.000000,0.000000,1646904032.653027,0.000000
22.000000,26198.658490,28245.854765,29402.691651,22571.260938,9896.033692,17493.324577,24711.082841,21808.820582,0.048000,0.978000,0.126000,192.000000,0.000000,0.000000,0.000000,0.000000,0.000000,0.000000,0.000000,0.000000,0.000000,1646904032.661038,0.000000
23.000000,26201.340699,28250.682741,29407.385517,22576.021859,9899.833488,17499.694824,24714.189734,21809.491135,0.048000,0.978000,0.126000,192.000000,0.000000,0.000000,0.000000,0.000000,0.000000,0.000000,0.000000,0.000000,0.000000,1646904032.661055,0.000000
24.000000,26202.905321,28252.850861,29408.458401,22576.558301,9900.995779,17500.275970,24724.002150,21802.517391,0.048000,0.976000,0.132000,192.000000,1.000000,128.000000,30.000000,128.000000,4.000000,32.000000,0.000000,0.000000,0.000000,1646904032.667950,0.000000
25.000000,26189.538978,28242.256134,29396.187293,22565.516539,9889.618741,17490.038871,24714.323844,21796.057736,0.048000,0.976000,0.132000,192.000000,0.000000,0.000000,0.000000,0.000000,0.000000,0.000000,0.000000,0.000000,0.000000,1646904032.667961,0.000000
26.000000,26196.445667,28244.536012,29398.221302,22568.981060,9891.161012,17495.135068,24713.787402,21815.950789,0.048000,0.976000,0.132000,192.000000,0.000000,0.000000,0.000000,0.000000,0.000000,0.000000,0.000000,0.000000,0.000000,1646904032.675586,0.000000
27.000000,26207.934464,28260.986896,29407.430221,22583.666156,9904.482651,17506.981493,24719.643559,21821.426966,0.048000,0.976000,0.132000,192.000000,0.000000,0.000000,0.000000,0.000000,0.000000,0.000000,0.000000,0.000000,0.000000,1646904032.675603,0.000000
28.000000,26207.599188,28264.138492,29408.972491,22586.683641,9906.583715,17504.902781,24711.172248,21812.106289,0.048000,0.976000,0.132000,192.000000,0.000000,0.000000,0.000000,0.000000,0.000000,0.000000,0.000000,0.000000,0.000000,1646904032.683674,0.000000
29.000000,26203.017080,28262.260945,29403.272796,22580.805132,9901.845145,17489.167153,24692.620300,21796.214199,0.048000,0.976000,0.132000,192.000000,0.000000,0.000000,0.000000,0.000000,0.000000,0.000000,0.000000,0.000000,0.000000,1646904032.683690,0.000000
30.000000,26215.958740,28272.408637,29408.324290,22585.297833,9906.583715,17485.054432,24684.417210,21787.899350,0.048000,0.976000,0.132000,192.000000,0.000000,0.000000,0.000000,0.000000,0.000000,0.000000,0.000000,0.000000,0.000000,1646904032.691699,0.000000
31.000000,26213.365938,28265.725466,29409.307767,22581.162760,9906.337846,17486.216722,24692.262672,21788.905178,0.048000,0.976000,0.132000,192.000000,0.000000,0.000000,0.000000,0.000000,0.000000,0.000000,0.000000,0.000000,0.000000,1646904032.691715,0.000000
32.000000,26199.887836,28245.184212,29402.669299,22567.438789,9895.787823,17479.757068,24694.788420,21791.118001,0.048000,0.976000,0.132000,192.000000,0.000000,0.000000,0.000000,0.000000,0.000000,0.000000,0.000000,0.000000,0.000000,1646904032.698084,0.000000
33.000000,26198.792600,28243.440776,29402.512837,22565.002449,9895.966637,17479.466495,24701.717460,21786.826466,0.048000,0.976000,0.132000,192.000000,0.000000,0.000000,0.000000,0.000000,0.000000,0.000000,0.000000,0.000000,0.000000,1646904032.698095,0.000000
34.000000,26200.133705,28248.939305,29403.228093,22565.449484,9899.431157,17483.623920,24705.919588,21787.094687,0.052000,0.978000,0.134000,192.000000,1.000000,160.000000,30.000000,144.000000,4.000000,48.000000,0.000000,0.000000,0.000000,1646904032.706301,0.000000
35.000000,26198.792600,28248.045236,29404.368032,22567.103513,9901.845145,17491.335272,24714.077975,21801.556266,0.052000,0.978000,0.134000,192.000000,0.000000,0.000000,0.000000,0.000000,0.000000,0.000000,0.000000,0.000000,0.000000,1646904032.706317,0.000000
36.000000,26193.830513,28243.977218,29398.154247,22563.035496,9891.965674,17485.501466,24709.875847,21797.376489,0.052000,0.978000,0.134000,192.000000,0.000000,0.000000,0.000000,0.000000,0.000000,0.000000,0.000000,0.000000,0.000000,1646904032.713345,0.000000
37.000000,26197.384441,28251.085073,29402.177561,22574.144313,9898.134756,17497.794926,24717.788365,21816.889562,0.052000,0.978000,0.134000,192.000000,0.000000,0.000000,0.000000,0.000000,0.000000,0.000000,0.000000,0.000000,0.000000,1646904032.721295,0.000000
38.000000,26197.652662,28250.369817,29402.937520,22575.485417,9899.855840,17502.153516,24731.378225,21822.902181,0.052000,0.978000,0.134000,192.000000,0.000000,0.000000,0.000000,0.000000,0.000000,0.000000,0.000000,0.000000,0.000000,1646904032.721306,0.000000
39.000000,26194.143438,28248.827547,29395.047354,22565.896519,9892.859744,17490.776478,24719.665911,21805.803097,0.052000,0.978000,0.134000,192.000000,0.000000,0.000000,0.000000,0.000000,0.000000,0.000000,0.000000,0.000000,0.000000,1646904032.727751,0.000000
40.000000,26195.663356,28245.810061,29392.633366,22561.314411,9892.010378,17487.133144,24710.144068,21803.836143,0.052000,0.978000,0.134000,192.000000,0.000000,0.000000,0.000000,0.000000,0.000000,0.000000,0.000000,0.000000,0.000000,1646904032.727767,0.000000
41.000000,26204.916978,28254.214317,29400.881159,22568.534025,9901.845145,17491.379975,24711.552228,21807.032443,0.052000,0.978000,0.134000,192.000000,0.000000,0.000000,0.000000,0.000000,0.000000,0.000000,0.000000,0.000000,0.000000,1646904032.735563,0.000000
42.000000,26197.764420,28251.442701,29393.952119,22564.600118,9897.710073,17484.540341,24700.130487,21795.431888,0.052000,0.978000,0.134000,192.000000,0.000000,0.000000,0.000000,0.000000,0.000000,0.000000,0.000000,0.000000,0.000000,1646904032.735575,0.000000
43.000000,26205.900455,28263.132663,29401.775229,22576.982984,9909.042407,17496.453821,24710.166420,21799.566960,0.052000,0.978000,0.134000,192.000000,0.000000,0.000000,0.000000,0.000000,0.000000,0.000000,0.000000,0.000000,0.000000,1646904032.743707,0.000000
44.000000,26207.867409,28264.987858,29402.579892,22578.033516,9910.025884,17497.906685,24717.788365,21802.740908,0.048000,0.978000,0.134000,192.000000,1.000000,128.000000,30.000000,144.000000,4.000000,48.000000,0.000000,0.000000,0.000000,1646904032.743720,0.000000
45.000000,26201.430106,28256.427140,29392.789828,22571.395048,9903.700340,17489.658891,24709.093536,21798.829353,0.048000,0.978000,0.134000,192.000000,0.000000,0.000000,0.000000,0.000000,0.000000,0.000000,0.000000,0.000000,0.000000,1646904032.750968,0.000000
46.000000,26203.575874,28251.018018,29392.990994,22570.299813,9902.403939,17490.329443,24710.456992,21808.909989,0.048000,0.978000,0.134000,192.000000,0.000000,0.000000,0.000000,0.000000,0.000000,0.000000,0.000000,0.000000,0.000000,1646904032.750984,0.000000
47.000000,26205.207551,28251.688570,29398.288357,22569.830426,9902.493346,17489.770650,24709.562923,21809.245266,0.048000,0.978000,0.134000,192.000000,0.000000,0.000000,0.000000,0.000000,0.000000,0.000000,0.000000,0.000000,0.000000,1646904032.758595,0.000000
48.000000,26201.631272,28253.208489,29400.568235,22570.210406,9901.688683,17489.524780,24705.338443,21804.596103,0.048000,0.978000,0.134000,192.000000,0.000000,0.000000,0.000000,0.000000,0.000000,0.000000,0.000000,0.000000,0.000000,1646904032.758612,0.000000
49.000000,26205.118144,28253.677875,29400.791752,22570.568034,9902.247477,17487.088440,24697.113001,21794.157838,0.048000,0.978000,0.134000,192.000000,0.000000,0.000000,0.000000,0.000000,0.000000,0.000000,0.000000,0.000000,0.000000,1646904032.766516,0.000000
50.000000,26211.913074,28260.964544,29402.132857,22575.396010,9905.220259,17489.815353,24701.002205,21804.707862,0.048000,0.978000,0.134000,192.000000,0.000000,0.000000,0.000000,0.000000,0.000000,0.000000,0.000000,0.000000,0.000000,1646904032.766533,0.000000
51.000000,26202.748859,28255.264849,29393.683898,22568.422266,9898.447680,17481.545208,24704.757298,21798.672891,0.048000,0.978000,0.134000,192.000000,0.000000,0.000000,0.000000,0.000000,0.000000,0.000000,0.000000,0.000000,0.000000,1646904032.773779,0.000000
52.000000,26198.077345,28249.766320,29390.264081,22562.521406,9893.954980,17475.845513,24706.232513,21792.146181,0.048000,0.978000,0.134000,192.000000,0.000000,0.000000,0.000000,0.000000,0.000000,0.000000,0.000000,0.000000,0.000000,1646904032.780045,0.000000
53.000000,26208.560313,28259.444625,29402.714002,22573.540816,9906.293143,17486.239074,24714.636769,21804.640806,0.048000,0.978000,0.134000,192.000000,0.000000,0.000000,0.000000,0.000000,0.000000,0.000000,0.000000,0.000000,0.000000,1646904032.780063,0.000000
54.000000,26209.521438,28257.768244,29402.624595,22571.305641,9906.136680,17481.567559,24709.585274,21793.196713,0.048000,0.980000,0.136000,192.000000,1.000000,128.000000,30.000000,160.000000,4.000000,64.000000,0.000000,0.000000,0.000000,1646904032.788272,0.000000
55.000000,26205.743993,28253.655523,29396.790790,22566.410609,9900.615800,17474.794981,24702.611530,21793.487286,0.048000,0.980000,0.136000,192.000000,0.000000,0.000000,0.000000,0.000000,0.000000,0.000000,0.000000,0.000000,0.000000,1646904032.788289,0.000000
56.000000,26204.157019,28253.946096,29396.567273,22564.957746,9898.827660,17474.750277,24696.800077,21788.279329,0.048000,0.980000,0.136000,192.000000,0.000000,0.000000,0.000000,0.000000,0.000000,0.000000,0.000000,0.000000,0.000000,1646904032.796184,0.000000
57.000000,26208.314444,28258.572907,29402.110505,22569.472798,9900.906372,17479.712365,24704.399670,21792.257940,0.048000,0.980000,0.136000,192.000000,0.000000,0.000000,0.000000,0.000000,0.000000,0.000000,0.000000,0.000000,0.000000,1646904032.796200,0.000000
58.000000,26206.682766,28260.718675,29399.048316,22568.086990,9899.408805,17478.214798,24708.847667,21793.599045,0.048000,0.980000,0.136000,192.000000,0.000000,0.000000,0.000000,0.000000,0.000000,0.000000,0.000000,0.000000,0.000000,1646904032.803306,0.000000
59.000000,26202.815914,28258.885832,29395.494389,22563.035496,9895.899581,17477.745411,24704.131449,21796.728289,0.048000,0.980000,0.136000,192.000000,0.000000,0.000000,0.000000,0.000000,0.000000,0.000000,0.000000,0.000000,0.000000,1646904032.803324,0.000000
60.000000,26189.158999,28247.397035,29386.151360,22549.199766,9885.148392,17468.514141,24696.285986,21789.486324,0.048000,0.980000,0.136000,192.000000,0.000000,0.000000,0.000000,0.000000,0.000000,0.000000,0.000000,0.000000,0.000000,1646904032.811600,0.000000
61.000000,26194.881045,28252.247364,29394.130933,22553.200728,9890.825735,17471.553978,24711.105193,21792.123829,0.048000,0.980000,0.136000,192.000000,0.000000,0.000000,0.000000,0.000000,0.000000,0.000000,0.000000,0.000000,0.000000,1646904032.811619,0.000000
62.000000,26211.287226,28264.205547,29406.267930,22568.042286,9901.442814,17477.946577,24712.446298,21791.185056,0.048000,0.980000,0.136000,192.000000,0.000000,0.000000,0.000000,0.000000,0.000000,0.000000,0.000000,0.000000,0.000000,1646904032.818762,0.000000
63.000000,26217.724528,28268.631192,29408.592511,22571.551510,9901.286352,17474.347946,24696.643614,21780.702088,0.048000,0.980000,0.136000,192.000000,0.000000,0.000000,0.000000,0.000000,0.000000,0.000000,0.000000,0.000000,0.000000,1646904032.818779,0.000000
64.000000,26215.422298,28267.267736,29404.926825,22571.998545,9901.241648,17470.659908,24690.206312,21782.132600,0.048000,0.980000,0.136000,192.000000,0.000000,0.000000,0.000000,0.000000,0.000000,0.000000,0.000000,0.000000,0.000000,1646904032.826064,0.000000
65.000000,26219.512668,28269.949945,29408.927787,22578.189978,9908.416558,17477.343080,24695.950710,21805.445469,0.044000,0.984000,0.122000,192.000000,1.000000,96.000000,30.000000,192.000000,3.000000,208.000000,0.000000,0.000000,0.000000,1646904032.826088,0.000000
66.000000,26215.467002,28267.491253,29407.609034,22577.295909,9908.751834,17484.495638,24715.754356,21807.702995,0.044000,0.984000,0.122000,192.000000,0.000000,0.000000,0.000000,0.000000,0.000000,0.000000,0.000000,0.000000,0.000000,1646904032.833240,0.000000
67.000000,26214.997615,28272.676858,29410.313596,22583.979080,9912.305762,17491.357624,24725.723234,21819.191792,0.044000,0.984000,0.122000,192.000000,0.000000,0.000000,0.000000,0.000000,0.000000,0.000000,0.000000,0.000000,0.000000,1646904032.841369,0.000000
68.000000,26214.774098,28273.146245,29410.403003,22583.397935,9910.763491,17490.351795,24724.583295,21810.072280,0.044000,0.984000,0.122000,192.000000,0.000000,0.000000,0.000000,0.000000,0.000000,0.000000,0.000000,0.000000,0.000000,1646904032.841386,0.000000
69.000000,26207.599188,28270.285221,29406.402040,22581.453333,9907.589544,17485.412059,24716.134336,21803.009129,0.044000,0.984000,0.122000,192.000000,0.000000,0.000000,0.000000,0.000000,0.000000,0.000000,0.000000,0.000000,0.000000,1646904032.847666,0.000000
70.000000,26203.799391,28266.910108,29400.903511,22578.212330,9901.442814,17479.421792,24706.634844,21796.124792,0.044000,0.984000,0.122000,192.000000,0.000000,0.000000,0.000000,0.000000,0.000000,0.000000,0.000000,0.000000,0.000000,1646904032.847682,0.000000
71.000000,26221.703139,28275.984916,29412.548770,22584.873150,9910.271753,17488.630711,24716.313149,21810.921646,0.044000,0.984000,0.122000,192.000000,0.000000,0.000000,0.000000,0.000000,0.000000,0.000000,0.000000,0.000000,0.000000,1646904032.855875,0.000000
72.000000,26216.092851,28272.207471,29407.094944,22577.854702,9902.873326,17482.059298,24714.525010,21812.910952,0.044000,0.984000,0.122000,192.000000,0.000000,0.000000,0.000000,0.000000,0.000000,0.000000,0.000000,0.000000,0.000000,1646904032.855892,0.000000
73.000000,26210.415508,28266.865404,29403.920997,22571.618566,9899.677026,17476.292548,24710.591103,21798.874056,0.044000,0.984000,0.122000,192.000000,0.000000,0.000000,0.000000,0.000000,0.000000,0.000000,0.000000,0.000000,0.000000,1646904032.863890,0.000000
74.000000,26211.063708,28270.151111,29405.955005,22574.904272,9902.515698,17478.862998,24712.848629,21799.678719,0.044000,0.984000,0.122000,192.000000,0.000000,0.000000,0.000000,0.000000,0.000000,0.000000,0.000000,0.000000,0.000000,1646904032.863908,0.000000
75.000000,26211.197819,28268.631192,29404.591549,22574.278423,9901.643980,17478.751240,24718.481269,21803.277350,0.046000,0.978000,0.130000,192.000000,1.000000,112.000000,30.000000,144.000000,4.000000,16.000000,0.000000,0.000000,0.000000,1646904032.871071,0.000000
76.000000,26210.415508,28263.400884,29400.612938,22568.399914,9897.821831,17472.828027,24718.190696,21803.523219,0.046000,0.978000,0.130000,192.000000,0.000000,0.000000,0.000000,0.000000,0.000000,0.000000,0.000000,0.000000,0.000000,1646904032.871089,0.000000
77.000000,26212.293054,28265.099617,29395.628499,22565.382429,9893.776166,17468.022402,24709.495867,21794.582521,0.046000,0.978000,0.130000,192.000000,0.000000,0.000000,0.000000,0.000000,0.000000,0.000000,0.000000,0.000000,0.000000,1646904032.878362,0.000000
78.000000,26220.138516,28272.587451,29399.830627,22574.278423,9899.542916,17475.823161,24713.899161,21794.984853,0.046000,0.978000,0.130000,192.000000,0.000000,0.000000,0.000000,0.000000,0.000000,0.000000,0.000000,0.000000,0.000000,1646904032.878378,0.000000
79.000000,26222.820726,28269.748780,29403.585720,22577.251205,9902.850974,17479.019461,24714.346196,21813.000359,0.046000,0.978000,0.130000,192.000000,0.000000,0.000000,0.000000,0.000000,0.000000,0.000000,0.000000,0.000000,0.000000,1646904032.887927,0.000000
80.000000,26219.512668,28272.006306,29402.356375,22576.312432,9904.527355,17472.559806,24707.238341,21799.276388,0.046000,0.978000,0.130000,192.000000,0.000000,0.000000,0.000000,0.000000,0.000000,0.000000,0.000000,0.000000,0.000000,1646904032.887944,0.000000
81.000000,26220.362034,28278.555367,29406.938482,22582.168589,9911.322285,17475.130257,24707.886542,21794.291949,0.046000,0.978000,0.130000,192.000000,0.000000,0.000000,0.000000,0.000000,0.000000,0.000000,0.000000,0.000000,0.000000,1646904032.894044,0.000000
82.000000,26220.451441,28277.951870,29411.274721,22581.632147,9913.177480,17475.554940,24712.602760,21799.432850,0.046000,0.978000,0.130000,192.000000,0.000000,0.000000,0.000000,0.000000,0.000000,0.000000,0.000000,0.000000,0.000000,1646904032.894060,0.000000
83.000000,26222.641912,28280.410562,29413.264026,22584.806095,9916.530242,17479.868827,24716.201391,21821.426966,0.046000,0.978000,0.130000,192.000000,0.000000,0.000000,0.000000,0.000000,0.000000,0.000000,0.000000,0.000000,0.000000,1646904032.900622,0.000000
84.000000,26230.979113,28283.070419,29411.095907,22586.996566,9917.536070,17481.902836,24715.240266,21804.976082,0.046000,0.978000,0.130000,192.000000,0.000000,0.000000,0.000000,0.000000,0.000000,0.000000,0.000000,0.000000,0.000000,1646904032.908232,0.000000
85.000000,26232.856659,28282.556329,29411.408831,22586.013089,9917.200794,17483.310995,24714.413251,21801.824486,0.044000,0.978000,0.128000,192.000000,1.000000,96.000000,30.000000,144.000000,4.000000,0.000000,0.000000,0.000000,0.000000,1646904032.908248,0.000000
86.000000,26221.256104,28274.599108,29405.642081,22579.173455,9909.176518,17480.181751,24713.519181,21805.780745,0.044000,0.978000,0.128000,192.000000,0.000000,0.000000,0.000000,0.000000,0.000000,0.000000,0.000000,0.000000,0.000000,1646904032.916053,0.000000
87.000000,26217.903342,28273.258003,29401.574063,22576.021859,9904.102672,17477.633652,24714.547362,21805.423117,0.044000,0.978000,0.128000,192.000000,0.000000,0.000000,0.000000,0.000000,0.000000,0.000000,0.000000,0.000000,0.000000,1646904032.916070,0.000000
88.000000,26229.190973,28284.299765,29409.240712,22583.710859,9908.707131,17482.953368,24720.604684,21812.754490,0.044000,0.978000,0.128000,192.000000,0.000000,0.000000,0.000000,0.000000,0.000000,0.000000,0.000000,0.000000,0.000000,1646904032.924045,0.000000
89.000000,26220.026758,28276.633117,29400.210607,22576.670060,9902.515698,17473.006841,24708.087708,21794.895446,0.044000,0.978000,0.128000,192.000000,0.000000,0.000000,0.000000,0.000000,0.000000,0.000000,0.000000,0.000000,0.000000,1646904032.924056,0.000000
90.000000,26220.786717,28279.158864,29399.964738,22580.268691,9902.359236,17477.499542,24707.931245,21810.943998,0.044000,0.978000,0.128000,192.000000,0.000000,0.000000,0.000000,0.000000,0.000000,0.000000,0.000000,0.000000,0.000000,1646904032.930720,0.000000
91.000000,26230.733243,28288.792466,29403.988052,22581.878016,9900.548744,17476.918397,24711.708690,21807.278312,0.044000,0.978000,0.128000,192.000000,0.000000,0.000000,0.000000,0.000000,0.000000,0.000000,0.000000,0.000000,0.000000,1646904032.930737,0.000000
92.000000,26234.309522,28283.003364,29406.290282,22579.821656,9900.749910,17477.790115,24715.016748,21793.911969,0.044000,0.978000,0.128000,192.000000,0.000000,0.000000,0.000000,0.000000,0.000000,0.000000,0.000000,0.000000,0.000000,1646904032.938797,0.000000
93.000000,26224.206534,28270.374628,29406.737316,22578.055868,9906.181384,17485.166190,24716.201391,21805.914856,0.044000,0.978000,0.128000,192.000000,0.000000,0.000000,0.000000,0.000000,0.000000,0.000000,0.000000,0.000000,0.000000,1646904032.938815,0.000000
94.000000,26221.434918,28265.166672,29404.546846,22572.333821,9902.806270,17477.968929,24707.618321,21802.092707,0.044000,0.978000,0.128000,192.000000,0.000000,0.000000,0.000000,0.000000,0.000000,0.000000,0.000000,0.000000,0.000000,1646904032.946735,0.000000
95.000000,26230.062691,28269.838186,29408.167828,22571.663269,9904.527355,17477.968929,24709.048833,21797.063565,0.046000,0.974000,0.126000,192.000000,1.000000,112.000000,30.000000,112.000000,3.000000,240.000000,0.000000,0.000000,0.000000,1646904032.946752,0.000000
96.000000,26223.021891,28267.200681,29407.363165,22570.925661,9906.136680,17485.188542,24713.653292,21811.592199,0.046000,0.974000,0.126000,192.000000,0.000000,0.000000,0.000000,0.000000,0.000000,0.000000,0.000000,0.000000,0.000000,1646904032.953757,0.000000
97.000000,26213.611807,28264.831396,29402.691651,22566.768237,9902.649808,17483.266292,24716.961350,21809.334673,0.046000,0.974000,0.126000,192.000000,0.000000,0.000000,0.000000,0.000000,0.000000,0.000000,0.000000,0.000000,0.000000,1646904032.953774,0.000000
98.000000,26224.139479,28275.359067,29409.508933,22579.575787,9914.496233,17492.676376,24721.699920,21826.009074,0.046000,0.974000,0.126000,192.000000,0.000000,0.000000,0.000000,0.000000,0.000000,0.000000,0.000000,0.000000,0.000000,1646904032.960369,0.000000
99.000000,26226.151136,28280.276451,29409.955968,22586.840103,9919.279506,17492.005824,24714.927341,21808.865286,0.046000,0.974000,0.126000,192.000000,0.000000,0.000000,0.000000,0.000000,0.000000,0.000000,0.000000,0.000000,0.000000,1646904032.968129,0.000000
100.000000,26228.788642,28281.706963,29413.174619,22588.561188,9922.699323,17492.542266,24712.893333,21805.423117,0.046000,0.974000,0.126000,192.000000,0.000000,0.000000,0.000000,0.000000,0.000000,0.000000,0.000000,0.000000,0.000000,1646904032.968146,0.000000
101.000000,26233.884839,28284.635041,29420.193067,22593.947958,9926.744989,17496.118545,24712.334539,21806.719519,0.046000,0.974000,0.126000,192.000000,0.000000,0.000000,0.000000,0.000000,0.000000,0.000000,0.000000,0.000000,0.000000,1646904032.976193,0.000000
102.000000,26233.862488,28282.511626,29418.628445,22593.657386,9921.984067,17493.391632,24710.188772,21806.719519,0.046000,0.974000,0.126000,192.000000,0.000000,0.000000,0.000000,0.000000,0.000000,0.000000,0.000000,0.000000,0.000000,1646904032.976204,0.000000
103.000000,26229.280380,28281.058762,29415.588607,22590.550493,9916.686704,17488.965987,24713.876809,21806.138373,0.046000,0.974000,0.126000,192.000000,0.000000,0.000000,0.000000,0.000000,0.000000,0.000000,0.000000,0.000000,0.000000,1646904032.983042,0.000000
104.000000,26226.061729,28278.667126,29412.548770,22587.354194,9914.473881,17486.216722,24717.609551,21804.864324,0.046000,0.974000,0.126000,192.000000,0.000000,0.000000,0.000000,0.000000,0.000000,0.000000,0.000000,0.000000,0.000000,1646904032.983058,0.000000
105.000000,26220.183220,28274.219128,29407.609034,22576.826522,9905.287314,17474.347946,24705.763126,21790.603911,0.042000,0.974000,0.128000,192.000000,1.000000,80.000000,30.000000,112.000000,4.000000,0.000000,0.000000,0.000000,0.000000,1646904032.990996,0.000000
106.000000,26225.771156,28279.360030,29410.805334,22578.257034,9905.868459,17473.185655,24702.365661,21792.593216,0.042000,0.974000,0.128000,192.000000,0.000000,0.000000,0.000000,0.000000,0.000000,0.000000,0.000000,0.000000,0.000000,1646904032.991013,0.000000
107.000000,26226.352301,28278.175387,29411.095907,22577.944109,9904.728520,17474.437353,24702.499771,21796.214199,0.042000,0.974000,0.128000,192.000000,0.000000,0.000000,0.000000,0.000000,0.000000,0.000000,0.000000,0.000000,0.000000,1646904032.999012,0.000000
108.000000,26227.000502,28277.706001,29412.749936,22579.106400,9909.109462,17480.762897,24713.250960,21806.786574,0.042000,0.974000,0.128000,192.000000,0.000000,0.000000,0.000000,0.000000,0.000000,0.000000,0.000000,0.000000,0.000000,1646904032.999030,0.000000
109.000000,26232.990770,28284.188006,29418.606093,22584.090839,9917.021980,17490.441202,24718.771841,21815.950789,0.042000,0.974000,0.128000,192.000000,0.000000,0.000000,0.000000,0.000000,0.000000,0.000000,0.000000,0.000000,0.000000,1646904033.005862,0.000000
110.000000,26229.012159,28280.254099,29413.107564,22580.134580,9913.266887,17488.228379,24715.620245,21811.659254,0.042000,0.974000,0.128000,192.000000,0.000000,0.000000,0.000000,0.000000,0.000000,0.000000,0.000000,0.000000,0.000000,1646904033.005872,0.000000
111.000000,26228.296903,28280.276451,29412.884046,22580.760429,9911.389340,17485.143839,24711.507524,21812.978007,0.042000,0.974000,0.128000,192.000000,0.000000,0.000000,0.000000,0.000000,0.000000,0.000000,0.000000,0.000000,0.000000,1646904033.013690,0.000000
112.000000,26228.520421,28287.205492,29419.276645,22587.354194,9916.016151,17488.876580,24714.525010,21809.625245,0.042000,0.974000,0.128000,192.000000,0.000000,0.000000,0.000000,0.000000,0.000000,0.000000,0.000000,0.000000,0.000000,1646904033.013706,0.000000
113.000000,26226.039377,28284.746800,29414.627482,22583.710859,9911.165823,17483.288644,24703.952635,21800.125754,0.042000,0.974000,0.128000,192.000000,0.000000,0.000000,0.000000,0.000000,0.000000,0.000000,0.000000,0.000000,0.000000,1646904033.020586,0.000000
114.000000,26233.348397,28287.943099,29416.661491,22587.242435,9914.071550,17483.936844,24714.100327,21796.929454,0.042000,0.974000,0.128000,192.000000,0.000000,0.000000,0.000000,0.000000,0.000000,0.000000,0.000000,0.000000,0.000000,1646904033.028355,0.000000
115.000000,26227.939275,28284.769152,29415.968587,22586.862455,9912.752797,17482.394574,24709.719385,21794.090783,0.046000,0.978000,0.130000,192.000000,1.000000,112.000000,30.000000,144.000000,4.000000,16.000000,0.000000,0.000000,0.000000,1646904033.028367,0.000000
116.000000,26224.631217,28279.829416,29414.471020,22584.046135,9910.942305,17479.533551,24704.511428,21792.459106,0.046000,0.978000,0.130000,192.000000,0.000000,0.000000,0.000000,0.000000,0.000000,0.000000,0.000000,0.000000,0.000000,1646904033.035712,0.000000
117.000000,26226.218191,28279.002402,29415.074517,22585.275481,9914.764454,17483.534513,24708.221818,21801.735079,0.046000,0.978000,0.130000,192.000000,0.000000,0.000000,0.000000,0.000000,0.000000,0.000000,0.000000,0.000000,0.000000,1646904033.035729,0.000000
118.000000,26229.280380,28279.851768,29415.655662,22584.381412,9915.546765,17483.087478,24712.111022,21799.902236,0.046000,0.978000,0.130000,192.000000,0.000000,0.000000,0.000000,0.000000,0.000000,0.000000,0.000000,0.000000,0.000000,1646904033.043253,0.000000
119.000000,26234.868316,28285.618518,29423.054090,22585.901330,9919.838300,17483.579216,24709.428812,21795.923626,0.046000,0.978000,0.130000,192.000000,0.000000,0.000000,0.000000,0.000000,0.000000,0.000000,0.000000,0.000000,0.000000,1646904033.043269,0.000000
120.000000,26240.277438,28285.774980,29422.361186,22585.297833,9922.364047,17482.618091,24711.261655,21796.393013,0.046000,0.978000,0.130000,192.000000,0.000000,0.000000,0.000000,0.000000,0.000000,0.000000,0.000000,0.000000,0.000000,1646904033.051204,0.000000
121.000000,26226.732281,28275.761399,29409.106601,22577.497074,9912.529279,17473.543283,24699.147010,21786.714707,0.046000,0.978000,0.130000,192.000000,0.000000,0.000000,0.000000,0.000000,0.000000,0.000000,0.000000,0.000000,0.000000,1646904033.051216,0.000000
122.000000,26222.686615,28279.292974,29411.118258,22582.034478,9913.579811,17477.790115,24707.864190,21791.118001,0.046000,0.978000,0.130000,192.000000,0.000000,0.000000,0.000000,0.000000,0.000000,0.000000,0.000000,0.000000,0.000000,1646904033.059259,0.000000
123.000000,26222.239580,28275.940213,29406.714965,22578.122923,9910.383512,17477.566597,24710.077013,21799.544609,0.046000,0.978000,0.130000,192.000000,0.000000,0.000000,0.000000,0.000000,0.000000,0.000000,0.000000,0.000000,0.000000,1646904033.059276,0.000000
124.000000,26222.574857,28273.056838,29405.686784,22576.670060,9909.847070,17478.348908,24709.920551,21796.348309,0.046000,0.978000,0.130000,192.000000,0.000000,0.000000,0.000000,0.000000,0.000000,0.000000,0.000000,0.000000,0.000000,1646904033.065936,0.000000
125.000000,26222.373691,28269.860538,29405.373860,22575.664231,9906.829584,17477.007804,24705.472553,21795.051908,0.052000,0.976000,0.132000,192.000000,1.000000,160.000000,30.000000,128.000000,4.000000,32.000000,0.000000,0.000000,0.000000,1646904033.065953,0.000000
126.000000,26218.976226,28265.099617,29401.730526,22570.925661,9899.788785,17472.828027,24697.984719,21793.911969,0.052000,0.976000,0.132000,192.000000,0.000000,0.000000,0.000000,0.000000,0.000000,0.000000,0.000000,0.000000,0.000000,1646904033.073909,0.000000
127.000000,26227.939275,28278.331849,29412.571122,22581.274519,9910.607029,17482.215760,24710.926379,21801.668024,0.052000,0.976000,0.132000,192.000000,0.000000,0.000000,0.000000,0.000000,0.000000,0.000000,0.000000,0.000000,0.000000,1646904033.073926,0.000000
128.000000,26229.168621,28278.823588,29414.135744,22579.486380,9912.216355,17481.411097,24714.457955,21803.098536,0.052000,0.976000,0.132000,192.000000,0.000000,0.000000,0.000000,0.000000,0.000000,0.000000,0.000000,0.000000,0.000000,1646904033.080783,0.000000
129.000000,26226.866392,28272.363934,29410.023023,22576.714763,9909.712959,17479.175923,24708.847667,21798.449373,0.052000,0.976000,0.132000,192.000000,0.000000,0.000000,0.000000,0.000000,0.000000,0.000000,0.000000,0.000000,0.000000,1646904033.088787,0.000000
130.000000,26226.955799,28275.671992,29411.565293,22583.062659,9912.462224,17485.300301,24717.743661,21802.316225,0.052000,0.976000,0.132000,192.000000,0.000000,0.000000,0.000000,0.000000,0.000000,0.000000,0.000000,0.000000,0.000000,1646904033.088797,0.000000
131.000000,26225.547639,28273.995611,29413.845171,22583.174417,9911.478747,17488.094269,24718.660083,21800.952768,0.052000,0.976000,0.132000,192.000000,0.000000,0.000000,0.000000,0.000000,0.000000,0.000000,0.000000,0.000000,0.000000,1646904033.095552,0.000000
132.000000,26222.932484,28269.189986,29415.633311,22578.458199,9907.522489,17482.506333,24711.261655,21798.605835,0.052000,0.976000,0.132000,192.000000,0.000000,0.000000,0.000000,0.000000,0.000000,0.000000,0.000000,0.000000,0.000000,1646904033.095567,0.000000
133.000000,26232.588438,28278.488312,29424.752822,22583.777914,9915.837337,17488.317786,24718.816545,21805.423117,0.052000,0.976000,0.132000,192.000000,0.000000,0.000000,0.000000,0.000000,0.000000,0.000000,0.000000,0.000000,0.000000,1646904033.103369,0.000000
134.000000,26236.231772,28279.225919,29426.205686,22585.119019,9918.988933,17489.077746,24721.074071,21801.958597,0.052000,0.976000,0.132000,192.000000,0.000000,0.000000,0.000000,0.000000,0.000000,0.000000,0.000000,0.000000,0.000000,1646904033.103381,0.000000
135.000000,26227.916924,28268.899413,29417.600264,22576.468894,9908.796538,17480.069993,24709.719385,21786.021803,0.048000,0.978000,0.130000,192.000000,1.000000,128.000000,30.000000,144.000000,4.000000,16.000000,0.000000,0.000000,0.000000,1646904033.111553,0.000000
136.000000,26220.004406,28261.746855,29411.565293,22572.825560,9902.918029,17475.890216,24699.817562,21790.715669,0.048000,0.978000,0.130000,192.000000,0.000000,0.000000,0.000000,0.000000,0.000000,0.000000,0.000000,0.000000,0.000000,1646904033.111569,0.000000
137.000000,26220.920827,28264.965506,29410.313596,22571.976193,9902.314532,17475.823161,24700.018728,21793.308472,0.048000,0.978000,0.130000,192.000000,0.000000,0.000000,0.000000,0.000000,0.000000,0.000000,0.000000,0.000000,0.000000,1646904033.119588,0.000000
138.000000,26226.665226,28273.280355,29414.627482,22577.407667,9907.544840,17482.953368,24708.802963,21800.349271,0.048000,0.978000,0.130000,192.000000,0.000000,0.000000,0.000000,0.000000,0.000000,0.000000,0.000000,0.000000,0.000000,1646904033.119605,0.000000
139.000000,26215.534057,28265.971335,29406.625558,22570.053943,9899.609971,17476.292548,24710.591103,21797.711765,0.048000,0.978000,0.130000,192.000000,0.000000,0.000000,0.000000,0.000000,0.000000,0.000000,0.000000,0.000000,0.000000,1646904033.126127,0.000000
140.000000,26208.783830,28260.629268,29402.356375,22567.058810,9893.932628,17472.626862,24703.572655,21785.999451,0.048000,0.978000,0.130000,192.000000,0.000000,0.000000,0.000000,0.000000,0.000000,0.000000,0.000000,0.000000,0.000000,1646904033.126139,0.000000
141.000000,26211.175467,28266.105445,29402.691651,22570.545682,9894.066738,17470.525798,24698.901141,21784.032498,0.048000,0.978000,0.130000,192.000000,0.000000,0.000000,0.000000,0.000000,0.000000,0.000000,0.000000,0.000000,0.000000,1646904033.134342,0.000000
142.000000,26220.786717,28272.654506,29406.603206,22573.540816,9901.755738,17475.666699,24711.105193,21785.887693,0.048000,0.978000,0.130000,192.000000,0.000000,0.000000,0.000000,0.000000,0.000000,0.000000,0.000000,0.000000,0.000000,1646904033.134360,0.000000
143.000000,26224.586514,28274.263832,29410.782982,22574.099609,9904.952038,17479.310033,24709.719385,21796.549475,0.048000,0.978000,0.130000,192.000000,0.000000,0.000000,0.000000,0.000000,0.000000,0.000000,0.000000,0.000000,0.000000,1646904033.141382,0.000000
144.000000,26221.524325,28274.487349,29408.883084,22573.831388,9901.889849,17480.517027,24711.373414,21798.784649,0.048000,0.978000,0.130000,192.000000,0.000000,0.000000,0.000000,0.000000,0.000000,0.000000,0.000000,0.000000,0.000000,1646904033.141399,0.000000
145.000000,26221.233752,28273.526224,29407.653738,22575.328955,9900.682855,17482.059298,24720.112946,21798.047042,0.050000,0.974000,0.124000,192.000000,1.000000,144.000000,30.000000,112.000000,3.000000,224.000000,0.000000,0.000000,0.000000,1646904033.147773,0.000000
146.000000,26217.456307,28267.223032,29398.869502,22569.472798,9895.139622,17473.140952,24713.094498,21781.193826,0.050000,0.974000,0.124000,192.000000,0.000000,0.000000,0.000000,0.000000,0.000000,0.000000,0.000000,0.000000,0.000000,1646904033.155738,0.000000
147.000000,26217.210438,28271.872195,29399.294186,22570.970365,9896.257209,17478.080687,24712.379242,21809.692301,0.050000,0.974000,0.124000,192.000000,0.000000,0.000000,0.000000,0.000000,0.000000,0.000000,0.000000,0.000000,0.000000,1646904033.155755,0.000000
148.000000,26220.920827,28273.570928,29402.065802,22573.272595,9898.782956,17481.478152,24722.504583,21810.362853,0.050000,0.974000,0.124000,192.000000,0.000000,0.000000,0.000000,0.000000,0.000000,0.000000,0.000000,0.000000,0.000000,1646904033.163954,0.000000
149.000000,26218.171563,28269.212338,29401.439953,22571.327993,9897.374797,17478.237150,24716.335501,21808.261789,0.050000,0.974000,0.124000,192.000000,0.000000,0.000000,0.000000,0.000000,0.000000,0.000000,0.000000,0.000000,0.000000,1646904033.163971,0.000000
150.000000,26212.002481,28262.439759,29393.952119,22564.957746,9890.356349,17468.782362,24703.013862,21798.516428,0.050000,0.974000,0.124000,192.000000,0.000000,0.000000,0.000000,0.000000,0.000000,0.000000,0.000000,0.000000,0.000000,1646904033.171048,0.000000
151.000000,26213.254179,28262.305649,29394.354450,22565.270670,9891.384529,17469.967004,24701.315129,21800.550437,0.050000,0.974000,0.124000,192.000000,0.000000,0.000000,0.000000,0.000000,0.000000,0.000000,0.000000,0.000000,0.000000,1646904033.171066,0.000000
152.000000,26219.914999,28267.535957,29401.261139,22569.428095,9899.855840,17475.242016,24706.187809,21802.986777,0.050000,0.974000,0.124000,192.000000,0.000000,0.000000,0.000000,0.000000,0.000000,0.000000,0.000000,0.000000,0.000000,1646904033.178327,0.000000
153.000000,26222.373691,28269.279393,29403.898645,22571.529159,9902.225125,17476.627824,24714.949693,21808.842934,0.050000,0.974000,0.124000,192.000000,0.000000,0.000000,0.000000,0.000000,0.000000,0.000000,0.000000,0.000000,0.000000,1646904033.178343,0.000000
154.000000,26224.318293,28273.705038,29406.536151,22576.580653,9903.119195,17476.583120,24711.440469,21798.739946,0.050000,0.974000,0.124000,192.000000,0.000000,0.000000,0.000000,0.000000,0.000000,0.000000,0.000000,0.000000,0.000000,1646904033.186440,0.000000
155.000000,26227.067557,28275.694344,29413.062860,22579.642842,9905.846108,17479.466495,24720.157650,21803.053832,0.056000,0.980000,0.124000,192.000000,1.000000,192.000000,30.000000,160.000000,3.000000,224.000000,0.000000,0.000000,0.000000,1646904033.186456,0.000000
156.000000,26219.803240,28264.071436,29404.122162,22569.092818,9897.441852,17469.765838,24706.098402,21793.800210,0.056000,0.980000,0.124000,192.000000,0.000000,0.000000,0.000000,0.000000,0.000000,0.000000,0.000000,0.000000,0.000000,1646904033.194528,0.000000
157.000000,26217.769232,28260.562213,29397.886026,22568.511673,9896.436023,17466.591891,24702.544475,21792.727326,0.056000,0.980000,0.124000,192.000000,0.000000,0.000000,0.000000,0.000000,0.000000,0.000000,0.000000,0.000000,0.000000,1646904033.194545,0.000000
158.000000,26222.239580,28262.886794,29403.518665,22571.618566,9903.432119,17473.878559,24704.802001,21799.231684,0.056000,0.980000,0.124000,192.000000,0.000000,0.000000,0.000000,0.000000,0.000000,0.000000,0.000000,0.000000,0.000000,1646904033.201103,0.000000
159.000000,26220.563200,28263.646753,29399.674165,22568.310507,9900.906372,17474.437353,24701.762164,21796.080088,0.056000,0.980000,0.124000,192.000000,0.000000,0.000000,0.000000,0.000000,0.000000,0.000000,0.000000,0.000000,0.000000,1646904033.201117,0.000000
160.000000,26225.122955,28277.102503,29399.160075,22570.031592,9897.508907,17474.884388,24709.004129,21796.996510,0.056000,0.980000,0.124000,192.000000,0.000000,0.000000,0.000000,0.000000,0.000000,0.000000,0.000000,0.000000,0.000000,1646904033.208011,0.000000
161.000000,26226.441708,28273.213300,29396.991956,22560.912080,9888.769375,17463.820274,24698.297643,21784.501885,0.056000,0.980000,0.124000,192.000000,0.000000,0.000000,0.000000,0.000000,0.000000,0.000000,0.000000,0.000000,0.000000,1646904033.216155,0.000000
162.000000,26216.495182,28255.577774,29393.370973,22556.575841,9886.690663,17466.524835,24703.259731,21794.090783,0.056000,0.980000,0.124000,192.000000,0.000000,0.000000,0.000000,0.000000,0.000000,0.000000,0.000000,0.000000,0.000000,1646904033.216171,0.000000
163.000000,26201.854789,28241.853802,29385.391401,22549.467987,9881.952093,17463.663812,24696.107173,21789.240454,0.056000,0.980000,0.124000,192.000000,0.000000,0.000000,0.000000,0.000000,0.000000,0.000000,0.000000,0.000000,0.000000,1646904033.224172,0.000000
