%OpenBCI Raw EEG Data
%Number of channels = 8
%Sample Rate = 256 Hz
%Board = OpenBCI_GUI$BoardCytonSerial
%Channels = Fp1, Fp2, F3, F4, Fz, Pz, O1, O2
%Data recorded at AIMS Lab (http://aimsl.uiu.ac.bd) by Rana Depto (mail@ranadepto.com)
%Brainwaves were obtained via the Ultracortex Mark IV Headset using the OpenBCI Cyton Board
%Recording Application = ConcentrateToday (https://concentrate.today)
%Data type = RAW data with noise
%Day No = 6
%Subject ID = 6
%Session ID = 7
%Record starting timestamp (UTC+6) = 2022-03-21T13:59:55.095276
%Record ending timestamp (UTC+6)   = 2022-03-21T14:00:15.955065
%Recorded durations = ~20 seconds
Sample Index, EXG Channel 0, EXG Channel 1, EXG Channel 2, EXG Channel 3, EXG Channel 4, EXG Channel 5, EXG Channel 6, EXG Channel 7, Accel Channel 0, Accel Channel 1, Accel Channel 2, Other, Other, Other, Other, Other, Other, Other, Analog Channel 0, Analog Channel 1, Analog Channel 2, Timestamp, Timestamp (Formatted)
219.000000,-16921.321085,-16742.596536,-437.513046,-8829.676667,-23218.008663,17923.394492,17478.795943,2233.945100,0.092000,0.958000,0.212000,192.000000,0.000000,0.000000,0.000000,0.000000,0.000000,0.000000,0.000000,0.000000,0.000000,1647849595.099205,0.000000
220.000000,-16922.170451,-16741.322487,-438.518874,-8829.408446,-23218.656864,17926.814309,17476.828990,2227.507797,0.092000,0.958000,0.212000,192.000000,0.000000,0.000000,0.000000,0.000000,0.000000,0.000000,0.000000,0.000000,0.000000,1647849595.099214,0.000000
221.000000,-16921.052864,-16739.780216,-436.395459,-8827.463845,-23218.008663,17928.535393,17466.055449,2224.579719,0.092000,0.958000,0.212000,192.000000,0.000000,0.000000,0.000000,0.000000,0.000000,0.000000,0.000000,0.000000,0.000000,1647849595.106682,0.000000
222.000000,-16920.739939,-16742.842405,-440.307014,-8832.492987,-23226.077643,17922.388664,17449.313992,2218.477692,0.092000,0.958000,0.212000,192.000000,0.000000,0.000000,0.000000,0.000000,0.000000,0.000000,0.000000,0.000000,0.000000,1647849595.106687,0.000000
223.000000,-16926.998428,-16749.950260,-445.514970,-8841.478388,-23234.928934,17916.152527,17455.214853,2217.538919,0.086000,0.952000,0.218000,192.000000,2.000000,176.000000,29.000000,192.000000,6.000000,208.000000,0.000000,0.000000,0.000000,1647849595.114631,0.000000
224.000000,-16932.094625,-16753.325373,-449.270064,-8847.826284,-23235.823004,17914.051463,17483.601568,2224.467960,0.086000,0.952000,0.218000,192.000000,0.000000,0.000000,0.000000,0.000000,0.000000,0.000000,0.000000,0.000000,0.000000,1647849595.114636,0.000000
225.000000,-16931.692294,-16756.924004,-452.689880,-8851.715487,-23236.694722,17907.971788,17483.713327,2218.902376,0.086000,0.952000,0.218000,192.000000,0.000000,0.000000,0.000000,0.000000,0.000000,0.000000,0.000000,0.000000,0.000000,1647849595.122710,0.000000
226.000000,-16931.468777,-16756.186397,-455.640311,-8851.536673,-23238.080530,17903.881419,17469.139990,2210.453416,0.086000,0.952000,0.218000,192.000000,0.000000,0.000000,0.000000,0.000000,0.000000,0.000000,0.000000,0.000000,0.000000,1647849595.122715,0.000000
227.000000,-16929.725341,-16753.481836,-461.988206,-8852.341336,-23248.071760,17901.266265,17468.692955,2210.006381,0.086000,0.952000,0.218000,192.000000,0.000000,0.000000,0.000000,0.000000,0.000000,0.000000,0.000000,0.000000,0.000000,1647849595.128748,0.000000
228.000000,-16929.971210,-16755.001754,-462.703462,-8851.536673,-23249.904603,17902.920294,17467.798885,2212.465073,0.086000,0.952000,0.218000,192.000000,0.000000,0.000000,0.000000,0.000000,0.000000,0.000000,0.000000,0.000000,0.000000,1647849595.128752,0.000000
229.000000,-16935.447387,-16758.578033,-461.071785,-8852.006060,-23244.920164,17906.250704,17465.161379,2212.107445,0.086000,0.952000,0.218000,192.000000,0.000000,0.000000,0.000000,0.000000,0.000000,0.000000,0.000000,0.000000,0.000000,1647849595.136269,0.000000
230.000000,-16933.011047,-16754.889995,-453.226322,-8847.088676,-23239.555745,17912.486841,17470.838722,2220.064666,0.086000,0.952000,0.218000,192.000000,0.000000,0.000000,0.000000,0.000000,0.000000,0.000000,0.000000,0.000000,0.000000,1647849595.144407,0.000000
231.000000,-16934.173338,-16748.407990,-447.504276,-8841.031354,-23229.229239,17922.098091,17476.806638,2231.441704,0.086000,0.952000,0.218000,192.000000,0.000000,0.000000,0.000000,0.000000,0.000000,0.000000,0.000000,0.000000,0.000000,1647849595.144412,0.000000
232.000000,-16942.599945,-16756.432266,-454.232151,-8852.006060,-23232.090262,17912.822117,17469.497617,2218.209471,0.086000,0.952000,0.218000,192.000000,0.000000,0.000000,0.000000,0.000000,0.000000,0.000000,0.000000,0.000000,0.000000,1647849595.152430,0.000000
233.000000,-16939.381294,-16760.008545,-457.920189,-8857.281072,-23242.573231,17906.876553,17457.114751,2207.301820,0.088000,0.950000,0.216000,192.000000,2.000000,192.000000,29.000000,176.000000,6.000000,192.000000,0.000000,0.000000,0.000000,1647849595.152435,0.000000
234.000000,-16939.627163,-16763.853045,-458.031947,-8859.650357,-23244.204908,17904.395509,17458.142931,2209.648753,0.088000,0.950000,0.216000,192.000000,0.000000,0.000000,0.000000,0.000000,0.000000,0.000000,0.000000,0.000000,0.000000,1647849595.159013,0.000000
235.000000,-16934.598021,-16762.958975,-453.539247,-8859.426839,-23240.874498,17904.596675,17467.709478,2215.683724,0.088000,0.950000,0.216000,192.000000,0.000000,0.000000,0.000000,0.000000,0.000000,0.000000,0.000000,0.000000,0.000000,1647849595.159022,0.000000
236.000000,-16929.948858,-16758.600385,-451.706404,-8853.101296,-23241.165071,17906.250704,17463.552053,2216.667201,0.088000,0.950000,0.216000,192.000000,0.000000,0.000000,0.000000,0.000000,0.000000,0.000000,0.000000,0.000000,0.000000,1647849595.166950,0.000000
237.000000,-16941.839986,-16761.506112,-452.756936,-8853.771848,-23238.795786,17903.702605,17456.913585,2208.262945,0.088000,0.950000,0.216000,192.000000,0.000000,0.000000,0.000000,0.000000,0.000000,0.000000,0.000000,0.000000,0.000000,1647849595.166955,0.000000
238.000000,-16939.761274,-16759.360344,-452.421660,-8850.217921,-23232.716111,17905.088413,17459.349925,2203.591431,0.088000,0.950000,0.216000,192.000000,0.000000,0.000000,0.000000,0.000000,0.000000,0.000000,0.000000,0.000000,0.000000,1647849595.175134,0.000000
239.000000,-16931.580535,-16757.438094,-450.521761,-8849.525016,-23226.010588,17905.870724,17456.399495,2194.896602,0.088000,0.950000,0.216000,192.000000,0.000000,0.000000,0.000000,0.000000,0.000000,0.000000,0.000000,0.000000,0.000000,1647849595.175138,0.000000
240.000000,-16932.094625,-16759.248586,-454.366261,-8857.214017,-23230.860916,17903.814364,17443.167262,2193.153166,0.088000,0.950000,0.216000,192.000000,0.000000,0.000000,0.000000,0.000000,0.000000,0.000000,0.000000,0.000000,0.000000,1647849595.182006,0.000000
241.000000,-16926.461986,-16750.911385,-450.231189,-8836.471598,-23231.263248,17914.565553,17451.996202,2214.789655,0.088000,0.950000,0.216000,192.000000,0.000000,0.000000,0.000000,0.000000,0.000000,0.000000,0.000000,0.000000,0.000000,1647849595.182010,0.000000
242.000000,-16922.885707,-16750.889033,-446.096116,-8833.543519,-23226.278809,17921.382835,17463.730867,2230.011193,0.088000,0.950000,0.216000,192.000000,0.000000,0.000000,0.000000,0.000000,0.000000,0.000000,0.000000,0.000000,0.000000,1647849595.189516,0.000000
243.000000,-16928.339532,-16758.868606,-451.549941,-8841.612499,-23228.893963,17912.822117,17441.826158,2214.297916,0.072000,0.952000,0.220000,192.000000,2.000000,64.000000,29.000000,192.000000,6.000000,224.000000,0.000000,0.000000,0.000000,1647849595.189519,0.000000
244.000000,-16932.854585,-16763.316603,-454.165096,-8846.015793,-23226.904658,17911.816288,17445.648306,2217.047181,0.072000,0.952000,0.220000,192.000000,0.000000,0.000000,0.000000,0.000000,0.000000,0.000000,0.000000,0.000000,0.000000,1647849595.196690,0.000000
245.000000,-16939.962440,-16768.032821,-457.897837,-8851.469618,-23230.190364,17914.274980,17478.125391,2219.595280,0.072000,0.952000,0.220000,192.000000,0.000000,0.000000,0.000000,0.000000,0.000000,0.000000,0.000000,0.000000,0.000000,1647849595.204575,0.000000
246.000000,-16929.859451,-16759.136827,-452.421660,-8844.741743,-23229.475108,17918.030073,17481.612263,2215.482559,0.072000,0.952000,0.220000,192.000000,0.000000,0.000000,0.000000,0.000000,0.000000,0.000000,0.000000,0.000000,0.000000,1647849595.204579,0.000000
247.000000,-16938.822501,-16770.938548,-458.523686,-8853.995365,-23235.331265,17910.765756,17476.583120,2217.382457,0.072000,0.952000,0.220000,192.000000,0.000000,0.000000,0.000000,0.000000,0.000000,0.000000,0.000000,0.000000,0.000000,1647849595.211677,0.000000
248.000000,-16938.733094,-16770.312699,-463.105793,-8856.744630,-23245.076626,17905.580152,17473.833856,2215.795483,0.072000,0.952000,0.220000,192.000000,0.000000,0.000000,0.000000,0.000000,0.000000,0.000000,0.000000,0.000000,0.000000,1647849595.211681,0.000000
249.000000,-16940.856509,-16770.826789,-466.972645,-8858.935101,-23246.864766,17900.349844,17463.328536,2212.688591,0.072000,0.952000,0.220000,192.000000,0.000000,0.000000,0.000000,0.000000,0.000000,0.000000,0.000000,0.000000,0.000000,1647849595.219254,0.000000
250.000000,-16948.299640,-16779.342804,-471.152421,-8865.618272,-23245.724827,17893.130230,17453.694934,2205.848957,0.072000,0.952000,0.220000,192.000000,0.000000,0.000000,0.000000,0.000000,0.000000,0.000000,0.000000,0.000000,0.000000,1647849595.219257,0.000000
251.000000,-16946.712666,-16780.974481,-474.348721,-8869.127496,-23245.188385,17891.096221,17451.236242,2195.745968,0.072000,0.952000,0.220000,192.000000,0.000000,0.000000,0.000000,0.000000,0.000000,0.000000,0.000000,0.000000,0.000000,1647849595.227147,0.000000
252.000000,-16947.696143,-16784.349595,-478.215573,-8872.346148,-23251.670391,17893.376099,17452.689106,2204.507852,0.072000,0.952000,0.220000,192.000000,0.000000,0.000000,0.000000,0.000000,0.000000,0.000000,0.000000,0.000000,0.000000,1647849595.227151,0.000000
253.000000,-16950.221890,-16783.947263,-479.489622,-8872.659072,-23256.028981,17890.157448,17443.346076,2200.328076,0.068000,0.954000,0.226000,192.000000,2.000000,32.000000,29.000000,208.000000,7.000000,16.000000,0.000000,0.000000,0.000000,1647849595.234335,0.000000
254.000000,-16945.818597,-16777.509961,-473.432299,-8868.635758,-23253.682048,17891.275035,17445.760065,2198.897564,0.068000,0.954000,0.226000,192.000000,0.000000,0.000000,0.000000,0.000000,0.000000,0.000000,0.000000,0.000000,0.000000,1647849595.234340,0.000000
255.000000,-16940.543585,-16773.888978,-466.749128,-8865.797086,-23247.535318,17891.431498,17441.714399,2193.935477,0.068000,0.954000,0.226000,192.000000,0.000000,0.000000,0.000000,0.000000,0.000000,0.000000,0.000000,0.000000,0.000000,1647849595.241848,0.000000
0.000000,-16945.706838,-16776.347670,-470.995959,-8870.043918,-23249.234050,17881.954358,17432.818405,2178.557477,0.068000,0.954000,0.226000,192.000000,0.000000,0.000000,0.000000,0.000000,0.000000,0.000000,0.000000,0.000000,0.000000,1647849595.241853,0.000000
1.000000,-16944.119864,-16774.492475,-470.325407,-8869.976863,-23251.580984,17884.547160,17438.451044,2189.778053,0.068000,0.954000,0.226000,192.000000,0.000000,0.000000,0.000000,0.000000,0.000000,0.000000,0.000000,0.000000,0.000000,1647849595.249755,0.000000
2.000000,-16944.835120,-16773.218426,-470.906552,-8872.457906,-23254.553766,17883.988367,17439.523928,2197.467053,0.068000,0.954000,0.226000,192.000000,0.000000,0.000000,0.000000,0.000000,0.000000,0.000000,0.000000,0.000000,0.000000,1647849595.249759,0.000000
3.000000,-16944.298678,-16774.090144,-478.282628,-8876.928255,-23258.554728,17871.471390,17419.027378,2176.188192,0.068000,0.954000,0.226000,192.000000,0.000000,0.000000,0.000000,0.000000,0.000000,0.000000,0.000000,0.000000,0.000000,1647849595.256972,0.000000
4.000000,-16948.478454,-16782.717917,-483.691750,-8886.025415,-23259.046466,17862.910672,17416.166355,2166.621645,0.068000,0.954000,0.226000,192.000000,0.000000,0.000000,0.000000,0.000000,0.000000,0.000000,0.000000,0.000000,0.000000,1647849595.263917,0.000000
5.000000,-16954.580480,-16784.886037,-482.507108,-8883.298502,-23260.544033,17870.577320,17429.957381,2176.970503,0.068000,0.954000,0.226000,192.000000,0.000000,0.000000,0.000000,0.000000,0.000000,0.000000,0.000000,0.000000,0.000000,1647849595.263920,0.000000
6.000000,-16950.467759,-16782.404993,-477.366206,-8877.263531,-23257.146568,17882.066117,17449.425751,2195.745968,0.068000,0.954000,0.226000,192.000000,0.000000,0.000000,0.000000,0.000000,0.000000,0.000000,0.000000,0.000000,0.000000,1647849595.271494,0.000000
7.000000,-16943.471663,-16774.894807,-475.354549,-8871.452078,-23253.235013,17889.732765,17463.820274,2201.624477,0.068000,0.954000,0.226000,192.000000,0.000000,0.000000,0.000000,0.000000,0.000000,0.000000,0.000000,0.000000,0.000000,1647849595.271498,0.000000
8.000000,-16942.667001,-16773.151371,-477.254448,-8870.401546,-23250.888080,17895.678329,17474.504408,2208.553518,0.076000,0.956000,0.220000,192.000000,2.000000,96.000000,29.000000,224.000000,6.000000,224.000000,0.000000,0.000000,0.000000,1647849595.279432,0.000000
9.000000,-16945.528024,-16776.504132,-475.019273,-8872.390851,-23246.462434,17894.538390,17468.715306,2198.718750,0.076000,0.956000,0.220000,192.000000,0.000000,0.000000,0.000000,0.000000,0.000000,0.000000,0.000000,0.000000,0.000000,1647849595.279436,0.000000
10.000000,-16945.617431,-16777.912292,-474.169907,-8873.933121,-23249.703437,17893.398451,17463.484998,2209.425236,0.076000,0.956000,0.220000,192.000000,0.000000,0.000000,0.000000,0.000000,0.000000,0.000000,0.000000,0.000000,0.000000,1647849595.287467,0.000000
11.000000,-16948.299640,-16780.616853,-477.254448,-8875.497744,-23257.951231,17886.737631,17453.337306,2194.963657,0.076000,0.956000,0.220000,192.000000,0.000000,0.000000,0.000000,0.000000,0.000000,0.000000,0.000000,0.000000,0.000000,1647849595.287471,0.000000
12.000000,-16951.607698,-16783.343766,-480.540154,-8879.588113,-23263.159187,17875.450000,17435.008876,2172.343692,0.076000,0.956000,0.220000,192.000000,0.000000,0.000000,0.000000,0.000000,0.000000,0.000000,0.000000,0.000000,0.000000,1647849595.294127,0.000000
13.000000,-16951.853568,-16786.025975,-482.797680,-8884.416090,-23268.434199,17870.018526,17429.599754,2173.461279,0.076000,0.956000,0.220000,192.000000,0.000000,0.000000,0.000000,0.000000,0.000000,0.000000,0.000000,0.000000,0.000000,1647849595.294130,0.000000
14.000000,-16957.016821,-16789.892827,-484.943448,-8888.931142,-23269.015344,17872.521922,17443.256669,2189.442776,0.076000,0.956000,0.220000,192.000000,0.000000,0.000000,0.000000,0.000000,0.000000,0.000000,0.000000,0.000000,0.000000,1647849595.302031,0.000000
15.000000,-16952.792341,-16779.052231,-477.030930,-8878.828153,-23265.014382,17881.932006,17455.617184,2199.925745,0.076000,0.956000,0.220000,192.000000,0.000000,0.000000,0.000000,0.000000,0.000000,0.000000,0.000000,0.000000,0.000000,1647849595.302034,0.000000
16.000000,-16951.719457,-16777.532313,-471.867677,-8877.442345,-23261.929841,17878.892169,17451.996202,2195.611858,0.076000,0.956000,0.220000,192.000000,0.000000,0.000000,0.000000,0.000000,0.000000,0.000000,0.000000,0.000000,0.000000,1647849595.310130,0.000000
17.000000,-16956.346268,-16783.232007,-471.778270,-8878.649340,-23264.276774,17882.244931,17452.867920,2196.796500,0.076000,0.956000,0.220000,192.000000,0.000000,0.000000,0.000000,0.000000,0.000000,0.000000,0.000000,0.000000,0.000000,1647849595.310134,0.000000
18.000000,-16964.057620,-16791.725670,-475.399253,-8882.404433,-23263.628574,17880.277977,17448.017591,2192.124986,0.076000,0.958000,0.218000,192.000000,2.000000,96.000000,29.000000,240.000000,6.000000,208.000000,0.000000,0.000000,0.000000,1647849595.317312,0.000000
19.000000,-16965.331669,-16788.909351,-477.142689,-8883.454965,-23263.807388,17873.706564,17441.714399,2188.660465,0.076000,0.958000,0.218000,192.000000,0.000000,0.000000,0.000000,0.000000,0.000000,0.000000,0.000000,0.000000,0.000000,1647849595.323838,0.000000
20.000000,-16966.806885,-16794.340824,-480.786023,-8889.936970,-23266.914280,17866.665765,17433.533661,2173.997721,0.076000,0.958000,0.218000,192.000000,0.000000,0.000000,0.000000,0.000000,0.000000,0.000000,0.000000,0.000000,0.000000,1647849595.323842,0.000000
21.000000,-16970.293757,-16798.632359,-489.726721,-8896.843660,-23276.369068,17857.166273,17423.385969,2162.419517,0.076000,0.958000,0.218000,192.000000,0.000000,0.000000,0.000000,0.000000,0.000000,0.000000,0.000000,0.000000,0.000000,1647849595.331760,0.000000
22.000000,-16967.075106,-16793.402051,-490.441977,-8889.266418,-23279.252443,17865.056439,17432.594887,2180.211506,0.076000,0.958000,0.218000,192.000000,0.000000,0.000000,0.000000,0.000000,0.000000,0.000000,0.000000,0.000000,0.000000,1647849595.331796,0.000000
23.000000,-16967.790361,-16795.033728,-486.284552,-8888.126479,-23278.246615,17869.325622,17439.590983,2190.426253,0.076000,0.958000,0.218000,192.000000,0.000000,0.000000,0.000000,0.000000,0.000000,0.000000,0.000000,0.000000,0.000000,1647849595.339842,0.000000
24.000000,-16964.996393,-16793.044423,-484.719930,-8890.093433,-23273.172769,17869.571491,17439.367466,2183.966599,0.076000,0.958000,0.218000,192.000000,0.000000,0.000000,0.000000,0.000000,0.000000,0.000000,0.000000,0.000000,0.000000,1647849595.339846,0.000000
25.000000,-16960.436637,-16791.636263,-486.128090,-8892.686235,-23271.161112,17866.017564,17427.945724,2191.990875,0.076000,0.958000,0.218000,192.000000,0.000000,0.000000,0.000000,0.000000,0.000000,0.000000,0.000000,0.000000,0.000000,1647849595.346437,0.000000
26.000000,-16963.878806,-16791.010414,-488.765596,-8892.842697,-23276.234958,17865.324660,17431.276134,2189.442776,0.076000,0.958000,0.218000,192.000000,0.000000,0.000000,0.000000,0.000000,0.000000,0.000000,0.000000,0.000000,0.000000,1647849595.346441,0.000000
27.000000,-16965.734001,-16789.848124,-487.960933,-8890.808688,-23278.805408,17863.760038,17439.479225,2181.820832,0.076000,0.958000,0.218000,192.000000,0.000000,0.000000,0.000000,0.000000,0.000000,0.000000,0.000000,0.000000,0.000000,1647849595.354383,0.000000
28.000000,-16963.029440,-16788.886999,-485.211669,-8888.707625,-23276.011440,17864.318831,17441.043847,2190.247439,0.082000,0.964000,0.210000,192.000000,2.000000,144.000000,30.000000,32.000000,6.000000,144.000000,0.000000,0.000000,0.000000,1647849595.354386,0.000000
29.000000,-16965.443428,-16791.390394,-484.205840,-8892.060386,-23272.502216,17864.765866,17456.019516,2190.940343,0.082000,0.964000,0.210000,192.000000,0.000000,0.000000,0.000000,0.000000,0.000000,0.000000,0.000000,0.000000,0.000000,1647849595.362306,0.000000
30.000000,-16969.600853,-16794.407880,-489.123224,-8896.642494,-23276.302013,17860.809608,17442.429655,2184.570096,0.082000,0.964000,0.210000,192.000000,0.000000,0.000000,0.000000,0.000000,0.000000,0.000000,0.000000,0.000000,0.000000,1647849595.362310,0.000000
31.000000,-16974.562940,-16800.889886,-497.393369,-8901.805747,-23281.174693,17854.484064,17429.487995,2181.150279,0.082000,0.964000,0.210000,192.000000,0.000000,0.000000,0.000000,0.000000,0.000000,0.000000,0.000000,0.000000,0.000000,1647849595.369511,0.000000
32.000000,-16971.679565,-16800.286388,-497.348666,-8900.084662,-23284.862731,17853.567642,17430.627934,2175.249419,0.082000,0.964000,0.210000,192.000000,0.000000,0.000000,0.000000,0.000000,0.000000,0.000000,0.000000,0.000000,0.000000,1647849595.369514,0.000000
33.000000,-16976.418135,-16804.443813,-499.852061,-8904.175032,-23288.103734,17843.330543,17408.410300,2159.491439,0.082000,0.964000,0.210000,192.000000,0.000000,0.000000,0.000000,0.000000,0.000000,0.000000,0.000000,0.000000,0.000000,1647849595.376031,0.000000
34.000000,-16977.155742,-16806.097842,-501.059055,-8906.410206,-23288.528417,17839.486043,17432.527832,2161.659558,0.082000,0.964000,0.210000,192.000000,0.000000,0.000000,0.000000,0.000000,0.000000,0.000000,0.000000,0.000000,0.000000,1647849595.376035,0.000000
35.000000,-16970.226702,-16801.023996,-496.767521,-8900.062311,-23280.638251,17847.376209,17453.896100,2177.484593,0.082000,0.964000,0.210000,192.000000,0.000000,0.000000,0.000000,0.000000,0.000000,0.000000,0.000000,0.000000,0.000000,1647849595.383909,0.000000
36.000000,-16966.583367,-16797.470069,-492.431282,-8894.832003,-23276.234958,17852.427703,17448.978716,2194.091939,0.082000,0.964000,0.210000,192.000000,0.000000,0.000000,0.000000,0.000000,0.000000,0.000000,0.000000,0.000000,0.000000,1647849595.392060,0.000000
37.000000,-16971.947786,-16802.074528,-494.688808,-8900.643456,-23279.051278,17849.946660,17441.021495,2186.112366,0.082000,0.964000,0.210000,192.000000,0.000000,0.000000,0.000000,0.000000,0.000000,0.000000,0.000000,0.000000,0.000000,1647849595.392065,0.000000
38.000000,-16969.042059,-16800.822830,-493.303000,-8900.509346,-23276.860807,17852.695924,17442.720228,2179.004512,0.082000,0.956000,0.204000,192.000000,2.000000,144.000000,29.000000,224.000000,6.000000,96.000000,0.000000,0.000000,0.000000,1647849595.399140,0.000000
39.000000,-16968.975004,-16803.415633,-496.208727,-8902.498651,-23277.576062,17853.165311,17438.339286,2180.502079,0.082000,0.956000,0.204000,192.000000,0.000000,0.000000,0.000000,0.000000,0.000000,0.000000,0.000000,0.000000,0.000000,1647849595.399145,0.000000
40.000000,-16970.092591,-16807.818926,-501.483739,-8905.426729,-23282.448743,17851.958317,17426.515213,2178.825698,0.082000,0.956000,0.204000,192.000000,0.000000,0.000000,0.000000,0.000000,0.000000,0.000000,0.000000,0.000000,0.000000,1647849595.406752,0.000000
41.000000,-16967.119809,-16800.778127,-499.717951,-8898.363578,-23281.867597,17853.008849,17417.395701,2175.562343,0.082000,0.956000,0.204000,192.000000,0.000000,0.000000,0.000000,0.000000,0.000000,0.000000,0.000000,0.000000,0.000000,1647849595.406755,0.000000
42.000000,-16960.079010,-16789.781069,-490.129052,-8886.897133,-23276.458475,17864.542349,17433.846585,2190.985047,0.082000,0.956000,0.204000,192.000000,0.000000,0.000000,0.000000,0.000000,0.000000,0.000000,0.000000,0.000000,0.000000,1647849595.414580,0.000000
43.000000,-16958.179111,-16787.791763,-482.060073,-8882.471488,-23263.449760,17868.677422,17458.411152,2198.718750,0.082000,0.956000,0.204000,192.000000,0.000000,0.000000,0.000000,0.000000,0.000000,0.000000,0.000000,0.000000,0.000000,1647849595.414590,0.000000
44.000000,-16962.157722,-16790.697490,-481.009541,-8885.466622,-23260.499330,17863.648279,17448.196405,2190.180384,0.082000,0.956000,0.204000,192.000000,0.000000,0.000000,0.000000,0.000000,0.000000,0.000000,0.000000,0.000000,0.000000,1647849595.422730,0.000000
45.000000,-16959.006126,-16789.468144,-480.070767,-8886.204229,-23260.834606,17860.541387,17447.056466,2187.632285,0.082000,0.956000,0.204000,192.000000,0.000000,0.000000,0.000000,0.000000,0.000000,0.000000,0.000000,0.000000,0.000000,1647849595.422734,0.000000
46.000000,-16953.731114,-16790.116345,-485.211669,-8889.936970,-23269.082399,17856.071038,17440.797978,2179.943285,0.082000,0.956000,0.204000,192.000000,0.000000,0.000000,0.000000,0.000000,0.000000,0.000000,0.000000,0.000000,0.000000,1647849595.429309,0.000000
47.000000,-16960.458989,-16793.133830,-489.927887,-8888.931142,-23277.486655,17860.362573,17443.413132,2189.599239,0.082000,0.956000,0.204000,192.000000,0.000000,0.000000,0.000000,0.000000,0.000000,0.000000,0.000000,0.000000,0.000000,1647849595.429312,0.000000
48.000000,-16970.025536,-16800.152278,-492.118358,-8895.413148,-23282.158170,17858.172102,17442.049675,2187.945209,0.084000,0.960000,0.204000,192.000000,2.000000,160.000000,30.000000,0.000000,6.000000,96.000000,0.000000,0.000000,0.000000,1647849595.437765,0.000000
49.000000,-16970.405515,-16803.102708,-491.157233,-8897.424805,-23280.146513,17857.009811,17437.020533,2188.995741,0.084000,0.960000,0.204000,192.000000,0.000000,0.000000,0.000000,0.000000,0.000000,0.000000,0.000000,0.000000,0.000000,1647849595.437769,0.000000
50.000000,-16969.198521,-16803.370929,-491.693675,-8898.363578,-23279.990051,17860.004945,17438.316934,2192.840242,0.084000,0.960000,0.204000,192.000000,0.000000,0.000000,0.000000,0.000000,0.000000,0.000000,0.000000,0.000000,0.000000,1647849595.444341,0.000000
51.000000,-16963.834103,-16798.297083,-492.118358,-8896.486032,-23280.258272,17861.658974,17441.200309,2194.226050,0.084000,0.960000,0.204000,192.000000,0.000000,0.000000,0.000000,0.000000,0.000000,0.000000,0.000000,0.000000,0.000000,1647849595.451432,0.000000
52.000000,-16971.634861,-16802.365101,-496.342837,-8900.218773,-23281.040583,17859.490855,17444.508367,2195.455396,0.084000,0.960000,0.204000,192.000000,0.000000,0.000000,0.000000,0.000000,0.000000,0.000000,0.000000,0.000000,0.000000,1647849595.451435,0.000000
53.000000,-16979.212103,-16803.616798,-502.847195,-8903.348017,-23285.868560,17854.707581,17443.502539,2193.443739,0.084000,0.960000,0.204000,192.000000,0.000000,0.000000,0.000000,0.000000,0.000000,0.000000,0.000000,0.000000,0.000000,1647849595.459007,0.000000
54.000000,-16966.404553,-16792.753851,-494.889974,-8895.502555,-23279.163036,17858.686192,17444.329553,2197.422349,0.084000,0.960000,0.204000,192.000000,0.000000,0.000000,0.000000,0.000000,0.000000,0.000000,0.000000,0.000000,0.000000,1647849595.459010,0.000000
55.000000,-16965.532835,-16791.993891,-490.352570,-8896.016645,-23276.480827,17853.813512,17432.304315,2192.370855,0.084000,0.960000,0.204000,192.000000,0.000000,0.000000,0.000000,0.000000,0.000000,0.000000,0.000000,0.000000,0.000000,1647849595.466932,0.000000
56.000000,-16966.896292,-16789.378737,-488.810299,-8892.954456,-23273.910376,17852.025372,17432.147852,2189.599239,0.084000,0.960000,0.204000,192.000000,0.000000,0.000000,0.000000,0.000000,0.000000,0.000000,0.000000,0.000000,0.000000,1647849595.466935,0.000000
57.000000,-16967.879768,-16789.334034,-490.196108,-8893.200325,-23274.536225,17852.897090,17444.441312,2191.543840,0.084000,0.960000,0.204000,192.000000,0.000000,0.000000,0.000000,0.000000,0.000000,0.000000,0.000000,0.000000,0.000000,1647849595.474881,0.000000
58.000000,-16967.052754,-16786.294196,-487.178622,-8890.607523,-23271.786961,17857.546253,17454.633707,2190.761529,0.084000,0.964000,0.204000,192.000000,2.000000,160.000000,30.000000,32.000000,6.000000,96.000000,0.000000,0.000000,0.000000,1647849595.474884,0.000000
59.000000,-16962.962385,-16785.556589,-483.714102,-8888.864087,-23267.987164,17858.417971,17448.643440,2192.013227,0.084000,0.964000,0.204000,192.000000,0.000000,0.000000,0.000000,0.000000,0.000000,0.000000,0.000000,0.000000,0.000000,1647849595.481609,0.000000
60.000000,-16951.428884,-16779.029879,-477.232096,-8881.376252,-23263.606222,17866.308137,17449.515158,2206.564213,0.084000,0.964000,0.204000,192.000000,0.000000,0.000000,0.000000,0.000000,0.000000,0.000000,0.000000,0.000000,0.000000,1647849595.481613,0.000000
61.000000,-16952.278251,-16779.856894,-481.054244,-8884.170220,-23266.579004,17863.111837,17441.647344,2194.494271,0.084000,0.964000,0.204000,192.000000,0.000000,0.000000,0.000000,0.000000,0.000000,0.000000,0.000000,0.000000,0.000000,1647849595.489678,0.000000
62.000000,-16954.736943,-16779.633377,-481.948314,-8882.672654,-23266.646059,17865.369363,17442.139082,2194.181346,0.084000,0.964000,0.204000,192.000000,0.000000,0.000000,0.000000,0.000000,0.000000,0.000000,0.000000,0.000000,0.000000,1647849595.489682,0.000000
63.000000,-16960.146065,-16783.276711,-487.469195,-8886.315988,-23267.026039,17859.736724,17428.392759,2179.943285,0.084000,0.964000,0.204000,192.000000,0.000000,0.000000,0.000000,0.000000,0.000000,0.000000,0.000000,0.000000,0.000000,1647849595.497507,0.000000
64.000000,-16968.103286,-16793.357348,-494.152366,-8894.362616,-23272.502216,17851.868910,17417.462756,2160.653730,0.084000,0.964000,0.204000,192.000000,0.000000,0.000000,0.000000,0.000000,0.000000,0.000000,0.000000,0.000000,0.000000,1647849595.497511,0.000000
65.000000,-16965.041097,-16789.088164,-491.581916,-8888.394700,-23275.296184,17859.066172,17428.281001,2174.467108,0.084000,0.964000,0.204000,192.000000,0.000000,0.000000,0.000000,0.000000,0.000000,0.000000,0.000000,0.000000,0.000000,1647849595.504797,0.000000
66.000000,-16956.301565,-16782.494400,-483.334122,-8880.616293,-23267.294260,17867.492779,17442.697876,2202.004457,0.084000,0.964000,0.204000,192.000000,0.000000,0.000000,0.000000,0.000000,0.000000,0.000000,0.000000,0.000000,0.000000,1647849595.511172,0.000000
67.000000,-16957.173283,-16784.684871,-483.267067,-8883.231447,-23264.902623,17863.134189,17442.809635,2205.513681,0.084000,0.964000,0.204000,192.000000,0.000000,0.000000,0.000000,0.000000,0.000000,0.000000,0.000000,0.000000,0.000000,1647849595.511176,0.000000
68.000000,-16955.362791,-16781.980310,-479.310808,-8881.108031,-23261.728676,17858.216805,17433.466605,2198.517585,0.088000,0.960000,0.200000,192.000000,2.000000,192.000000,30.000000,0.000000,6.000000,64.000000,0.000000,0.000000,0.000000,1647849595.519135,0.000000
69.000000,-16950.154835,-16774.961862,-476.516840,-8877.978787,-23258.822949,17851.801855,17413.506498,2182.446680,0.088000,0.960000,0.200000,192.000000,0.000000,0.000000,0.000000,0.000000,0.000000,0.000000,0.000000,0.000000,0.000000,1647849595.519139,0.000000
70.000000,-16944.902175,-16775.230083,-476.583895,-8879.990444,-23261.885138,17852.762980,17430.762044,2182.938419,0.088000,0.960000,0.200000,192.000000,0.000000,0.000000,0.000000,0.000000,0.000000,0.000000,0.000000,0.000000,0.000000,1647849595.527312,0.000000
71.000000,-16956.525082,-16785.243664,-481.031892,-8887.701796,-23269.909414,17855.400485,17456.064219,2185.642980,0.088000,0.960000,0.200000,192.000000,0.000000,0.000000,0.000000,0.000000,0.000000,0.000000,0.000000,0.000000,0.000000,1647849595.527316,0.000000
72.000000,-16965.197559,-16795.056080,-488.542079,-8896.754253,-23282.739315,17848.493796,17441.043847,2176.031730,0.088000,0.960000,0.200000,192.000000,0.000000,0.000000,0.000000,0.000000,0.000000,0.000000,0.000000,0.000000,0.000000,1647849595.534412,0.000000
73.000000,-16963.901158,-16795.816040,-489.078520,-8897.089529,-23283.588682,17849.119645,17438.115768,2187.475823,0.088000,0.960000,0.200000,192.000000,0.000000,0.000000,0.000000,0.000000,0.000000,0.000000,0.000000,0.000000,0.000000,1647849595.534416,0.000000
74.000000,-16953.820521,-16781.175647,-483.043549,-8884.974883,-23273.664507,17860.742552,17448.062294,2204.507852,0.088000,0.960000,0.200000,192.000000,0.000000,0.000000,0.000000,0.000000,0.000000,0.000000,0.000000,0.000000,0.000000,1647849595.541948,0.000000
75.000000,-16957.419152,-16781.309757,-480.406044,-8888.975845,-23266.646059,17860.362573,17448.665792,2200.708056,0.088000,0.960000,0.200000,192.000000,0.000000,0.000000,0.000000,0.000000,0.000000,0.000000,0.000000,0.000000,0.000000,1647849595.541952,0.000000
76.000000,-16969.690260,-16794.296121,-491.492509,-8903.526831,-23279.654775,17850.483102,17437.735789,2181.954942,0.088000,0.960000,0.200000,192.000000,0.000000,0.000000,0.000000,0.000000,0.000000,0.000000,0.000000,0.000000,0.000000,1647849595.549850,0.000000
77.000000,-16967.812713,-16798.945284,-496.544003,-8906.410206,-23289.064859,17849.164349,17440.060370,2182.625494,0.088000,0.960000,0.200000,192.000000,0.000000,0.000000,0.000000,0.000000,0.000000,0.000000,0.000000,0.000000,0.000000,1647849595.549854,0.000000
78.000000,-16969.198521,-16801.783955,-501.215518,-8906.589020,-23287.142609,17849.276107,17427.677504,2187.051140,0.082000,0.956000,0.192000,192.000000,2.000000,144.000000,29.000000,224.000000,6.000000,0.000000,0.000000,0.000000,0.000000,1647849595.557917,0.000000
79.000000,-16975.322899,-16806.299008,-506.825806,-8910.232354,-23292.127048,17845.208090,17416.792204,2188.280486,0.082000,0.956000,0.192000,192.000000,0.000000,0.000000,0.000000,0.000000,0.000000,0.000000,0.000000,0.000000,0.000000,1647849595.557922,0.000000
80.000000,-16971.858379,-16802.409804,-502.221346,-8905.963171,-23290.540074,17852.874738,17441.736751,2191.812061,0.082000,0.956000,0.192000,192.000000,0.000000,0.000000,0.000000,0.000000,0.000000,0.000000,0.000000,0.000000,0.000000,1647849595.564033,0.000000
81.000000,-16974.294719,-16806.991912,-501.617849,-8909.673561,-23293.646967,17850.572509,17455.527777,2190.426253,0.082000,0.956000,0.192000,192.000000,0.000000,0.000000,0.000000,0.000000,0.000000,0.000000,0.000000,0.000000,0.000000,1647849595.571495,0.000000
82.000000,-16969.690260,-16801.426327,-499.896765,-8907.371331,-23293.669318,17851.712448,17460.154588,2200.395131,0.082000,0.956000,0.192000,192.000000,0.000000,0.000000,0.000000,0.000000,0.000000,0.000000,0.000000,0.000000,0.000000,1647849595.571498,0.000000
83.000000,-16971.925434,-16798.811173,-497.907459,-8905.314971,-23287.209664,17854.953451,17458.075876,2202.742064,0.082000,0.956000,0.192000,192.000000,0.000000,0.000000,0.000000,0.000000,0.000000,0.000000,0.000000,0.000000,0.000000,1647849595.579814,0.000000
84.000000,-16975.300548,-16796.575999,-493.615925,-8899.861145,-23282.515798,17861.681326,17460.020478,2202.943230,0.082000,0.956000,0.192000,192.000000,0.000000,0.000000,0.000000,0.000000,0.000000,0.000000,0.000000,0.000000,0.000000,1647849595.579822,0.000000
85.000000,-16977.267501,-16800.264037,-491.112529,-8903.191555,-23278.783057,17862.374230,17456.153626,2200.104558,0.082000,0.956000,0.192000,192.000000,0.000000,0.000000,0.000000,0.000000,0.000000,0.000000,0.000000,0.000000,0.000000,1647849595.587059,0.000000
86.000000,-16980.553207,-16804.130888,-498.913288,-8908.533622,-23288.394307,17856.674535,17440.976791,2186.313532,0.082000,0.956000,0.192000,192.000000,0.000000,0.000000,0.000000,0.000000,0.000000,0.000000,0.000000,0.000000,0.000000,1647849595.587093,0.000000
87.000000,-16975.702879,-16798.945284,-501.483739,-8907.192517,-23288.774286,17859.624965,17444.486015,2191.230916,0.082000,0.956000,0.192000,192.000000,0.000000,0.000000,0.000000,0.000000,0.000000,0.000000,0.000000,0.000000,0.000000,1647849595.594348,0.000000
88.000000,-16973.870036,-16801.582790,-498.622715,-8908.712436,-23284.885083,17859.177930,17449.358696,2201.177442,0.086000,0.966000,0.190000,192.000000,2.000000,176.000000,30.000000,48.000000,5.000000,240.000000,0.000000,0.000000,0.000000,1647849595.594364,0.000000
89.000000,-16976.462838,-16810.098804,-496.745169,-8912.445177,-23282.560501,17852.941794,17443.010800,2188.146375,0.086000,0.966000,0.190000,192.000000,0.000000,0.000000,0.000000,0.000000,0.000000,0.000000,0.000000,0.000000,0.000000,1647849595.602545,0.000000
90.000000,-16972.663042,-16803.728557,-494.420587,-8908.600677,-23281.711135,17848.292631,17436.461739,2177.909276,0.086000,0.966000,0.190000,192.000000,0.000000,0.000000,0.000000,0.000000,0.000000,0.000000,0.000000,0.000000,0.000000,1647849595.602560,0.000000
91.000000,-16976.731059,-16806.611932,-494.062959,-8908.220697,-23281.308804,17845.163386,17433.868937,2177.976331,0.086000,0.966000,0.190000,192.000000,0.000000,0.000000,0.000000,0.000000,0.000000,0.000000,0.000000,0.000000,0.000000,1647849595.610538,0.000000
92.000000,-16977.647481,-16811.194040,-495.046436,-8910.858203,-23279.386554,17844.761055,17437.936954,2182.290218,0.086000,0.966000,0.190000,192.000000,0.000000,0.000000,0.000000,0.000000,0.000000,0.000000,0.000000,0.000000,0.000000,1647849595.610555,0.000000
93.000000,-16959.788437,-16801.046348,-491.157233,-8904.577363,-23271.451684,17851.846558,17444.217794,2197.087073,0.086000,0.966000,0.190000,192.000000,0.000000,0.000000,0.000000,0.000000,0.000000,0.000000,0.000000,0.000000,0.000000,1647849595.617152,0.000000
94.000000,-16959.430809,-16798.878229,-486.664532,-8898.430633,-23267.540129,17859.513206,17447.414094,2200.663352,0.086000,0.966000,0.190000,192.000000,0.000000,0.000000,0.000000,0.000000,0.000000,0.000000,0.000000,0.000000,0.000000,1647849595.617169,0.000000
95.000000,-16968.639728,-16799.995816,-484.943448,-8896.418976,-23265.863748,17857.166273,17446.363562,2194.337808,0.086000,0.966000,0.190000,192.000000,0.000000,0.000000,0.000000,0.000000,0.000000,0.000000,0.000000,0.000000,0.000000,1647849595.624044,0.000000
96.000000,-16967.857417,-16800.331092,-486.686884,-8897.268343,-23267.473074,17853.031201,17447.905832,2194.136643,0.086000,0.966000,0.190000,192.000000,0.000000,0.000000,0.000000,0.000000,0.000000,0.000000,0.000000,0.000000,0.000000,1647849595.624060,0.000000
97.000000,-16970.405515,-16803.974426,-492.833613,-8901.403415,-23271.898719,17842.503529,17437.579326,2184.167765,0.086000,0.966000,0.190000,192.000000,0.000000,0.000000,0.000000,0.000000,0.000000,0.000000,0.000000,0.000000,0.000000,1647849595.632279,0.000000
98.000000,-16964.057620,-16797.403013,-490.486680,-8895.144927,-23268.098923,17842.503529,17429.644457,2185.240648,0.080000,0.974000,0.204000,192.000000,2.000000,128.000000,30.000000,112.000000,6.000000,96.000000,0.000000,0.000000,0.000000,1647849595.640170,0.000000
99.000000,-16956.458027,-16790.272807,-484.831689,-8888.752328,-23258.510024,17846.146863,17416.233410,2179.652712,0.080000,0.974000,0.204000,192.000000,0.000000,0.000000,0.000000,0.000000,0.000000,0.000000,0.000000,0.000000,0.000000,1647849595.640186,0.000000
100.000000,-16962.940033,-16796.933627,-488.475023,-8895.077872,-23263.338001,17839.351933,17415.093471,2163.782974,0.080000,0.974000,0.204000,192.000000,0.000000,0.000000,0.000000,0.000000,0.000000,0.000000,0.000000,0.000000,0.000000,1647849595.646755,0.000000
101.000000,-16962.560053,-16796.598351,-487.379788,-8893.915581,-23264.455588,17844.694000,17455.885405,2176.746986,0.080000,0.974000,0.204000,192.000000,0.000000,0.000000,0.000000,0.000000,0.000000,0.000000,0.000000,0.000000,0.000000,1647849595.646771,0.000000
102.000000,-16954.289908,-16788.350557,-484.630523,-8887.590037,-23263.226242,17847.152692,17457.718248,2189.554535,0.080000,0.974000,0.204000,192.000000,0.000000,0.000000,0.000000,0.000000,0.000000,0.000000,0.000000,0.000000,0.000000,1647849595.654805,0.000000
103.000000,-16955.899233,-16791.323339,-486.575125,-8896.240162,-23267.026039,17846.146863,17456.801827,2195.120119,0.080000,0.974000,0.204000,192.000000,0.000000,0.000000,0.000000,0.000000,0.000000,0.000000,0.000000,0.000000,0.000000,1647849595.654821,0.000000
104.000000,-16954.915757,-16789.222275,-481.166003,-8897.693026,-23265.684934,17851.757151,17460.579271,2192.884945,0.080000,0.974000,0.204000,192.000000,0.000000,0.000000,0.000000,0.000000,0.000000,0.000000,0.000000,0.000000,0.000000,1647849595.662800,0.000000
105.000000,-16949.618393,-16782.673214,-472.784099,-8876.972959,-23256.252498,17852.919442,17457.070048,2187.095843,0.080000,0.974000,0.204000,192.000000,0.000000,0.000000,0.000000,0.000000,0.000000,0.000000,0.000000,0.000000,0.000000,1647849595.662816,0.000000
106.000000,-16955.966289,-16789.982234,-475.287494,-8881.286845,-23258.822949,17846.571546,17444.441312,2177.350483,0.080000,0.974000,0.204000,192.000000,0.000000,0.000000,0.000000,0.000000,0.000000,0.000000,0.000000,0.000000,0.000000,1647849595.669799,0.000000
107.000000,-16958.089704,-16795.369005,-479.243753,-8886.874781,-23270.199987,17847.599727,17442.228489,2169.594427,0.080000,0.974000,0.204000,192.000000,0.000000,0.000000,0.000000,0.000000,0.000000,0.000000,0.000000,0.000000,0.000000,1647849595.669834,0.000000
108.000000,-16949.260765,-16790.384566,-475.376901,-8880.929217,-23271.116408,17854.864044,17442.586117,2170.890828,0.080000,0.974000,0.204000,192.000000,0.000000,0.000000,0.000000,0.000000,0.000000,0.000000,0.000000,0.000000,0.000000,1647849595.677370,0.000000
109.000000,-16952.546472,-16788.328205,-471.979436,-8881.644473,-23262.935670,17861.971898,17452.689106,2188.593410,0.076000,0.966000,0.198000,192.000000,2.000000,96.000000,30.000000,48.000000,6.000000,48.000000,0.000000,0.000000,0.000000,1647849595.677388,0.000000
110.000000,-16955.742771,-16791.859781,-475.645122,-8887.098299,-23268.389495,17859.893186,17445.737713,2182.893715,0.076000,0.966000,0.198000,192.000000,0.000000,0.000000,0.000000,0.000000,0.000000,0.000000,0.000000,0.000000,0.000000,1647849595.685465,0.000000
111.000000,-16951.942975,-16792.284464,-478.126166,-8893.289732,-23277.978394,17852.405352,17427.811614,2176.232895,0.076000,0.966000,0.198000,192.000000,0.000000,0.000000,0.000000,0.000000,0.000000,0.000000,0.000000,0.000000,0.000000,1647849595.685481,0.000000
112.000000,-16951.875919,-16792.105650,-477.254448,-8888.931142,-23280.638251,17856.316907,17440.216832,2179.429195,0.076000,0.966000,0.198000,192.000000,0.000000,0.000000,0.000000,0.000000,0.000000,0.000000,0.000000,0.000000,0.000000,1647849595.692472,0.000000
113.000000,-16953.418190,-16790.205752,-476.785061,-8891.009854,-23277.687821,17863.648279,17467.128333,2183.273695,0.076000,0.966000,0.198000,192.000000,0.000000,0.000000,0.000000,0.000000,0.000000,0.000000,0.000000,0.000000,0.000000,1647849595.699024,0.000000
114.000000,-16944.321030,-16782.494400,-476.785061,-8893.781471,-23275.162074,17869.079753,17461.272175,2173.729500,0.076000,0.966000,0.198000,192.000000,0.000000,0.000000,0.000000,0.000000,0.000000,0.000000,0.000000,0.000000,0.000000,1647849595.699041,0.000000
115.000000,-16957.955594,-16790.093993,-481.836555,-8888.372348,-23272.479865,17866.486951,17429.420940,2147.354442,0.076000,0.966000,0.198000,192.000000,0.000000,0.000000,0.000000,0.000000,0.000000,0.000000,0.000000,0.000000,0.000000,1647849595.707037,0.000000
116.000000,-16968.282100,-16800.264037,-492.990076,-8905.896116,-23282.739315,17861.055477,17422.693065,2144.225197,0.076000,0.966000,0.198000,192.000000,0.000000,0.000000,0.000000,0.000000,0.000000,0.000000,0.000000,0.000000,0.000000,1647849595.707053,0.000000
117.000000,-16967.186864,-16799.526429,-502.914250,-8921.810558,-23298.273778,17863.313003,17447.727018,2169.750890,0.076000,0.966000,0.198000,192.000000,0.000000,0.000000,0.000000,0.000000,0.000000,0.000000,0.000000,0.000000,0.000000,1647849595.715135,0.000000
118.000000,-16960.973079,-16795.816040,-501.304925,-8910.277058,-23296.083307,17866.621061,17453.940803,2179.160974,0.076000,0.966000,0.198000,192.000000,0.000000,0.000000,0.000000,0.000000,0.000000,0.000000,0.000000,0.000000,0.000000,1647849595.715153,0.000000
119.000000,-16952.077085,-16791.323339,-480.696616,-8882.091508,-23272.993955,17890.760945,17470.346984,2195.813024,0.074000,0.970000,0.198000,192.000000,2.000000,80.000000,30.000000,80.000000,6.000000,48.000000,0.000000,0.000000,0.000000,1647849595.722175,0.000000
120.000000,-16946.578556,-16786.584769,-478.617904,-8883.387909,-23270.982298,17891.230332,17471.643385,2190.381550,0.074000,0.970000,0.198000,192.000000,0.000000,0.000000,0.000000,0.000000,0.000000,0.000000,0.000000,0.000000,0.000000,1647849595.722192,0.000000
121.000000,-16936.967306,-16780.885074,-472.627637,-8876.011834,-23261.751027,17891.945588,17460.691030,2182.312570,0.074000,0.970000,0.198000,192.000000,0.000000,0.000000,0.000000,0.000000,0.000000,0.000000,0.000000,0.000000,0.000000,1647849595.729627,0.000000
122.000000,-16945.885652,-16788.194095,-474.952218,-8882.806764,-23265.148492,17889.039861,17464.334364,2181.306741,0.074000,0.970000,0.198000,192.000000,0.000000,0.000000,0.000000,0.000000,0.000000,0.000000,0.000000,0.000000,0.000000,1647849595.729644,0.000000
123.000000,-16947.204405,-16787.367080,-476.516840,-8883.678482,-23272.278699,17891.811477,17477.700708,2199.545765,0.074000,0.970000,0.198000,192.000000,0.000000,0.000000,0.000000,0.000000,0.000000,0.000000,0.000000,0.000000,0.000000,1647849595.737770,0.000000
124.000000,-16957.173283,-16795.145487,-482.998846,-8893.110918,-23275.854978,17879.719183,17469.922301,2187.431119,0.074000,0.970000,0.198000,192.000000,0.000000,0.000000,0.000000,0.000000,0.000000,0.000000,0.000000,0.000000,0.000000,1647849595.737787,0.000000
125.000000,-16961.934204,-16795.860743,-484.004674,-8897.849488,-23279.475961,17875.092372,17457.271213,2175.741157,0.074000,0.970000,0.198000,192.000000,0.000000,0.000000,0.000000,0.000000,0.000000,0.000000,0.000000,0.000000,0.000000,1647849595.745709,0.000000
126.000000,-16960.749562,-16793.960845,-489.123224,-8901.559878,-23286.583815,17875.606462,17456.533606,2181.910238,0.074000,0.970000,0.198000,192.000000,0.000000,0.000000,0.000000,0.000000,0.000000,0.000000,0.000000,0.000000,0.000000,1647849595.745725,0.000000
127.000000,-16965.063449,-16792.955016,-498.913288,-8892.350959,-23289.601301,17871.806666,17447.615260,2174.109480,0.074000,0.970000,0.198000,192.000000,0.000000,0.000000,0.000000,0.000000,0.000000,0.000000,0.000000,0.000000,0.000000,1647849595.751743,0.000000
128.000000,-16960.101361,-16792.396223,-486.843346,-8893.513250,-23279.945347,17877.439305,17453.404361,2173.014244,0.074000,0.970000,0.198000,192.000000,0.000000,0.000000,0.000000,0.000000,0.000000,0.000000,0.000000,0.000000,0.000000,1647849595.759307,0.000000
129.000000,-16953.306431,-16789.669310,-480.093119,-8892.328607,-23272.748086,17882.110820,17466.971870,2184.480689,0.074000,0.960000,0.202000,192.000000,2.000000,80.000000,30.000000,0.000000,6.000000,80.000000,0.000000,0.000000,0.000000,1647849595.759342,0.000000
130.000000,-16949.908966,-16787.635301,-478.282628,-8889.087604,-23271.786961,17884.502457,17466.055449,2188.347541,0.074000,0.960000,0.202000,192.000000,0.000000,0.000000,0.000000,0.000000,0.000000,0.000000,0.000000,0.000000,0.000000,1647849595.767472,0.000000
131.000000,-16946.131521,-16785.400127,-478.439090,-8887.098299,-23274.804446,17884.144829,17459.729905,2184.078358,0.074000,0.960000,0.202000,192.000000,0.000000,0.000000,0.000000,0.000000,0.000000,0.000000,0.000000,0.000000,0.000000,1647849595.767489,0.000000
132.000000,-16944.522195,-16780.818019,-472.337064,-8883.969055,-23272.122237,17883.697794,17450.476283,2184.391282,0.074000,0.960000,0.202000,192.000000,0.000000,0.000000,0.000000,0.000000,0.000000,0.000000,0.000000,0.000000,0.000000,1647849595.775347,0.000000
133.000000,-16947.450274,-16781.801496,-470.079538,-8882.605598,-23263.896795,17883.742497,17449.269289,2183.854840,0.074000,0.960000,0.202000,192.000000,0.000000,0.000000,0.000000,0.000000,0.000000,0.000000,0.000000,0.000000,0.000000,1647849595.775364,0.000000
134.000000,-16946.489149,-16777.912292,-464.782174,-8877.598808,-23255.090207,17886.558817,17447.727018,2185.240648,0.074000,0.960000,0.202000,192.000000,0.000000,0.000000,0.000000,0.000000,0.000000,0.000000,0.000000,0.000000,0.000000,1647849595.781930,0.000000
135.000000,-16943.091684,-16773.531350,-462.859924,-8874.961302,-23256.677181,17888.056384,17444.195443,2184.927724,0.074000,0.960000,0.202000,192.000000,0.000000,0.000000,0.000000,0.000000,0.000000,0.000000,0.000000,0.000000,0.000000,1647849595.781947,0.000000
136.000000,-16950.423056,-16781.063888,-473.387596,-8892.015683,-23268.858882,17878.132210,17446.117693,2177.708111,0.074000,0.960000,0.202000,192.000000,0.000000,0.000000,0.000000,0.000000,0.000000,0.000000,0.000000,0.000000,0.000000,1647849595.790026,0.000000
137.000000,-16941.325896,-16769.485685,-473.164078,-8880.593941,-23270.535263,17883.608387,17452.465588,2180.770300,0.074000,0.960000,0.202000,192.000000,0.000000,0.000000,0.000000,0.000000,0.000000,0.000000,0.000000,0.000000,0.000000,1647849595.790042,0.000000
138.000000,-16930.597059,-16757.169873,-462.703462,-8862.153752,-23255.649001,17895.052480,17454.611356,2180.077395,0.074000,0.960000,0.202000,192.000000,0.000000,0.000000,0.000000,0.000000,0.000000,0.000000,0.000000,0.000000,0.000000,1647849595.798051,0.000000
139.000000,-16936.520271,-16764.814170,-468.581971,-8881.264494,-23263.002725,17887.743460,17451.549167,2176.411709,0.078000,0.960000,0.200000,192.000000,2.000000,112.000000,30.000000,0.000000,6.000000,64.000000,0.000000,0.000000,0.000000,1647849595.798069,0.000000
140.000000,-16951.183015,-16772.190246,-475.779232,-8890.339302,-23269.551786,17877.707526,17432.393722,2168.856820,0.078000,0.960000,0.200000,192.000000,0.000000,0.000000,0.000000,0.000000,0.000000,0.000000,0.000000,0.000000,0.000000,1647849595.805056,0.000000
141.000000,-16946.623259,-16768.144580,-478.573201,-8881.823287,-23276.234958,17877.104029,17408.924390,2158.284445,0.078000,0.960000,0.200000,192.000000,0.000000,0.000000,0.000000,0.000000,0.000000,0.000000,0.000000,0.000000,0.000000,1647849595.805073,0.000000
142.000000,-16944.276326,-16767.854007,-479.221401,-8874.626026,-23266.131969,17886.201189,17438.965134,2169.303855,0.078000,0.960000,0.200000,192.000000,0.000000,0.000000,0.000000,0.000000,0.000000,0.000000,0.000000,0.000000,0.000000,1647849595.811524,0.000000
143.000000,-16945.997411,-16768.368097,-476.472137,-8880.348072,-23263.874443,17886.402355,17456.354792,2176.367006,0.078000,0.960000,0.200000,192.000000,0.000000,0.000000,0.000000,0.000000,0.000000,0.000000,0.000000,0.000000,0.000000,1647849595.819730,0.000000
144.000000,-16949.730152,-16771.877321,-476.516840,-8885.399566,-23264.857920,17883.139000,17445.022457,2168.298026,0.078000,0.960000,0.200000,192.000000,0.000000,0.000000,0.000000,0.000000,0.000000,0.000000,0.000000,0.000000,0.000000,1647849595.819747,0.000000
145.000000,-16947.584384,-16768.546911,-469.051357,-8879.319892,-23259.717019,17892.973768,17466.971870,2190.448605,0.078000,0.960000,0.200000,192.000000,0.000000,0.000000,0.000000,0.000000,0.000000,0.000000,0.000000,0.000000,0.000000,1647849595.827560,0.000000
146.000000,-16943.695181,-16760.701449,-460.982378,-8872.480258,-23253.816158,17901.869762,17484.719155,2202.160919,0.078000,0.960000,0.200000,192.000000,0.000000,0.000000,0.000000,0.000000,0.000000,0.000000,0.000000,0.000000,0.000000,1647849595.827578,0.000000
147.000000,-16939.694219,-16758.958013,-461.876447,-8872.212037,-23256.654830,17899.746346,17473.386821,2198.383474,0.078000,0.960000,0.200000,192.000000,0.000000,0.000000,0.000000,0.000000,0.000000,0.000000,0.000000,0.000000,0.000000,1647849595.834261,0.000000
148.000000,-16946.042114,-16769.172760,-466.793831,-8881.532715,-23257.593603,17894.381928,17469.967004,2192.504965,0.078000,0.960000,0.200000,192.000000,0.000000,0.000000,0.000000,0.000000,0.000000,0.000000,0.000000,0.000000,0.000000,1647849595.834278,0.000000
149.000000,-16941.884690,-16768.725725,-465.162154,-8879.923389,-23254.285545,17895.655977,17479.578254,2196.997666,0.086000,0.956000,0.204000,192.000000,2.000000,176.000000,29.000000,224.000000,6.000000,96.000000,0.000000,0.000000,0.000000,1647849595.842229,0.000000
150.000000,-16937.302582,-16767.362269,-463.731642,-8879.655168,-23256.587774,17892.079698,17472.537455,2190.716826,0.086000,0.956000,0.204000,192.000000,0.000000,0.000000,0.000000,0.000000,0.000000,0.000000,0.000000,0.000000,0.000000,1647849595.842264,0.000000
151.000000,-16937.079064,-16769.932719,-466.033872,-8885.086642,-23259.426446,17883.764849,17457.673545,2174.467108,0.086000,0.956000,0.204000,192.000000,0.000000,0.000000,0.000000,0.000000,0.000000,0.000000,0.000000,0.000000,0.000000,1647849595.850282,0.000000
152.000000,-16935.067407,-16765.350612,-463.441070,-8878.872857,-23263.270946,17886.469410,17457.226510,2177.864573,0.086000,0.956000,0.204000,192.000000,0.000000,0.000000,0.000000,0.000000,0.000000,0.000000,0.000000,0.000000,0.000000,1647849595.850299,0.000000
153.000000,-16934.888594,-16764.188321,-460.602398,-8876.414165,-23263.092132,17886.894093,17461.808617,2184.860669,0.086000,0.956000,0.204000,192.000000,0.000000,0.000000,0.000000,0.000000,0.000000,0.000000,0.000000,0.000000,0.000000,1647849595.857098,0.000000
154.000000,-16934.732131,-16764.143618,-458.680148,-8876.369462,-23258.957059,17886.111782,17459.640498,2182.491384,0.086000,0.956000,0.204000,192.000000,0.000000,0.000000,0.000000,0.000000,0.000000,0.000000,0.000000,0.000000,0.000000,1647849595.857114,0.000000
155.000000,-16937.168471,-16766.199978,-462.099965,-8879.208133,-23264.366181,17883.496628,17451.482111,2176.657579,0.086000,0.956000,0.204000,192.000000,0.000000,0.000000,0.000000,0.000000,0.000000,0.000000,0.000000,0.000000,0.000000,1647849595.864958,0.000000
156.000000,-16932.094625,-16767.071696,-463.821049,-8877.442345,-23265.170844,17883.764849,17450.610393,2177.328131,0.086000,0.956000,0.204000,192.000000,0.000000,0.000000,0.000000,0.000000,0.000000,0.000000,0.000000,0.000000,0.000000,1647849595.864975,0.000000
157.000000,-16936.184995,-16773.039612,-465.162154,-8879.610465,-23262.756856,17882.759021,17459.864016,2180.725596,0.086000,0.956000,0.204000,192.000000,0.000000,0.000000,0.000000,0.000000,0.000000,0.000000,0.000000,0.000000,0.000000,1647849595.871969,0.000000
158.000000,-16942.644649,-16774.403068,-465.832706,-8881.063328,-23264.857920,17879.205093,17452.376181,2170.779070,0.086000,0.956000,0.204000,192.000000,0.000000,0.000000,0.000000,0.000000,0.000000,0.000000,0.000000,0.000000,0.000000,1647849595.871985,0.000000
159.000000,-16940.632992,-16770.893844,-459.730680,-8880.437479,-23258.666487,17879.227445,17440.932088,2166.442831,0.082000,0.956000,0.208000,192.000000,2.000000,144.000000,29.000000,224.000000,6.000000,128.000000,0.000000,0.000000,0.000000,1647849595.879956,0.000000
160.000000,-16936.855547,-16771.586749,-456.042642,-8880.839810,-23260.208757,17880.188570,17452.711457,2172.164878,0.082000,0.956000,0.208000,192.000000,0.000000,0.000000,0.000000,0.000000,0.000000,0.000000,0.000000,0.000000,0.000000,1647849595.886911,0.000000
161.000000,-16940.141253,-16773.508999,-457.160229,-8880.124555,-23264.120312,17876.724050,17449.895138,2166.576942,0.082000,0.956000,0.208000,192.000000,0.000000,0.000000,0.000000,0.000000,0.000000,0.000000,0.000000,0.000000,0.000000,1647849595.886929,0.000000
162.000000,-16947.249108,-16778.225217,-461.943503,-8882.225619,-23267.294260,17870.711430,17444.843643,2169.817945,0.082000,0.956000,0.208000,192.000000,0.000000,0.000000,0.000000,0.000000,0.000000,0.000000,0.000000,0.000000,0.000000,1647849595.894632,0.000000
163.000000,-16942.823463,-16770.849141,-458.903665,-8878.694043,-23269.060048,17869.727954,17442.116730,2168.521544,0.082000,0.956000,0.208000,192.000000,0.000000,0.000000,0.000000,0.000000,0.000000,0.000000,0.000000,0.000000,0.000000,1647849595.894650,0.000000
164.000000,-16939.358942,-16766.669365,-455.685014,-8877.084717,-23264.120312,17870.756134,17447.011763,2168.588599,0.082000,0.956000,0.208000,192.000000,0.000000,0.000000,0.000000,0.000000,0.000000,0.000000,0.000000,0.000000,0.000000,1647849595.902539,0.000000
165.000000,-16936.184995,-16762.243719,-452.823991,-8873.687252,-23260.164053,17878.333375,17458.835835,2176.411709,0.082000,0.956000,0.208000,192.000000,0.000000,0.000000,0.000000,0.000000,0.000000,0.000000,0.000000,0.000000,0.000000,1647849595.902555,0.000000
166.000000,-16933.592192,-16761.036725,-449.337119,-8872.100278,-23254.956097,17882.803724,17460.243995,2177.261076,0.082000,0.956000,0.208000,192.000000,0.000000,0.000000,0.000000,0.000000,0.000000,0.000000,0.000000,0.000000,0.000000,1647849595.910525,0.000000
167.000000,-16931.938163,-16759.248586,-448.621863,-8871.608540,-23252.877385,17884.949492,17458.902891,2175.361177,0.082000,0.956000,0.208000,192.000000,0.000000,0.000000,0.000000,0.000000,0.000000,0.000000,0.000000,0.000000,0.000000,1647849595.910542,0.000000
168.000000,-16932.698123,-16763.294251,-446.945482,-8872.502610,-23251.044542,17888.190495,17453.337306,2181.217334,0.082000,0.956000,0.208000,192.000000,0.000000,0.000000,0.000000,0.000000,0.000000,0.000000,0.000000,0.000000,0.000000,1647849595.917285,0.000000
169.000000,-16925.187936,-16757.572205,-438.697688,-8871.161505,-23243.109672,17895.991253,17457.293565,2188.526355,0.080000,0.960000,0.198000,192.000000,2.000000,128.000000,30.000000,0.000000,6.000000,48.000000,0.000000,0.000000,0.000000,1647849595.917302,0.000000
170.000000,-16920.628181,-16750.263184,-434.450857,-8867.026432,-23236.784129,17903.523791,17461.473341,2191.096805,0.080000,0.960000,0.198000,192.000000,0.000000,0.000000,0.000000,0.000000,0.000000,0.000000,0.000000,0.000000,0.000000,1647849595.925266,0.000000
171.000000,-16925.880841,-16749.369115,-436.574273,-8855.694098,-23234.884230,17903.724957,17461.585100,2186.469994,0.080000,0.960000,0.198000,192.000000,0.000000,0.000000,0.000000,0.000000,0.000000,0.000000,0.000000,0.000000,0.000000,1647849595.925301,0.000000
172.000000,-16926.774910,-16751.246661,-440.686994,-8860.969110,-23243.891983,17896.661806,17444.329553,2176.009378,0.080000,0.960000,0.198000,192.000000,0.000000,0.000000,0.000000,0.000000,0.000000,0.000000,0.000000,0.000000,0.000000,1647849595.933208,0.000000
173.000000,-16926.976076,-16753.705353,-439.077668,-8861.594958,-23245.389550,17893.689024,17436.595850,2171.606084,0.080000,0.960000,0.198000,192.000000,0.000000,0.000000,0.000000,0.000000,0.000000,0.000000,0.000000,0.000000,0.000000,1647849595.933224,0.000000
174.000000,-16933.838062,-16759.382696,-438.742392,-8864.433630,-23242.349713,17891.431498,17450.073951,2175.539991,0.080000,0.960000,0.198000,192.000000,0.000000,0.000000,0.000000,0.000000,0.000000,0.000000,0.000000,0.000000,0.000000,1647849595.939245,0.000000
175.000000,-16935.894422,-16761.394353,-441.603415,-8865.461810,-23243.176728,17890.246855,17454.834873,2179.138622,0.080000,0.960000,0.198000,192.000000,0.000000,0.000000,0.000000,0.000000,0.000000,0.000000,0.000000,0.000000,0.000000,1647849595.946770,0.000000
176.000000,-16931.535832,-16758.958013,-444.084459,-8865.350052,-23245.054274,17887.430535,17452.599699,2184.190116,0.080000,0.960000,0.198000,192.000000,0.000000,0.000000,0.000000,0.000000,0.000000,0.000000,0.000000,0.000000,0.000000,1647849595.946787,0.000000
177.000000,-16932.161681,-16764.076562,-450.767630,-8870.982691,-23249.591678,17879.853294,17450.610393,2182.334922,0.080000,0.960000,0.198000,192.000000,0.000000,0.000000,0.000000,0.000000,0.000000,0.000000,0.000000,0.000000,0.000000,1647849595.954892,0.000000
178.000000,-16935.827367,-16764.434190,-457.808430,-8873.173162,-23257.034809,17872.879550,17430.024437,2172.500154,0.080000,0.960000,0.198000,192.000000,0.000000,0.000000,0.000000,0.000000,0.000000,0.000000,0.000000,0.000000,0.000000,1647849595.954908,0.000000
179.000000,-16943.784588,-16770.446810,-466.346796,-8879.498706,-23259.091170,17871.180817,17437.914603,2176.277599,0.078000,0.952000,0.202000,192.000000,2.000000,112.000000,29.000000,192.000000,6.000000,80.000000,0.000000,0.000000,0.000000,1647849595.962855,0.000000
180.000000,-16948.076123,-16774.268958,-471.532401,-8882.337377,-23261.706324,17875.450000,17470.078763,2189.554535,0.078000,0.952000,0.202000,192.000000,0.000000,0.000000,0.000000,0.000000,0.000000,0.000000,0.000000,0.000000,0.000000,1647849595.962871,0.000000
181.000000,-16956.167454,-16781.265054,-480.182526,-8891.166316,-23273.396286,17870.778486,17456.444199,2178.736291,0.078000,0.952000,0.202000,192.000000,0.000000,0.000000,0.000000,0.000000,0.000000,0.000000,0.000000,0.000000,0.000000,1647849595.969432,0.000000
182.000000,-16957.240338,-16789.401089,-489.033817,-8903.012741,-23284.460400,17861.904843,17444.486015,2165.839334,0.078000,0.952000,0.202000,192.000000,0.000000,0.000000,0.000000,0.000000,0.000000,0.000000,0.000000,0.000000,0.000000,1647849595.969449,0.000000
183.000000,-16958.872015,-16791.055118,-489.525555,-8902.610410,-23286.293243,17861.681326,17445.894175,2175.875267,0.078000,0.952000,0.202000,192.000000,0.000000,0.000000,0.000000,0.000000,0.000000,0.000000,0.000000,0.000000,0.000000,1647849595.977538,0.000000
184.000000,-16959.743733,-16787.970577,-486.418663,-8899.794090,-23287.299071,17862.374230,17443.010800,2184.279523,0.078000,0.952000,0.202000,192.000000,0.000000,0.000000,0.000000,0.000000,0.000000,0.000000,0.000000,0.000000,0.000000,1647849595.977555,0.000000
185.000000,-16963.878806,-16788.998757,-488.407968,-8905.806709,-23288.327251,17856.674535,17434.807710,2179.920933,0.078000,0.952000,0.202000,192.000000,0.000000,0.000000,0.000000,0.000000,0.000000,0.000000,0.000000,0.000000,0.000000,1647849595.985464,0.000000
186.000000,-16966.538664,-16789.043461,-490.665494,-8906.656075,-23292.663490,17856.272203,17444.664829,2176.679930,0.078000,0.952000,0.202000,192.000000,0.000000,0.000000,0.000000,0.000000,0.000000,0.000000,0.000000,0.000000,0.000000,1647849595.985481,0.000000
187.000000,-16967.455085,-16789.199923,-489.480852,-8907.214869,-23293.311690,17861.569567,17473.878559,2182.692550,0.078000,0.952000,0.202000,192.000000,0.000000,0.000000,0.000000,0.000000,0.000000,0.000000,0.000000,0.000000,0.000000,1647849595.992561,0.000000
188.000000,-16966.181036,-16787.523542,-491.783082,-8907.751311,-23296.306824,17862.530692,17468.357678,2185.888849,0.078000,0.952000,0.202000,192.000000,0.000000,0.000000,0.000000,0.000000,0.000000,0.000000,0.000000,0.000000,0.000000,1647849595.992577,0.000000
189.000000,-16973.020670,-16792.485630,-497.169852,-8912.959267,-23297.871446,17849.164349,17444.262498,2166.912218,0.076000,0.958000,0.190000,192.000000,2.000000,96.000000,29.000000,240.000000,5.000000,240.000000,0.000000,0.000000,0.000000,1647849595.999019,0.000000
190.000000,-16978.698013,-16796.084260,-499.159157,-8913.518061,-23297.625577,17846.370381,17437.847547,2163.425346,0.076000,0.958000,0.190000,192.000000,0.000000,0.000000,0.000000,0.000000,0.000000,0.000000,0.000000,0.000000,0.000000,1647849596.006793,0.000000
191.000000,-16980.709670,-16799.772298,-500.433207,-8916.893174,-23298.944330,17849.074942,17455.281908,2169.460317,0.076000,0.958000,0.190000,192.000000,0.000000,0.000000,0.000000,0.000000,0.000000,0.000000,0.000000,0.000000,0.000000,1647849596.006803,0.000000
192.000000,-16980.441449,-16801.336920,-503.741265,-8925.900927,-23308.533228,17843.710523,17445.290678,2158.642073,0.076000,0.958000,0.190000,192.000000,0.000000,0.000000,0.000000,0.000000,0.000000,0.000000,0.000000,0.000000,0.000000,1647849596.015162,0.000000
193.000000,-16975.613472,-16797.492420,-500.880241,-8920.223584,-23306.141592,17848.382038,17456.064219,2173.975369,0.076000,0.958000,0.190000,192.000000,0.000000,0.000000,0.000000,0.000000,0.000000,0.000000,0.000000,0.000000,0.000000,1647849596.015197,0.000000
194.000000,-16969.042059,-16793.290292,-498.645067,-8904.510308,-23295.591568,17851.131302,17463.060315,2183.228991,0.076000,0.958000,0.190000,192.000000,0.000000,0.000000,0.000000,0.000000,0.000000,0.000000,0.000000,0.000000,0.000000,1647849596.022149,0.000000
195.000000,-16967.589196,-16793.379699,-495.269954,-8905.180860,-23293.736374,17852.807683,17447.525853,2181.351445,0.076000,0.958000,0.190000,192.000000,0.000000,0.000000,0.000000,0.000000,0.000000,0.000000,0.000000,0.000000,0.000000,1647849596.022165,0.000000
196.000000,-16968.393858,-16792.776202,-488.363265,-8902.364540,-23288.528417,17858.328564,17442.429655,2182.200811,0.076000,0.958000,0.190000,192.000000,0.000000,0.000000,0.000000,0.000000,0.000000,0.000000,0.000000,0.000000,0.000000,1647849596.029629,0.000000
197.000000,-16965.242263,-16792.306816,-484.049378,-8899.168241,-23284.169827,17864.542349,17454.968984,2181.507907,0.076000,0.958000,0.190000,192.000000,0.000000,0.000000,0.000000,0.000000,0.000000,0.000000,0.000000,0.000000,0.000000,1647849596.029645,0.000000
198.000000,-16960.794265,-16791.010414,-483.401177,-8895.413148,-23281.264100,17864.967032,17450.990373,2176.478765,0.076000,0.958000,0.190000,192.000000,0.000000,0.000000,0.000000,0.000000,0.000000,0.000000,0.000000,0.000000,0.000000,1647849596.037597,0.000000
199.000000,-16961.755390,-16795.458412,-483.132956,-8899.190593,-23272.636327,17857.792122,17441.580289,2163.984139,0.082000,0.960000,0.194000,192.000000,2.000000,144.000000,30.000000,0.000000,6.000000,16.000000,0.000000,0.000000,0.000000,1647849596.037613,0.000000
200.000000,-16961.487169,-16791.390394,-481.166003,-8897.916543,-23271.429333,17859.803779,17442.273193,2166.800459,0.082000,0.960000,0.194000,192.000000,0.000000,0.000000,0.000000,0.000000,0.000000,0.000000,0.000000,0.000000,0.000000,1647849596.045672,0.000000
201.000000,-16954.625184,-16781.533275,-470.057186,-8886.204229,-23268.881234,17872.857198,17448.576385,2178.669236,0.082000,0.960000,0.194000,192.000000,0.000000,0.000000,0.000000,0.000000,0.000000,0.000000,0.000000,0.000000,0.000000,1647849596.045688,0.000000
202.000000,-16953.149969,-16782.807324,-466.838535,-8885.846601,-23269.663545,17873.974785,17448.017591,2180.792651,0.082000,0.960000,0.194000,192.000000,0.000000,0.000000,0.000000,0.000000,0.000000,0.000000,0.000000,0.000000,0.000000,1647849596.052394,0.000000
203.000000,-16947.114998,-16776.772353,-466.235038,-8879.565761,-23266.310783,17876.120553,17441.133254,2174.958846,0.082000,0.960000,0.194000,192.000000,0.000000,0.000000,0.000000,0.000000,0.000000,0.000000,0.000000,0.000000,0.000000,1647849596.052411,0.000000
204.000000,-16951.026553,-16780.348632,-465.743299,-8881.152735,-23260.745199,17872.544273,17435.880594,2167.694529,0.082000,0.960000,0.194000,192.000000,0.000000,0.000000,0.000000,0.000000,0.000000,0.000000,0.000000,0.000000,0.000000,1647849596.059315,0.000000
205.000000,-16948.232585,-16777.085278,-462.502296,-8876.637683,-23257.928879,17880.233274,17445.000106,2174.668273,0.082000,0.960000,0.194000,192.000000,0.000000,0.000000,0.000000,0.000000,0.000000,0.000000,0.000000,0.000000,0.000000,1647849596.067304,0.000000
206.000000,-16941.348248,-16770.536217,-457.339043,-8871.094450,-23252.497405,17883.139000,17443.390780,2176.277599,0.082000,0.960000,0.194000,192.000000,0.000000,0.000000,0.000000,0.000000,0.000000,0.000000,0.000000,0.000000,0.000000,1647849596.067319,0.000000
207.000000,-16940.185957,-16771.273824,-461.272950,-8872.681424,-23256.945402,17873.684212,17434.986524,2167.694529,0.082000,0.960000,0.194000,192.000000,0.000000,0.000000,0.000000,0.000000,0.000000,0.000000,0.000000,0.000000,0.000000,1647849596.074459,0.000000
208.000000,-16938.420169,-16770.603272,-459.641273,-8870.334491,-23258.800597,17877.059326,17455.237204,2181.552611,0.082000,0.960000,0.194000,192.000000,0.000000,0.000000,0.000000,0.000000,0.000000,0.000000,0.000000,0.000000,0.000000,1647849596.074475,0.000000
209.000000,-16932.988695,-16769.977423,-457.853133,-8869.663938,-23253.167957,17874.667689,17447.659963,2178.132794,0.082000,0.960000,0.194000,192.000000,0.000000,0.000000,0.000000,0.000000,0.000000,0.000000,0.000000,0.000000,0.000000,1647849596.081980,0.000000
210.000000,-16938.420169,-16784.528409,-467.240866,-8883.969055,-23258.599431,17858.596785,17418.468585,2157.703299,0.082000,0.956000,0.190000,192.000000,2.000000,144.000000,29.000000,224.000000,5.000000,240.000000,0.000000,0.000000,0.000000,1647849596.081997,0.000000
211.000000,-16950.132483,-16787.769412,-471.599456,-8891.211020,-23264.053257,17852.293593,17408.522059,2156.608064,0.082000,0.956000,0.190000,192.000000,0.000000,0.000000,0.000000,0.000000,0.000000,0.000000,0.000000,0.000000,0.000000,1647849596.089956,0.000000
212.000000,-16958.760257,-16788.328205,-476.226267,-8895.726072,-23268.501254,17850.416046,17426.179937,2158.575017,0.082000,0.956000,0.190000,192.000000,0.000000,0.000000,0.000000,0.000000,0.000000,0.000000,0.000000,0.000000,0.000000,1647849596.089974,0.000000
213.000000,-16955.586309,-16788.886999,-477.746186,-8894.452023,-23274.558577,17864.162369,17482.729850,2180.926762,0.082000,0.956000,0.190000,192.000000,0.000000,0.000000,0.000000,0.000000,0.000000,0.000000,0.000000,0.000000,0.000000,1647849596.097882,0.000000
214.000000,-16959.699030,-16794.765508,-475.443956,-8904.018569,-23271.094056,17866.062268,17485.613225,2194.248401,0.082000,0.956000,0.190000,192.000000,0.000000,0.000000,0.000000,0.000000,0.000000,0.000000,0.000000,0.000000,0.000000,1647849596.097916,0.000000
215.000000,-16965.286966,-16797.782993,-481.501279,-8895.971941,-23278.157208,17856.093390,17465.966042,2184.726558,0.082000,0.956000,0.190000,192.000000,0.000000,0.000000,0.000000,0.000000,0.000000,0.000000,0.000000,0.000000,0.000000,1647849596.104515,0.000000
216.000000,-16968.371507,-16802.119231,-494.889974,-8898.654151,-23288.684879,17848.627907,17453.761989,2179.362140,0.082000,0.956000,0.190000,192.000000,0.000000,0.000000,0.000000,0.000000,0.000000,0.000000,0.000000,0.000000,0.000000,1647849596.104531,0.000000
217.000000,-16964.057620,-16797.023034,-495.113491,-8900.285828,-23294.317519,17850.460750,17450.655097,2181.329093,0.082000,0.956000,0.190000,192.000000,0.000000,0.000000,0.000000,0.000000,0.000000,0.000000,0.000000,0.000000,0.000000,1647849596.112382,0.000000
218.000000,-16963.185902,-16796.866572,-492.565393,-8900.688160,-23294.630443,17850.416046,17447.078818,2178.803346,0.082000,0.956000,0.190000,192.000000,0.000000,0.000000,0.000000,0.000000,0.000000,0.000000,0.000000,0.000000,0.000000,1647849596.112398,0.000000
219.000000,-16964.325841,-16799.839354,-493.168890,-8900.531697,-23294.138705,17848.538500,17440.194480,2172.723672,0.082000,0.956000,0.190000,192.000000,0.000000,0.000000,0.000000,0.000000,0.000000,0.000000,0.000000,0.000000,0.000000,1647849596.119497,0.000000
220.000000,-16970.450219,-16802.633322,-497.393369,-8907.930125,-23300.352490,17842.034142,17435.388855,2165.571113,0.080000,0.956000,0.200000,192.000000,2.000000,128.000000,29.000000,224.000000,6.000000,64.000000,0.000000,0.000000,0.000000,1647849596.119513,0.000000
221.000000,-16968.975004,-16799.101746,-499.382675,-8906.611372,-23305.649853,17847.622078,17432.483129,2169.527372,0.080000,0.956000,0.200000,192.000000,0.000000,0.000000,0.000000,0.000000,0.000000,0.000000,0.000000,0.000000,0.000000,1647849596.127710,0.000000
222.000000,-16967.209216,-16799.302912,-504.076541,-8912.311067,-23307.639159,17845.252793,17426.448158,2169.102689,0.080000,0.956000,0.200000,192.000000,0.000000,0.000000,0.000000,0.000000,0.000000,0.000000,0.000000,0.000000,0.000000,1647849596.134307,0.000000
223.000000,-16974.004146,-16805.963732,-505.484701,-8914.926221,-23308.332063,17844.135206,17442.206137,2169.594427,0.080000,0.956000,0.200000,192.000000,0.000000,0.000000,0.000000,0.000000,0.000000,0.000000,0.000000,0.000000,0.000000,1647849596.134324,0.000000
224.000000,-16972.595986,-16800.778127,-502.266050,-8908.064235,-23308.354415,17849.611384,17449.559861,2178.825698,0.080000,0.956000,0.200000,192.000000,0.000000,0.000000,0.000000,0.000000,0.000000,0.000000,0.000000,0.000000,0.000000,1647849596.142265,0.000000
225.000000,-16973.221835,-16802.052176,-498.533308,-8909.830023,-23300.687766,17849.857253,17444.776588,2179.160974,0.080000,0.956000,0.200000,192.000000,0.000000,0.000000,0.000000,0.000000,0.000000,0.000000,0.000000,0.000000,0.000000,1647849596.142282,0.000000
226.000000,-16964.370544,-16796.799516,-494.889974,-8907.974828,-23299.212551,17856.383962,17444.843643,2180.055044,0.080000,0.956000,0.200000,192.000000,0.000000,0.000000,0.000000,0.000000,0.000000,0.000000,0.000000,0.000000,0.000000,1647849596.150300,0.000000
227.000000,-16954.736943,-16782.404993,-484.719930,-8882.158563,-23291.501199,17863.022430,17449.202233,2180.926762,0.080000,0.956000,0.200000,192.000000,0.000000,0.000000,0.000000,0.000000,0.000000,0.000000,0.000000,0.000000,0.000000,1647849596.150317,0.000000
228.000000,-16964.415248,-16790.876304,-485.770462,-8891.121613,-23288.886045,17854.841692,17442.273193,2172.254285,0.080000,0.956000,0.200000,192.000000,0.000000,0.000000,0.000000,0.000000,0.000000,0.000000,0.000000,0.000000,0.000000,1647849596.157420,0.000000
229.000000,-16956.122751,-16787.188266,-478.327331,-8889.132308,-23279.475961,17858.127398,17450.319821,2178.065738,0.080000,0.956000,0.200000,192.000000,0.000000,0.000000,0.000000,0.000000,0.000000,0.000000,0.000000,0.000000,0.000000,1647849596.157436,0.000000
230.000000,-16956.569786,-16787.501191,-475.756881,-8891.211020,-23270.199987,17857.613308,17446.072989,2176.590523,0.080000,0.954000,0.198000,192.000000,2.000000,128.000000,29.000000,208.000000,6.000000,48.000000,0.000000,0.000000,0.000000,1647849596.164869,0.000000
231.000000,-16953.060562,-16784.237836,-476.852116,-8889.132308,-23275.542054,17856.987459,17435.612373,2172.835430,0.080000,0.954000,0.198000,192.000000,0.000000,0.000000,0.000000,0.000000,0.000000,0.000000,0.000000,0.000000,0.000000,1647849596.164886,0.000000
232.000000,-16945.215099,-16775.632414,-471.711215,-8881.935046,-23271.295222,17867.448076,17441.200309,2179.876230,0.080000,0.954000,0.198000,192.000000,0.000000,0.000000,0.000000,0.000000,0.000000,0.000000,0.000000,0.000000,0.000000,1647849596.172978,0.000000
233.000000,-16942.823463,-16769.843312,-465.184506,-8880.057499,-23261.706324,17869.303270,17440.574460,2180.926762,0.080000,0.954000,0.198000,192.000000,0.000000,0.000000,0.000000,0.000000,0.000000,0.000000,0.000000,0.000000,0.000000,1647849596.172994,0.000000
234.000000,-16942.152910,-16770.826789,-463.441070,-8879.543409,-23256.319553,17865.928157,17425.710550,2174.824736,0.080000,0.954000,0.198000,192.000000,0.000000,0.000000,0.000000,0.000000,0.000000,0.000000,0.000000,0.000000,0.000000,1647849596.179974,0.000000
235.000000,-16931.647591,-16763.808341,-453.896875,-8868.233427,-23251.692742,17874.332413,17425.665847,2176.456413,0.080000,0.954000,0.198000,192.000000,0.000000,0.000000,0.000000,0.000000,0.000000,0.000000,0.000000,0.000000,0.000000,1647849596.180008,0.000000
236.000000,-16935.380332,-16762.333126,-449.694747,-8866.601749,-23247.669428,17876.992271,17438.965134,2170.399090,0.080000,0.954000,0.198000,192.000000,0.000000,0.000000,0.000000,0.000000,0.000000,0.000000,0.000000,0.000000,0.000000,1647849596.186609,0.000000
237.000000,-16936.363809,-16758.578033,-446.051412,-8862.332566,-23245.166033,17877.282843,17440.976791,2167.985102,0.080000,0.954000,0.198000,192.000000,0.000000,0.000000,0.000000,0.000000,0.000000,0.000000,0.000000,0.000000,0.000000,1647849596.194537,0.000000
238.000000,-16933.100454,-16761.349650,-442.676299,-8861.483200,-23240.695684,17880.926178,17455.348963,2179.608009,0.080000,0.954000,0.198000,192.000000,0.000000,0.000000,0.000000,0.000000,0.000000,0.000000,0.000000,0.000000,0.000000,1647849596.194553,0.000000
239.000000,-16929.032436,-16757.683963,-442.028098,-8858.309252,-23233.587829,17880.367384,17453.761989,2182.066701,0.080000,0.954000,0.198000,192.000000,0.000000,0.000000,0.000000,0.000000,0.000000,0.000000,0.000000,0.000000,0.000000,1647849596.202604,0.000000
240.000000,-16933.547489,-16760.701449,-449.068898,-8864.076002,-23234.750120,17870.018526,17440.105073,2168.633302,0.080000,0.958000,0.198000,192.000000,2.000000,128.000000,29.000000,240.000000,6.000000,48.000000,0.000000,0.000000,0.000000,1647849596.202620,0.000000
241.000000,-16931.580535,-16761.260243,-453.494543,-8867.115839,-23242.729693,17866.196378,17439.970963,2175.003549,0.080000,0.958000,0.198000,192.000000,0.000000,0.000000,0.000000,0.000000,0.000000,0.000000,0.000000,0.000000,0.000000,1647849596.209541,0.000000
242.000000,-16922.908059,-16756.029934,-454.589779,-8862.936063,-23242.841452,17872.812494,17456.600661,2189.442776,0.080000,0.958000,0.198000,192.000000,0.000000,0.000000,0.000000,0.000000,0.000000,0.000000,0.000000,0.000000,0.000000,1647849596.209552,0.000000
243.000000,-16922.371617,-16756.655783,-454.209799,-8865.148886,-23240.673332,17870.756134,17460.042830,2189.331018,0.080000,0.958000,0.198000,192.000000,0.000000,0.000000,0.000000,0.000000,0.000000,0.000000,0.000000,0.000000,0.000000,1647849596.216957,0.000000
244.000000,-16923.533907,-16760.209711,-455.953235,-8872.770831,-23243.891983,17858.999116,17445.268326,2174.042424,0.080000,0.958000,0.198000,192.000000,0.000000,0.000000,0.000000,0.000000,0.000000,0.000000,0.000000,0.000000,0.000000,1647849596.216968,0.000000
245.000000,-16929.032436,-16764.635356,-460.870619,-8877.151773,-23244.830757,17852.003020,17432.103149,2163.067718,0.080000,0.958000,0.198000,192.000000,0.000000,0.000000,0.000000,0.000000,0.000000,0.000000,0.000000,0.000000,0.000000,1647849596.225042,0.000000
246.000000,-16917.856564,-16753.057152,-457.696671,-8867.540523,-23244.271963,17863.424762,17436.327629,2182.401977,0.080000,0.958000,0.198000,192.000000,0.000000,0.000000,0.000000,0.000000,0.000000,0.000000,0.000000,0.000000,0.000000,1647849596.225053,0.000000
247.000000,-16917.454233,-16757.929833,-457.227285,-8870.178028,-23247.065931,17868.655070,17450.588042,2186.134718,0.080000,0.958000,0.198000,192.000000,0.000000,0.000000,0.000000,0.000000,0.000000,0.000000,0.000000,0.000000,0.000000,1647849596.233325,0.000000
248.000000,-16920.628181,-16765.775295,-460.937674,-8875.453040,-23253.033847,17865.101143,17451.906795,2180.099747,0.080000,0.958000,0.198000,192.000000,0.000000,0.000000,0.000000,0.000000,0.000000,0.000000,0.000000,0.000000,0.000000,1647849596.233341,0.000000
249.000000,-16930.015913,-16770.647975,-457.070822,-8878.045842,-23245.970696,17864.072962,17452.264422,2183.318398,0.080000,0.958000,0.198000,192.000000,0.000000,0.000000,0.000000,0.000000,0.000000,0.000000,0.000000,0.000000,0.000000,1647849596.239890,0.000000
250.000000,-16938.241355,-16775.297138,-463.999863,-8885.734843,-23256.699533,17858.686192,17443.167262,2174.914142,0.086000,0.970000,0.192000,192.000000,2.000000,176.000000,30.000000,80.000000,6.000000,0.000000,0.000000,0.000000,0.000000,1647849596.239907,0.000000
251.000000,-16935.916774,-16770.938548,-467.509087,-8885.466622,-23261.885138,17856.383962,17429.912678,2169.929703,0.086000,0.970000,0.192000,192.000000,0.000000,0.000000,0.000000,0.000000,0.000000,0.000000,0.000000,0.000000,0.000000,1647849596.246849,0.000000
252.000000,-16931.647591,-16768.815132,-469.207820,-8884.460793,-23262.958022,17858.239157,17434.271268,2179.049215,0.086000,0.970000,0.192000,192.000000,0.000000,0.000000,0.000000,0.000000,0.000000,0.000000,0.000000,0.000000,0.000000,1647849596.254756,0.000000
253.000000,-16922.528079,-16761.729629,-469.856020,-8884.505497,-23261.192234,17863.849445,17438.786321,2191.789710,0.086000,0.970000,0.192000,192.000000,0.000000,0.000000,0.000000,0.000000,0.000000,0.000000,0.000000,0.000000,0.000000,1647849596.254772,0.000000
254.000000,-16914.257933,-16751.492530,-463.105793,-8873.217866,-23248.518795,17871.449038,17445.111864,2190.202736,0.086000,0.970000,0.192000,192.000000,0.000000,0.000000,0.000000,0.000000,0.000000,0.000000,0.000000,0.000000,0.000000,1647849596.262835,0.000000
255.000000,-16924.226811,-16759.606214,-474.616942,-8873.441383,-23253.682048,17860.519035,17426.045826,2174.310645,0.086000,0.970000,0.192000,192.000000,0.000000,0.000000,0.000000,0.000000,0.000000,0.000000,0.000000,0.000000,0.000000,1647849596.262851,0.000000
0.000000,-16927.803091,-16764.613004,-483.825860,-8884.147869,-23268.545958,17852.494759,17421.843698,2167.336901,0.086000,0.970000,0.192000,192.000000,0.000000,0.000000,0.000000,0.000000,0.000000,0.000000,0.000000,0.000000,0.000000,1647849596.269411,0.000000
1.000000,-16926.841966,-16762.377830,-480.204878,-8882.940874,-23265.729638,17858.105047,17451.973850,2181.820832,0.086000,0.970000,0.192000,192.000000,0.000000,0.000000,0.000000,0.000000,0.000000,0.000000,0.000000,0.000000,0.000000,1647849596.269454,0.000000
2.000000,-16935.313277,-16772.704336,-485.122262,-8892.596828,-23269.395324,17851.690096,17436.014704,2174.020073,0.086000,0.970000,0.192000,192.000000,0.000000,0.000000,0.000000,0.000000,0.000000,0.000000,0.000000,0.000000,0.000000,1647849596.277403,0.000000
3.000000,-16942.421131,-16779.186342,-490.330218,-8899.637628,-23275.296184,17844.537538,17418.178012,2161.748965,0.086000,0.970000,0.192000,192.000000,0.000000,0.000000,0.000000,0.000000,0.000000,0.000000,0.000000,0.000000,0.000000,1647849596.277420,0.000000
4.000000,-16942.890518,-16782.270882,-492.118358,-8901.224601,-23277.017269,17849.544328,17415.272285,2167.292198,0.082000,0.966000,0.190000,192.000000,2.000000,144.000000,30.000000,48.000000,5.000000,240.000000,0.000000,0.000000,0.000000,1647849596.285558,0.000000
5.000000,-16936.766140,-16783.075545,-489.212631,-8900.330532,-23276.302013,17858.149750,17433.332495,2171.114346,0.082000,0.966000,0.190000,192.000000,0.000000,0.000000,0.000000,0.000000,0.000000,0.000000,0.000000,0.000000,0.000000,1647849596.285573,0.000000
6.000000,-16940.029495,-16784.103725,-486.508070,-8898.542392,-23276.570234,17861.390753,17439.434521,2172.142526,0.082000,0.966000,0.190000,192.000000,0.000000,0.000000,0.000000,0.000000,0.000000,0.000000,0.000000,0.000000,0.000000,1647849596.291872,0.000000
7.000000,-16940.655344,-16785.198961,-485.792814,-8901.537526,-23281.286452,17862.396581,17442.116730,2186.022959,0.082000,0.966000,0.190000,192.000000,0.000000,0.000000,0.000000,0.000000,0.000000,0.000000,0.000000,0.000000,0.000000,1647849596.291890,0.000000
8.000000,-16936.229698,-16780.929778,-479.131994,-8905.270267,-23274.536225,17869.504436,17462.836798,2193.622553,0.082000,0.966000,0.190000,192.000000,0.000000,0.000000,0.000000,0.000000,0.000000,0.000000,0.000000,0.000000,0.000000,1647849596.300046,0.000000
9.000000,-16938.531928,-16779.141638,-476.315674,-8887.254761,-23268.031868,17866.598709,17452.175015,2186.514698,0.082000,0.966000,0.190000,192.000000,0.000000,0.000000,0.000000,0.000000,0.000000,0.000000,0.000000,0.000000,0.000000,1647849596.300063,0.000000
10.000000,-16929.121843,-16770.446810,-473.611113,-8876.749441,-23264.165016,17872.544273,17452.800864,2194.002532,0.082000,0.966000,0.190000,192.000000,0.000000,0.000000,0.000000,0.000000,0.000000,0.000000,0.000000,0.000000,0.000000,1647849596.307129,0.000000
11.000000,-16930.395893,-16774.470124,-475.890991,-8879.655168,-23266.154321,17872.924253,17453.627879,2190.135680,0.082000,0.966000,0.190000,192.000000,0.000000,0.000000,0.000000,0.000000,0.000000,0.000000,0.000000,0.000000,0.000000,1647849596.315177,0.000000
12.000000,-16936.564974,-16779.275749,-479.713139,-8883.901999,-23266.377838,17862.642451,17436.484091,2177.998683,0.082000,0.966000,0.190000,192.000000,0.000000,0.000000,0.000000,0.000000,0.000000,0.000000,0.000000,0.000000,0.000000,1647849596.315193,0.000000
13.000000,-16931.535832,-16774.067792,-472.314712,-8878.358767,-23256.677181,17862.016602,17436.037056,2172.477802,0.082000,0.966000,0.190000,192.000000,0.000000,0.000000,0.000000,0.000000,0.000000,0.000000,0.000000,0.000000,0.000000,1647849596.322293,0.000000
14.000000,-16926.998428,-16765.238853,-463.485773,-8870.714470,-23249.569327,17869.727954,17442.474358,2171.494326,0.082000,0.964000,0.198000,192.000000,2.000000,144.000000,30.000000,32.000000,6.000000,48.000000,0.000000,0.000000,0.000000,1647849596.322309,0.000000
15.000000,-16932.854585,-16767.094048,-465.877410,-8875.363633,-23254.039675,17868.386849,17435.925297,2176.635227,0.082000,0.964000,0.198000,192.000000,0.000000,0.000000,0.000000,0.000000,0.000000,0.000000,0.000000,0.000000,0.000000,1647849596.329759,0.000000
16.000000,-16934.754483,-16770.759734,-475.287494,-8885.980712,-23263.159187,17860.921366,17429.309181,2182.133756,0.082000,0.964000,0.198000,192.000000,0.000000,0.000000,0.000000,0.000000,0.000000,0.000000,0.000000,0.000000,0.000000,1647849596.329774,0.000000
17.000000,-16933.592192,-16772.950205,-478.327331,-8881.733880,-23261.102827,17863.134189,17425.487033,2179.965637,0.082000,0.964000,0.198000,192.000000,0.000000,0.000000,0.000000,0.000000,0.000000,0.000000,0.000000,0.000000,0.000000,1647849596.337707,0.000000
18.000000,-16928.026608,-16771.117362,-465.184506,-8877.263531,-23251.312763,17871.761962,17449.291640,2187.855803,0.082000,0.964000,0.198000,192.000000,0.000000,0.000000,0.000000,0.000000,0.000000,0.000000,0.000000,0.000000,0.000000,1647849596.337723,0.000000
19.000000,-16924.785605,-16771.519693,-465.050395,-8878.515229,-23253.324420,17870.487913,17459.796960,2197.489404,0.082000,0.964000,0.198000,192.000000,0.000000,0.000000,0.000000,0.000000,0.000000,0.000000,0.000000,0.000000,0.000000,1647849596.344831,0.000000
20.000000,-16916.046073,-16765.507074,-464.603360,-8876.145944,-23257.079513,17873.214826,17458.455856,2200.082207,0.082000,0.964000,0.198000,192.000000,0.000000,0.000000,0.000000,0.000000,0.000000,0.000000,0.000000,0.000000,0.000000,1647849596.344848,0.000000
21.000000,-16926.372579,-16774.805400,-469.319578,-8888.417052,-23259.046466,17868.230387,17452.510292,2191.856765,0.082000,0.964000,0.198000,192.000000,0.000000,0.000000,0.000000,0.000000,0.000000,0.000000,0.000000,0.000000,0.000000,1647849596.352375,0.000000
22.000000,-16925.813785,-16770.826789,-467.285570,-8874.223694,-23255.067856,17867.381020,17446.721190,2183.676026,0.082000,0.964000,0.198000,192.000000,0.000000,0.000000,0.000000,0.000000,0.000000,0.000000,0.000000,0.000000,0.000000,1647849596.352410,0.000000
23.000000,-16927.065483,-16769.910368,-463.664587,-8875.676558,-23252.095074,17865.123494,17443.547242,2182.156108,0.082000,0.964000,0.198000,192.000000,0.000000,0.000000,0.000000,0.000000,0.000000,0.000000,0.000000,0.000000,0.000000,1647849596.360331,0.000000
24.000000,-16931.088797,-16771.653804,-464.782174,-8874.022528,-23254.062027,17865.145846,17444.620126,2186.514698,0.086000,0.962000,0.194000,192.000000,2.000000,176.000000,30.000000,16.000000,6.000000,16.000000,0.000000,0.000000,0.000000,1647849596.360347,0.000000
25.000000,-16934.821538,-16776.012394,-469.923075,-8879.677520,-23261.035771,17863.558872,17447.615260,2190.448605,0.086000,0.962000,0.194000,192.000000,0.000000,0.000000,0.000000,0.000000,0.000000,0.000000,0.000000,0.000000,0.000000,1647849596.367493,0.000000
26.000000,-16934.150986,-16775.297138,-471.308884,-8880.281017,-23267.920109,17863.313003,17449.179882,2189.710997,0.086000,0.962000,0.194000,192.000000,0.000000,0.000000,0.000000,0.000000,0.000000,0.000000,0.000000,0.000000,0.000000,1647849596.367511,0.000000
27.000000,-16934.709780,-16777.822885,-470.593628,-8883.522020,-23272.144588,17858.105047,17439.479225,2186.179422,0.086000,0.962000,0.194000,192.000000,0.000000,0.000000,0.000000,0.000000,0.000000,0.000000,0.000000,0.000000,0.000000,1647849596.374146,0.000000
28.000000,-16939.314239,-16781.935606,-469.498392,-8890.562819,-23271.429333,17851.511282,17431.589059,2179.563305,0.086000,0.962000,0.194000,192.000000,0.000000,0.000000,0.000000,0.000000,0.000000,0.000000,0.000000,0.000000,0.000000,1647849596.381954,0.000000
29.000000,-16945.483320,-16789.222275,-476.583895,-8901.336360,-23278.514836,17841.922384,17424.883535,2174.802384,0.086000,0.962000,0.194000,192.000000,0.000000,0.000000,0.000000,0.000000,0.000000,0.000000,0.000000,0.000000,0.000000,1647849596.381971,0.000000
30.000000,-16935.737960,-16783.209656,-472.784099,-8899.481165,-23275.117371,17847.152692,17450.923318,2189.353369,0.086000,0.962000,0.194000,192.000000,0.000000,0.000000,0.000000,0.000000,0.000000,0.000000,0.000000,0.000000,0.000000,1647849596.390140,0.000000
31.000000,-16936.274402,-16781.309757,-473.946389,-8896.687197,-23276.011440,17845.364552,17454.991335,2186.246477,0.086000,0.962000,0.194000,192.000000,0.000000,0.000000,0.000000,0.000000,0.000000,0.000000,0.000000,0.000000,0.000000,1647849596.390156,0.000000
32.000000,-16936.028533,-16779.163990,-477.321503,-8893.066215,-23275.877330,17843.509357,17434.003047,2186.604105,0.086000,0.962000,0.194000,192.000000,0.000000,0.000000,0.000000,0.000000,0.000000,0.000000,0.000000,0.000000,0.000000,1647849596.397742,0.000000
33.000000,-16933.703951,-16775.453600,-475.779232,-8890.518116,-23267.830702,17846.258622,17430.762044,2186.894678,0.086000,0.962000,0.194000,192.000000,0.000000,0.000000,0.000000,0.000000,0.000000,0.000000,0.000000,0.000000,0.000000,1647849596.397758,0.000000
34.000000,-16935.916774,-16774.380717,-473.566410,-8886.740671,-23260.767551,17853.500587,17442.362600,2192.080282,0.088000,0.968000,0.192000,192.000000,2.000000,192.000000,30.000000,64.000000,6.000000,0.000000,0.000000,0.000000,0.000000,1647849596.404512,0.000000
35.000000,-16931.669942,-16770.759734,-472.493526,-8880.459831,-23259.404094,17860.697849,17443.904870,2194.047236,0.088000,0.968000,0.192000,192.000000,0.000000,0.000000,0.000000,0.000000,0.000000,0.000000,0.000000,0.000000,0.000000,1647849596.404529,0.000000
36.000000,-16925.098529,-16764.925929,-467.844363,-8872.323796,-23258.912356,17868.811532,17478.237150,2199.165785,0.088000,0.968000,0.192000,192.000000,0.000000,0.000000,0.000000,0.000000,0.000000,0.000000,0.000000,0.000000,0.000000,1647849596.412520,0.000000
37.000000,-16923.086872,-16758.935661,-462.926979,-8866.937025,-23255.447835,17871.225521,17492.475211,2202.250326,0.088000,0.968000,0.192000,192.000000,0.000000,0.000000,0.000000,0.000000,0.000000,0.000000,0.000000,0.000000,0.000000,1647849596.412537,0.000000
38.000000,-16923.980942,-16757.415743,-456.512029,-8866.020604,-23248.116463,17866.308137,17480.181751,2196.193003,0.088000,0.968000,0.192000,192.000000,0.000000,0.000000,0.000000,0.000000,0.000000,0.000000,0.000000,0.000000,0.000000,1647849596.420626,0.000000
39.000000,-16922.975114,-16755.851120,-453.472192,-8867.071136,-23248.295277,17865.838750,17467.843588,2187.364064,0.088000,0.968000,0.192000,192.000000,0.000000,0.000000,0.000000,0.000000,0.000000,0.000000,0.000000,0.000000,0.000000,1647849596.420641,0.000000
40.000000,-16918.415358,-16750.754923,-444.933825,-8860.991461,-23240.382760,17868.051573,17458.478207,2181.709073,0.088000,0.968000,0.192000,192.000000,0.000000,0.000000,0.000000,0.000000,0.000000,0.000000,0.000000,0.000000,0.000000,1647849596.427292,0.000000
41.000000,-16915.554335,-16749.480873,-444.106811,-8858.778639,-23240.136890,17864.117666,17446.162396,2172.589561,0.088000,0.968000,0.192000,192.000000,0.000000,0.000000,0.000000,0.000000,0.000000,0.000000,0.000000,0.000000,0.000000,1647849596.427308,0.000000
42.000000,-16915.643742,-16750.799626,-440.195255,-8858.868046,-23238.929896,17868.006869,17460.042830,2184.346579,0.088000,0.968000,0.192000,192.000000,0.000000,0.000000,0.000000,0.000000,0.000000,0.000000,0.000000,0.000000,0.000000,1647849596.434351,0.000000
43.000000,-16917.275419,-16755.605251,-439.144723,-8869.038089,-23240.271001,17870.823189,17466.077801,2194.918954,0.088000,0.968000,0.192000,192.000000,0.000000,0.000000,0.000000,0.000000,0.000000,0.000000,0.000000,0.000000,0.000000,1647849596.442130,0.000000
44.000000,-16916.917791,-16754.331202,-438.921206,-8868.814572,-23241.880326,17872.298404,17459.528739,2187.542878,0.082000,0.972000,0.196000,192.000000,2.000000,144.000000,30.000000,96.000000,6.000000,32.000000,0.000000,0.000000,0.000000,1647849596.442146,0.000000
45.000000,-16917.230715,-16755.046458,-441.379898,-8857.906921,-23238.147585,17866.017564,17446.832949,2169.527372,0.082000,0.972000,0.196000,192.000000,0.000000,0.000000,0.000000,0.000000,0.000000,0.000000,0.000000,0.000000,0.000000,1647849596.450279,0.000000
46.000000,-16910.704006,-16747.871548,-438.898854,-8856.252892,-23237.477033,17869.035050,17442.049675,2168.566247,0.082000,0.972000,0.196000,192.000000,0.000000,0.000000,0.000000,0.000000,0.000000,0.000000,0.000000,0.000000,0.000000,1647849596.450296,0.000000
47.000000,-16915.084948,-16751.760751,-436.328404,-8860.544427,-23238.974600,17868.297442,17436.819367,2171.360215,0.082000,0.972000,0.196000,192.000000,0.000000,0.000000,0.000000,0.000000,0.000000,0.000000,0.000000,0.000000,0.000000,1647849596.456872,0.000000
48.000000,-16916.224887,-16755.918176,-435.523741,-8861.125572,-23239.712207,17872.588977,17453.426713,2180.502079,0.082000,0.972000,0.196000,192.000000,0.000000,0.000000,0.000000,0.000000,0.000000,0.000000,0.000000,0.000000,0.000000,1647849596.456887,0.000000
49.000000,-16916.694274,-16755.918176,-436.216645,-8859.605653,-23241.567402,17878.601596,17464.937862,2182.312570,0.082000,0.972000,0.196000,192.000000,0.000000,0.000000,0.000000,0.000000,0.000000,0.000000,0.000000,0.000000,0.000000,1647849596.466347,0.000000
50.000000,-16920.561125,-16757.058115,-436.954252,-8863.181932,-23243.512004,17875.986442,17465.183731,2175.025901,0.082000,0.972000,0.196000,192.000000,0.000000,0.000000,0.000000,0.000000,0.000000,0.000000,0.000000,0.000000,0.000000,1647849596.466363,0.000000
51.000000,-16915.688445,-16752.610118,-436.998956,-8860.767944,-23246.440082,17876.500532,17457.561786,2169.348558,0.082000,0.972000,0.196000,192.000000,0.000000,0.000000,0.000000,0.000000,0.000000,0.000000,0.000000,0.000000,0.000000,1647849596.472956,0.000000
52.000000,-16921.209326,-16760.500283,-441.603415,-8867.562874,-23249.099940,17872.365459,17452.867920,2168.655654,0.082000,0.972000,0.196000,192.000000,0.000000,0.000000,0.000000,0.000000,0.000000,0.000000,0.000000,0.000000,0.000000,1647849596.472972,0.000000
53.000000,-16920.762291,-16759.203882,-440.888159,-8870.245084,-23249.323457,17871.449038,17447.727018,2169.236799,0.082000,0.972000,0.196000,192.000000,0.000000,0.000000,0.000000,0.000000,0.000000,0.000000,0.000000,0.000000,0.000000,1647849596.480038,0.000000
54.000000,-16922.170451,-16761.170836,-442.944520,-8877.196476,-23254.933745,17868.297442,17436.864071,2163.760622,0.082000,0.972000,0.196000,192.000000,0.000000,0.000000,0.000000,0.000000,0.000000,0.000000,0.000000,0.000000,0.000000,1647849596.480054,0.000000
55.000000,-16920.427015,-16758.578033,-440.530531,-8875.944778,-23252.340943,17873.103067,17443.815463,2177.015206,0.086000,0.968000,0.196000,192.000000,2.000000,176.000000,30.000000,64.000000,6.000000,32.000000,0.000000,0.000000,0.000000,1647849596.487990,0.000000
56.000000,-16923.489204,-16760.746152,-445.447915,-8879.319892,-23254.285545,17877.752230,17459.484036,2183.832489,0.086000,0.968000,0.196000,192.000000,0.000000,0.000000,0.000000,0.000000,0.000000,0.000000,0.000000,0.000000,0.000000,1647849596.488006,0.000000
57.000000,-16922.662189,-16760.388525,-449.784154,-8877.330587,-23257.347734,17882.311986,17460.713382,2193.354332,0.086000,0.968000,0.196000,192.000000,0.000000,0.000000,0.000000,0.000000,0.000000,0.000000,0.000000,0.000000,0.000000,1647849596.494560,0.000000
58.000000,-16924.852660,-16762.064905,-452.376956,-8879.297540,-23256.319553,17878.467486,17457.897062,2184.123061,0.086000,0.968000,0.196000,192.000000,0.000000,0.000000,0.000000,0.000000,0.000000,0.000000,0.000000,0.000000,0.000000,1647849596.502471,0.000000
59.000000,-16929.658285,-16767.071696,-454.612130,-8885.153697,-23266.310783,17877.081678,17458.746428,2174.444756,0.086000,0.968000,0.196000,192.000000,0.000000,0.000000,0.000000,0.000000,0.000000,0.000000,0.000000,0.000000,0.000000,1647849596.502487,0.000000
60.000000,-16930.641762,-16765.976461,-453.203971,-8882.784412,-23274.625632,17878.869817,17456.891234,2173.327169,0.086000,0.968000,0.196000,192.000000,0.000000,0.000000,0.000000,0.000000,0.000000,0.000000,0.000000,0.000000,0.000000,1647849596.509634,0.000000
61.000000,-16925.277343,-16762.176664,-447.548979,-8877.151773,-23268.322440,17887.519942,17472.269234,2186.961733,0.086000,0.968000,0.196000,192.000000,0.000000,0.000000,0.000000,0.000000,0.000000,0.000000,0.000000,0.000000,0.000000,1647849596.509650,0.000000
62.000000,-16922.818652,-16764.590653,-447.347814,-8889.311122,-23265.416713,17882.602558,17470.615205,2187.006436,0.086000,0.968000,0.196000,192.000000,0.000000,0.000000,0.000000,0.000000,0.000000,0.000000,0.000000,0.000000,0.000000,1647849596.516961,0.000000
63.000000,-16922.528079,-16762.377830,-446.945482,-8882.113860,-23261.572213,17878.154561,17453.382010,2179.026863,0.086000,0.968000,0.196000,192.000000,0.000000,0.000000,0.000000,0.000000,0.000000,0.000000,0.000000,0.000000,0.000000,1647849596.516976,0.000000
64.000000,-16920.784643,-16756.342859,-442.273968,-8869.261607,-23254.777283,17880.389736,17453.963155,2180.457375,0.086000,0.968000,0.196000,192.000000,0.000000,0.000000,0.000000,0.000000,0.000000,0.000000,0.000000,0.000000,0.000000,1647849596.525265,0.000000
65.000000,-16928.004256,-16762.578996,-450.588816,-8879.498706,-23259.135873,17875.539407,17458.567614,2170.779070,0.086000,0.960000,0.200000,192.000000,2.000000,176.000000,30.000000,0.000000,6.000000,64.000000,0.000000,0.000000,0.000000,1647849596.525300,0.000000
66.000000,-16930.440596,-16766.803475,-456.512029,-8883.119688,-23264.746161,17878.288672,17462.166245,2177.261076,0.086000,0.960000,0.200000,192.000000,0.000000,0.000000,0.000000,0.000000,0.000000,0.000000,0.000000,0.000000,0.000000,1647849596.532275,0.000000
67.000000,-16929.300657,-16762.087257,-454.612130,-8878.314063,-23265.506120,17884.658919,17458.835835,2185.061834,0.086000,0.960000,0.200000,192.000000,0.000000,0.000000,0.000000,0.000000,0.000000,0.000000,0.000000,0.000000,0.000000,1647849596.532293,0.000000
68.000000,-16925.903192,-16762.601347,-453.919226,-8878.470526,-23266.087266,17882.602558,17448.375219,2173.371872,0.086000,0.960000,0.200000,192.000000,0.000000,0.000000,0.000000,0.000000,0.000000,0.000000,0.000000,0.000000,0.000000,1647849596.539623,0.000000
69.000000,-16925.947896,-16763.227196,-450.722927,-8878.045842,-23261.639269,17882.714317,17449.761027,2177.931628,0.086000,0.960000,0.200000,192.000000,0.000000,0.000000,0.000000,0.000000,0.000000,0.000000,0.000000,0.000000,0.000000,1647849596.539639,0.000000
70.000000,-16930.619410,-16764.210673,-450.186485,-8879.252837,-23259.649963,17883.988367,17451.303297,2181.954942,0.086000,0.960000,0.200000,192.000000,0.000000,0.000000,0.000000,0.000000,0.000000,0.000000,0.000000,0.000000,0.000000,1647849596.547857,0.000000
71.000000,-16931.044093,-16769.485685,-455.349738,-8886.785374,-23267.160149,17876.768753,17441.669696,2166.755756,0.086000,0.960000,0.200000,192.000000,0.000000,0.000000,0.000000,0.000000,0.000000,0.000000,0.000000,0.000000,0.000000,1647849596.547873,0.000000
72.000000,-16930.909983,-16768.748077,-456.042642,-8885.645436,-23262.823911,17876.880512,17436.260573,2160.541971,0.086000,0.960000,0.200000,192.000000,0.000000,0.000000,0.000000,0.000000,0.000000,0.000000,0.000000,0.000000,0.000000,1647849596.554910,0.000000
73.000000,-16924.115053,-16764.188321,-452.980453,-8882.270322,-23258.554728,17879.115686,17441.222661,2168.923875,0.086000,0.960000,0.200000,192.000000,0.000000,0.000000,0.000000,0.000000,0.000000,0.000000,0.000000,0.000000,0.000000,1647849596.561630,0.000000
74.000000,-16922.036340,-16758.041591,-450.477058,-8876.302406,-23253.413827,17878.892169,17441.692047,2170.712015,0.086000,0.960000,0.200000,192.000000,0.000000,0.000000,0.000000,0.000000,0.000000,0.000000,0.000000,0.000000,0.000000,1647849596.561647,0.000000
75.000000,-16922.997465,-16758.198054,-450.432354,-8873.240217,-23251.201004,17874.421820,17420.949628,2165.459355,0.088000,0.964000,0.200000,192.000000,2.000000,192.000000,30.000000,32.000000,6.000000,64.000000,0.000000,0.000000,0.000000,1647849596.569463,0.000000
76.000000,-16930.015913,-16765.596481,-458.970721,-8881.599770,-23258.755894,17866.822227,17418.625047,2149.813133,0.088000,0.964000,0.200000,192.000000,0.000000,0.000000,0.000000,0.000000,0.000000,0.000000,0.000000,0.000000,0.000000,1647849596.569479,0.000000
77.000000,-16934.687428,-16770.290347,-462.189372,-8886.539505,-23263.203891,17870.085582,17453.605527,2157.591541,0.088000,0.964000,0.200000,192.000000,0.000000,0.000000,0.000000,0.000000,0.000000,0.000000,0.000000,0.000000,0.000000,1647849596.577514,0.000000
78.000000,-16936.520271,-16773.173722,-460.892971,-8888.014720,-23260.700495,17872.387811,17454.834873,2158.083279,0.088000,0.964000,0.200000,192.000000,0.000000,0.000000,0.000000,0.000000,0.000000,0.000000,0.000000,0.000000,0.000000,1647849596.577530,0.000000
79.000000,-16942.465835,-16782.427345,-467.889067,-8896.664846,-23270.647022,17864.922329,17440.865033,2154.596407,0.088000,0.964000,0.200000,192.000000,0.000000,0.000000,0.000000,0.000000,0.000000,0.000000,0.000000,0.000000,0.000000,1647849596.585461,0.000000
80.000000,-16939.627163,-16779.275749,-468.671378,-8891.814517,-23277.196083,17869.303270,17453.940803,2166.509887,0.088000,0.964000,0.200000,192.000000,0.000000,0.000000,0.000000,0.000000,0.000000,0.000000,0.000000,0.000000,0.000000,1647849596.585478,0.000000
81.000000,-16940.096550,-16781.533275,-470.191296,-8894.340264,-23282.716964,17868.140980,17456.712420,2170.421442,0.088000,0.964000,0.200000,192.000000,0.000000,0.000000,0.000000,0.000000,0.000000,0.000000,0.000000,0.000000,0.000000,1647849596.592072,0.000000
82.000000,-16937.794320,-16781.376813,-466.950293,-8893.021511,-23280.951176,17871.918425,17459.372277,2184.056006,0.088000,0.964000,0.200000,192.000000,0.000000,0.000000,0.000000,0.000000,0.000000,0.000000,0.000000,0.000000,0.000000,1647849596.592088,0.000000
83.000000,-16930.820576,-16777.241740,-460.825915,-8888.819383,-23269.820007,17874.175951,17459.193463,2188.436948,0.088000,0.964000,0.200000,192.000000,0.000000,0.000000,0.000000,0.000000,0.000000,0.000000,0.000000,0.000000,0.000000,1647849596.599987,0.000000
84.000000,-16933.614544,-16776.794705,-463.016386,-8891.233372,-23271.339926,17870.107933,17449.425751,2177.529297,0.088000,0.964000,0.200000,192.000000,0.000000,0.000000,0.000000,0.000000,0.000000,0.000000,0.000000,0.000000,0.000000,1647849596.600003,0.000000
85.000000,-16943.404608,-16781.153295,-470.079538,-8896.530735,-23277.866635,17868.185683,17449.671620,2174.020073,0.088000,0.962000,0.190000,192.000000,2.000000,192.000000,30.000000,16.000000,5.000000,240.000000,0.000000,0.000000,0.000000,1647849596.608065,0.000000
86.000000,-16939.738922,-16776.682946,-468.492564,-8892.328607,-23278.604243,17872.410163,17455.818350,2179.228029,0.088000,0.962000,0.190000,192.000000,0.000000,0.000000,0.000000,0.000000,0.000000,0.000000,0.000000,0.000000,0.000000,1647849596.608099,0.000000
87.000000,-16936.855547,-16773.888978,-462.323482,-8889.087604,-23273.619804,17877.908692,17458.366449,2177.953980,0.088000,0.962000,0.190000,192.000000,0.000000,0.000000,0.000000,0.000000,0.000000,0.000000,0.000000,0.000000,0.000000,1647849596.615171,0.000000
88.000000,-16934.665076,-16769.999775,-459.618921,-8885.645436,-23268.344792,17883.384870,17461.585100,2175.808212,0.088000,0.962000,0.190000,192.000000,0.000000,0.000000,0.000000,0.000000,0.000000,0.000000,0.000000,0.000000,0.000000,1647849596.615187,0.000000
89.000000,-16939.291887,-16776.839408,-463.262256,-8899.414110,-23271.138760,17877.618119,17465.966042,2175.562343,0.088000,0.962000,0.190000,192.000000,0.000000,0.000000,0.000000,0.000000,0.000000,0.000000,0.000000,0.000000,0.000000,1647849596.621687,0.000000
90.000000,-16941.147082,-16776.235911,-465.251561,-8892.753290,-23275.609109,17874.667689,17453.292603,2180.122099,0.088000,0.962000,0.190000,192.000000,0.000000,0.000000,0.000000,0.000000,0.000000,0.000000,0.000000,0.000000,0.000000,1647849596.629811,0.000000
91.000000,-16941.750579,-16775.945339,-465.340968,-8884.706662,-23273.798618,17875.204131,17447.235280,2177.216372,0.088000,0.962000,0.190000,192.000000,0.000000,0.000000,0.000000,0.000000,0.000000,0.000000,0.000000,0.000000,0.000000,1647849596.629827,0.000000
92.000000,-16945.058637,-16781.041536,-467.576142,-8893.110918,-23275.966737,17872.030183,17457.427675,2169.035634,0.088000,0.962000,0.190000,192.000000,0.000000,0.000000,0.000000,0.000000,0.000000,0.000000,0.000000,0.000000,0.000000,1647849596.637760,0.000000
93.000000,-16945.058637,-16780.885074,-467.978474,-8892.865049,-23275.296184,17873.013660,17453.829045,2167.850991,0.088000,0.962000,0.190000,192.000000,0.000000,0.000000,0.000000,0.000000,0.000000,0.000000,0.000000,0.000000,0.000000,1647849596.637777,0.000000
94.000000,-16941.884690,-16780.639205,-467.151459,-8893.200325,-23271.004650,17873.751268,17450.297469,2166.778107,0.088000,0.962000,0.190000,192.000000,0.000000,0.000000,0.000000,0.000000,0.000000,0.000000,0.000000,0.000000,0.000000,1647849596.644826,0.000000
95.000000,-16936.453216,-16779.141638,-465.050395,-8893.915581,-23267.651888,17879.026279,17458.724077,2179.138622,0.084000,0.956000,0.184000,192.000000,2.000000,160.000000,29.000000,224.000000,5.000000,192.000000,0.000000,0.000000,0.000000,1647849596.644843,0.000000
96.000000,-16931.155852,-16775.431249,-467.956122,-8891.903924,-23273.508045,17881.283806,17456.667716,2184.301875,0.084000,0.956000,0.184000,192.000000,0.000000,0.000000,0.000000,0.000000,0.000000,0.000000,0.000000,0.000000,0.000000,1647849596.652457,0.000000
97.000000,-16934.218041,-16777.264092,-467.643197,-8890.763985,-23272.725734,17885.552989,17458.768780,2187.900506,0.084000,0.956000,0.184000,192.000000,0.000000,0.000000,0.000000,0.000000,0.000000,0.000000,0.000000,0.000000,0.000000,1647849596.652473,0.000000
98.000000,-16948.232585,-16788.104688,-475.600419,-8901.314008,-23275.698516,17872.633680,17446.989411,2172.410747,0.084000,0.956000,0.184000,192.000000,0.000000,0.000000,0.000000,0.000000,0.000000,0.000000,0.000000,0.000000,0.000000,1647849596.660493,0.000000
99.000000,-16938.598983,-16779.074583,-471.666511,-8893.468546,-23275.810275,17878.422782,17455.259556,2175.897619,0.084000,0.956000,0.184000,192.000000,0.000000,0.000000,0.000000,0.000000,0.000000,0.000000,0.000000,0.000000,0.000000,1647849596.660511,0.000000
100.000000,-16938.464873,-16779.141638,-470.995959,-8894.630837,-23275.251481,17876.902864,17452.599699,2175.919971,0.084000,0.956000,0.184000,192.000000,0.000000,0.000000,0.000000,0.000000,0.000000,0.000000,0.000000,0.000000,0.000000,1647849596.667353,0.000000
101.000000,-16947.584384,-16785.467182,-477.589724,-8901.850450,-23284.192179,17870.376154,17440.105073,2165.906389,0.084000,0.956000,0.184000,192.000000,0.000000,0.000000,0.000000,0.000000,0.000000,0.000000,0.000000,0.000000,0.000000,1647849596.667368,0.000000
102.000000,-16948.724323,-16785.243664,-479.690788,-8901.224601,-23285.980318,17867.045744,17444.284850,2166.576942,0.084000,0.956000,0.184000,192.000000,0.000000,0.000000,0.000000,0.000000,0.000000,0.000000,0.000000,0.000000,0.000000,1647849596.675066,0.000000
103.000000,-16939.090721,-16778.471086,-471.800622,-8893.736767,-23280.347679,17865.347012,17445.938879,2166.375776,0.084000,0.956000,0.184000,192.000000,0.000000,0.000000,0.000000,0.000000,0.000000,0.000000,0.000000,0.000000,0.000000,1647849596.675082,0.000000
104.000000,-16935.000352,-16776.995871,-466.547962,-8890.495764,-23279.140685,17864.385887,17440.127425,2162.508924,0.084000,0.956000,0.184000,192.000000,0.000000,0.000000,0.000000,0.000000,0.000000,0.000000,0.000000,0.000000,0.000000,1647849596.682136,0.000000
105.000000,-16938.286059,-16780.080411,-468.716081,-8895.524907,-23277.151379,17859.133227,17432.617239,2152.383584,0.084000,0.964000,0.186000,192.000000,2.000000,160.000000,30.000000,32.000000,5.000000,208.000000,0.000000,0.000000,0.000000,1647849596.690072,0.000000
106.000000,-16933.726303,-16775.341842,-468.358453,-8892.552125,-23278.716001,17860.161407,17430.516175,2158.217389,0.084000,0.964000,0.186000,192.000000,0.000000,0.000000,0.000000,0.000000,0.000000,0.000000,0.000000,0.000000,0.000000,1647849596.690088,0.000000
107.000000,-16936.006181,-16776.370022,-468.559619,-8890.920447,-23279.319498,17865.592881,17446.900004,2175.405881,0.084000,0.964000,0.186000,192.000000,0.000000,0.000000,0.000000,0.000000,0.000000,0.000000,0.000000,0.000000,0.000000,1647849596.697062,0.000000
108.000000,-16938.643687,-16775.319490,-471.442994,-8895.234334,-23274.670336,17858.708544,17446.542376,2165.504058,0.084000,0.964000,0.186000,192.000000,0.000000,0.000000,0.000000,0.000000,0.000000,0.000000,0.000000,0.000000,0.000000,1647849596.697079,0.000000
109.000000,-16936.386160,-16774.000737,-471.085366,-8897.804785,-23272.301051,17855.646355,17441.021495,2158.195038,0.084000,0.964000,0.186000,192.000000,0.000000,0.000000,0.000000,0.000000,0.000000,0.000000,0.000000,0.000000,0.000000,1647849596.704735,0.000000
110.000000,-16938.621335,-16776.839408,-476.293323,-8899.190593,-23278.246615,17854.215843,17448.978716,2160.877247,0.084000,0.964000,0.186000,192.000000,0.000000,0.000000,0.000000,0.000000,0.000000,0.000000,0.000000,0.000000,0.000000,1647849596.704752,0.000000
111.000000,-16934.218041,-16771.474990,-475.354549,-8891.881572,-23281.264100,17863.670631,17457.718248,2180.233858,0.084000,0.964000,0.186000,192.000000,0.000000,0.000000,0.000000,0.000000,0.000000,0.000000,0.000000,0.000000,0.000000,1647849596.714124,0.000000
112.000000,-16929.814748,-16767.831655,-467.464384,-8887.098299,-23278.917167,17871.002003,17463.440295,2186.939381,0.084000,0.964000,0.186000,192.000000,0.000000,0.000000,0.000000,0.000000,0.000000,0.000000,0.000000,0.000000,0.000000,1647849596.714140,0.000000
113.000000,-16929.367713,-16766.937586,-459.440107,-8886.137174,-23272.233995,17875.025317,17465.407248,2185.106538,0.084000,0.964000,0.186000,192.000000,0.000000,0.000000,0.000000,0.000000,0.000000,0.000000,0.000000,0.000000,0.000000,1647849596.720754,0.000000
114.000000,-16929.926506,-16768.993946,-458.858962,-8887.031244,-23269.484731,17873.639509,17453.113789,2174.556515,0.084000,0.964000,0.186000,192.000000,0.000000,0.000000,0.000000,0.000000,0.000000,0.000000,0.000000,0.000000,0.000000,1647849596.720770,0.000000
115.000000,-16920.583477,-16760.053248,-456.288511,-8878.783450,-23268.814179,17878.914521,17450.252765,2171.874305,0.086000,0.966000,0.194000,192.000000,2.000000,176.000000,30.000000,48.000000,6.000000,16.000000,0.000000,0.000000,0.000000,1647849596.727321,0.000000
116.000000,-16918.527117,-16762.623699,-458.009596,-8881.264494,-23268.590661,17878.400430,17451.258594,2174.645922,0.086000,0.966000,0.194000,192.000000,0.000000,0.000000,0.000000,0.000000,0.000000,0.000000,0.000000,0.000000,0.000000,1647849596.727337,0.000000
117.000000,-16926.909021,-16769.396278,-466.011520,-8890.898095,-23274.647984,17869.102105,17442.921393,2168.722709,0.086000,0.966000,0.194000,192.000000,0.000000,0.000000,0.000000,0.000000,0.000000,0.000000,0.000000,0.000000,0.000000,1647849596.735310,0.000000
118.000000,-16929.010085,-16765.641185,-466.257389,-8889.422880,-23275.005612,17869.705602,17444.173091,2163.648863,0.086000,0.966000,0.194000,192.000000,0.000000,0.000000,0.000000,0.000000,0.000000,0.000000,0.000000,0.000000,0.000000,1647849596.735327,0.000000
119.000000,-16939.627163,-16773.844275,-467.419680,-8896.597790,-23277.330193,17863.916500,17437.624030,2159.580846,0.086000,0.966000,0.194000,192.000000,0.000000,0.000000,0.000000,0.000000,0.000000,0.000000,0.000000,0.000000,0.000000,1647849596.742341,0.000000
120.000000,-16937.704913,-16772.145542,-464.335139,-8894.228505,-23274.670336,17859.781427,17429.353884,2147.756773,0.086000,0.966000,0.194000,192.000000,0.000000,0.000000,0.000000,0.000000,0.000000,0.000000,0.000000,0.000000,0.000000,1647849596.750359,0.000000
121.000000,-16931.267611,-16763.406010,-464.826878,-8887.813555,-23278.090153,17863.044782,17427.677504,2149.075526,0.086000,0.966000,0.194000,192.000000,0.000000,0.000000,0.000000,0.000000,0.000000,0.000000,0.000000,0.000000,0.000000,1647849596.750375,0.000000
122.000000,-16929.479471,-16759.650917,-462.524648,-8886.181877,-23278.648946,17869.213864,17452.398533,2174.265942,0.086000,0.966000,0.194000,192.000000,0.000000,0.000000,0.000000,0.000000,0.000000,0.000000,0.000000,0.000000,0.000000,1647849596.756832,0.000000
123.000000,-16926.998428,-16761.550815,-460.110660,-8887.679444,-23276.167902,17870.197340,17454.276079,2178.691587,0.086000,0.966000,0.194000,192.000000,0.000000,0.000000,0.000000,0.000000,0.000000,0.000000,0.000000,0.000000,0.000000,1647849596.756848,0.000000
124.000000,-16923.511556,-16765.350612,-459.194238,-8890.093433,-23275.966737,17867.068096,17445.223623,2167.918046,0.086000,0.966000,0.194000,192.000000,0.000000,0.000000,0.000000,0.000000,0.000000,0.000000,0.000000,0.000000,0.000000,1647849596.764930,0.000000
125.000000,-16929.479471,-16769.664499,-462.882276,-8893.043863,-23276.749048,17865.481122,17444.687181,2168.946227,0.086000,0.964000,0.198000,192.000000,2.000000,176.000000,30.000000,32.000000,6.000000,48.000000,0.000000,0.000000,0.000000,1647849596.764946,0.000000
126.000000,-16932.094625,-16770.267996,-466.056224,-8892.105090,-23280.727658,17863.022430,17446.788245,2165.682872,0.086000,0.964000,0.198000,192.000000,0.000000,0.000000,0.000000,0.000000,0.000000,0.000000,0.000000,0.000000,0.000000,1647849596.772938,0.000000
127.000000,-16937.414341,-16775.431249,-469.096061,-8894.854354,-23285.466228,17856.026334,17433.578364,2160.989006,0.086000,0.964000,0.198000,192.000000,0.000000,0.000000,0.000000,0.000000,0.000000,0.000000,0.000000,0.000000,0.000000,1647849596.772955,0.000000
128.000000,-16940.632992,-16780.639205,-475.242791,-8898.989427,-23288.707231,17849.969012,17423.944762,2150.707203,0.086000,0.964000,0.198000,192.000000,0.000000,0.000000,0.000000,0.000000,0.000000,0.000000,0.000000,0.000000,0.000000,1647849596.780015,0.000000
129.000000,-16935.290925,-16778.001699,-474.013445,-8896.463680,-23284.750972,17857.725067,17451.079780,2159.670253,0.086000,0.964000,0.198000,192.000000,0.000000,0.000000,0.000000,0.000000,0.000000,0.000000,0.000000,0.000000,0.000000,1647849596.780050,0.000000
130.000000,-16940.431826,-16777.688775,-477.008578,-8897.804785,-23282.739315,17858.619137,17453.829045,2161.346634,0.086000,0.964000,0.198000,192.000000,0.000000,0.000000,0.000000,0.000000,0.000000,0.000000,0.000000,0.000000,0.000000,1647849596.787587,0.000000
131.000000,-16944.969230,-16780.505095,-483.937619,-8901.604581,-23291.367089,17849.231404,17432.751350,2147.734421,0.086000,0.964000,0.198000,192.000000,0.000000,0.000000,0.000000,0.000000,0.000000,0.000000,0.000000,0.000000,0.000000,1647849596.787603,0.000000
132.000000,-16944.857472,-16780.214522,-481.791852,-8900.039959,-23296.731507,17849.901956,17430.583230,2148.472029,0.086000,0.964000,0.198000,192.000000,0.000000,0.000000,0.000000,0.000000,0.000000,0.000000,0.000000,0.000000,0.000000,1647849596.795521,0.000000
133.000000,-16951.384181,-16787.322377,-478.796718,-8906.074930,-23292.216455,17846.906823,17432.617239,2148.404974,0.086000,0.964000,0.198000,192.000000,0.000000,0.000000,0.000000,0.000000,0.000000,0.000000,0.000000,0.000000,0.000000,1647849596.795538,0.000000
134.000000,-16954.401666,-16790.116345,-478.528497,-8907.773663,-23292.551731,17846.280974,17432.751350,2166.308721,0.086000,0.964000,0.198000,192.000000,0.000000,0.000000,0.000000,0.000000,0.000000,0.000000,0.000000,0.000000,0.000000,1647849596.802535,0.000000
135.000000,-16951.719457,-16789.535199,-478.372035,-8904.197383,-23290.271853,17849.566680,17427.968076,2173.461279,0.086000,0.964000,0.194000,192.000000,2.000000,176.000000,30.000000,32.000000,6.000000,16.000000,0.000000,0.000000,0.000000,1647849596.809140,0.000000
136.000000,-16953.328783,-16791.546856,-482.887087,-8905.873764,-23290.763592,17848.002058,17421.061387,2165.280541,0.086000,0.964000,0.194000,192.000000,0.000000,0.000000,0.000000,0.000000,0.000000,0.000000,0.000000,0.000000,0.000000,1647849596.809156,0.000000
137.000000,-16962.761219,-16800.845182,-491.537212,-8915.864994,-23299.503124,17841.028314,17434.517137,2151.869494,0.086000,0.964000,0.194000,192.000000,0.000000,0.000000,0.000000,0.000000,0.000000,0.000000,0.000000,0.000000,0.000000,1647849596.817276,0.000000
138.000000,-16962.269480,-16801.247513,-490.464329,-8916.133215,-23299.190199,17842.436474,17445.290678,2152.607102,0.086000,0.964000,0.194000,192.000000,0.000000,0.000000,0.000000,0.000000,0.000000,0.000000,0.000000,0.000000,0.000000,1647849596.817294,0.000000
139.000000,-16958.693201,-16796.017205,-486.575125,-8911.796977,-23294.809257,17846.549195,17446.251803,2155.110497,0.086000,0.964000,0.194000,192.000000,0.000000,0.000000,0.000000,0.000000,0.000000,0.000000,0.000000,0.000000,0.000000,1647849596.825279,0.000000
140.000000,-16956.145103,-16796.017205,-486.172794,-8911.774625,-23296.753859,17846.795064,17449.872786,2161.145468,0.086000,0.964000,0.194000,192.000000,0.000000,0.000000,0.000000,0.000000,0.000000,0.000000,0.000000,0.000000,0.000000,1647849596.825296,0.000000
141.000000,-16958.536739,-16797.157144,-486.239849,-8912.109901,-23298.206723,17845.655125,17449.068123,2163.961788,0.086000,0.964000,0.194000,192.000000,0.000000,0.000000,0.000000,0.000000,0.000000,0.000000,0.000000,0.000000,0.000000,1647849596.832372,0.000000
142.000000,-16967.857417,-16802.789784,-491.716026,-8919.240107,-23305.359281,17838.971953,17435.724132,2161.547799,0.086000,0.964000,0.194000,192.000000,0.000000,0.000000,0.000000,0.000000,0.000000,0.000000,0.000000,0.000000,0.000000,1647849596.832389,0.000000
143.000000,-16967.700954,-16803.058005,-492.051302,-8921.117654,-23304.308749,17839.083712,17437.154643,2166.465183,0.086000,0.964000,0.194000,192.000000,0.000000,0.000000,0.000000,0.000000,0.000000,0.000000,0.000000,0.000000,0.000000,1647849596.839750,0.000000
144.000000,-16970.584329,-16805.404938,-491.850137,-8923.777512,-23298.921978,17838.770788,17438.071065,2162.777145,0.086000,0.964000,0.194000,192.000000,0.000000,0.000000,0.000000,0.000000,0.000000,0.000000,0.000000,0.000000,0.000000,1647849596.839767,0.000000
145.000000,-16973.668870,-16807.304836,-492.855965,-8925.185671,-23297.178542,17836.267392,17438.607507,2157.815058,0.084000,0.966000,0.188000,192.000000,2.000000,160.000000,30.000000,48.000000,5.000000,224.000000,0.000000,0.000000,0.000000,1647849596.847780,0.000000
146.000000,-16965.778704,-16803.125060,-490.039645,-8921.564689,-23299.681938,17836.647372,17439.948611,2154.775221,0.084000,0.966000,0.188000,192.000000,0.000000,0.000000,0.000000,0.000000,0.000000,0.000000,0.000000,0.000000,0.000000,1647849596.847796,0.000000
147.000000,-16960.347230,-16799.995816,-486.865698,-8916.379084,-23299.704289,17840.938907,17443.659001,2165.660520,0.084000,0.966000,0.188000,192.000000,0.000000,0.000000,0.000000,0.000000,0.000000,0.000000,0.000000,0.000000,0.000000,1647849596.855902,0.000000
148.000000,-16958.961422,-16800.375795,-485.278724,-8914.680352,-23294.898664,17837.720256,17435.858242,2159.737308,0.084000,0.966000,0.188000,192.000000,0.000000,0.000000,0.000000,0.000000,0.000000,0.000000,0.000000,0.000000,0.000000,1647849596.855919,0.000000
149.000000,-16961.733039,-16801.113403,-485.144613,-8913.741578,-23289.780115,17837.161462,17437.981658,2152.696508,0.084000,0.966000,0.188000,192.000000,0.000000,0.000000,0.000000,0.000000,0.000000,0.000000,0.000000,0.000000,0.000000,1647849596.861897,0.000000
150.000000,-16971.143123,-16809.137679,-496.611058,-8920.849433,-23299.369013,17829.517165,17432.907812,2151.645977,0.084000,0.966000,0.188000,192.000000,0.000000,0.000000,0.000000,0.000000,0.000000,0.000000,0.000000,0.000000,0.000000,1647849596.861932,0.000000
151.000000,-16967.566844,-16810.903467,-497.080445,-8920.849433,-23304.286397,17827.706674,17428.795091,2146.348613,0.084000,0.966000,0.188000,192.000000,0.000000,0.000000,0.000000,0.000000,0.000000,0.000000,0.000000,0.000000,0.000000,1647849596.869548,0.000000
152.000000,-16967.969175,-16810.411729,-496.253430,-8922.861090,-23307.236827,17830.455939,17434.919469,2160.944302,0.084000,0.966000,0.188000,192.000000,0.000000,0.000000,0.000000,0.000000,0.000000,0.000000,0.000000,0.000000,0.000000,1647849596.877487,0.000000
153.000000,-16964.348193,-16806.969560,-496.633410,-8923.643401,-23305.851019,17829.025427,17427.833966,2165.280541,0.084000,0.966000,0.188000,192.000000,0.000000,0.000000,0.000000,0.000000,0.000000,0.000000,0.000000,0.000000,0.000000,1647849596.877504,0.000000
154.000000,-16962.224777,-16804.734386,-494.442939,-8924.470416,-23303.235865,17831.215898,17436.126463,2159.312625,0.084000,0.966000,0.188000,192.000000,0.000000,0.000000,0.000000,0.000000,0.000000,0.000000,0.000000,0.000000,0.000000,1647849596.885519,0.000000
155.000000,-16964.549358,-16808.511830,-491.537212,-8926.035038,-23306.633330,17838.703732,17448.129350,2161.592503,0.084000,0.966000,0.188000,192.000000,0.000000,0.000000,0.000000,0.000000,0.000000,0.000000,0.000000,0.000000,0.000000,1647849596.885534,0.000000
156.000000,-16975.211141,-16819.263019,-498.488605,-8936.897986,-23317.585685,17830.813567,17434.718303,2153.322357,0.082000,0.966000,0.186000,192.000000,2.000000,144.000000,30.000000,48.000000,5.000000,208.000000,0.000000,0.000000,0.000000,1647849596.892576,0.000000
157.000000,-16973.244187,-16817.541935,-498.220384,-8933.813445,-23314.992883,17829.830090,17432.527832,2154.171724,0.082000,0.966000,0.186000,192.000000,0.000000,0.000000,0.000000,0.000000,0.000000,0.000000,0.000000,0.000000,0.000000,1647849596.892592,0.000000
158.000000,-16974.182960,-16816.983142,-492.498337,-8928.940765,-23304.241694,17835.060398,17435.500614,2159.267921,0.082000,0.966000,0.186000,192.000000,0.000000,0.000000,0.000000,0.000000,0.000000,0.000000,0.000000,0.000000,0.000000,1647849596.900073,0.000000
159.000000,-16976.485190,-16816.513755,-492.699503,-8929.678372,-23303.951121,17831.573526,17427.051655,2155.959863,0.082000,0.966000,0.186000,192.000000,0.000000,0.000000,0.000000,0.000000,0.000000,0.000000,0.000000,0.000000,0.000000,1647849596.900089,0.000000
160.000000,-16974.339423,-16813.853897,-494.487643,-8931.399456,-23306.678034,17832.847575,17430.247954,2159.714956,0.082000,0.966000,0.186000,192.000000,0.000000,0.000000,0.000000,0.000000,0.000000,0.000000,0.000000,0.000000,0.000000,1647849596.908100,0.000000
