%OpenBCI Raw EEG Data
%Number of channels = 8
%Sample Rate = 256 Hz
%Board = OpenBCI_GUI$BoardCytonSerial
%Channels = Fp1, Fp2, F3, F4, Fz, Pz, O1, O2
%Data recorded at AIMS Lab (http://aimsl.uiu.ac.bd) by Rana Depto (mail@ranadepto.com)
%Brainwaves were obtained via the Ultracortex Mark IV Headset using the OpenBCI Cyton Board
%Recording Application = ConcentrateToday (https://concentrate.today)
%Data type = RAW data with noise
%Day No = 6
%Subject ID = 9
%Session ID = 7
%Record starting timestamp (UTC+6) = 2022-03-27T17:32:49.516595
%Record ending timestamp (UTC+6)   = 2022-03-27T17:33:20.379174
%Recorded durations = ~30 seconds
Sample Index, EXG Channel 0, EXG Channel 1, EXG Channel 2, EXG Channel 3, EXG Channel 4, EXG Channel 5, EXG Channel 6, EXG Channel 7, Accel Channel 0, Accel Channel 1, Accel Channel 2, Other, Other, Other, Other, Other, Other, Other, Analog Channel 0, Analog Channel 1, Analog Channel 2, Timestamp, Timestamp (Formatted)
219.000000,-39996.457398,-24031.410996,15750.000268,21525.713387,-21794.515466,31731.788126,58636.851148,61780.020509,-0.024000,0.980000,-0.144000,192.000000,0.000000,0.000000,0.000000,0.000000,0.000000,0.000000,0.000000,0.000000,0.000000,1648380769.518706,0.000000
220.000000,-40012.036563,-24035.546069,15755.699963,21533.692960,-21790.134524,31729.217676,58622.903660,61778.210017,-0.024000,0.980000,-0.144000,192.000000,0.000000,0.000000,0.000000,0.000000,0.000000,0.000000,0.000000,0.000000,0.000000,1648380769.518719,0.000000
221.000000,-40038.769250,-24059.685953,15736.812739,21526.562754,-21805.534876,31709.905769,58627.239898,61740.413218,-0.024000,0.980000,-0.144000,192.000000,0.000000,0.000000,0.000000,0.000000,0.000000,0.000000,0.000000,0.000000,0.000000,1648380769.526578,0.000000
222.000000,-40038.813953,-24069.610127,15744.211166,21523.187640,-21806.339539,31716.410126,58627.262250,61760.395677,-0.024000,0.980000,-0.144000,192.000000,0.000000,0.000000,0.000000,0.000000,0.000000,0.000000,0.000000,0.000000,0.000000,1648380769.526583,0.000000
223.000000,-40034.500067,-24066.235014,15744.971126,21517.912628,-21805.177248,31716.410126,58540.045743,61783.954416,-0.028000,0.982000,-0.132000,192.000000,255.000000,32.000000,30.000000,176.000000,251.000000,224.000000,0.000000,0.000000,0.000000,1648380769.534598,0.000000
224.000000,-40034.410660,-24077.835569,15727.849689,21491.738736,-21817.247190,31712.275054,58587.029110,61755.053610,-0.028000,0.982000,-0.132000,192.000000,0.000000,0.000000,0.000000,0.000000,0.000000,0.000000,0.000000,0.000000,0.000000,1648380769.534603,0.000000
225.000000,-40019.144418,-24056.601412,15739.718466,21530.384902,-21797.845876,31743.343978,58651.782114,61779.819343,-0.028000,0.982000,-0.132000,192.000000,0.000000,0.000000,0.000000,0.000000,0.000000,0.000000,0.000000,0.000000,0.000000,1648380769.541717,0.000000
226.000000,-40000.368953,-24036.149566,15752.950698,21542.588954,-21787.161742,31759.571345,58658.755858,61794.437384,-0.028000,0.982000,-0.132000,192.000000,0.000000,0.000000,0.000000,0.000000,0.000000,0.000000,0.000000,0.000000,0.000000,1648380769.541722,0.000000
227.000000,-40026.967529,-24066.413828,15707.487250,21504.993320,-21816.598990,31731.229333,58584.816287,61774.164352,-0.028000,0.982000,-0.132000,192.000000,0.000000,0.000000,0.000000,0.000000,0.000000,0.000000,0.000000,0.000000,0.000000,1648380769.549149,0.000000
228.000000,-40057.611770,-24081.188331,15697.808945,21489.235340,-21836.916725,31715.069022,58576.568493,61763.681384,-0.028000,0.982000,-0.132000,192.000000,0.000000,0.000000,0.000000,0.000000,0.000000,0.000000,0.000000,0.000000,0.000000,1648380769.549154,0.000000
229.000000,-40063.959666,-24062.323458,15722.731140,21506.155611,-21818.275370,31732.637493,58610.140814,61758.942814,-0.028000,0.982000,-0.132000,192.000000,0.000000,0.000000,0.000000,0.000000,0.000000,0.000000,0.000000,0.000000,0.000000,1648380769.557169,0.000000
230.000000,-40052.046186,-24063.955136,15729.660181,21517.152669,-21807.658292,31742.002874,58592.371177,61768.397602,-0.028000,0.982000,-0.132000,192.000000,0.000000,0.000000,0.000000,0.000000,0.000000,0.000000,0.000000,0.000000,0.000000,1648380769.557173,0.000000
231.000000,-40046.413546,-24075.533339,15723.021713,21511.542381,-21817.604818,31728.748289,58583.162258,61757.378192,-0.028000,0.982000,-0.132000,192.000000,0.000000,0.000000,0.000000,0.000000,0.000000,0.000000,0.000000,0.000000,0.000000,1648380769.564203,0.000000
232.000000,-40058.863468,-24058.009572,15733.683495,21509.597779,-21813.402690,31724.926141,58560.251720,61753.399581,-0.028000,0.982000,-0.132000,192.000000,0.000000,0.000000,0.000000,0.000000,0.000000,0.000000,0.000000,0.000000,0.000000,1648380769.564209,0.000000
233.000000,-40079.717646,-24075.712153,15722.574678,21499.673605,-21823.393920,31719.271150,58570.466467,61750.180930,-0.030000,0.972000,-0.136000,192.000000,255.000000,16.000000,30.000000,96.000000,251.000000,192.000000,0.000000,0.000000,0.000000,1648380769.572314,0.000000
234.000000,-40055.443651,-24055.372066,15745.708733,21521.913591,-21809.267617,31735.789089,58571.785220,61763.167293,-0.030000,0.972000,-0.136000,192.000000,0.000000,0.000000,0.000000,0.000000,0.000000,0.000000,0.000000,0.000000,0.000000,1648380769.578828,0.000000
235.000000,-40032.376651,-24037.758891,15757.376344,21542.588954,-21790.849780,31750.921220,58573.908636,61773.605558,-0.030000,0.972000,-0.136000,192.000000,0.000000,0.000000,0.000000,0.000000,0.000000,0.000000,0.000000,0.000000,0.000000,1648380769.578840,0.000000
236.000000,-40028.040412,-24062.748142,15757.353992,21539.102082,-21785.261844,31754.028112,58571.382889,61777.897093,-0.030000,0.972000,-0.136000,192.000000,0.000000,0.000000,0.000000,0.000000,0.000000,0.000000,0.000000,0.000000,0.000000,1648380769.586829,0.000000
237.000000,-40050.660378,-24094.197046,15741.126626,21508.346082,-21808.664120,31733.531563,58569.415935,61756.372363,-0.030000,0.972000,-0.136000,192.000000,0.000000,0.000000,0.000000,0.000000,0.000000,0.000000,0.000000,0.000000,0.000000,1648380769.586833,0.000000
238.000000,-40061.791547,-24091.201912,15735.561041,21512.101175,-21814.877905,31730.379967,58548.673516,61746.425837,-0.030000,0.972000,-0.136000,192.000000,0.000000,0.000000,0.000000,0.000000,0.000000,0.000000,0.000000,0.000000,0.000000,1648380769.593908,0.000000
239.000000,-40048.715776,-24076.785037,15724.139300,21521.913591,-21808.954693,31742.204039,58531.350914,61759.233386,-0.030000,0.972000,-0.136000,192.000000,0.000000,0.000000,0.000000,0.000000,0.000000,0.000000,0.000000,0.000000,0.000000,1648380769.593912,0.000000
240.000000,-40035.416488,-24062.770493,15723.804024,21518.605532,-21808.038271,31745.579153,58496.839821,61765.491875,-0.030000,0.972000,-0.136000,192.000000,0.000000,0.000000,0.000000,0.000000,0.000000,0.000000,0.000000,0.000000,0.000000,1648380769.601871,0.000000
241.000000,-40024.128857,-24036.574249,15744.077056,21523.679378,-21803.992606,31753.424615,58517.626943,61771.750363,-0.030000,0.972000,-0.136000,192.000000,0.000000,0.000000,0.000000,0.000000,0.000000,0.000000,0.000000,0.000000,0.000000,1648380769.601875,0.000000
242.000000,-40030.990843,-24034.517888,15731.135396,21515.543343,-21814.766147,31749.066025,58537.899976,61757.825227,-0.030000,0.972000,-0.136000,192.000000,0.000000,0.000000,0.000000,0.000000,0.000000,0.000000,0.000000,0.000000,0.000000,1648380769.609350,0.000000
243.000000,-40034.254197,-24059.373028,15720.853593,21514.068128,-21813.805022,31745.266228,58517.001094,61761.848541,-0.016000,0.962000,-0.132000,192.000000,255.000000,128.000000,30.000000,16.000000,251.000000,224.000000,0.000000,0.000000,0.000000,1648380769.609354,0.000000
244.000000,-40059.444613,-24084.764610,15726.955620,21514.515163,-21812.866248,31739.924161,58485.552190,61761.177988,-0.016000,0.962000,-0.132000,192.000000,0.000000,0.000000,0.000000,0.000000,0.000000,0.000000,0.000000,0.000000,0.000000,1648380769.617838,0.000000
245.000000,-40065.837212,-24056.154377,15742.803007,21524.104062,-21796.080088,31757.224412,58486.088632,61773.359689,-0.016000,0.962000,-0.132000,192.000000,0.000000,0.000000,0.000000,0.000000,0.000000,0.000000,0.000000,0.000000,0.000000,1648380769.617842,0.000000
246.000000,-40060.115166,-24045.470243,15748.726219,21528.485004,-21791.967367,31762.521775,58519.057455,61771.906826,-0.016000,0.962000,-0.132000,192.000000,0.000000,0.000000,0.000000,0.000000,0.000000,0.000000,0.000000,0.000000,0.000000,1648380769.624118,0.000000
247.000000,-40053.588456,-24054.165072,15736.812739,21511.274160,-21805.445469,31751.658827,58512.083711,61765.871855,-0.016000,0.962000,-0.132000,192.000000,0.000000,0.000000,0.000000,0.000000,0.000000,0.000000,0.000000,0.000000,0.000000,1648380769.624122,0.000000
248.000000,-40046.413546,-24048.063046,15724.228707,21510.469497,-21814.497926,31750.831813,58486.893295,61767.838808,-0.016000,0.962000,-0.132000,192.000000,0.000000,0.000000,0.000000,0.000000,0.000000,0.000000,0.000000,0.000000,0.000000,1648380769.631013,0.000000
249.000000,-40036.042337,-24040.709322,15729.213146,21511.564733,-21813.156821,31750.340074,58458.774800,61759.032221,-0.016000,0.962000,-0.132000,192.000000,0.000000,0.000000,0.000000,0.000000,0.000000,0.000000,0.000000,0.000000,0.000000,1648380769.639016,0.000000
250.000000,-40055.309541,-24074.348697,15732.700018,21507.429660,-21818.811812,31748.596638,58475.024518,61752.371401,-0.016000,0.962000,-0.132000,192.000000,0.000000,0.000000,0.000000,0.000000,0.000000,0.000000,0.000000,0.000000,0.000000,1648380769.639020,0.000000
251.000000,-40060.048110,-24101.371956,15742.870062,21513.866963,-21819.012978,31750.943571,58491.341292,61742.313116,-0.016000,0.962000,-0.132000,192.000000,0.000000,0.000000,0.000000,0.000000,0.000000,0.000000,0.000000,0.000000,0.000000,1648380769.647128,0.000000
252.000000,-40068.430015,-24099.807334,15728.184966,21516.079785,-21817.560115,31751.278848,58472.364661,61743.408351,-0.016000,0.962000,-0.132000,192.000000,0.000000,0.000000,0.000000,0.000000,0.000000,0.000000,0.000000,0.000000,0.000000,1648380769.647132,0.000000
253.000000,-40076.454291,-24092.140686,15745.149940,21521.600666,-21809.401728,31761.985333,58483.093498,61756.484122,-0.012000,0.956000,-0.146000,192.000000,255.000000,160.000000,29.000000,224.000000,251.000000,112.000000,0.000000,0.000000,0.000000,1648380769.653668,0.000000
254.000000,-40082.981000,-24084.094058,15766.317042,21532.553021,-21801.377452,31771.306011,58493.576466,61757.959337,-0.012000,0.956000,-0.146000,192.000000,0.000000,0.000000,0.000000,0.000000,0.000000,0.000000,0.000000,0.000000,0.000000,1648380769.653672,0.000000
255.000000,-40069.391140,-24080.204854,15750.693172,21531.681303,-21803.702033,31764.332266,58461.725230,61754.092485,-0.012000,0.956000,-0.146000,192.000000,0.000000,0.000000,0.000000,0.000000,0.000000,0.000000,0.000000,0.000000,0.000000,1648380769.661614,0.000000
0.000000,-40052.292055,-24069.699534,15733.370570,21523.902896,-21810.027577,31759.683104,58429.739884,61741.486101,-0.012000,0.956000,-0.146000,192.000000,0.000000,0.000000,0.000000,0.000000,0.000000,0.000000,0.000000,0.000000,0.000000,1648380769.661618,0.000000
1.000000,-40065.457233,-24070.504197,15733.974067,21516.549172,-21812.575676,31763.169976,58436.490111,61759.613366,-0.012000,0.956000,-0.146000,192.000000,0.000000,0.000000,0.000000,0.000000,0.000000,0.000000,0.000000,0.000000,0.000000,1648380769.669612,0.000000
2.000000,-40058.818765,-24061.295278,15736.790387,21522.472384,-21803.031481,31769.272002,58385.841058,61768.285843,-0.012000,0.956000,-0.146000,192.000000,0.000000,0.000000,0.000000,0.000000,0.000000,0.000000,0.000000,0.000000,0.000000,1648380769.669616,0.000000
3.000000,-40067.491241,-24030.874554,15730.263678,21516.504469,-21807.948864,31763.929935,58372.944101,61757.489950,-0.012000,0.956000,-0.146000,192.000000,0.000000,0.000000,0.000000,0.000000,0.000000,0.000000,0.000000,0.000000,0.000000,1648380769.676780,0.000000
4.000000,-40085.439692,-24008.656920,15734.845785,21489.794134,-21819.884696,31761.806519,58433.517329,61754.226596,-0.012000,0.956000,-0.146000,192.000000,0.000000,0.000000,0.000000,0.000000,0.000000,0.000000,0.000000,0.000000,0.000000,1648380769.676783,0.000000
5.000000,-40076.834271,-24073.879310,15738.399713,21505.172134,-21818.521240,31765.539261,58456.830198,61756.171197,-0.012000,0.956000,-0.146000,192.000000,0.000000,0.000000,0.000000,0.000000,0.000000,0.000000,0.000000,0.000000,0.000000,1648380769.685662,0.000000
6.000000,-40054.706044,-24066.547938,15739.785521,21516.884448,-21815.570809,31769.674333,58434.836082,61760.418029,-0.012000,0.956000,-0.146000,192.000000,0.000000,0.000000,0.000000,0.000000,0.000000,0.000000,0.000000,0.000000,0.000000,1648380769.685666,0.000000
7.000000,-40061.612733,-24048.755950,15740.947812,21511.944713,-21810.541667,31772.267136,58397.374558,61758.942814,-0.010000,0.980000,-0.150000,192.000000,255.000000,176.000000,30.000000,160.000000,251.000000,80.000000,0.000000,0.000000,0.000000,1648380769.691836,0.000000
8.000000,-40035.952930,-24057.584889,15722.619381,21501.126468,-21814.095594,31767.282697,58343.372744,61743.743628,-0.010000,0.980000,-0.150000,192.000000,0.000000,0.000000,0.000000,0.000000,0.000000,0.000000,0.000000,0.000000,0.000000,1648380769.699323,0.000000
9.000000,-40035.505895,-24071.219453,15718.372550,21501.014710,-21821.605780,31768.154415,58350.972337,61729.594973,-0.010000,0.980000,-0.150000,192.000000,0.000000,0.000000,0.000000,0.000000,0.000000,0.000000,0.000000,0.000000,0.000000,1648380769.699328,0.000000
10.000000,-40066.977151,-24082.417677,15734.108178,21529.043797,-21800.371623,31783.264194,58325.826624,61756.059439,-0.010000,0.980000,-0.150000,192.000000,0.000000,0.000000,0.000000,0.000000,0.000000,0.000000,0.000000,0.000000,0.000000,1648380769.706475,0.000000
11.000000,-40114.541663,-24087.826799,15750.782579,21527.501527,-21796.996510,31780.917261,58310.135700,61754.405410,-0.010000,0.980000,-0.150000,192.000000,0.000000,0.000000,0.000000,0.000000,0.000000,0.000000,0.000000,0.000000,0.000000,1648380769.706479,0.000000
12.000000,-40141.721385,-24088.854979,15736.723332,21511.408271,-21812.128641,31766.612144,58269.187304,61740.793197,-0.010000,0.980000,-0.150000,192.000000,0.000000,0.000000,0.000000,0.000000,0.000000,0.000000,0.000000,0.000000,0.000000,1648380769.713976,0.000000
13.000000,-40126.119867,-24062.390514,15737.930326,21514.135184,-21810.362853,31777.095112,58238.274841,61737.172215,-0.010000,0.980000,-0.150000,192.000000,0.000000,0.000000,0.000000,0.000000,0.000000,0.000000,0.000000,0.000000,0.000000,1648380769.713980,0.000000
14.000000,-40096.190881,-24094.688784,15731.023637,21502.244056,-21812.888600,31770.747217,58187.603436,61709.791328,-0.010000,0.980000,-0.150000,192.000000,0.000000,0.000000,0.000000,0.000000,0.000000,0.000000,0.000000,0.000000,0.000000,1648380769.721902,0.000000
15.000000,-40071.223983,-24078.215549,15715.824451,21507.228495,-21816.174306,31772.714171,58132.796959,61714.418139,-0.010000,0.980000,-0.150000,192.000000,0.000000,0.000000,0.000000,0.000000,0.000000,0.000000,0.000000,0.000000,0.000000,1648380769.721905,0.000000
16.000000,-40082.198689,-24066.883214,15720.943000,21513.419928,-21814.676740,31775.418732,58080.024490,61714.284028,-0.010000,0.980000,-0.150000,192.000000,0.000000,0.000000,0.000000,0.000000,0.000000,0.000000,0.000000,0.000000,0.000000,1648380769.729012,0.000000
17.000000,-40092.860471,-24067.285546,15719.668951,21506.781460,-21811.994530,31773.988220,58032.929365,61722.174194,-0.006000,1.000000,-0.146000,192.000000,255.000000,208.000000,31.000000,64.000000,251.000000,112.000000,0.000000,0.000000,0.000000,1648380769.729016,0.000000
18.000000,-40081.170509,-24083.736430,15728.944925,21509.933056,-21806.272484,31779.777322,57979.508696,61713.434662,-0.006000,1.000000,-0.146000,192.000000,0.000000,0.000000,0.000000,0.000000,0.000000,0.000000,0.000000,0.000000,0.000000,1648380769.736542,0.000000
19.000000,-40064.496108,-24069.453665,15721.166518,21505.842686,-21811.592199,31775.999877,57933.620564,61705.477441,-0.006000,1.000000,-0.146000,192.000000,0.000000,0.000000,0.000000,0.000000,0.000000,0.000000,0.000000,0.000000,0.000000,1648380769.736547,0.000000
20.000000,-40041.563218,-24054.925031,15706.883753,21506.468535,-21814.967312,31781.520758,57912.900497,61696.223819,-0.006000,1.000000,-0.146000,192.000000,0.000000,0.000000,0.000000,0.000000,0.000000,0.000000,0.000000,0.000000,0.000000,1648380769.744742,0.000000
21.000000,-40044.111317,-24051.751083,15712.471689,21523.634675,-21801.399803,31798.552787,57864.039584,61716.698017,-0.006000,1.000000,-0.146000,192.000000,0.000000,0.000000,0.000000,0.000000,0.000000,0.000000,0.000000,0.000000,0.000000,1648380769.744761,0.000000
22.000000,-40098.671925,-24083.088229,15722.373512,21506.513239,-21809.446431,31786.281679,57838.648002,61705.812717,-0.006000,1.000000,-0.146000,192.000000,0.000000,0.000000,0.000000,0.000000,0.000000,0.000000,0.000000,0.000000,0.000000,1648380769.751591,0.000000
23.000000,-40102.471721,-24082.417677,15752.570719,21521.421852,-21797.622359,31801.704383,57853.802485,61697.564923,-0.006000,1.000000,-0.146000,192.000000,0.000000,0.000000,0.000000,0.000000,0.000000,0.000000,0.000000,0.000000,0.000000,1648380769.759627,0.000000
24.000000,-40101.398838,-24087.938558,15748.122722,21527.769748,-21797.041213,31803.313709,57832.724790,61693.698072,-0.006000,1.000000,-0.146000,192.000000,0.000000,0.000000,0.000000,0.000000,0.000000,0.000000,0.000000,0.000000,0.000000,1648380769.759630,0.000000
25.000000,-40101.756466,-24075.332174,15736.544518,21523.701730,-21804.909027,31797.323441,57804.539240,61672.486266,-0.006000,1.000000,-0.146000,192.000000,0.000000,0.000000,0.000000,0.000000,0.000000,0.000000,0.000000,0.000000,0.000000,1648380769.767644,0.000000
26.000000,-40110.965384,-24049.359447,15728.855518,21521.175983,-21809.692301,31788.852130,57777.113650,61656.728286,-0.006000,1.000000,-0.146000,192.000000,0.000000,0.000000,0.000000,0.000000,0.000000,0.000000,0.000000,0.000000,0.000000,1648380769.767647,0.000000
27.000000,-40118.274405,-24060.356505,15735.315172,21519.946637,-21805.333710,31795.423543,57767.278882,61658.941109,-0.008000,0.992000,-0.148000,192.000000,255.000000,192.000000,31.000000,0.000000,251.000000,96.000000,0.000000,0.000000,0.000000,1648380769.774795,0.000000
28.000000,-40128.064469,-24086.910377,15726.106253,21516.884448,-21810.876943,31791.579043,57756.550045,61663.411458,-0.008000,0.992000,-0.148000,192.000000,0.000000,0.000000,0.000000,0.000000,0.000000,0.000000,0.000000,0.000000,0.000000,1648380769.774801,0.000000
29.000000,-40116.396858,-24087.312709,15709.409500,21508.234323,-21817.090728,31782.683049,57746.044725,61658.538778,-0.008000,0.992000,-0.148000,192.000000,0.000000,0.000000,0.000000,0.000000,0.000000,0.000000,0.000000,0.000000,0.000000,1648380769.783765,0.000000
30.000000,-40121.314242,-24097.169828,15671.769163,21496.477305,-21835.016827,31769.070836,57716.696884,61633.169548,-0.008000,0.992000,-0.148000,192.000000,0.000000,0.000000,0.000000,0.000000,0.000000,0.000000,0.000000,0.000000,0.000000,1648380769.783769,0.000000
31.000000,-40110.004259,-24073.253462,15678.206465,21500.679433,-21830.211202,31781.297240,57711.935963,61652.973193,-0.008000,0.992000,-0.148000,192.000000,0.000000,0.000000,0.000000,0.000000,0.000000,0.000000,0.000000,0.000000,0.000000,1648380769.789912,0.000000
32.000000,-40091.072332,-24024.191382,15685.739003,21504.233361,-21836.424987,31775.999877,57692.467593,61649.486321,-0.008000,0.992000,-0.148000,192.000000,0.000000,0.000000,0.000000,0.000000,0.000000,0.000000,0.000000,0.000000,0.000000,1648380769.789915,0.000000
33.000000,-40099.230719,-24018.983426,15697.987759,21514.291646,-21833.228687,31784.717057,57738.400428,61652.146179,-0.008000,0.992000,-0.148000,192.000000,0.000000,0.000000,0.000000,0.000000,0.000000,0.000000,0.000000,0.000000,0.000000,1648380769.796887,0.000000
34.000000,-40156.518240,-24078.461418,15719.311323,21521.779480,-21818.834164,31792.048429,57750.693888,61655.923624,-0.008000,0.992000,-0.148000,192.000000,0.000000,0.000000,0.000000,0.000000,0.000000,0.000000,0.000000,0.000000,0.000000,1648380769.796891,0.000000
35.000000,-40206.384981,-24123.142555,15728.699056,21516.884448,-21820.711711,31778.592679,57736.701696,61645.284193,-0.008000,0.992000,-0.148000,192.000000,0.000000,0.000000,0.000000,0.000000,0.000000,0.000000,0.000000,0.000000,0.000000,1648380769.804873,0.000000
36.000000,-40202.428723,-24128.641084,15715.667989,21506.759108,-21831.239382,31764.824005,57683.728061,61649.531025,-0.008000,0.992000,-0.148000,192.000000,0.000000,0.000000,0.000000,0.000000,0.000000,0.000000,0.000000,0.000000,0.000000,1648380769.804877,0.000000
37.000000,-40206.697906,-24131.032721,15700.602913,21492.409288,-21840.716522,31763.706418,57757.108838,61636.522309,-0.008000,0.992000,-0.148000,192.000000,0.000000,0.000000,0.000000,0.000000,0.000000,0.000000,0.000000,0.000000,0.000000,1648380769.812123,0.000000
38.000000,-40200.595880,-24133.424358,15701.608741,21489.280044,-21843.085807,31756.777377,57720.049646,61631.761388,-0.002000,0.968000,-0.150000,192.000000,255.000000,240.000000,30.000000,64.000000,251.000000,80.000000,0.000000,0.000000,0.000000,1648380769.812127,0.000000
39.000000,-40193.510377,-24132.597343,15685.671948,21482.127486,-21850.730103,31746.272057,57709.052588,61620.831385,-0.002000,0.968000,-0.150000,192.000000,0.000000,0.000000,0.000000,0.000000,0.000000,0.000000,0.000000,0.000000,0.000000,1648380769.818444,0.000000
40.000000,-40190.783464,-24105.439974,15695.596122,21487.424849,-21851.311249,31748.395473,57723.402408,61622.016027,-0.002000,0.968000,-0.150000,192.000000,0.000000,0.000000,0.000000,0.000000,0.000000,0.000000,0.000000,0.000000,0.000000,1648380769.826544,0.000000
41.000000,-40178.065321,-24070.571252,15678.988776,21483.066259,-21850.841862,31753.446967,57730.599669,61641.439693,-0.002000,0.968000,-0.150000,192.000000,0.000000,0.000000,0.000000,0.000000,0.000000,0.000000,0.000000,0.000000,0.000000,1648380769.826548,0.000000
42.000000,-40162.195583,-24065.050371,15668.706974,21469.319936,-21860.698981,31737.487821,57713.969971,61618.015065,-0.002000,0.968000,-0.150000,192.000000,0.000000,0.000000,0.000000,0.000000,0.000000,0.000000,0.000000,0.000000,0.000000,1648380769.834554,0.000000
43.000000,-40159.803946,-24069.408961,15671.143314,21492.409288,-21850.216013,31743.031054,57707.376207,61625.726417,-0.002000,0.968000,-0.150000,192.000000,0.000000,0.000000,0.000000,0.000000,0.000000,0.000000,0.000000,0.000000,0.000000,1648380769.834564,0.000000
44.000000,-40162.575562,-24072.337040,15688.108288,21496.611416,-21838.526051,31754.095167,57707.599724,61628.073350,-0.002000,0.968000,-0.150000,192.000000,0.000000,0.000000,0.000000,0.000000,0.000000,0.000000,0.000000,0.000000,0.000000,1648380769.842579,0.000000
45.000000,-40163.715501,-24064.871557,15688.510619,21501.126468,-21841.722350,31753.245801,57699.866021,61628.252164,-0.002000,0.968000,-0.150000,192.000000,0.000000,0.000000,0.000000,0.000000,0.000000,0.000000,0.000000,0.000000,0.000000,1648380769.842583,0.000000
46.000000,-40188.704752,-24061.988182,15673.378488,21488.318919,-21850.148958,31747.702568,57686.343215,61617.858603,-0.002000,0.968000,-0.150000,192.000000,0.000000,0.000000,0.000000,0.000000,0.000000,0.000000,0.000000,0.000000,0.000000,1648380769.850521,0.000000
47.000000,-40203.635717,-24089.413773,15667.857607,21472.426828,-21861.928327,31738.448946,57669.981738,61606.347454,-0.002000,0.968000,-0.150000,192.000000,0.000000,0.000000,0.000000,0.000000,0.000000,0.000000,0.000000,0.000000,0.000000,1648380769.850525,0.000000
48.000000,-40195.790255,-24094.979357,15679.882846,21485.077916,-21851.624173,31746.227353,57673.110983,61611.890687,0.004000,0.960000,-0.144000,192.000000,0.000000,32.000000,30.000000,0.000000,251.000000,128.000000,0.000000,0.000000,0.000000,1648380769.857725,0.000000
49.000000,-40186.089597,-24068.827816,15727.402655,21506.624997,-21823.170402,31773.071798,57686.745547,61624.184146,0.004000,0.960000,-0.144000,192.000000,0.000000,0.000000,0.000000,0.000000,0.000000,0.000000,0.000000,0.000000,0.000000,1648380769.857729,0.000000
50.000000,-40174.712560,-24076.874444,15715.600934,21510.402442,-21819.057681,31779.844377,57681.761108,61636.969344,0.004000,0.960000,-0.144000,192.000000,0.000000,0.000000,0.000000,0.000000,0.000000,0.000000,0.000000,0.000000,0.000000,1648380769.864324,0.000000
51.000000,-40205.245042,-24102.735412,15691.617512,21519.723120,-21823.773900,31768.668505,57671.434602,61626.240507,0.004000,0.960000,-0.144000,192.000000,0.000000,0.000000,0.000000,0.000000,0.000000,0.000000,0.000000,0.000000,0.000000,1648380769.864328,0.000000
52.000000,-40212.844636,-24119.163945,15696.557247,21514.358701,-21830.837051,31757.202060,57657.621224,61601.988864,0.004000,0.960000,-0.144000,192.000000,0.000000,0.000000,0.000000,0.000000,0.000000,0.000000,0.000000,0.000000,0.000000,1648380769.871744,0.000000
53.000000,-40208.642508,-24097.505104,15708.090747,21524.975780,-21812.150992,31771.596583,57649.976927,61607.196821,0.004000,0.960000,-0.144000,192.000000,0.000000,0.000000,0.000000,0.000000,0.000000,0.000000,0.000000,0.000000,0.000000,1648380769.871748,0.000000
54.000000,-40223.864046,-24100.008500,15712.628151,21502.177000,-21813.045062,31771.529528,57645.886558,61605.051053,0.004000,0.960000,-0.144000,192.000000,0.000000,0.000000,0.000000,0.000000,0.000000,0.000000,0.000000,0.000000,0.000000,1648380769.878830,0.000000
55.000000,-40212.062325,-24087.938558,15714.796271,21502.288759,-21815.883734,31777.765665,57631.626145,61619.937315,0.004000,0.960000,-0.144000,192.000000,0.000000,0.000000,0.000000,0.000000,0.000000,0.000000,0.000000,0.000000,0.000000,1648380769.886830,0.000000
56.000000,-40174.153766,-24066.950270,15692.221009,21500.947654,-21831.261734,31764.019342,57564.973243,61604.358149,0.004000,0.960000,-0.144000,192.000000,0.000000,0.000000,0.000000,0.000000,0.000000,0.000000,0.000000,0.000000,0.000000,1648380769.886833,0.000000
57.000000,-40167.291780,-24065.452703,15707.487250,21492.163419,-21831.529955,31777.229223,57629.301563,61603.620542,0.004000,0.960000,-0.144000,192.000000,0.000000,0.000000,0.000000,0.000000,0.000000,0.000000,0.000000,0.000000,0.000000,1648380769.894071,0.000000
58.000000,-40165.123661,-24068.760761,15702.905143,21483.222721,-21838.414292,31784.404133,57682.610474,61595.775079,0.006000,0.966000,-0.152000,192.000000,0.000000,48.000000,30.000000,48.000000,251.000000,64.000000,0.000000,0.000000,0.000000,1648380769.894075,0.000000
59.000000,-40180.769882,-24067.285546,15716.539707,21495.985567,-21838.146071,31780.671392,57613.945915,61592.288207,0.006000,0.966000,-0.152000,192.000000,0.000000,0.000000,0.000000,0.000000,0.000000,0.000000,0.000000,0.000000,0.000000,1648380769.901397,0.000000
60.000000,-40215.906825,-24081.881235,15711.063529,21488.430677,-21840.917688,31772.557708,57563.520379,61595.328044,0.006000,0.966000,-0.152000,192.000000,0.000000,0.000000,0.000000,0.000000,0.000000,0.000000,0.000000,0.000000,0.000000,1648380769.901401,0.000000
61.000000,-40210.609461,-24068.805464,15709.118928,21497.483134,-21836.939077,31788.941537,57664.773782,61581.157038,0.006000,0.966000,-0.152000,192.000000,0.000000,0.000000,0.000000,0.000000,0.000000,0.000000,0.000000,0.000000,0.000000,1648380769.909417,0.000000
62.000000,-40209.246005,-24102.131915,15704.872096,21509.150745,-21823.282161,31798.530435,57646.646517,61594.501030,0.006000,0.966000,-0.152000,192.000000,0.000000,0.000000,0.000000,0.000000,0.000000,0.000000,0.000000,0.000000,0.000000,1648380769.909421,0.000000
63.000000,-40220.555987,-24117.822840,15699.217105,21509.083689,-21829.138318,31787.198101,57609.676732,61582.878123,0.006000,0.966000,-0.152000,192.000000,0.000000,0.000000,0.000000,0.000000,0.000000,0.000000,0.000000,0.000000,0.000000,1648380769.917455,0.000000
64.000000,-40193.108045,-24073.633441,15699.753547,21489.816486,-21838.928382,31783.755932,57608.939124,61573.646852,0.006000,0.966000,-0.152000,192.000000,0.000000,0.000000,0.000000,0.000000,0.000000,0.000000,0.000000,0.000000,0.000000,1648380769.917458,0.000000
65.000000,-40146.281141,-24047.995990,15687.124811,21500.031233,-21842.705827,31777.653906,57575.344452,61566.248425,0.006000,0.966000,-0.152000,192.000000,0.000000,0.000000,0.000000,0.000000,0.000000,0.000000,0.000000,0.000000,0.000000,1648380769.924720,0.000000
66.000000,-40142.861324,-24013.909580,15717.925515,21488.520084,-21828.937152,31787.779246,57558.446533,61571.076402,0.006000,0.966000,-0.152000,192.000000,0.000000,0.000000,0.000000,0.000000,0.000000,0.000000,0.000000,0.000000,0.000000,1648380769.924724,0.000000
67.000000,-40222.835865,-24046.163147,15717.344370,21454.791302,-21837.453167,31781.230185,57523.130777,61564.929672,0.006000,0.966000,-0.152000,192.000000,0.000000,0.000000,0.000000,0.000000,0.000000,0.000000,0.000000,0.000000,0.000000,1648380769.933417,0.000000
68.000000,-40207.413162,-24026.560667,15687.191866,21441.536718,-21850.931269,31778.793845,57491.793632,61569.489428,0.006000,0.966000,-0.152000,192.000000,0.000000,0.000000,30.000000,128.000000,251.000000,48.000000,0.000000,0.000000,0.000000,1648380769.933421,0.000000
69.000000,-40194.896185,-24032.059196,15703.128660,21504.814506,-21844.404560,31780.246708,57470.492419,61566.002556,0.006000,0.966000,-0.152000,192.000000,0.000000,0.000000,0.000000,0.000000,0.000000,0.000000,0.000000,0.000000,0.000000,1648380769.939776,0.000000
70.000000,-40195.119702,-24083.691726,15720.965352,21504.121602,-21836.335580,31767.886194,57427.286497,61541.192119,0.006000,0.966000,-0.152000,192.000000,0.000000,0.000000,0.000000,0.000000,0.000000,0.000000,0.000000,0.000000,0.000000,1648380769.947765,0.000000
71.000000,-40192.750417,-24091.023098,15709.051872,21502.199352,-21823.438623,31782.437179,57411.439110,61576.239655,0.006000,0.966000,-0.152000,192.000000,0.000000,0.000000,0.000000,0.000000,0.000000,0.000000,0.000000,0.000000,0.000000,1648380769.947769,0.000000
72.000000,-40142.011957,-24076.941499,15698.144221,21476.763067,-21832.647542,31782.973621,57392.283665,61578.273663,0.006000,0.966000,-0.152000,192.000000,0.000000,0.000000,0.000000,0.000000,0.000000,0.000000,0.000000,0.000000,0.000000,1648380769.953945,0.000000
73.000000,-40190.604650,-24084.272872,15727.648524,21427.388063,-21847.466749,31761.091263,57341.478150,61546.265965,0.006000,0.966000,-0.152000,192.000000,0.000000,0.000000,0.000000,0.000000,0.000000,0.000000,0.000000,0.000000,0.000000,1648380769.953949,0.000000
74.000000,-40269.685122,-24085.323404,15751.699001,21456.691200,-21818.275370,31770.747217,57323.306182,61541.437988,0.006000,0.966000,-0.152000,192.000000,0.000000,0.000000,0.000000,0.000000,0.000000,0.000000,0.000000,0.000000,0.000000,1648380769.961810,0.000000
75.000000,-40279.564593,-24052.734560,15785.763059,21522.382977,-21785.954748,31783.465360,57311.169185,61549.082285,0.006000,0.966000,-0.152000,192.000000,0.000000,0.000000,0.000000,0.000000,0.000000,0.000000,0.000000,0.000000,0.000000,1648380769.961814,0.000000
76.000000,-40240.873723,-24120.482698,15777.939949,21531.234268,-21784.881864,31772.289487,57267.359765,61540.253346,0.006000,0.966000,-0.152000,192.000000,0.000000,0.000000,0.000000,0.000000,0.000000,0.000000,0.000000,0.000000,0.000000,1648380769.969778,0.000000
77.000000,-40191.588127,-24119.476869,15746.535748,21513.688149,-21794.560170,31771.015438,57259.313137,61536.073570,0.006000,0.966000,-0.152000,192.000000,0.000000,0.000000,0.000000,0.000000,0.000000,0.000000,0.000000,0.000000,0.000000,1648380769.969782,0.000000
78.000000,-40143.196600,-24081.970642,15703.754509,21513.196410,-21811.636902,31751.345903,57204.506660,61520.226183,-0.006000,0.990000,-0.150000,192.000000,255.000000,208.000000,30.000000,240.000000,251.000000,80.000000,0.000000,0.000000,0.000000,1648380769.976240,0.000000
79.000000,-40154.484231,-24076.315651,15734.242288,21546.724027,-21786.960576,31758.207888,57193.777823,61527.222279,-0.006000,0.990000,-0.150000,192.000000,0.000000,0.000000,0.000000,0.000000,0.000000,0.000000,0.000000,0.000000,0.000000,1648380769.976244,0.000000
80.000000,-40208.731915,-24056.444950,15809.791185,21546.366399,-21763.737114,31761.694761,57181.953750,61530.239764,-0.006000,0.990000,-0.150000,192.000000,0.000000,0.000000,0.000000,0.000000,0.000000,0.000000,0.000000,0.000000,0.000000,1648380769.984443,0.000000
81.000000,-40202.898109,-24023.140850,15820.296505,21510.514201,-21776.276443,31747.032016,57113.758578,61547.718829,-0.006000,0.990000,-0.150000,192.000000,0.000000,0.000000,0.000000,0.000000,0.000000,0.000000,0.000000,0.000000,0.000000,1648380769.984447,0.000000
82.000000,-40170.286914,-23936.416082,15759.477408,21466.458913,-21805.579580,31718.108859,57090.378653,61516.515793,-0.006000,0.990000,-0.150000,192.000000,0.000000,0.000000,0.000000,0.000000,0.000000,0.000000,0.000000,0.000000,0.000000,1648380769.992289,0.000000
83.000000,-40100.728285,-23919.160535,15725.167480,21496.142029,-21813.983835,31709.592844,57163.826485,61496.958017,-0.006000,0.990000,-0.150000,192.000000,0.000000,0.000000,0.000000,0.000000,0.000000,0.000000,0.000000,0.000000,0.000000,1648380769.992294,0.000000
84.000000,-40078.175375,-24011.070908,15731.627134,21508.614303,-21805.378414,31680.557928,57085.193048,61481.110630,-0.006000,0.990000,-0.150000,192.000000,0.000000,0.000000,0.000000,0.000000,0.000000,0.000000,0.000000,0.000000,0.000000,1648380769.999369,0.000000
85.000000,-40066.753634,-23960.578318,15795.396661,21529.267315,-21779.673908,31673.807701,57087.495278,61502.344787,-0.006000,0.990000,-0.150000,192.000000,0.000000,0.000000,0.000000,0.000000,0.000000,0.000000,0.000000,0.000000,0.000000,1648380770.005917,0.000000
86.000000,-40088.948916,-23996.564626,15774.810705,21491.448163,-21802.048004,31641.688245,57298.316932,61466.202017,-0.006000,0.990000,-0.150000,192.000000,0.000000,0.000000,0.000000,0.000000,0.000000,0.000000,0.000000,0.000000,0.000000,1648380770.005927,0.000000
87.000000,-40124.488190,-24030.002836,15784.444306,21512.123527,-21797.018861,31594.838988,57233.027486,61466.604348,-0.006000,0.990000,-0.150000,192.000000,0.000000,0.000000,0.000000,0.000000,0.000000,0.000000,0.000000,0.000000,0.000000,1648380770.014449,0.000000
88.000000,-40153.031367,-23979.957280,15831.382970,21541.471367,-21753.991753,31594.816636,57252.942890,61494.074642,0.004000,1.002000,-0.154000,192.000000,0.000000,32.000000,31.000000,80.000000,251.000000,48.000000,0.000000,0.000000,0.000000,1648380770.014459,0.000000
89.000000,-40157.077033,-23987.087487,15857.579214,21546.902841,-21747.733265,31560.506709,57235.285012,61501.003683,0.004000,1.002000,-0.154000,192.000000,0.000000,0.000000,0.000000,0.000000,0.000000,0.000000,0.000000,0.000000,0.000000,1648380770.022413,0.000000
90.000000,-40108.171416,-23939.031236,15842.536490,21549.003905,-21761.121960,31500.291109,57225.383189,61484.351633,0.004000,1.002000,-0.154000,192.000000,0.000000,0.000000,0.000000,0.000000,0.000000,0.000000,0.000000,0.000000,0.000000,1648380770.022430,0.000000
91.000000,-40041.384404,-23879.463837,15825.079778,21528.842631,-21770.867320,31434.107594,57202.360893,61462.961014,0.004000,1.002000,-0.154000,192.000000,0.000000,0.000000,0.000000,0.000000,0.000000,0.000000,0.000000,0.000000,0.000000,1648380770.029521,0.000000
92.000000,-40055.466003,-23887.733983,15817.726054,21527.702692,-21768.565091,31364.236041,57186.289988,61466.760810,0.004000,1.002000,-0.154000,192.000000,0.000000,0.000000,0.000000,0.000000,0.000000,0.000000,0.000000,0.000000,0.000000,1648380770.029537,0.000000
93.000000,-40048.045224,-23888.605701,15817.927220,21540.376132,-21766.240509,31293.760990,57201.690340,61453.685040,0.004000,1.002000,-0.154000,192.000000,0.000000,0.000000,0.000000,0.000000,0.000000,0.000000,0.000000,0.000000,0.000000,1648380770.036977,0.000000
94.000000,-40076.253125,-23874.613509,15837.820272,21541.381960,-21760.384352,31225.878742,57218.252983,61457.596595,0.004000,1.002000,-0.154000,192.000000,0.000000,0.000000,0.000000,0.000000,0.000000,0.000000,0.000000,0.000000,0.000000,1648380770.036994,0.000000
95.000000,-40064.764329,-23820.276418,15839.362543,21527.054492,-21761.859567,31175.900242,57195.588314,61480.909464,0.004000,1.002000,-0.154000,192.000000,0.000000,0.000000,0.000000,0.000000,0.000000,0.000000,0.000000,0.000000,0.000000,1648380770.044804,0.000000
96.000000,-40015.702249,-23811.246313,15822.866955,21504.345120,-21775.069448,31143.758433,57168.900331,61472.684023,0.004000,1.002000,-0.154000,192.000000,0.000000,0.000000,0.000000,0.000000,0.000000,0.000000,0.000000,0.000000,0.000000,1648380770.044820,0.000000
97.000000,-39957.967694,-23813.705005,15791.932141,21534.162347,-21774.890634,31126.458183,57214.497890,61475.366232,0.004000,1.002000,-0.154000,192.000000,0.000000,0.000000,0.000000,0.000000,0.000000,0.000000,0.000000,0.000000,0.000000,1648380770.052953,0.000000
98.000000,-40017.043354,-23812.855639,15801.006949,21546.634620,-21769.682678,31112.197770,57252.227634,61495.259284,0.008000,0.988000,-0.138000,192.000000,0.000000,64.000000,30.000000,224.000000,251.000000,176.000000,0.000000,0.000000,0.000000,1648380770.052970,0.000000
99.000000,-40034.790639,-23833.687464,15831.852356,21550.121492,-21753.075332,31101.290119,57268.432649,61496.913313,0.008000,0.988000,-0.138000,192.000000,0.000000,0.000000,0.000000,0.000000,0.000000,0.000000,0.000000,0.000000,0.000000,1648380770.059243,0.000000
100.000000,-40080.656419,-23854.161662,15835.853319,21524.729910,-21769.436809,31071.629354,57222.455111,61469.644185,0.008000,0.988000,-0.138000,192.000000,0.000000,0.000000,0.000000,0.000000,0.000000,0.000000,0.000000,0.000000,0.000000,1648380770.059259,0.000000
101.000000,-40037.986939,-23841.130595,15821.458795,21505.373300,-21786.334728,31061.504014,57207.144166,61471.722897,0.008000,0.988000,-0.138000,192.000000,0.000000,0.000000,0.000000,0.000000,0.000000,0.000000,0.000000,0.000000,0.000000,1648380770.066595,0.000000
102.000000,-39979.224203,-23833.910982,15818.754234,21510.648311,-21790.179228,31063.716836,57174.823543,61486.318587,0.008000,0.988000,-0.138000,192.000000,0.000000,0.000000,0.000000,0.000000,0.000000,0.000000,0.000000,0.000000,0.000000,1648380770.074353,0.000000
103.000000,-39994.915127,-23827.808956,15795.776641,21517.331483,-21788.368736,31072.925755,57250.707716,61479.143677,0.008000,0.988000,-0.138000,192.000000,0.000000,0.000000,0.000000,0.000000,0.000000,0.000000,0.000000,0.000000,0.000000,1648380770.074363,0.000000
104.000000,-40047.039395,-23828.725377,15824.833909,21522.092405,-21778.377507,31079.944203,57264.252873,61487.324415,0.008000,0.988000,-0.138000,192.000000,0.000000,0.000000,0.000000,0.000000,0.000000,0.000000,0.000000,0.000000,0.000000,1648380770.082604,0.000000
105.000000,-40074.085006,-23846.673828,15829.795996,21521.175983,-21775.382373,31069.327124,57160.987814,61485.044537,0.008000,0.988000,-0.138000,192.000000,0.000000,0.000000,0.000000,0.000000,0.000000,0.000000,0.000000,0.000000,0.000000,1648380770.082616,0.000000
106.000000,-40100.571823,-23870.031401,15850.069028,21511.810602,-21779.830370,31077.396104,57239.665954,61457.306022,0.008000,0.988000,-0.138000,192.000000,0.000000,0.000000,0.000000,0.000000,0.000000,0.000000,0.000000,0.000000,0.000000,1648380770.089237,0.000000
107.000000,-40064.920791,-23848.283154,15856.305165,21528.149727,-21770.129713,31102.407706,57306.989408,61466.872569,0.008000,0.988000,-0.138000,192.000000,0.000000,0.000000,0.000000,0.000000,0.000000,0.000000,0.000000,0.000000,0.000000,1648380770.089273,0.000000
108.000000,-40011.321308,-23819.225886,15841.731827,21545.427626,-21760.853739,31121.518448,57273.506495,61497.382700,-0.004000,0.982000,-0.148000,192.000000,255.000000,224.000000,30.000000,176.000000,251.000000,96.000000,0.000000,0.000000,0.000000,1648380770.097235,0.000000
109.000000,-39993.842243,-23822.668054,15807.511307,21518.158498,-21787.072335,31104.151142,57260.654242,61482.630549,-0.004000,0.982000,-0.148000,192.000000,0.000000,0.000000,0.000000,0.000000,0.000000,0.000000,0.000000,0.000000,0.000000,1648380770.097252,0.000000
110.000000,-39997.217357,-23852.217061,15789.294635,21490.464686,-21806.227780,31099.636090,57288.348053,61472.415802,-0.004000,0.982000,-0.148000,192.000000,0.000000,0.000000,0.000000,0.000000,0.000000,0.000000,0.000000,0.000000,0.000000,1648380770.105288,0.000000
111.000000,-39985.750912,-23802.640891,15830.533603,21527.032140,-21781.238530,31120.937302,57266.845675,61486.564456,-0.004000,0.982000,-0.148000,192.000000,0.000000,0.000000,0.000000,0.000000,0.000000,0.000000,0.000000,0.000000,0.000000,1648380770.105305,0.000000
112.000000,-39947.574132,-23789.229845,15827.627877,21514.246942,-21793.375527,31112.130715,57262.285919,61474.919197,-0.004000,0.982000,-0.148000,192.000000,0.000000,0.000000,0.000000,0.000000,0.000000,0.000000,0.000000,0.000000,0.000000,1648380770.111864,0.000000
113.000000,-39955.173726,-23800.606883,15818.106034,21519.007864,-21791.989719,31115.952863,57277.552161,61486.676215,-0.004000,0.982000,-0.148000,192.000000,0.000000,0.000000,0.000000,0.000000,0.000000,0.000000,0.000000,0.000000,0.000000,1648380770.111880,0.000000
114.000000,-40024.262968,-23813.794412,15818.374255,21525.981608,-21793.867265,31113.091840,57274.199399,61479.881284,-0.004000,0.982000,-0.148000,192.000000,0.000000,0.000000,0.000000,0.000000,0.000000,0.000000,0.000000,0.000000,0.000000,1648380770.119880,0.000000
115.000000,-40032.913093,-23804.876066,15787.014757,21513.017596,-21814.788498,31108.397974,57259.335489,61474.561569,-0.004000,0.982000,-0.148000,192.000000,0.000000,0.000000,0.000000,0.000000,0.000000,0.000000,0.000000,0.000000,0.000000,1648380770.119897,0.000000
116.000000,-40029.202703,-23785.921787,15786.679481,21509.374262,-21808.865286,31132.984892,57265.973957,61497.539162,-0.004000,0.982000,-0.148000,192.000000,0.000000,0.000000,0.000000,0.000000,0.000000,0.000000,0.000000,0.000000,0.000000,1648380770.126889,0.000000
117.000000,-40006.649793,-23782.501970,15803.711510,21512.682320,-21810.206391,31140.629189,57273.037109,61493.471145,-0.004000,0.982000,-0.148000,192.000000,0.000000,0.000000,0.000000,0.000000,0.000000,0.000000,0.000000,0.000000,0.000000,1648380770.134890,0.000000
118.000000,-40020.820799,-23783.731316,15818.642475,21509.038986,-21805.981911,31155.403692,57280.323777,61489.939569,-0.008000,0.966000,-0.134000,192.000000,255.000000,192.000000,30.000000,48.000000,251.000000,208.000000,0.000000,0.000000,0.000000,1648380770.134907,0.000000
119.000000,-40013.735296,-23747.074455,15823.313990,21508.301378,-21810.943998,31170.133492,57268.186780,61485.357462,-0.008000,0.966000,-0.134000,192.000000,0.000000,0.000000,0.000000,0.000000,0.000000,0.000000,0.000000,0.000000,0.000000,1648380770.141602,0.000000
120.000000,-39967.489537,-23732.210545,15807.980693,21502.199352,-21812.843896,31191.747629,57272.657129,61496.510982,-0.008000,0.966000,-0.134000,192.000000,0.000000,0.000000,0.000000,0.000000,0.000000,0.000000,0.000000,0.000000,0.000000,1648380770.141619,0.000000
121.000000,-39974.910316,-23771.840188,15807.757176,21503.227532,-21816.464879,31208.176161,57265.750440,61496.242761,-0.008000,0.966000,-0.134000,192.000000,0.000000,0.000000,0.000000,0.000000,0.000000,0.000000,0.000000,0.000000,0.000000,1648380770.149604,0.000000
122.000000,-40024.173561,-23802.059746,15813.412167,21492.208122,-21818.744757,31223.285940,57264.655204,61498.567343,-0.008000,0.966000,-0.134000,192.000000,0.000000,0.000000,0.000000,0.000000,0.000000,0.000000,0.000000,0.000000,0.000000,1648380770.149620,0.000000
123.000000,-40000.614822,-23786.279414,15823.045769,21533.491794,-21787.564074,31264.793130,57295.545315,61498.522639,-0.008000,0.966000,-0.134000,192.000000,0.000000,0.000000,0.000000,0.000000,0.000000,0.000000,0.000000,0.000000,0.000000,1648380770.157568,0.000000
124.000000,-39985.326229,-23766.699286,15803.398586,21533.290629,-21789.553379,31280.886386,57286.649321,61496.712148,-0.008000,0.966000,-0.134000,192.000000,0.000000,0.000000,0.000000,0.000000,0.000000,0.000000,0.000000,0.000000,0.000000,1648380770.157585,0.000000
125.000000,-39970.194098,-23755.210490,15780.577455,21515.230419,-21813.380338,31294.476246,57283.564780,61496.041595,-0.008000,0.966000,-0.134000,192.000000,0.000000,0.000000,0.000000,0.000000,0.000000,0.000000,0.000000,0.000000,0.000000,1648380770.164718,0.000000
126.000000,-39980.364142,-23742.738216,15803.242124,21507.340253,-21820.219972,31305.473304,57268.477353,61495.080470,-0.008000,0.966000,-0.134000,192.000000,0.000000,0.000000,0.000000,0.000000,0.000000,0.000000,0.000000,0.000000,0.000000,1648380770.164736,0.000000
127.000000,-40001.598299,-23741.106539,15806.550182,21496.522009,-21822.253981,31313.207008,57267.627986,61483.971653,-0.008000,0.966000,-0.134000,192.000000,0.000000,0.000000,0.000000,0.000000,0.000000,0.000000,0.000000,0.000000,0.000000,1648380770.172216,0.000000
128.000000,-40028.085116,-23746.582716,15810.797013,21497.505486,-21819.839993,31328.562656,57268.365594,61488.598465,-0.006000,0.980000,-0.136000,192.000000,255.000000,208.000000,30.000000,160.000000,251.000000,192.000000,0.000000,0.000000,0.000000,1648380770.172232,0.000000
129.000000,-39987.337886,-23765.782865,15828.432540,21528.932038,-21794.873094,31365.733607,57278.423879,61514.504136,-0.006000,0.980000,-0.136000,192.000000,0.000000,0.000000,0.000000,0.000000,0.000000,0.000000,0.000000,0.000000,0.000000,1648380770.180200,0.000000
130.000000,-39984.029828,-23769.001516,15818.418958,21522.226515,-21797.242379,31376.842424,57290.963208,61510.570229,-0.006000,0.980000,-0.136000,192.000000,0.000000,0.000000,0.000000,0.000000,0.000000,0.000000,0.000000,0.000000,0.000000,1648380770.180216,0.000000
131.000000,-40002.492369,-23792.582606,15822.978714,21513.285817,-21809.982873,31374.584898,57287.610446,61481.624720,-0.006000,0.980000,-0.136000,192.000000,0.000000,0.000000,0.000000,0.000000,0.000000,0.000000,0.000000,0.000000,0.000000,1648380770.187219,0.000000
132.000000,-40037.070517,-23795.689499,15830.578307,21538.766806,-21811.748661,31383.167968,57275.182876,61498.097956,-0.006000,0.980000,-0.136000,192.000000,0.000000,0.000000,0.000000,0.000000,0.000000,0.000000,0.000000,0.000000,0.000000,1648380770.194554,0.000000
133.000000,-40024.754706,-23746.292144,15833.908717,21526.227477,-21813.268580,31392.756867,57269.505533,61489.045499,-0.006000,0.980000,-0.136000,192.000000,0.000000,0.000000,0.000000,0.000000,0.000000,0.000000,0.000000,0.000000,0.000000,1648380770.194571,0.000000
134.000000,-39939.594560,-23753.735275,15802.884496,21521.511259,-21815.615513,31410.168875,57268.387946,61489.403127,-0.006000,0.980000,-0.136000,192.000000,0.000000,0.000000,0.000000,0.000000,0.000000,0.000000,0.000000,0.000000,0.000000,1648380770.201889,0.000000
135.000000,-39948.468202,-23783.664260,15811.221696,21527.970913,-21813.827373,31424.608102,57270.153734,61490.163087,-0.006000,0.980000,-0.136000,192.000000,0.000000,0.000000,0.000000,0.000000,0.000000,0.000000,0.000000,0.000000,0.000000,1648380770.201905,0.000000
136.000000,-39987.695514,-23761.558385,15843.743484,21557.899899,-21783.429001,31455.744082,57289.957379,61502.613008,-0.006000,0.980000,-0.136000,192.000000,0.000000,0.000000,0.000000,0.000000,0.000000,0.000000,0.000000,0.000000,0.000000,1648380770.209909,0.000000
137.000000,-40017.021002,-23764.508815,15850.091380,21548.959201,-21782.423172,31457.398112,57282.223676,61495.773375,-0.006000,0.980000,-0.136000,192.000000,0.000000,0.000000,0.000000,0.000000,0.000000,0.000000,0.000000,0.000000,0.000000,1648380770.209926,0.000000
138.000000,-40025.089982,-23779.506836,15842.335325,21542.030161,-21788.458143,31458.158071,57261.458905,61489.224313,-0.006000,0.980000,-0.136000,192.000000,0.000000,0.000000,0.000000,0.000000,0.000000,0.000000,0.000000,0.000000,0.000000,1648380770.216958,0.000000
139.000000,-39999.832511,-23765.157016,15829.639534,21529.982570,-21796.013033,31463.298972,57264.409335,61478.763697,-0.006000,0.984000,-0.150000,192.000000,255.000000,208.000000,30.000000,192.000000,251.000000,80.000000,0.000000,0.000000,0.000000,1648380770.216975,0.000000
140.000000,-39996.949136,-23759.054990,15803.443289,21493.079840,-21823.326865,31458.806271,57284.011815,61468.057211,-0.006000,0.984000,-0.150000,192.000000,0.000000,0.000000,0.000000,0.000000,0.000000,0.000000,0.000000,0.000000,0.000000,1648380770.224552,0.000000
141.000000,-39982.822833,-23765.447589,15783.326719,21502.646387,-21824.332693,31469.713923,57288.549219,61467.096086,-0.006000,0.984000,-0.150000,192.000000,0.000000,0.000000,0.000000,0.000000,0.000000,0.000000,0.000000,0.000000,0.000000,1648380770.224568,0.000000
142.000000,-39948.132926,-23771.259042,15779.437516,21504.233361,-21832.871060,31469.468054,57265.415164,61448.164159,-0.006000,0.984000,-0.150000,192.000000,0.000000,0.000000,0.000000,0.000000,0.000000,0.000000,0.000000,0.000000,0.000000,1648380770.232557,0.000000
143.000000,-39947.238856,-23745.241612,15772.083792,21506.155611,-21824.042120,31490.478693,57248.204320,61443.693810,-0.006000,0.984000,-0.150000,192.000000,0.000000,0.000000,0.000000,0.000000,0.000000,0.000000,0.000000,0.000000,0.000000,1648380770.232574,0.000000
144.000000,-39959.599371,-23728.187231,15783.259664,21503.518105,-21824.243286,31498.882949,57239.017753,61441.101008,-0.006000,0.984000,-0.150000,192.000000,0.000000,0.000000,0.000000,0.000000,0.000000,0.000000,0.000000,0.000000,0.000000,1648380770.240546,0.000000
145.000000,-39928.373984,-23697.028899,15795.620179,21513.241114,-21831.015865,31500.671089,57233.362762,61432.406179,-0.006000,0.984000,-0.150000,192.000000,0.000000,0.000000,0.000000,0.000000,0.000000,0.000000,0.000000,0.000000,0.000000,1648380770.240563,0.000000
146.000000,-39979.872403,-23718.039539,15808.695949,21529.401425,-21811.748661,31532.030586,57277.105126,61449.885243,-0.006000,0.984000,-0.150000,192.000000,0.000000,0.000000,0.000000,0.000000,0.000000,0.000000,0.000000,0.000000,0.000000,1648380770.246674,0.000000
147.000000,-40035.997633,-23788.268720,15801.230467,21538.565640,-21812.150992,31538.110261,57274.311158,61455.026144,-0.006000,0.984000,-0.150000,192.000000,0.000000,0.000000,0.000000,0.000000,0.000000,0.000000,0.000000,0.000000,0.000000,1648380770.254069,0.000000
148.000000,-40030.722622,-23828.568915,15825.280944,21527.099195,-21809.647597,31543.698197,57314.946629,61445.839577,-0.006000,0.984000,-0.150000,192.000000,0.000000,0.000000,0.000000,0.000000,0.000000,0.000000,0.000000,0.000000,0.000000,1648380770.254085,0.000000
149.000000,-40032.354299,-23825.998464,15825.772682,21523.187640,-21810.809888,31536.188011,57290.002083,61424.605420,-0.010000,0.982000,-0.146000,192.000000,255.000000,176.000000,30.000000,176.000000,251.000000,112.000000,0.000000,0.000000,0.000000,1648380770.261890,0.000000
150.000000,-39987.024961,-23790.615653,15829.639534,21545.047646,-21793.531989,31566.452273,57322.859147,61436.943583,-0.010000,0.982000,-0.146000,192.000000,0.000000,0.000000,0.000000,0.000000,0.000000,0.000000,0.000000,0.000000,0.000000,1648380770.261925,0.000000
151.000000,-39969.121214,-23784.647737,15812.965132,21538.967972,-21801.802135,31570.006200,57332.179824,61428.695789,-0.010000,0.982000,-0.146000,192.000000,0.000000,0.000000,0.000000,0.000000,0.000000,0.000000,0.000000,0.000000,0.000000,1648380770.270077,0.000000
152.000000,-39991.651772,-23782.613728,15792.669748,21519.432547,-21819.370606,31558.785624,57304.687179,61412.222554,-0.010000,0.982000,-0.146000,192.000000,0.000000,0.000000,0.000000,0.000000,0.000000,0.000000,0.000000,0.000000,0.000000,1648380770.270093,0.000000
153.000000,-39973.882136,-23775.327060,15788.512324,21515.923323,-21822.768071,31569.112130,57292.125498,61415.128281,-0.010000,0.982000,-0.146000,192.000000,0.000000,0.000000,0.000000,0.000000,0.000000,0.000000,0.000000,0.000000,0.000000,1648380770.276769,0.000000
154.000000,-39961.901601,-23778.612766,15776.732955,21516.191544,-21821.248152,31581.383238,57314.767815,61403.907705,-0.010000,0.982000,-0.146000,192.000000,0.000000,0.000000,0.000000,0.000000,0.000000,0.000000,0.000000,0.000000,0.000000,1648380770.276785,0.000000
155.000000,-39989.327191,-23769.381496,15793.206190,21517.107966,-21820.711711,31589.608680,57305.111862,61403.080690,-0.010000,0.982000,-0.146000,192.000000,0.000000,0.000000,0.000000,0.000000,0.000000,0.000000,0.000000,0.000000,0.000000,1648380770.284532,0.000000
156.000000,-39961.208697,-23757.289202,15825.929144,21540.778463,-21809.379376,31610.887541,57307.481147,61421.878507,-0.010000,0.982000,-0.146000,192.000000,0.000000,0.000000,0.000000,0.000000,0.000000,0.000000,0.000000,0.000000,0.000000,1648380770.284548,0.000000
157.000000,-39946.568304,-23763.659449,15808.248914,21531.323675,-21816.710748,31616.631939,57307.659961,61425.275973,-0.010000,0.982000,-0.146000,192.000000,0.000000,0.000000,0.000000,0.000000,0.000000,0.000000,0.000000,0.000000,0.000000,1648380770.292796,0.000000
158.000000,-39994.423389,-23777.919862,15799.464679,21515.386881,-21823.952713,31618.420079,57327.441255,61414.591839,-0.010000,0.982000,-0.146000,192.000000,0.000000,0.000000,0.000000,0.000000,0.000000,0.000000,0.000000,0.000000,0.000000,1648380770.292813,0.000000
159.000000,-40027.772191,-23789.721583,15814.529754,21521.511259,-21822.052815,31626.399651,57318.545260,61406.589914,-0.010000,0.982000,-0.148000,192.000000,255.000000,176.000000,30.000000,176.000000,251.000000,96.000000,0.000000,0.000000,0.000000,1648380770.299694,0.000000
160.000000,-40013.623537,-23777.942214,15810.394682,21516.124489,-21825.472632,31630.400614,57310.208060,61388.775574,-0.010000,0.982000,-0.148000,192.000000,0.000000,0.000000,0.000000,0.000000,0.000000,0.000000,0.000000,0.000000,0.000000,1648380770.299705,0.000000
161.000000,-40010.270776,-23776.668164,15808.517135,21519.968989,-21823.908010,31633.820430,57312.577344,61392.284798,-0.010000,0.982000,-0.148000,192.000000,0.000000,0.000000,0.000000,0.000000,0.000000,0.000000,0.000000,0.000000,0.000000,1648380770.306150,0.000000
162.000000,-40015.031697,-23771.437856,15826.219717,21544.600611,-21805.668987,31653.892297,57330.145816,61407.148708,-0.010000,0.982000,-0.148000,192.000000,0.000000,0.000000,0.000000,0.000000,0.000000,0.000000,0.000000,0.000000,0.000000,1648380770.306161,0.000000
163.000000,-39999.139607,-23789.855694,15807.935990,21549.361533,-21806.071318,31654.965181,57317.852356,61401.091385,-0.010000,0.982000,-0.148000,192.000000,0.000000,0.000000,0.000000,0.000000,0.000000,0.000000,0.000000,0.000000,0.000000,1648380770.314300,0.000000
164.000000,-39945.227199,-23811.022796,15774.207207,21537.537460,-21820.488193,31651.880640,57312.353827,61394.676434,-0.010000,0.982000,-0.148000,192.000000,0.000000,0.000000,0.000000,0.000000,0.000000,0.000000,0.000000,0.000000,0.000000,1648380770.322462,0.000000
165.000000,-39895.695734,-23805.591322,15763.858350,21520.617189,-21832.312266,31655.389864,57319.238164,61386.473344,-0.010000,0.982000,-0.148000,192.000000,0.000000,0.000000,0.000000,0.000000,0.000000,0.000000,0.000000,0.000000,0.000000,1648380770.322478,0.000000
166.000000,-39929.312757,-23786.391173,15764.797123,21514.068128,-21832.982818,31659.971972,57319.036999,61372.436449,-0.010000,0.982000,-0.148000,192.000000,0.000000,0.000000,0.000000,0.000000,0.000000,0.000000,0.000000,0.000000,0.000000,1648380770.330546,0.000000
167.000000,-39995.295107,-23778.165731,15808.517135,21516.102137,-21826.590219,31671.058437,57303.927219,61385.512219,-0.010000,0.982000,-0.148000,192.000000,0.000000,0.000000,0.000000,0.000000,0.000000,0.000000,0.000000,0.000000,0.000000,1648380770.330563,0.000000
168.000000,-39986.197947,-23779.819760,15811.646379,21533.067111,-21821.270504,31685.631774,57303.368426,61393.894123,-0.010000,0.982000,-0.148000,192.000000,0.000000,0.000000,0.000000,0.000000,0.000000,0.000000,0.000000,0.000000,0.000000,1648380770.336960,0.000000
169.000000,-39974.664447,-23771.706077,15801.409280,21547.595745,-21821.292856,31695.645356,57335.264365,61387.814449,-0.012000,0.984000,-0.148000,192.000000,255.000000,160.000000,30.000000,192.000000,251.000000,96.000000,0.000000,0.000000,0.000000,1648380770.336977,0.000000
170.000000,-39999.564290,-23780.892644,15820.184746,21570.998021,-21808.060623,31708.899940,57337.276022,61376.884446,-0.012000,0.984000,-0.148000,192.000000,0.000000,0.000000,0.000000,0.000000,0.000000,0.000000,0.000000,0.000000,0.000000,1648380770.345459,0.000000
171.000000,-40009.935499,-23816.700139,15810.819365,21536.978666,-21821.225801,31705.569530,57324.133196,61365.574463,-0.012000,0.984000,-0.148000,192.000000,0.000000,0.000000,0.000000,0.000000,0.000000,0.000000,0.000000,0.000000,0.000000,1648380770.345494,0.000000
172.000000,-39990.221261,-23814.532019,15799.531734,21532.307152,-21822.812775,31713.616158,57336.113731,61365.328594,-0.012000,0.984000,-0.148000,192.000000,0.000000,0.000000,0.000000,0.000000,0.000000,0.000000,0.000000,0.000000,0.000000,1648380770.352176,0.000000
173.000000,-39947.015339,-23791.666185,15799.352920,21547.059303,-21819.795289,31724.344996,57348.943633,61372.704670,-0.012000,0.984000,-0.148000,192.000000,0.000000,0.000000,0.000000,0.000000,0.000000,0.000000,0.000000,0.000000,0.000000,1648380770.352193,0.000000
174.000000,-39938.074641,-23790.548598,15783.818458,21540.130262,-21832.826356,31716.812458,57333.498577,61361.372335,-0.012000,0.984000,-0.148000,192.000000,0.000000,0.000000,0.000000,0.000000,0.000000,0.000000,0.000000,0.000000,0.000000,1648380770.359678,0.000000
175.000000,-39938.074641,-23812.676825,15764.864178,21519.164326,-21844.739836,31710.017527,57335.554938,61342.753332,-0.012000,0.984000,-0.148000,192.000000,0.000000,0.000000,0.000000,0.000000,0.000000,0.000000,0.000000,0.000000,0.000000,1648380770.359695,0.000000
176.000000,-39940.354519,-23822.690406,15766.160579,21513.956370,-21841.878813,31715.404298,57359.605415,61350.665850,-0.012000,0.984000,-0.148000,192.000000,0.000000,0.000000,0.000000,0.000000,0.000000,0.000000,0.000000,0.000000,0.000000,1648380770.367604,0.000000
177.000000,-39959.912295,-23827.920714,15774.184856,21518.203201,-21837.587278,31723.495629,57386.025177,61347.313088,-0.012000,0.984000,-0.148000,192.000000,0.000000,0.000000,0.000000,0.000000,0.000000,0.000000,0.000000,0.000000,0.000000,1648380770.367619,0.000000
178.000000,-39971.468147,-23818.622389,15812.763967,21533.223573,-21827.774862,31729.843525,57357.683165,61349.347097,-0.012000,0.984000,-0.148000,192.000000,0.000000,0.000000,0.000000,0.000000,0.000000,0.000000,0.000000,0.000000,0.000000,1648380770.374651,0.000000
179.000000,-40019.725563,-23823.383310,15839.474301,21550.479120,-21813.179173,31740.505307,57351.961118,61357.952518,-0.012000,0.980000,-0.150000,192.000000,255.000000,160.000000,30.000000,160.000000,251.000000,80.000000,0.000000,0.000000,0.000000,1648380770.381810,0.000000
180.000000,-40009.488465,-23828.501860,15838.647287,21552.244908,-21812.508620,31743.634551,57379.900799,61348.900062,-0.012000,0.980000,-0.150000,192.000000,0.000000,0.000000,0.000000,0.000000,0.000000,0.000000,0.000000,0.000000,0.000000,1648380770.381827,0.000000
181.000000,-39985.102711,-23791.017984,15811.311103,21560.626812,-21821.695187,31743.120461,57369.797810,61342.820387,-0.012000,0.980000,-0.150000,192.000000,0.000000,0.000000,0.000000,0.000000,0.000000,0.000000,0.000000,0.000000,0.000000,1648380770.389332,0.000000
182.000000,-39980.677066,-23753.779978,15778.811667,21530.116681,-21841.252964,31736.772565,57349.278909,61345.144969,-0.012000,0.980000,-0.150000,192.000000,0.000000,0.000000,0.000000,0.000000,0.000000,0.000000,0.000000,0.000000,0.000000,1648380770.389349,0.000000
183.000000,-39968.428310,-23792.180275,15786.075984,21526.071015,-21842.057626,31740.102975,57351.514083,61360.187693,-0.012000,0.980000,-0.150000,192.000000,0.000000,0.000000,0.000000,0.000000,0.000000,0.000000,0.000000,0.000000,0.000000,1648380770.397244,0.000000
184.000000,-39929.826847,-23818.935313,15777.962301,21516.348006,-21862.017734,31724.479106,57359.650118,61346.664887,-0.012000,0.980000,-0.150000,192.000000,0.000000,0.000000,0.000000,0.000000,0.000000,0.000000,0.000000,0.000000,0.000000,1648380770.397261,0.000000
185.000000,-39855.686111,-23798.706984,15753.934175,21521.623018,-21858.530862,31742.695778,57371.675357,61339.758198,-0.012000,0.980000,-0.150000,192.000000,0.000000,0.000000,0.000000,0.000000,0.000000,0.000000,0.000000,0.000000,0.000000,1648380770.405353,0.000000
186.000000,-39936.800592,-23813.906171,15770.362707,21516.035082,-21843.577545,31756.263287,57367.607339,61352.096361,-0.012000,0.980000,-0.150000,192.000000,0.000000,0.000000,0.000000,0.000000,0.000000,0.000000,0.000000,0.000000,0.000000,1648380770.405369,0.000000
187.000000,-40017.021002,-23815.202572,15818.441310,21525.713387,-21828.937152,31755.100996,57360.052450,61340.026419,-0.012000,0.980000,-0.150000,192.000000,0.000000,0.000000,0.000000,0.000000,0.000000,0.000000,0.000000,0.000000,0.000000,1648380770.412117,0.000000
188.000000,-40032.019023,-23806.485391,15812.987484,21528.753224,-21830.144147,31745.087414,57340.427618,61326.637724,-0.012000,0.980000,-0.150000,192.000000,0.000000,0.000000,0.000000,0.000000,0.000000,0.000000,0.000000,0.000000,0.000000,1648380770.412127,0.000000
189.000000,-39985.460339,-23799.109316,15777.962301,21523.768785,-21843.734007,31734.738557,57308.352865,61316.512384,-0.012000,1.000000,-0.152000,192.000000,255.000000,160.000000,31.000000,64.000000,251.000000,64.000000,0.000000,0.000000,0.000000,1648380770.420292,0.000000
190.000000,-39992.232918,-23810.843982,15766.160579,21508.927227,-21856.966240,31732.413975,57295.701777,61327.263573,-0.012000,1.000000,-0.152000,192.000000,0.000000,0.000000,0.000000,0.000000,0.000000,0.000000,0.000000,0.000000,0.000000,1648380770.420308,0.000000
191.000000,-39996.725618,-23807.155944,15787.014757,21514.470460,-21847.287935,31754.273981,57331.486920,61344.385009,-0.012000,1.000000,-0.152000,192.000000,0.000000,0.000000,0.000000,0.000000,0.000000,0.000000,0.000000,0.000000,0.000000,1648380770.427938,0.000000
192.000000,-40000.145435,-23795.041298,15815.446176,21525.691035,-21835.754435,31761.225374,57298.205173,61335.801939,-0.012000,1.000000,-0.152000,192.000000,0.000000,0.000000,0.000000,0.000000,0.000000,0.000000,0.000000,0.000000,0.000000,1648380770.427955,0.000000
193.000000,-39996.703267,-23798.729336,15811.780490,21521.846535,-21842.527013,31756.196231,57257.659108,61329.856375,-0.012000,1.000000,-0.152000,192.000000,0.000000,0.000000,0.000000,0.000000,0.000000,0.000000,0.000000,0.000000,0.000000,1648380770.435012,0.000000
194.000000,-39958.325321,-23769.560310,15796.156621,21519.164326,-21846.572679,31765.539261,57350.396496,61307.281114,-0.012000,1.000000,-0.152000,192.000000,0.000000,0.000000,0.000000,0.000000,0.000000,0.000000,0.000000,0.000000,0.000000,1648380770.441566,0.000000
195.000000,-39900.836635,-23770.275565,15772.240254,21508.055509,-21861.637755,31757.470281,57322.389760,61301.268494,-0.012000,1.000000,-0.152000,192.000000,0.000000,0.000000,0.000000,0.000000,0.000000,0.000000,0.000000,0.000000,0.000000,1648380770.441583,0.000000
196.000000,-39944.958978,-23797.410583,15762.450190,21501.104117,-21855.535728,31768.065008,57349.301261,61305.940009,-0.012000,1.000000,-0.152000,192.000000,0.000000,0.000000,0.000000,0.000000,0.000000,0.000000,0.000000,0.000000,0.000000,1648380770.449578,0.000000
197.000000,-39980.319438,-23828.993598,15773.581359,21513.509335,-21853.367609,31765.539261,57328.312973,61306.990541,-0.012000,1.000000,-0.152000,192.000000,0.000000,0.000000,0.000000,0.000000,0.000000,0.000000,0.000000,0.000000,0.000000,1648380770.449595,0.000000
198.000000,-39986.689685,-23839.454215,15794.212019,21518.024387,-21850.283068,31771.462473,57339.935880,61303.481317,-0.012000,1.000000,-0.152000,192.000000,0.000000,0.000000,0.000000,0.000000,0.000000,0.000000,0.000000,0.000000,0.000000,1648380770.457598,0.000000
199.000000,-40011.053087,-23830.513517,15809.545315,21517.264428,-21854.887528,31779.777322,57377.665624,61298.496878,-0.004000,0.984000,-0.158000,192.000000,255.000000,224.000000,30.000000,192.000000,251.000000,16.000000,0.000000,0.000000,0.000000,1648380770.457615,0.000000
200.000000,-40004.012287,-23830.133537,15795.664882,21525.646332,-21852.898223,31786.773418,57371.071860,61312.019683,-0.004000,0.984000,-0.158000,192.000000,0.000000,0.000000,0.000000,0.000000,0.000000,0.000000,0.000000,0.000000,0.000000,1648380770.464710,0.000000
201.000000,-39993.574022,-23819.225886,15790.300463,21526.652160,-21850.864214,31787.779246,57365.036889,61314.388968,-0.004000,0.984000,-0.158000,192.000000,0.000000,0.000000,0.000000,0.000000,0.000000,0.000000,0.000000,0.000000,0.000000,1648380770.464726,0.000000
202.000000,-39993.663429,-23793.677842,15787.282978,21514.917495,-21854.440493,31782.705400,57351.469380,61307.348169,-0.004000,0.984000,-0.158000,192.000000,0.000000,0.000000,0.000000,0.000000,0.000000,0.000000,0.000000,0.000000,0.000000,1648380770.472178,0.000000
203.000000,-39982.241688,-23806.798316,15771.189722,21502.221704,-21864.945813,31780.738447,57341.969888,61308.465756,-0.004000,0.984000,-0.158000,192.000000,0.000000,0.000000,0.000000,0.000000,0.000000,0.000000,0.000000,0.000000,0.000000,1648380770.472195,0.000000
204.000000,-40002.358258,-23831.005255,15780.175123,21509.016634,-21865.862234,31781.498406,57330.056409,61314.813651,-0.004000,0.984000,-0.158000,192.000000,0.000000,0.000000,0.000000,0.000000,0.000000,0.000000,0.000000,0.000000,0.000000,1648380770.480205,0.000000
205.000000,-39979.715941,-23835.967342,15779.191646,21511.609436,-21862.755342,31777.832720,57324.691990,61316.758253,-0.004000,0.984000,-0.158000,192.000000,0.000000,0.000000,0.000000,0.000000,0.000000,0.000000,0.000000,0.000000,0.000000,1648380770.480222,0.000000
206.000000,-39956.738348,-23804.361976,15772.150847,21510.335387,-21863.180025,31779.822025,57330.659906,61317.071178,-0.004000,0.984000,-0.158000,192.000000,0.000000,0.000000,0.000000,0.000000,0.000000,0.000000,0.000000,0.000000,0.000000,1648380770.488690,0.000000
207.000000,-39979.023037,-23800.562179,15775.101277,21508.971931,-21861.973031,31781.140778,57318.724074,61325.788358,-0.004000,0.984000,-0.158000,192.000000,0.000000,0.000000,0.000000,0.000000,0.000000,0.000000,0.000000,0.000000,0.000000,1648380770.488707,0.000000
208.000000,-39964.539106,-23826.646665,15761.019678,21479.981718,-21864.789351,31775.530490,57328.871766,61322.994390,-0.004000,0.984000,-0.158000,192.000000,0.000000,0.000000,0.000000,0.000000,0.000000,0.000000,0.000000,0.000000,0.000000,1648380770.494783,0.000000
209.000000,-39993.462264,-23828.881839,15777.381155,21500.791192,-21859.871967,31773.742351,57244.404524,61329.699913,-0.008000,0.982000,-0.162000,192.000000,255.000000,192.000000,30.000000,176.000000,250.000000,240.000000,0.000000,0.000000,0.000000,1648380770.502402,0.000000
210.000000,-40028.979186,-23848.014933,15792.535638,21519.946637,-21855.289859,31781.811331,57332.068066,61308.331646,-0.008000,0.982000,-0.162000,192.000000,0.000000,0.000000,0.000000,0.000000,0.000000,0.000000,0.000000,0.000000,0.000000,1648380770.502418,0.000000
211.000000,-40020.910206,-23835.922639,15789.473449,21521.868887,-21853.836996,31792.540168,57410.366226,61303.950704,-0.008000,0.982000,-0.162000,192.000000,0.000000,0.000000,0.000000,0.000000,0.000000,0.000000,0.000000,0.000000,0.000000,1648380770.510346,0.000000
212.000000,-40010.784866,-23823.964456,15779.526923,21496.365547,-21865.705772,31785.208796,57377.464459,61310.119785,-0.008000,0.982000,-0.162000,192.000000,0.000000,0.000000,0.000000,0.000000,0.000000,0.000000,0.000000,0.000000,0.000000,1648380770.510363,0.000000
213.000000,-39995.339810,-23823.495069,15747.876852,21508.480192,-21866.756304,31783.599470,57348.295432,61301.737881,-0.008000,0.982000,-0.162000,192.000000,0.000000,0.000000,0.000000,0.000000,0.000000,0.000000,0.000000,0.000000,0.000000,1648380770.517960,0.000000
214.000000,-39946.300083,-23783.351336,15766.361745,21522.114756,-21857.860310,31797.859883,57347.289604,61307.437576,-0.008000,0.982000,-0.162000,192.000000,0.000000,0.000000,0.000000,0.000000,0.000000,0.000000,0.000000,0.000000,0.000000,1648380770.517977,0.000000
215.000000,-39960.269923,-23778.478656,15782.455001,21516.437413,-21857.815606,31803.470171,57357.884330,61320.334532,-0.008000,0.982000,-0.162000,192.000000,0.000000,0.000000,0.000000,0.000000,0.000000,0.000000,0.000000,0.000000,0.000000,1648380770.524324,0.000000
216.000000,-39974.060950,-23817.527153,15780.622158,21501.551151,-21861.905976,31805.794752,57354.442162,61335.399608,-0.008000,0.982000,-0.162000,192.000000,0.000000,0.000000,0.000000,0.000000,0.000000,0.000000,0.000000,0.000000,0.000000,1648380770.524337,0.000000
217.000000,-39968.584772,-23813.570894,15766.317042,21507.876695,-21858.955545,31808.722831,57347.893101,61341.926317,-0.008000,0.982000,-0.162000,192.000000,0.000000,0.000000,0.000000,0.000000,0.000000,0.000000,0.000000,0.000000,0.000000,1648380770.532345,0.000000
218.000000,-40009.667278,-23821.192839,15759.969146,21522.919419,-21860.497816,31802.553749,57335.867862,61338.953535,-0.008000,0.982000,-0.162000,192.000000,0.000000,0.000000,0.000000,0.000000,0.000000,0.000000,0.000000,0.000000,0.000000,1648380770.532356,0.000000
219.000000,-39975.379702,-23828.658322,15768.663975,21506.423832,-21858.620269,31812.366165,57334.660868,61336.785416,-0.010000,0.978000,-0.166000,192.000000,255.000000,176.000000,30.000000,144.000000,250.000000,208.000000,0.000000,0.000000,0.000000,1648380770.540512,0.000000
220.000000,-40023.592415,-23862.320049,15798.794126,21521.757128,-21849.813682,31814.422526,57334.772627,61336.785416,-0.010000,0.978000,-0.166000,192.000000,0.000000,0.000000,0.000000,0.000000,0.000000,0.000000,0.000000,0.000000,0.000000,1648380770.540529,0.000000
221.000000,-40069.793471,-23884.314166,15815.893211,21528.999094,-21835.843842,31816.680052,57327.553013,61344.653230,-0.010000,0.978000,-0.166000,192.000000,0.000000,0.000000,0.000000,0.000000,0.000000,0.000000,0.000000,0.000000,0.000000,1648380770.547032,0.000000
222.000000,-40045.810049,-23885.543512,15806.192554,21532.731835,-21835.575621,31819.585779,57326.636592,61355.717344,-0.010000,0.978000,-0.166000,192.000000,0.000000,0.000000,0.000000,0.000000,0.000000,0.000000,0.000000,0.000000,0.000000,1648380770.547049,0.000000
223.000000,-40003.632307,-23860.911889,15804.113842,21537.358646,-21833.586315,31827.006558,57343.690973,61360.724135,-0.010000,0.978000,-0.166000,192.000000,0.000000,0.000000,0.000000,0.000000,0.000000,0.000000,0.000000,0.000000,0.000000,1648380770.554002,0.000000
224.000000,-39996.010363,-23850.764197,15804.806746,21522.226515,-21847.712618,31816.881218,57327.664772,61355.449123,-0.010000,0.978000,-0.166000,192.000000,0.000000,0.000000,0.000000,0.000000,0.000000,0.000000,0.000000,0.000000,0.000000,1648380770.554018,0.000000
225.000000,-39984.789787,-23824.478546,15766.518207,21525.869849,-21847.913784,31823.251465,57324.021438,61358.757181,-0.010000,0.978000,-0.166000,192.000000,0.000000,0.000000,0.000000,0.000000,0.000000,0.000000,0.000000,0.000000,0.000000,1648380770.562022,0.000000
226.000000,-39954.234952,-23779.171560,15750.849635,21498.645425,-21857.592089,31823.474982,57315.639533,61349.883538,-0.010000,0.978000,-0.166000,192.000000,0.000000,0.000000,0.000000,0.000000,0.000000,0.000000,0.000000,0.000000,0.000000,1648380770.570040,0.000000
227.000000,-39938.141696,-23815.962531,15754.381210,21481.591044,-21871.316060,31822.133878,57307.794071,61350.911719,-0.010000,0.978000,-0.166000,192.000000,0.000000,0.000000,0.000000,0.000000,0.000000,0.000000,0.000000,0.000000,0.000000,1648380770.570056,0.000000
228.000000,-39989.148377,-23867.013915,15773.179027,21502.758146,-21868.589147,31820.457497,57304.620123,61355.113847,-0.010000,0.978000,-0.166000,192.000000,0.000000,0.000000,0.000000,0.000000,0.000000,0.000000,0.000000,0.000000,0.000000,1648380770.578147,0.000000
229.000000,-40035.192971,-23885.252939,15782.544408,21520.661893,-21861.593051,31823.720851,57302.675522,61350.934070,-0.012000,0.982000,-0.172000,192.000000,255.000000,160.000000,30.000000,176.000000,250.000000,160.000000,0.000000,0.000000,0.000000,1648380770.578164,0.000000
230.000000,-40037.159924,-23874.971136,15788.132344,21513.397576,-21858.419103,31824.994901,57297.288751,61345.234376,-0.012000,0.982000,-0.172000,192.000000,0.000000,0.000000,0.000000,0.000000,0.000000,0.000000,0.000000,0.000000,0.000000,1648380770.585935,0.000000
231.000000,-40039.976244,-23864.622279,15791.596865,21520.550134,-21853.993458,31828.213552,57292.572533,61358.310146,-0.012000,0.982000,-0.172000,192.000000,0.000000,0.000000,0.000000,0.000000,0.000000,0.000000,0.000000,0.000000,0.000000,1648380770.585951,0.000000
232.000000,-40022.474828,-23848.909002,15792.334472,21532.441262,-21842.281144,31834.695558,57295.969998,61360.970004,-0.012000,0.982000,-0.172000,192.000000,0.000000,0.000000,0.000000,0.000000,0.000000,0.000000,0.000000,0.000000,0.000000,1648380770.594163,0.000000
233.000000,-39976.899621,-23823.182145,15793.876743,21535.771672,-21838.749568,31831.096927,57293.690120,61358.801885,-0.012000,0.982000,-0.172000,192.000000,0.000000,0.000000,0.000000,0.000000,0.000000,0.000000,0.000000,0.000000,0.000000,1648380770.594180,0.000000
234.000000,-39970.887002,-23829.105357,15791.820382,21532.642428,-21846.460920,31819.898703,57268.767925,61340.227585,-0.012000,0.982000,-0.172000,192.000000,0.000000,0.000000,0.000000,0.000000,0.000000,0.000000,0.000000,0.000000,0.000000,1648380770.601359,0.000000
235.000000,-40004.079342,-23854.362828,15784.556065,21530.295495,-21850.573641,31819.921055,57257.748515,61346.664887,-0.012000,0.982000,-0.172000,192.000000,0.000000,0.000000,0.000000,0.000000,0.000000,0.000000,0.000000,0.000000,0.000000,1648380770.601395,0.000000
236.000000,-39985.728560,-23826.199630,15786.455963,21526.987437,-21843.264621,31835.164945,57248.450190,61365.395649,-0.012000,0.982000,-0.172000,192.000000,0.000000,0.000000,0.000000,0.000000,0.000000,0.000000,0.000000,0.000000,0.000000,1648380770.607685,0.000000
237.000000,-39954.972560,-23790.883874,15770.608577,21500.880599,-21860.654278,31830.336968,57254.261643,61364.233358,-0.012000,0.982000,-0.172000,192.000000,0.000000,0.000000,0.000000,0.000000,0.000000,0.000000,0.000000,0.000000,0.000000,1648380770.607701,0.000000
238.000000,-39956.000740,-23826.266685,15748.413294,21503.473401,-21871.047839,31828.034738,57245.365649,61363.406344,-0.012000,0.982000,-0.172000,192.000000,0.000000,0.000000,0.000000,0.000000,0.000000,0.000000,0.000000,0.000000,0.000000,1648380770.615090,0.000000
239.000000,-39960.001702,-23850.250107,15783.706699,21528.954390,-21851.288897,31853.493375,57275.115821,61370.827123,-0.012000,0.982000,-0.172000,192.000000,0.000000,0.000000,0.000000,0.000000,0.000000,0.000000,0.000000,0.000000,0.000000,1648380770.615102,0.000000
240.000000,-39980.587659,-23836.392026,15785.785411,21533.178870,-21842.504661,31858.455462,57281.508420,61365.641518,-0.036000,0.988000,-0.178000,192.000000,254.000000,224.000000,30.000000,224.000000,250.000000,112.000000,0.000000,0.000000,0.000000,1648380770.622416,0.000000
241.000000,-39983.515737,-23830.848793,15787.774716,21543.930059,-21849.925441,31861.092968,57306.251801,61357.416076,-0.036000,0.988000,-0.178000,192.000000,0.000000,0.000000,0.000000,0.000000,0.000000,0.000000,0.000000,0.000000,0.000000,1648380770.628841,0.000000
242.000000,-39960.806365,-23807.871200,15781.918559,21541.046684,-21846.282106,31867.306753,57273.148867,61372.391745,-0.036000,0.988000,-0.178000,192.000000,0.000000,0.000000,0.000000,0.000000,0.000000,0.000000,0.000000,0.000000,0.000000,1648380770.628858,0.000000
243.000000,-39970.998761,-23813.772060,15800.358748,21531.614248,-21836.134414,31875.509843,57269.214960,61387.680338,-0.036000,0.988000,-0.178000,192.000000,0.000000,0.000000,0.000000,0.000000,0.000000,0.000000,0.000000,0.000000,0.000000,1648380770.637079,0.000000
244.000000,-40017.155113,-23856.687409,15802.683330,21526.965085,-21842.169385,31868.737265,57309.962190,61367.541417,-0.036000,0.988000,-0.178000,192.000000,0.000000,0.000000,0.000000,0.000000,0.000000,0.000000,0.000000,0.000000,0.000000,1648380770.637096,0.000000
245.000000,-40014.562311,-23872.400686,15795.039033,21533.871774,-21841.945868,31873.095855,57310.208060,61366.245015,-0.036000,0.988000,-0.178000,192.000000,0.000000,0.000000,0.000000,0.000000,0.000000,0.000000,0.000000,0.000000,0.000000,1648380770.645051,0.000000
246.000000,-39981.057046,-23861.582442,15769.200417,21529.714349,-21847.645563,31866.636201,57298.451042,61358.131332,-0.036000,0.988000,-0.178000,192.000000,0.000000,0.000000,0.000000,0.000000,0.000000,0.000000,0.000000,0.000000,0.000000,1648380770.645067,0.000000
247.000000,-39968.294200,-23853.535814,15750.871986,21516.504469,-21861.660106,31857.136709,57279.519114,61354.890329,-0.036000,0.988000,-0.178000,192.000000,0.000000,0.000000,0.000000,0.000000,0.000000,0.000000,0.000000,0.000000,0.000000,1648380770.652987,0.000000
248.000000,-39961.253400,-23824.635008,15761.287899,21516.996207,-21852.272374,31868.759616,57284.749423,61378.896103,-0.036000,0.988000,-0.178000,192.000000,0.000000,0.000000,0.000000,0.000000,0.000000,0.000000,0.000000,0.000000,0.000000,1648380770.653003,0.000000
249.000000,-39982.174633,-23807.491220,15779.348109,21515.431585,-21850.037199,31869.206651,57285.285865,61383.612321,-0.036000,0.988000,-0.178000,192.000000,0.000000,0.000000,0.000000,0.000000,0.000000,0.000000,0.000000,0.000000,0.000000,1648380770.661077,0.000000
250.000000,-40004.459322,-23830.289999,15790.635740,21513.397576,-21853.836996,31863.618715,57260.140152,61387.903856,-0.038000,0.984000,-0.178000,192.000000,254.000000,208.000000,30.000000,192.000000,250.000000,112.000000,0.000000,0.000000,0.000000,1648380770.661093,0.000000
251.000000,-40006.426276,-23864.443465,15779.862199,21510.201277,-21855.513377,31865.764483,57271.852466,61385.579274,-0.038000,0.984000,-0.178000,192.000000,0.000000,0.000000,0.000000,0.000000,0.000000,0.000000,0.000000,0.000000,0.000000,1648380770.669099,0.000000
252.000000,-39999.296069,-23874.077067,15769.178065,21517.957332,-21853.501720,31879.197881,57302.831984,61386.406289,-0.038000,0.984000,-0.178000,192.000000,0.000000,0.000000,0.000000,0.000000,0.000000,0.000000,0.000000,0.000000,0.000000,1648380770.669116,0.000000
253.000000,-39961.521621,-23847.277325,15757.331640,21518.382015,-21856.496853,31886.730419,57297.512269,61388.239132,-0.038000,0.984000,-0.178000,192.000000,0.000000,0.000000,0.000000,0.000000,0.000000,0.000000,0.000000,0.000000,0.000000,1648380770.677102,0.000000
254.000000,-39922.003737,-23811.693348,15737.662105,21497.796058,-21867.315098,31887.736248,57291.901981,61382.695899,-0.038000,0.984000,-0.178000,192.000000,0.000000,0.000000,0.000000,0.000000,0.000000,0.000000,0.000000,0.000000,0.000000,1648380770.677119,0.000000
255.000000,-39943.439060,-23825.707892,15748.055666,21502.020538,-21862.934156,31885.121093,57268.253835,61384.729908,-0.038000,0.984000,-0.178000,192.000000,0.000000,0.000000,0.000000,0.000000,0.000000,0.000000,0.000000,0.000000,0.000000,1648380770.683431,0.000000
0.000000,-39973.882136,-23855.815691,15781.069193,21513.509335,-21851.423007,31891.670155,57268.030318,61404.220629,-0.038000,0.984000,-0.178000,192.000000,0.000000,0.000000,0.000000,0.000000,0.000000,0.000000,0.000000,0.000000,0.000000,1648380770.689756,0.000000
1.000000,-40016.015174,-23875.440523,15765.512379,21509.620131,-21861.682458,31884.539948,57302.452004,61398.655045,-0.038000,0.984000,-0.178000,192.000000,0.000000,0.000000,0.000000,0.000000,0.000000,0.000000,0.000000,0.000000,0.000000,1648380770.689793,0.000000
2.000000,-40031.236712,-23853.044075,15772.910806,21521.533611,-21854.999287,31893.190073,57284.838830,61405.159403,-0.038000,0.984000,-0.178000,192.000000,0.000000,0.000000,0.000000,0.000000,0.000000,0.000000,0.000000,0.000000,0.000000,1648380770.697292,0.000000
3.000000,-40024.821761,-23842.762273,15790.389870,21531.211916,-21839.241307,31908.702184,57293.958341,61420.582106,-0.038000,0.984000,-0.178000,192.000000,0.000000,0.000000,0.000000,0.000000,0.000000,0.000000,0.000000,0.000000,0.000000,1648380770.697309,0.000000
4.000000,-40014.137627,-23874.412343,15772.530827,21517.867925,-21851.311249,31898.286271,57306.274153,61411.820222,-0.030000,0.976000,-0.172000,192.000000,255.000000,16.000000,30.000000,128.000000,250.000000,160.000000,0.000000,0.000000,0.000000,1648380770.705338,0.000000
5.000000,-39974.820909,-23866.276308,15785.673652,21538.386826,-21840.761225,31903.494227,57284.838830,61426.170042,-0.030000,0.976000,-0.172000,192.000000,0.000000,0.000000,0.000000,0.000000,0.000000,0.000000,0.000000,0.000000,0.000000,1648380770.705355,0.000000
6.000000,-39987.404941,-23871.506616,15794.703757,21535.726969,-21842.325847,31900.029707,57276.971016,61429.478100,-0.030000,0.976000,-0.172000,192.000000,0.000000,0.000000,0.000000,0.000000,0.000000,0.000000,0.000000,0.000000,0.000000,1648380770.711912,0.000000
7.000000,-39997.306764,-23871.350154,15789.026414,21537.559812,-21841.409426,31903.941262,57302.966094,61418.950429,-0.030000,0.976000,-0.172000,192.000000,0.000000,0.000000,0.000000,0.000000,0.000000,0.000000,0.000000,0.000000,0.000000,1648380770.711929,0.000000
8.000000,-39976.698455,-23867.058619,15782.767926,21542.857175,-21839.665990,31907.204617,57308.062292,61432.339124,-0.030000,0.976000,-0.172000,192.000000,0.000000,0.000000,0.000000,0.000000,0.000000,0.000000,0.000000,0.000000,0.000000,1648380770.719613,0.000000
9.000000,-39963.332112,-23841.510575,15784.131382,21546.478158,-21831.842879,31915.452411,57312.733807,61442.933851,-0.030000,0.976000,-0.172000,192.000000,0.000000,0.000000,0.000000,0.000000,0.000000,0.000000,0.000000,0.000000,0.000000,1648380770.719624,0.000000
10.000000,-39948.736423,-23810.620464,15791.418051,21552.423722,-21824.891487,31922.292044,57309.291638,61448.342973,-0.030000,0.976000,-0.172000,192.000000,0.000000,0.000000,0.000000,0.000000,0.000000,0.000000,0.000000,0.000000,0.000000,1648380770.727966,0.000000
11.000000,-39952.223295,-23824.076214,15785.293673,21530.317847,-21836.335580,31913.127829,57299.501574,61444.409066,-0.030000,0.976000,-0.172000,192.000000,0.000000,0.000000,0.000000,0.000000,0.000000,0.000000,0.000000,0.000000,0.000000,1648380770.727983,0.000000
12.000000,-39960.269923,-23840.683560,15773.737821,21515.386881,-21843.197565,31917.642882,57299.278057,61443.403237,-0.030000,0.976000,-0.172000,192.000000,0.000000,0.000000,0.000000,0.000000,0.000000,0.000000,0.000000,0.000000,0.000000,1648380770.735834,0.000000
13.000000,-39973.278639,-23853.736979,15773.827228,21533.134166,-21841.320019,31924.706033,57298.629856,61459.205921,-0.030000,0.976000,-0.172000,192.000000,0.000000,0.000000,0.000000,0.000000,0.000000,0.000000,0.000000,0.000000,0.000000,1648380770.735850,0.000000
14.000000,-39963.622685,-23853.647572,15787.864123,21541.963105,-21831.082920,31930.539838,57300.708568,61472.281691,-0.028000,0.964000,-0.178000,192.000000,255.000000,32.000000,30.000000,32.000000,250.000000,112.000000,0.000000,0.000000,0.000000,1648380770.743044,0.000000
15.000000,-39972.004589,-23835.095624,15785.293673,21541.560774,-21831.328789,31924.169591,57287.074004,61483.166991,-0.028000,0.964000,-0.178000,192.000000,0.000000,0.000000,0.000000,0.000000,0.000000,0.000000,0.000000,0.000000,0.000000,1648380770.750972,0.000000
16.000000,-39967.735406,-23833.866278,15763.679536,21534.855251,-21836.760263,31917.240550,57282.469545,61483.390508,-0.028000,0.964000,-0.178000,192.000000,0.000000,0.000000,0.000000,0.000000,0.000000,0.000000,0.000000,0.000000,0.000000,1648380770.750989,0.000000
17.000000,-39969.143566,-23841.555278,15764.595957,21546.388751,-21835.910897,31924.951902,57333.342115,61488.442002,-0.028000,0.964000,-0.178000,192.000000,0.000000,0.000000,0.000000,0.000000,0.000000,0.000000,0.000000,0.000000,0.000000,1648380770.759114,0.000000
18.000000,-39953.139717,-23838.470738,15785.383080,21553.876585,-21822.589257,31933.065585,57336.672525,61504.155279,-0.028000,0.964000,-0.178000,192.000000,0.000000,0.000000,0.000000,0.000000,0.000000,0.000000,0.000000,0.000000,0.000000,1648380770.759130,0.000000
19.000000,-39963.600333,-23840.974133,15809.969999,21556.379981,-21817.694225,31930.942170,57297.802841,61506.166936,-0.028000,0.964000,-0.178000,192.000000,0.000000,0.000000,0.000000,0.000000,0.000000,0.000000,0.000000,0.000000,0.000000,1648380770.765289,0.000000
20.000000,-39976.944325,-23854.876918,15802.839792,21549.897975,-21822.477498,31923.677853,57300.753272,61507.597447,-0.028000,0.964000,-0.178000,192.000000,0.000000,0.000000,0.000000,0.000000,0.000000,0.000000,0.000000,0.000000,0.000000,1648380770.765305,0.000000
21.000000,-39975.044426,-23863.728209,15772.642585,21534.967009,-21835.150937,31917.151143,57321.473339,61498.053252,-0.028000,0.964000,-0.178000,192.000000,0.000000,0.000000,0.000000,0.000000,0.000000,0.000000,0.000000,0.000000,0.000000,1648380770.772155,0.000000
22.000000,-39953.497345,-23841.197651,15787.238274,21542.790120,-21829.406539,31928.617588,57321.898022,61507.351578,-0.028000,0.964000,-0.178000,192.000000,0.000000,0.000000,0.000000,0.000000,0.000000,0.000000,0.000000,0.000000,0.000000,1648380770.772191,0.000000
23.000000,-39965.388473,-23840.013008,15803.823269,21548.400408,-21826.299647,31933.646731,57302.943743,61512.067796,-0.028000,0.964000,-0.178000,192.000000,0.000000,0.000000,0.000000,0.000000,0.000000,0.000000,0.000000,0.000000,0.000000,1648380770.780275,0.000000
24.000000,-39980.386493,-23857.402665,15797.609484,21535.548155,-21825.718501,31929.109326,57279.988501,61526.439968,-0.018000,0.974000,-0.178000,192.000000,255.000000,112.000000,30.000000,112.000000,250.000000,112.000000,0.000000,0.000000,0.000000,1648380770.780293,0.000000
25.000000,-39985.683857,-23822.533944,15793.340301,21532.687131,-21833.318094,31926.024786,57277.194533,61528.026942,-0.018000,0.974000,-0.178000,192.000000,0.000000,0.000000,0.000000,0.000000,0.000000,0.000000,0.000000,0.000000,0.000000,1648380770.787362,0.000000
26.000000,-39976.899621,-23824.366787,15784.109030,21538.230364,-21840.761225,31927.187076,57349.100095,61510.883154,-0.018000,0.974000,-0.178000,192.000000,0.000000,0.000000,0.000000,0.000000,0.000000,0.000000,0.000000,0.000000,0.000000,1648380770.787379,0.000000
27.000000,-39960.761662,-23870.098456,15764.461847,21523.008826,-21840.537708,31930.472783,57358.554883,61520.717921,-0.018000,0.974000,-0.178000,192.000000,0.000000,0.000000,0.000000,0.000000,0.000000,0.000000,0.000000,0.000000,0.000000,1648380770.794806,0.000000
28.000000,-39957.498307,-23883.777724,15750.581414,21528.149727,-21844.583374,31922.850838,57307.168222,61545.818930,-0.018000,0.974000,-0.178000,192.000000,0.000000,0.000000,0.000000,0.000000,0.000000,0.000000,0.000000,0.000000,0.000000,1648380770.794823,0.000000
29.000000,-39953.899676,-23850.741845,15746.714562,21535.861079,-21846.729141,31925.130716,57332.917432,61540.610974,-0.018000,0.974000,-0.178000,192.000000,0.000000,0.000000,0.000000,0.000000,0.000000,0.000000,0.000000,0.000000,0.000000,1648380770.801841,0.000000
30.000000,-39956.358368,-23849.601906,15756.862254,21537.962143,-21846.013885,31933.110289,57360.901816,61526.171747,-0.018000,0.974000,-0.178000,192.000000,0.000000,0.000000,0.000000,0.000000,0.000000,0.000000,0.000000,0.000000,0.000000,1648380770.801858,0.000000
31.000000,-39966.550763,-23870.210215,15750.000268,21531.480137,-21845.477443,31936.172478,57350.307089,61546.690648,-0.018000,0.974000,-0.178000,192.000000,0.000000,0.000000,0.000000,0.000000,0.000000,0.000000,0.000000,0.000000,0.000000,1648380770.809852,0.000000
32.000000,-39957.565362,-23859.459026,15750.044972,21522.718253,-21853.993458,31933.400861,57340.517025,61555.094904,-0.018000,0.974000,-0.178000,192.000000,0.000000,0.000000,0.000000,0.000000,0.000000,0.000000,0.000000,0.000000,0.000000,1648380770.817854,0.000000
33.000000,-39950.837487,-23833.396892,15751.542539,21513.062300,-21866.353973,31925.018957,57329.162339,61545.617765,-0.018000,0.974000,-0.178000,192.000000,0.000000,0.000000,0.000000,0.000000,0.000000,0.000000,0.000000,0.000000,0.000000,1648380770.817871,0.000000
34.000000,-39956.492478,-23837.375502,15757.711620,21517.063262,-21852.272374,31934.138469,57316.153624,61551.339811,-0.010000,0.974000,-0.170000,192.000000,255.000000,176.000000,30.000000,112.000000,250.000000,176.000000,0.000000,0.000000,0.000000,1648380770.825890,0.000000
35.000000,-39965.969618,-23841.264706,15742.803007,21524.305227,-21853.412313,31936.172478,57320.758083,61572.529265,-0.010000,0.974000,-0.170000,192.000000,0.000000,0.000000,0.000000,0.000000,0.000000,0.000000,0.000000,0.000000,0.000000,1648380770.825906,0.000000
36.000000,-39988.455473,-23879.285023,15760.326774,21527.032140,-21852.965278,31936.328940,57331.688086,61572.261044,-0.010000,0.974000,-0.170000,192.000000,0.000000,0.000000,0.000000,0.000000,0.000000,0.000000,0.000000,0.000000,0.000000,1648380770.833807,0.000000
37.000000,-40010.337831,-23915.137221,15758.069248,21517.644407,-21856.385095,31925.801268,57312.219717,61560.235806,-0.010000,0.974000,-0.170000,192.000000,0.000000,0.000000,0.000000,0.000000,0.000000,0.000000,0.000000,0.000000,0.000000,1648380770.833825,0.000000
38.000000,-40005.353392,-23896.697032,15771.189722,21519.432547,-21853.188795,31932.082109,57302.206135,61571.814009,-0.010000,0.974000,-0.170000,192.000000,0.000000,0.000000,0.000000,0.000000,0.000000,0.000000,0.000000,0.000000,0.000000,1648380770.841650,0.000000
39.000000,-39995.116293,-23872.780665,15770.005080,21534.296457,-21846.438568,31944.174402,57312.756158,61582.542847,-0.010000,0.974000,-0.170000,192.000000,0.000000,0.000000,0.000000,0.000000,0.000000,0.000000,0.000000,0.000000,0.000000,1648380770.841666,0.000000
40.000000,-39938.298158,-23880.000279,15760.147960,21542.477196,-21842.616420,31954.187984,57347.669583,61593.897533,-0.010000,0.974000,-0.170000,192.000000,0.000000,0.000000,0.000000,0.000000,0.000000,0.000000,0.000000,0.000000,0.000000,1648380770.848074,0.000000
41.000000,-39931.033841,-23895.847666,15766.205283,21517.778518,-21858.128531,31942.609780,57327.195385,61590.745937,-0.010000,0.974000,-0.170000,192.000000,0.000000,0.000000,0.000000,0.000000,0.000000,0.000000,0.000000,0.000000,0.000000,1648380770.848091,0.000000
42.000000,-39937.135868,-23885.185884,15756.214053,21510.268332,-21865.638717,31935.010187,57317.539432,61590.231847,-0.010000,0.974000,-0.170000,192.000000,0.000000,0.000000,0.000000,0.000000,0.000000,0.000000,0.000000,0.000000,0.000000,1648380770.855123,0.000000
43.000000,-39972.049293,-23876.625166,15754.045934,21525.713387,-21848.651391,31944.844955,57334.124426,61595.886838,-0.010000,0.974000,-0.170000,192.000000,0.000000,0.000000,0.000000,0.000000,0.000000,0.000000,0.000000,0.000000,0.000000,1648380770.855158,0.000000
44.000000,-39995.965659,-23871.841892,15779.683385,21532.284800,-21841.610592,31945.001417,57320.176938,61603.553486,-0.016000,0.980000,-0.170000,192.000000,255.000000,128.000000,30.000000,160.000000,250.000000,176.000000,0.000000,0.000000,0.000000,1648380770.863079,0.000000
45.000000,-39958.615894,-23870.947822,15786.947702,21516.929152,-21843.376379,31947.013074,57309.045769,61605.274571,-0.016000,0.980000,-0.170000,192.000000,0.000000,0.000000,0.000000,0.000000,0.000000,0.000000,0.000000,0.000000,0.000000,1648380770.863097,0.000000
46.000000,-39999.161959,-23876.021668,15775.503609,21515.520992,-21844.672781,31946.029597,57295.992350,61613.790585,-0.016000,0.980000,-0.170000,192.000000,0.000000,0.000000,0.000000,0.000000,0.000000,0.000000,0.000000,0.000000,0.000000,1648380770.869152,0.000000
47.000000,-39998.893738,-23865.941032,15753.844768,21508.949579,-21855.781598,31941.626303,57274.802896,61618.417396,-0.016000,0.980000,-0.170000,192.000000,0.000000,0.000000,0.000000,0.000000,0.000000,0.000000,0.000000,0.000000,0.000000,1648380770.876701,0.000000
48.000000,-40016.976299,-23903.380204,15773.603710,21513.531686,-21855.938060,31945.806080,57303.167260,61626.598135,-0.016000,0.980000,-0.170000,192.000000,0.000000,0.000000,0.000000,0.000000,0.000000,0.000000,0.000000,0.000000,0.000000,1648380770.876718,0.000000
49.000000,-40023.055973,-23920.568695,15769.625100,21502.735794,-21863.515301,31935.434870,57319.931068,61624.161795,-0.016000,0.980000,-0.170000,192.000000,0.000000,0.000000,0.000000,0.000000,0.000000,0.000000,0.000000,0.000000,0.000000,1648380770.884582,0.000000
50.000000,-39998.603165,-23897.188770,15766.987594,21508.547247,-21859.693153,31934.406690,57301.848507,61625.324085,-0.016000,0.980000,-0.170000,192.000000,0.000000,0.000000,0.000000,0.000000,0.000000,0.000000,0.000000,0.000000,0.000000,1648380770.884600,0.000000
51.000000,-39994.646906,-23880.648480,15774.318966,21521.868887,-21851.423007,31944.509678,57344.652098,61616.986885,-0.016000,0.980000,-0.170000,192.000000,0.000000,0.000000,0.000000,0.000000,0.000000,0.000000,0.000000,0.000000,0.000000,1648380770.892721,0.000000
52.000000,-40005.867482,-23894.573616,15784.600769,21510.380091,-21861.101313,31936.865382,57329.184691,61613.790585,-0.016000,0.980000,-0.170000,192.000000,0.000000,0.000000,0.000000,0.000000,0.000000,0.000000,0.000000,0.000000,0.000000,1648380770.892738,0.000000
53.000000,-39994.870424,-23890.505599,15766.741725,21511.676492,-21869.684383,31937.848859,57313.136138,61628.028646,-0.016000,0.980000,-0.170000,192.000000,0.000000,0.000000,0.000000,0.000000,0.000000,0.000000,0.000000,0.000000,0.000000,1648380770.900741,0.000000
54.000000,-39996.680915,-23897.993433,15760.617347,21513.844611,-21863.560005,31938.541763,57317.002990,61636.097626,-0.018000,0.982000,-0.166000,192.000000,255.000000,112.000000,30.000000,176.000000,250.000000,208.000000,0.000000,0.000000,0.000000,1648380770.900759,0.000000
55.000000,-40013.779999,-23909.124602,15780.465696,21513.174059,-21851.043028,31939.614646,57320.512214,61631.046132,-0.018000,0.982000,-0.166000,192.000000,0.000000,0.000000,0.000000,0.000000,0.000000,0.000000,0.000000,0.000000,0.000000,1648380770.908770,0.000000
56.000000,-39997.820854,-23892.427849,15765.691193,21502.422869,-21861.481292,31929.377547,57310.520984,61629.280344,-0.018000,0.982000,-0.166000,192.000000,0.000000,0.000000,0.000000,0.000000,0.000000,0.000000,0.000000,0.000000,0.000000,1648380770.908787,0.000000
57.000000,-39978.464243,-23871.283099,15734.398751,21502.109945,-21867.248042,31932.573847,57311.571516,61632.834272,-0.018000,0.982000,-0.166000,192.000000,0.000000,0.000000,0.000000,0.000000,0.000000,0.000000,0.000000,0.000000,0.000000,1648380770.916597,0.000000
58.000000,-39941.807382,-23868.667945,15727.156785,21498.779535,-21872.657165,31935.300760,57310.923315,61649.978060,-0.018000,0.982000,-0.166000,192.000000,0.000000,0.000000,0.000000,0.000000,0.000000,0.000000,0.000000,0.000000,0.000000,1648380770.916614,0.000000
59.000000,-39940.265112,-23848.573726,15731.135396,21493.012785,-21883.363650,31929.198733,57311.057426,61649.016935,-0.018000,0.982000,-0.166000,192.000000,0.000000,0.000000,0.000000,0.000000,0.000000,0.000000,0.000000,0.000000,0.000000,1648380770.923984,0.000000
60.000000,-39958.235914,-23850.898308,15749.463826,21491.224646,-21889.823304,31926.918856,57354.464514,61639.696257,-0.018000,0.982000,-0.166000,192.000000,0.000000,0.000000,0.000000,0.000000,0.000000,0.000000,0.000000,0.000000,0.000000,1648380770.924000,0.000000
61.000000,-40009.197892,-23894.148933,15760.170312,21504.590989,-21867.560967,31934.361986,57366.601511,61642.110245,-0.018000,0.982000,-0.166000,192.000000,0.000000,0.000000,0.000000,0.000000,0.000000,0.000000,0.000000,0.000000,0.000000,1648380770.930146,0.000000
62.000000,-40066.105433,-23930.694035,15773.089620,21516.102137,-21858.530862,31935.032539,57360.477133,61651.565033,-0.018000,0.982000,-0.166000,192.000000,0.000000,0.000000,0.000000,0.000000,0.000000,0.000000,0.000000,0.000000,0.000000,1648380770.937036,0.000000
63.000000,-40052.850849,-23912.209143,15777.984652,21499.517143,-21862.464769,31939.838164,57368.188485,61655.007202,-0.018000,0.982000,-0.166000,192.000000,0.000000,0.000000,0.000000,0.000000,0.000000,0.000000,0.000000,0.000000,0.000000,1648380770.937053,0.000000
64.000000,-40027.951005,-23878.592119,15793.876743,21497.907817,-21862.665935,31945.761376,57381.085441,61668.977042,-0.016000,0.976000,-0.166000,192.000000,255.000000,128.000000,30.000000,128.000000,250.000000,208.000000,0.000000,0.000000,0.000000,1648380770.945073,0.000000
65.000000,-40019.636157,-23867.058619,15774.587187,21494.510352,-21869.684383,31939.838164,57391.099023,61664.841970,-0.016000,0.976000,-0.166000,192.000000,0.000000,0.000000,0.000000,0.000000,0.000000,0.000000,0.000000,0.000000,0.000000,1648380770.945110,0.000000
66.000000,-40030.990843,-23885.454105,15770.832094,21491.604625,-21875.629947,31930.316321,57369.328424,61656.147141,-0.016000,0.976000,-0.166000,192.000000,0.000000,0.000000,0.000000,0.000000,0.000000,0.000000,0.000000,0.000000,0.000000,1648380770.952006,0.000000
67.000000,-40019.770267,-23896.071183,15770.049783,21522.271219,-21864.968165,31933.780841,57367.026194,61662.226815,-0.016000,0.976000,-0.166000,192.000000,0.000000,0.000000,0.000000,0.000000,0.000000,0.000000,0.000000,0.000000,0.000000,1648380770.952023,0.000000
68.000000,-40002.335906,-23881.207273,15770.139190,21500.277102,-21869.192644,31930.808059,57362.377031,61660.930414,-0.016000,0.976000,-0.166000,192.000000,0.000000,0.000000,0.000000,0.000000,0.000000,0.000000,0.000000,0.000000,0.000000,1648380770.959670,0.000000
69.000000,-40004.459322,-23867.058619,15759.522111,21496.298492,-21876.434609,31925.197771,57363.852246,61655.320126,-0.016000,0.976000,-0.166000,192.000000,0.000000,0.000000,0.000000,0.000000,0.000000,0.000000,0.000000,0.000000,0.000000,1648380770.959686,0.000000
70.000000,-39986.712037,-23866.052790,15748.837978,21494.420945,-21878.155694,31922.292044,57328.178862,61660.818656,-0.016000,0.976000,-0.166000,192.000000,0.000000,0.000000,0.000000,0.000000,0.000000,0.000000,0.000000,0.000000,0.000000,1648380770.967714,0.000000
71.000000,-39970.931705,-23898.060488,15750.357896,21492.051660,-21876.859293,31923.074355,57330.905775,61656.080086,-0.016000,0.976000,-0.166000,192.000000,0.000000,0.000000,0.000000,0.000000,0.000000,0.000000,0.000000,0.000000,0.000000,1648380770.967730,0.000000
72.000000,-39974.798557,-23897.613454,15762.651356,21488.922416,-21880.882607,31943.839126,57388.394462,61661.913891,-0.016000,0.976000,-0.166000,192.000000,0.000000,0.000000,0.000000,0.000000,0.000000,0.000000,0.000000,0.000000,0.000000,1648380770.975699,0.000000
73.000000,-39960.046406,-23872.221872,15747.541576,21499.427736,-21876.367554,31969.677743,57387.098061,61675.861380,-0.016000,0.976000,-0.166000,192.000000,0.000000,0.000000,0.000000,0.000000,0.000000,0.000000,0.000000,0.000000,0.000000,1648380770.975716,0.000000
74.000000,-39952.893848,-23860.174282,15749.463826,21492.230474,-21865.594013,31970.840033,57332.872728,61684.556208,-0.022000,0.974000,-0.166000,192.000000,255.000000,80.000000,30.000000,112.000000,250.000000,208.000000,0.000000,0.000000,0.000000,1648380770.983761,0.000000
75.000000,-39984.655676,-23872.244224,15770.921501,21503.227532,-21852.987630,31975.288031,57364.947482,61668.418249,-0.022000,0.974000,-0.166000,192.000000,0.000000,0.000000,0.000000,0.000000,0.000000,0.000000,0.000000,0.000000,0.000000,1648380770.983778,0.000000
76.000000,-40004.325212,-23883.353041,15785.293673,21513.956370,-21847.802025,31978.216109,57391.970741,61668.418249,-0.022000,0.974000,-0.166000,192.000000,0.000000,0.000000,0.000000,0.000000,0.000000,0.000000,0.000000,0.000000,0.000000,1648380770.990742,0.000000
77.000000,-40024.397078,-23887.577520,15792.356824,21518.225553,-21852.875871,31973.119911,57401.403177,61662.204464,-0.022000,0.974000,-0.166000,192.000000,0.000000,0.000000,0.000000,0.000000,0.000000,0.000000,0.000000,0.000000,0.000000,1648380770.998752,0.000000
78.000000,-40014.472904,-23871.305450,15797.564780,21517.666759,-21849.970144,31973.365781,57389.333235,61667.211255,-0.022000,0.974000,-0.166000,192.000000,0.000000,0.000000,0.000000,0.000000,0.000000,0.000000,0.000000,0.000000,0.000000,1648380770.998768,0.000000
79.000000,-39993.238746,-23877.563939,15784.153734,21513.241114,-21849.925441,31974.170443,57370.624825,61670.943996,-0.022000,0.974000,-0.166000,192.000000,0.000000,0.000000,0.000000,0.000000,0.000000,0.000000,0.000000,0.000000,0.000000,1648380771.005801,0.000000
80.000000,-39988.813101,-23884.537683,15771.145018,21517.934980,-21848.673743,31969.051894,57356.967909,61670.765182,-0.022000,0.974000,-0.166000,192.000000,0.000000,0.000000,0.000000,0.000000,0.000000,0.000000,0.000000,0.000000,0.000000,1648380771.005812,0.000000
81.000000,-39999.810159,-23898.686337,15771.860274,21500.500619,-21858.866138,31958.904202,57370.378956,61663.523217,-0.022000,0.974000,-0.166000,192.000000,0.000000,0.000000,0.000000,0.000000,0.000000,0.000000,0.000000,0.000000,0.000000,1648380771.012078,0.000000
82.000000,-39971.266982,-23869.405552,15785.181914,21509.642483,-21852.026505,31971.622344,57383.991168,61676.755449,-0.022000,0.974000,-0.166000,192.000000,0.000000,0.000000,0.000000,0.000000,0.000000,0.000000,0.000000,0.000000,0.000000,1648380771.012095,0.000000
83.000000,-39972.473976,-23866.969212,15765.467675,21512.101175,-21858.240289,31975.623307,57387.567447,61678.275368,-0.022000,0.974000,-0.166000,192.000000,0.000000,0.000000,0.000000,0.000000,0.000000,0.000000,0.000000,0.000000,0.000000,1648380771.019780,0.000000
84.000000,-39982.800482,-23869.405552,15760.639699,21506.557942,-21866.421028,31966.548498,57363.829895,61675.526103,-0.022000,0.974000,-0.166000,192.000000,0.000000,0.000000,0.000000,0.000000,0.000000,0.000000,0.000000,0.000000,0.000000,1648380771.019798,0.000000
85.000000,-40009.868444,-23869.874939,15762.584300,21487.156628,-21878.245101,31953.003341,57339.578252,61665.311356,-0.026000,0.974000,-0.168000,192.000000,255.000000,48.000000,30.000000,112.000000,250.000000,192.000000,0.000000,0.000000,0.000000,1648380771.027959,0.000000
86.000000,-40010.896624,-23858.542604,15764.417143,21482.172189,-21878.446266,31960.446472,57364.209874,61659.589310,-0.026000,0.974000,-0.168000,192.000000,0.000000,0.000000,0.000000,0.000000,0.000000,0.000000,0.000000,0.000000,0.000000,1648380771.027994,0.000000
87.000000,-39963.823851,-23858.229680,15757.175178,21508.256675,-21869.907900,31967.889603,57366.243883,61665.780743,-0.026000,0.974000,-0.168000,192.000000,0.000000,0.000000,0.000000,0.000000,0.000000,0.000000,0.000000,0.000000,0.000000,1648380771.034631,0.000000
88.000000,-39957.855935,-23854.832215,15749.776751,21518.449070,-21857.145054,31980.630097,57381.465421,61671.659252,-0.026000,0.974000,-0.168000,192.000000,0.000000,0.000000,0.000000,0.000000,0.000000,0.000000,0.000000,0.000000,0.000000,1648380771.034647,0.000000
89.000000,-39974.016246,-23865.561052,15762.941928,21520.639541,-21851.646525,31981.345353,57383.991168,61685.785554,-0.026000,0.974000,-0.168000,192.000000,0.000000,0.000000,0.000000,0.000000,0.000000,0.000000,0.000000,0.000000,0.000000,1648380771.042613,0.000000
90.000000,-39989.058970,-23856.821520,15762.852521,21521.332445,-21860.475464,31969.431873,57354.889197,61684.131525,-0.026000,0.974000,-0.168000,192.000000,0.000000,0.000000,0.000000,0.000000,0.000000,0.000000,0.000000,0.000000,0.000000,1648380771.042630,0.000000
91.000000,-39954.100842,-23838.448386,15757.711620,21512.972893,-21859.603746,31972.874042,57354.866845,61676.464877,-0.026000,0.974000,-0.168000,192.000000,0.000000,0.000000,0.000000,0.000000,0.000000,0.000000,0.000000,0.000000,0.000000,1648380771.049581,0.000000
92.000000,-39922.875455,-23845.667999,15752.883643,21521.734777,-21856.474502,31983.357010,57377.419755,61687.573694,-0.026000,0.974000,-0.168000,192.000000,0.000000,0.000000,0.000000,0.000000,0.000000,0.000000,0.000000,0.000000,0.000000,1648380771.049597,0.000000
93.000000,-39963.376816,-23863.102360,15758.449228,21541.627829,-21849.254888,31990.733086,57361.237092,61707.220877,-0.026000,0.974000,-0.168000,192.000000,0.000000,0.000000,0.000000,0.000000,0.000000,0.000000,0.000000,0.000000,0.000000,1648380771.057591,0.000000
94.000000,-40003.498197,-23877.519235,15759.723277,21528.797928,-21856.586260,31981.904147,57354.263348,61693.362796,-0.026000,0.974000,-0.168000,192.000000,0.000000,0.000000,0.000000,0.000000,0.000000,0.000000,0.000000,0.000000,0.000000,1648380771.065607,0.000000
95.000000,-40014.159979,-23877.139256,15761.422010,21513.598742,-21866.331621,31977.478501,57395.524668,61672.598025,-0.024000,0.982000,-0.170000,192.000000,255.000000,64.000000,30.000000,176.000000,250.000000,176.000000,0.000000,0.000000,0.000000,1648380771.065624,0.000000
96.000000,-39969.881173,-23832.122842,15758.382172,21516.817393,-21861.391885,31985.122798,57361.706479,61696.268522,-0.024000,0.982000,-0.170000,192.000000,0.000000,0.000000,0.000000,0.000000,0.000000,0.000000,0.000000,0.000000,0.000000,1648380771.073627,0.000000
97.000000,-39963.645037,-23809.726394,15755.945832,21509.217800,-21866.130455,31983.379362,57357.392592,61702.303493,-0.024000,0.982000,-0.170000,192.000000,0.000000,0.000000,0.000000,0.000000,0.000000,0.000000,0.000000,0.000000,0.000000,1648380771.073644,0.000000
98.000000,-39992.367028,-23833.843927,15777.179989,21516.437413,-21858.575566,31995.941042,57379.923151,61701.699996,-0.024000,0.982000,-0.170000,192.000000,0.000000,0.000000,0.000000,0.000000,0.000000,0.000000,0.000000,0.000000,0.000000,1648380771.081669,0.000000
99.000000,-40009.153188,-23875.753448,15765.981766,21516.236248,-21854.641659,31996.589243,57405.627657,61700.493002,-0.024000,0.982000,-0.170000,192.000000,0.000000,0.000000,0.000000,0.000000,0.000000,0.000000,0.000000,0.000000,0.000000,1648380771.081686,0.000000
100.000000,-39994.088113,-23892.249035,15748.078018,21517.063262,-21860.654278,31991.962432,57410.254468,61704.382206,-0.024000,0.982000,-0.170000,192.000000,0.000000,0.000000,0.000000,0.000000,0.000000,0.000000,0.000000,0.000000,0.000000,1648380771.088756,0.000000
101.000000,-39992.031752,-23898.909855,15738.824396,21526.607457,-21860.251946,31990.576624,57398.273933,61703.532839,-0.024000,0.982000,-0.170000,192.000000,0.000000,0.000000,0.000000,0.000000,0.000000,0.000000,0.000000,0.000000,0.000000,1648380771.088773,0.000000
102.000000,-39992.456435,-23887.443410,15756.884606,21539.213841,-21851.758284,31998.667955,57390.026139,61716.720368,-0.024000,0.982000,-0.170000,192.000000,0.000000,0.000000,0.000000,0.000000,0.000000,0.000000,0.000000,0.000000,0.000000,1648380771.095080,0.000000
103.000000,-39973.055121,-23876.222834,15745.753437,21532.284800,-21857.905013,31991.537749,57408.086349,61697.453165,-0.024000,0.982000,-0.170000,192.000000,0.000000,0.000000,0.000000,0.000000,0.000000,0.000000,0.000000,0.000000,0.000000,1648380771.095097,0.000000
104.000000,-39937.649958,-23872.154817,15720.674779,21528.663817,-21870.891377,31979.557214,57380.750165,61679.169438,-0.024000,0.982000,-0.170000,192.000000,0.000000,0.000000,0.000000,0.000000,0.000000,0.000000,0.000000,0.000000,0.000000,1648380771.102846,0.000000
105.000000,-39932.665519,-23858.117921,15729.146091,21533.648256,-21857.346220,31994.577586,57382.538305,61697.073185,-0.020000,0.976000,-0.168000,192.000000,255.000000,96.000000,30.000000,128.000000,250.000000,192.000000,0.000000,0.000000,0.000000,1648380771.102863,0.000000
106.000000,-39955.106670,-23830.424110,15749.642640,21517.309131,-21859.804912,31998.511493,57394.675302,61709.724272,-0.020000,0.976000,-0.168000,192.000000,0.000000,0.000000,0.000000,0.000000,0.000000,0.000000,0.000000,0.000000,0.000000,1648380771.110864,0.000000
107.000000,-39947.931760,-23777.450475,15749.039143,21488.050698,-21873.283013,31997.103333,57388.573276,61716.385092,-0.020000,0.976000,-0.168000,192.000000,0.000000,0.000000,0.000000,0.000000,0.000000,0.000000,0.000000,0.000000,0.000000,1648380771.110900,0.000000
108.000000,-39963.600333,-23805.188990,15757.510454,21498.891294,-21865.906938,32003.562987,57396.217572,61726.510433,-0.020000,0.976000,-0.168000,192.000000,0.000000,0.000000,0.000000,0.000000,0.000000,0.000000,0.000000,0.000000,0.000000,1648380771.117216,0.000000
109.000000,-40038.836305,-23864.935203,15760.416181,21517.666759,-21864.498778,31995.762228,57383.566485,61727.717427,-0.020000,0.976000,-0.168000,192.000000,0.000000,0.000000,0.000000,0.000000,0.000000,0.000000,0.000000,0.000000,0.000000,1648380771.124610,0.000000
110.000000,-40063.803204,-23919.071128,15756.661088,21525.981608,-21862.174197,31993.057667,57391.166078,61722.531822,-0.020000,0.976000,-0.168000,192.000000,0.000000,0.000000,0.000000,0.000000,0.000000,0.000000,0.000000,0.000000,0.000000,1648380771.124626,0.000000
111.000000,-40036.221151,-23918.512335,15756.012887,21534.899954,-21853.792292,31990.710734,57375.855133,61716.809775,-0.020000,0.976000,-0.168000,192.000000,0.000000,0.000000,0.000000,0.000000,0.000000,0.000000,0.000000,0.000000,0.000000,1648380771.132596,0.000000
112.000000,-39994.691610,-23902.128506,15756.415219,21526.138070,-21859.044952,31988.788484,57361.147685,61722.576526,-0.020000,0.976000,-0.168000,192.000000,0.000000,0.000000,0.000000,0.000000,0.000000,0.000000,0.000000,0.000000,0.000000,1648380771.132613,0.000000
113.000000,-39960.716958,-23890.192674,15719.065454,21522.338274,-21866.801008,31987.156807,57353.861016,61728.320924,-0.020000,0.976000,-0.168000,192.000000,0.000000,0.000000,0.000000,0.000000,0.000000,0.000000,0.000000,0.000000,0.000000,1648380771.140573,0.000000
114.000000,-39942.165010,-23882.570730,15722.351160,21525.601628,-21862.822397,31992.320060,57390.361415,61721.861270,-0.020000,0.976000,-0.168000,192.000000,0.000000,0.000000,0.000000,0.000000,0.000000,0.000000,0.000000,0.000000,0.000000,1648380771.140591,0.000000
115.000000,-39953.653807,-23868.064447,15747.854501,21536.308114,-21850.841862,32002.423048,57382.024215,61728.007999,-0.020000,0.980000,-0.168000,192.000000,255.000000,96.000000,30.000000,160.000000,250.000000,192.000000,0.000000,0.000000,0.000000,1648380771.148558,0.000000
116.000000,-39977.234897,-23866.566881,15763.344260,21537.626867,-21849.657220,32007.809819,57416.535308,61732.254831,-0.020000,0.980000,-0.168000,192.000000,0.000000,0.000000,0.000000,0.000000,0.000000,0.000000,0.000000,0.000000,0.000000,1648380771.148575,0.000000
117.000000,-39975.357351,-23853.513462,15764.975937,21520.013692,-21853.367609,32004.412354,57385.824011,61724.029389,-0.020000,0.980000,-0.168000,192.000000,0.000000,0.000000,0.000000,0.000000,0.000000,0.000000,0.000000,0.000000,0.000000,1648380771.156408,0.000000
118.000000,-39980.833528,-23839.565973,15757.935138,21520.281913,-21856.742723,31996.321022,57336.359601,61726.108101,-0.020000,0.980000,-0.168000,192.000000,0.000000,0.000000,0.000000,0.000000,0.000000,0.000000,0.000000,0.000000,0.000000,1648380771.156422,0.000000
119.000000,-39966.126080,-23834.894459,15735.091655,21528.552059,-21859.246118,31996.656298,57358.398421,61730.891374,-0.020000,0.980000,-0.168000,192.000000,0.000000,0.000000,0.000000,0.000000,0.000000,0.000000,0.000000,0.000000,0.000000,1648380771.164421,0.000000
120.000000,-39918.896844,-23839.834194,15718.707826,21522.025349,-21862.621231,32006.312252,57423.218480,61732.411293,-0.020000,0.980000,-0.168000,192.000000,0.000000,0.000000,0.000000,0.000000,0.000000,0.000000,0.000000,0.000000,0.000000,1648380771.164438,0.000000
121.000000,-39958.772356,-23867.863282,15735.762207,21508.614303,-21859.469635,31998.533845,57401.850212,61729.304401,-0.020000,0.980000,-0.168000,192.000000,0.000000,0.000000,0.000000,0.000000,0.000000,0.000000,0.000000,0.000000,0.000000,1648380771.170869,0.000000
122.000000,-40010.874273,-23886.057602,15781.203303,21530.720178,-21835.910897,32005.239368,57394.585895,61736.948697,-0.020000,0.980000,-0.168000,192.000000,0.000000,0.000000,0.000000,0.000000,0.000000,0.000000,0.000000,0.000000,0.000000,1648380771.170885,0.000000
123.000000,-40033.516590,-23904.877771,15797.162449,21535.861079,-21835.888545,31997.662127,57394.138860,61735.540537,-0.020000,0.980000,-0.168000,192.000000,0.000000,0.000000,0.000000,0.000000,0.000000,0.000000,0.000000,0.000000,0.000000,1648380771.177533,0.000000
124.000000,-40017.244520,-23895.713555,15791.418051,21543.035989,-21831.708769,31998.220920,57391.993093,61735.048799,-0.020000,0.980000,-0.168000,192.000000,0.000000,0.000000,0.000000,0.000000,0.000000,0.000000,0.000000,0.000000,0.000000,1648380771.184463,0.000000
125.000000,-40004.369915,-23887.801038,15778.096411,21540.867870,-21839.710693,31992.185949,57373.642310,61734.981744,-0.022000,0.974000,-0.164000,192.000000,255.000000,80.000000,30.000000,112.000000,250.000000,224.000000,0.000000,0.000000,0.000000,1648380771.184480,0.000000
126.000000,-39994.982182,-23880.469666,15771.972033,21540.510242,-21846.460920,31986.039220,57367.830857,61733.350066,-0.022000,0.974000,-0.164000,192.000000,0.000000,0.000000,0.000000,0.000000,0.000000,0.000000,0.000000,0.000000,0.000000,1648380771.192136,0.000000
127.000000,-39978.866575,-23886.214064,15762.830170,21527.166251,-21856.966240,31982.932327,57386.271046,61727.851537,-0.022000,0.974000,-0.164000,192.000000,0.000000,0.000000,0.000000,0.000000,0.000000,0.000000,0.000000,0.000000,0.000000,1648380771.192153,0.000000
128.000000,-39943.729632,-23866.119846,15750.514358,21526.696864,-21859.223766,31983.580528,57369.529589,61734.020619,-0.022000,0.974000,-0.164000,192.000000,0.000000,0.000000,0.000000,0.000000,0.000000,0.000000,0.000000,0.000000,0.000000,1648380771.199988,0.000000
129.000000,-39936.107687,-23853.088779,15746.580451,21520.348969,-21860.609574,31984.742818,57373.485848,61737.015752,-0.022000,0.974000,-0.164000,192.000000,0.000000,0.000000,0.000000,0.000000,0.000000,0.000000,0.000000,0.000000,0.000000,1648380771.200024,0.000000
130.000000,-39954.391414,-23866.566881,15754.984707,21515.945675,-21862.263603,31991.761266,57402.610171,61740.726142,-0.022000,0.974000,-0.164000,192.000000,0.000000,0.000000,0.000000,0.000000,0.000000,0.000000,0.000000,0.000000,0.000000,1648380771.207956,0.000000
131.000000,-39989.662467,-23885.901139,15747.362762,21513.866963,-21869.907900,31986.307441,57393.267142,61741.016715,-0.022000,0.974000,-0.164000,192.000000,0.000000,0.000000,0.000000,0.000000,0.000000,0.000000,0.000000,0.000000,0.000000,1648380771.207972,0.000000
132.000000,-39990.847110,-23869.204386,15757.108123,21504.903913,-21866.465731,31992.007135,57387.634502,61739.630907,-0.022000,0.974000,-0.164000,192.000000,0.000000,0.000000,0.000000,0.000000,0.000000,0.000000,0.000000,0.000000,0.000000,1648380771.216137,0.000000
133.000000,-39992.165863,-23871.283099,15751.117855,21496.477305,-21869.483217,31985.547481,57360.030098,61731.338409,-0.022000,0.974000,-0.164000,192.000000,0.000000,0.000000,0.000000,0.000000,0.000000,0.000000,0.000000,0.000000,0.000000,1648380771.216154,0.000000
134.000000,-39972.876307,-23865.829273,15767.009946,21522.695902,-21849.791330,32006.535769,57390.987264,61745.934098,-0.022000,0.974000,-0.164000,192.000000,0.000000,0.000000,0.000000,0.000000,0.000000,0.000000,0.000000,0.000000,0.000000,1648380771.223956,0.000000
135.000000,-39972.250458,-23880.961404,15765.467675,21524.573448,-21849.076074,32007.340432,57390.361415,61739.094465,-0.018000,0.972000,-0.162000,192.000000,255.000000,112.000000,30.000000,96.000000,250.000000,240.000000,0.000000,0.000000,0.000000,1648380771.223973,0.000000
136.000000,-39974.507984,-23889.231549,15764.037164,21528.708521,-21844.762188,32010.760249,57398.385691,61737.552194,-0.018000,0.972000,-0.162000,192.000000,0.000000,0.000000,0.000000,0.000000,0.000000,0.000000,0.000000,0.000000,0.000000,1648380771.232177,0.000000
137.000000,-39971.870479,-23889.209198,15768.842789,21543.304210,-21836.313228,32009.709717,57392.216610,61735.786406,-0.018000,0.972000,-0.162000,192.000000,0.000000,0.000000,0.000000,0.000000,0.000000,0.000000,0.000000,0.000000,0.000000,1648380771.232194,0.000000
138.000000,-39955.441946,-23878.435657,15764.484199,21549.741513,-21828.244248,32012.034298,57376.190409,61751.276165,-0.018000,0.972000,-0.162000,192.000000,0.000000,0.000000,0.000000,0.000000,0.000000,0.000000,0.000000,0.000000,0.000000,1648380771.238426,0.000000
139.000000,-39928.128115,-23867.282136,15765.266510,21550.300306,-21824.623266,32013.174237,57397.804546,61750.784427,-0.018000,0.972000,-0.162000,192.000000,0.000000,0.000000,0.000000,0.000000,0.000000,0.000000,0.000000,0.000000,0.000000,1648380771.244564,0.000000
140.000000,-39940.108650,-23856.218023,15774.497780,21536.151652,-21831.217030,32003.965319,57389.869677,61744.749456,-0.018000,0.972000,-0.162000,192.000000,0.000000,0.000000,0.000000,0.000000,0.000000,0.000000,0.000000,0.000000,0.000000,1648380771.244581,0.000000
141.000000,-39981.079397,-23857.492072,15782.969091,21524.193469,-21843.599897,31995.561063,57404.957104,61737.462787,-0.018000,0.972000,-0.162000,192.000000,0.000000,0.000000,0.000000,0.000000,0.000000,0.000000,0.000000,0.000000,0.000000,1648380771.252400,0.000000
142.000000,-39983.895717,-23872.870072,15746.446341,21517.219724,-21860.408409,31983.289955,57399.436223,61717.882659,-0.018000,0.972000,-0.162000,192.000000,0.000000,0.000000,0.000000,0.000000,0.000000,0.000000,0.000000,0.000000,0.000000,1648380771.252417,0.000000
143.000000,-39964.740272,-23863.929375,15753.308326,21529.669646,-21859.201414,31988.095580,57369.641348,61739.720314,-0.018000,0.972000,-0.162000,192.000000,0.000000,0.000000,0.000000,0.000000,0.000000,0.000000,0.000000,0.000000,0.000000,1648380771.260397,0.000000
144.000000,-39962.974484,-23866.589232,15751.251966,21535.279934,-21858.307345,31991.493045,57400.710273,61746.157616,-0.018000,0.972000,-0.162000,192.000000,0.000000,0.000000,0.000000,0.000000,0.000000,0.000000,0.000000,0.000000,0.000000,1648380771.260413,0.000000
145.000000,-39952.178592,-23852.798206,15749.329716,21520.103099,-21856.988592,31996.321022,57421.162119,61747.454017,-0.022000,0.976000,-0.164000,192.000000,255.000000,80.000000,30.000000,128.000000,250.000000,224.000000,0.000000,0.000000,0.000000,1648380771.266995,0.000000
146.000000,-39981.258211,-23862.878843,15753.755361,21517.309131,-21860.140188,31993.370592,57406.029988,61752.036125,-0.022000,0.976000,-0.164000,192.000000,0.000000,0.000000,0.000000,0.000000,0.000000,0.000000,0.000000,0.000000,0.000000,1648380771.267012,0.000000
147.000000,-40002.894700,-23883.330689,15755.610556,21526.540402,-21857.592089,31997.215092,57395.994055,61749.085694,-0.022000,0.976000,-0.164000,192.000000,0.000000,0.000000,0.000000,0.000000,0.000000,0.000000,0.000000,0.000000,0.000000,1648380771.275036,0.000000
148.000000,-39978.419540,-23890.818523,15753.688306,21523.522916,-21858.933194,31995.516359,57380.034909,61748.213976,-0.022000,0.976000,-0.164000,192.000000,0.000000,0.000000,0.000000,0.000000,0.000000,0.000000,0.000000,0.000000,0.000000,1648380771.275053,0.000000
149.000000,-39953.273827,-23897.367584,15744.367629,21517.130317,-21864.990516,31998.131513,57399.011540,61741.799026,-0.022000,0.976000,-0.164000,192.000000,0.000000,0.000000,0.000000,0.000000,0.000000,0.000000,0.000000,0.000000,0.000000,1648380771.283066,0.000000
150.000000,-39946.747118,-23895.892369,15741.171329,21528.417948,-21860.743685,32006.558121,57386.293398,61758.272261,-0.022000,0.976000,-0.164000,192.000000,0.000000,0.000000,0.000000,0.000000,0.000000,0.000000,0.000000,0.000000,0.000000,1648380771.283102,0.000000
151.000000,-39930.922083,-23871.014878,15748.033315,21531.971876,-21857.569737,32015.387060,57375.251636,61777.986500,-0.022000,0.976000,-0.164000,192.000000,0.000000,0.000000,0.000000,0.000000,0.000000,0.000000,0.000000,0.000000,0.000000,1648380771.291048,0.000000
152.000000,-39937.180571,-23852.686447,15754.470617,21525.601628,-21864.834054,32016.169371,57419.977477,61764.709564,-0.022000,0.976000,-0.164000,192.000000,0.000000,0.000000,0.000000,0.000000,0.000000,0.000000,0.000000,0.000000,0.000000,1648380771.291064,0.000000
