%OpenBCI Raw EEG Data
%Number of channels = 8
%Sample Rate = 256 Hz
%Board = OpenBCI_GUI$BoardCytonSerial
%Channels = Fp1, Fp2, F3, F4, Fz, Pz, O1, O2
%Data recorded at AIMS Lab (http://aimsl.uiu.ac.bd) by Rana Depto (mail@ranadepto.com)
%Brainwaves were obtained via the Ultracortex Mark IV Headset using the OpenBCI Cyton Board
%Recording Application = ConcentrateToday (https://concentrate.today)
%Data type = RAW data with noise
%Day No = 6
%Subject ID = 4
%Session ID = 7
%Record starting timestamp (UTC+6) = 2022-03-21T10:33:51.949421
%Record ending timestamp (UTC+6)   = 2022-03-21T10:34:17.783122
%Recorded durations = ~25 seconds
Sample Index, EXG Channel 0, EXG Channel 1, EXG Channel 2, EXG Channel 3, EXG Channel 4, EXG Channel 5, EXG Channel 6, EXG Channel 7, Accel Channel 0, Accel Channel 1, Accel Channel 2, Other, Other, Other, Other, Other, Other, Other, Analog Channel 0, Analog Channel 1, Analog Channel 2, Timestamp, Timestamp (Formatted)
216.000000,22559.503920,-785.730873,27916.010072,23422.303608,41593.131911,18216.403510,2063.825973,-1611.694886,0.030000,0.948000,0.256000,192.000000,0.000000,0.000000,0.000000,0.000000,0.000000,0.000000,0.000000,0.000000,0.000000,1647837231.948986,0.000000
217.000000,22561.113246,-786.244963,27917.462935,23424.851707,41597.445798,18218.593981,2062.887199,-1608.789159,0.030000,0.948000,0.256000,192.000000,0.000000,0.000000,0.000000,0.000000,0.000000,0.000000,0.000000,0.000000,0.000000,1647837231.956850,0.000000
218.000000,22551.077312,-801.287687,27912.724365,23416.715672,41590.427350,18212.983693,2048.515028,-1631.118552,0.030000,0.948000,0.256000,192.000000,0.000000,0.000000,0.000000,0.000000,0.000000,0.000000,0.000000,0.000000,0.000000,1647837231.956858,0.000000
219.000000,22549.244469,-803.142882,27912.612607,23413.094689,41588.907431,18217.610504,2062.015481,-1635.074810,0.030000,0.948000,0.256000,192.000000,0.000000,0.000000,0.000000,0.000000,0.000000,0.000000,0.000000,0.000000,0.000000,1647837231.963901,0.000000
220.000000,22549.579745,-801.242983,27913.998415,23415.285160,41584.660600,18224.003103,2064.943560,-1604.743493,0.030000,0.948000,0.256000,192.000000,0.000000,0.000000,0.000000,0.000000,0.000000,0.000000,0.000000,0.000000,0.000000,1647837231.963906,0.000000
221.000000,22546.875184,-803.679324,27909.572769,23413.295855,41583.677123,18222.282019,2055.153496,-1617.506339,0.030000,0.948000,0.256000,192.000000,0.000000,0.000000,0.000000,0.000000,0.000000,0.000000,0.000000,0.000000,0.000000,1647837231.971499,0.000000
222.000000,22548.283344,-804.595745,27906.130601,23410.904218,41586.135815,18221.432653,2058.618016,-1631.364421,0.030000,0.948000,0.256000,192.000000,0.000000,0.000000,0.000000,0.000000,0.000000,0.000000,0.000000,0.000000,0.000000,1647837231.971503,0.000000
223.000000,22554.072446,-798.046684,27914.288987,23416.536858,41593.109559,18228.719321,2059.757955,-1606.352819,0.030000,0.950000,0.258000,192.000000,0.000000,240.000000,29.000000,176.000000,8.000000,16.000000,0.000000,0.000000,0.000000,1647837231.979373,0.000000
224.000000,22553.647763,-800.013638,27917.261769,23418.704977,41593.176614,18232.720284,2077.214667,-1599.602592,0.030000,0.950000,0.258000,192.000000,0.000000,0.000000,0.000000,0.000000,0.000000,0.000000,0.000000,0.000000,0.000000,1647837231.979378,0.000000
225.000000,22552.217251,-801.064170,27915.272464,23419.152012,41589.399170,18226.752368,2072.632560,-1611.940755,0.030000,0.950000,0.258000,192.000000,0.000000,0.000000,0.000000,0.000000,0.000000,0.000000,0.000000,0.000000,0.000000,1647837231.987503,0.000000
226.000000,22559.749789,-793.330466,27920.301607,23426.639846,41596.685838,18225.008932,2068.184563,-1629.151598,0.030000,0.950000,0.258000,192.000000,0.000000,0.000000,0.000000,0.000000,0.000000,0.000000,0.000000,0.000000,0.000000,1647837231.987508,0.000000
227.000000,22554.340667,-798.426664,27916.367700,23421.454241,41595.054161,18214.213039,2055.175847,-1642.652052,0.030000,0.950000,0.258000,192.000000,0.000000,0.000000,0.000000,0.000000,0.000000,0.000000,0.000000,0.000000,0.000000,1647837231.994142,0.000000
228.000000,22552.686638,-799.454844,27919.228723,23420.917800,41597.535205,18214.436557,2059.713252,-1627.944604,0.030000,0.950000,0.258000,192.000000,0.000000,0.000000,0.000000,0.000000,0.000000,0.000000,0.000000,0.000000,0.000000,1647837231.994148,0.000000
229.000000,22557.000525,-796.213841,27921.195676,23422.571829,41598.630440,18216.448214,2064.407118,-1601.994229,0.030000,0.950000,0.258000,192.000000,0.000000,0.000000,0.000000,0.000000,0.000000,0.000000,0.000000,0.000000,0.000000,1647837232.002076,0.000000
230.000000,22560.465045,-792.414044,27920.838049,23427.019826,41599.144530,18216.425862,2062.864848,-1601.703656,0.030000,0.950000,0.258000,192.000000,0.000000,0.000000,0.000000,0.000000,0.000000,0.000000,0.000000,0.000000,0.000000,1647837232.002084,0.000000
231.000000,22564.220138,-788.480137,27924.324921,23434.127681,41603.123141,18221.611467,2062.015481,-1605.034066,0.030000,0.950000,0.258000,192.000000,0.000000,0.000000,0.000000,0.000000,0.000000,0.000000,0.000000,0.000000,0.000000,1647837232.009114,0.000000
232.000000,22561.068542,-790.514146,27923.319092,23431.780747,41603.257251,18225.232449,2058.886237,-1610.622002,0.030000,0.950000,0.258000,192.000000,0.000000,0.000000,0.000000,0.000000,0.000000,0.000000,0.000000,0.000000,0.000000,1647837232.009121,0.000000
233.000000,22558.453388,-792.928135,27919.496944,23427.846840,41597.110521,18223.287847,2043.061202,-1623.831883,0.032000,0.952000,0.260000,192.000000,1.000000,0.000000,29.000000,192.000000,8.000000,32.000000,0.000000,0.000000,0.000000,1647837232.017299,0.000000
234.000000,22550.183243,-803.254640,27913.886656,23418.950846,41595.568251,18222.997275,2048.559731,-1626.156464,0.032000,0.952000,0.260000,192.000000,0.000000,0.000000,0.000000,0.000000,0.000000,0.000000,0.000000,0.000000,0.000000,1647837232.023791,0.000000
235.000000,22552.977211,-801.310039,27916.300644,23420.180192,41591.544937,18229.032246,2070.620903,-1619.719162,0.032000,0.952000,0.260000,192.000000,0.000000,0.000000,0.000000,0.000000,0.000000,0.000000,0.000000,0.000000,0.000000,1647837232.023805,0.000000
236.000000,22558.162815,-794.313943,27920.547476,23422.750643,41589.846205,18233.681409,2080.276856,-1611.471368,0.032000,0.952000,0.260000,192.000000,0.000000,0.000000,0.000000,0.000000,0.000000,0.000000,0.000000,0.000000,0.000000,1647837232.032267,0.000000
237.000000,22559.347458,-793.799853,27921.977988,23421.633055,41590.404998,18233.301429,2075.270066,-1610.532595,0.032000,0.952000,0.260000,192.000000,0.000000,0.000000,0.000000,0.000000,0.000000,0.000000,0.000000,0.000000,0.000000,1647837232.032297,0.000000
238.000000,22562.052019,-793.486928,27922.670892,23424.471727,41588.952135,18234.463720,2072.766670,-1619.026258,0.032000,0.952000,0.260000,192.000000,0.000000,0.000000,0.000000,0.000000,0.000000,0.000000,0.000000,0.000000,0.000000,1647837232.041389,0.000000
239.000000,22555.726475,-799.544251,27915.943017,23419.219067,41583.543013,18231.289772,2069.637426,-1628.257528,0.032000,0.952000,0.260000,192.000000,0.000000,0.000000,0.000000,0.000000,0.000000,0.000000,0.000000,0.000000,0.000000,1647837232.041394,0.000000
240.000000,22554.184205,-800.348914,27912.925531,23417.654445,41587.208699,18227.311161,2062.820144,-1626.469389,0.032000,0.952000,0.260000,192.000000,0.000000,0.000000,0.000000,0.000000,0.000000,0.000000,0.000000,0.000000,0.000000,1647837232.047411,0.000000
241.000000,22553.737170,-800.080693,27914.043118,23417.721500,41589.533280,18226.104167,2056.181676,-1613.170101,0.032000,0.952000,0.260000,192.000000,0.000000,0.000000,0.000000,0.000000,0.000000,0.000000,0.000000,0.000000,0.000000,1647837232.047417,0.000000
242.000000,22552.641934,-799.879527,27918.066432,23416.648616,41588.058065,18227.132347,2060.316749,-1610.912575,0.032000,0.952000,0.260000,192.000000,0.000000,0.000000,0.000000,0.000000,0.000000,0.000000,0.000000,0.000000,0.000000,1647837232.054482,0.000000
243.000000,22554.407722,-797.666704,27922.492078,23420.269599,41587.566327,18228.428749,2062.417813,-1610.174967,0.030000,0.952000,0.258000,192.000000,0.000000,240.000000,29.000000,192.000000,8.000000,16.000000,0.000000,0.000000,0.000000,1647837232.054510,0.000000
244.000000,22558.408685,-794.135129,27926.515392,23424.695244,41590.226184,18229.099301,2061.970778,-1619.361534,0.030000,0.952000,0.258000,192.000000,0.000000,0.000000,0.000000,0.000000,0.000000,0.000000,0.000000,0.000000,0.000000,1647837232.062488,0.000000
245.000000,22558.922775,-794.090425,27924.995473,23423.756471,41596.954059,18228.160528,2066.262313,-1633.756057,0.030000,0.952000,0.258000,192.000000,0.000000,0.000000,0.000000,0.000000,0.000000,0.000000,0.000000,0.000000,0.000000,1647837232.062513,0.000000
246.000000,22555.122978,-797.309076,27917.127659,23418.034425,41591.813158,18224.561897,2058.103926,-1619.003906,0.030000,0.952000,0.258000,192.000000,0.000000,0.000000,0.000000,0.000000,0.000000,0.000000,0.000000,0.000000,0.000000,1647837232.069653,0.000000
247.000000,22554.832405,-797.666704,27914.043118,23417.341520,41587.700437,18222.170260,2052.001900,-1630.358592,0.030000,0.952000,0.258000,192.000000,0.000000,0.000000,0.000000,0.000000,0.000000,0.000000,0.000000,0.000000,0.000000,1647837232.069679,0.000000
248.000000,22558.185167,-795.766806,27918.960502,23420.448413,41585.085283,18230.216888,2064.094193,-1609.593822,0.030000,0.952000,0.258000,192.000000,0.000000,0.000000,0.000000,0.000000,0.000000,0.000000,0.000000,0.000000,0.000000,1647837232.076066,0.000000
249.000000,22549.065655,-804.595745,27910.980929,23412.424137,41579.810271,18224.517193,2067.938694,-1610.242022,0.030000,0.952000,0.258000,192.000000,0.000000,0.000000,0.000000,0.000000,0.000000,0.000000,0.000000,0.000000,0.000000,1647837232.084140,0.000000
250.000000,22551.837272,-798.717236,27913.484325,23416.626265,41583.364199,18225.232449,2067.402252,-1616.969897,0.030000,0.952000,0.258000,192.000000,0.000000,0.000000,0.000000,0.000000,0.000000,0.000000,0.000000,0.000000,0.000000,1647837232.084147,0.000000
251.000000,22551.569051,-797.890222,27915.630092,23418.302645,41579.162071,18223.086682,2063.066013,-1617.998078,0.030000,0.952000,0.258000,192.000000,0.000000,0.000000,0.000000,0.000000,0.000000,0.000000,0.000000,0.000000,0.000000,1647837232.092250,0.000000
252.000000,22548.618620,-803.254640,27911.249150,23413.966407,41575.049350,18213.229562,2047.106868,-1639.433401,0.030000,0.952000,0.258000,192.000000,0.000000,0.000000,0.000000,0.000000,0.000000,0.000000,0.000000,0.000000,0.000000,1647837232.092256,0.000000
253.000000,22548.640972,-805.087484,27911.003281,23412.535895,41577.016303,18212.111975,2047.062164,-1651.950377,0.032000,0.952000,0.258000,192.000000,1.000000,0.000000,29.000000,192.000000,8.000000,16.000000,0.000000,0.000000,0.000000,1647837232.099424,0.000000
254.000000,22552.954859,-800.326562,27915.518333,23416.559209,41581.799576,18224.293676,2073.548981,-1616.612269,0.032000,0.952000,0.258000,192.000000,0.000000,0.000000,0.000000,0.000000,0.000000,0.000000,0.000000,0.000000,0.000000,1647837232.099454,0.000000
255.000000,22554.184205,-795.923268,27915.451278,23416.894486,41582.224260,18222.617295,2070.777365,-1613.974764,0.032000,0.952000,0.258000,192.000000,0.000000,0.000000,0.000000,0.000000,0.000000,0.000000,0.000000,0.000000,0.000000,1647837232.106732,0.000000
0.000000,22554.564184,-791.832899,27912.478496,23417.497983,41579.407940,18216.984655,2062.753089,-1622.647240,0.032000,0.952000,0.258000,192.000000,0.000000,0.000000,0.000000,0.000000,0.000000,0.000000,0.000000,0.000000,0.000000,1647837232.106737,0.000000
1.000000,22549.758559,-799.276030,27910.712708,23416.782727,41582.246611,18218.437519,2059.668548,-1615.025296,0.032000,0.952000,0.258000,192.000000,0.000000,0.000000,0.000000,0.000000,0.000000,0.000000,0.000000,0.000000,0.000000,1647837232.114766,0.000000
2.000000,22544.751769,-807.345010,27906.845857,23411.842991,41584.213565,18218.593981,2062.149592,-1614.131226,0.032000,0.952000,0.258000,192.000000,0.000000,0.000000,0.000000,0.000000,0.000000,0.000000,0.000000,0.000000,0.000000,1647837232.114774,0.000000
3.000000,22542.628353,-808.842577,27904.633034,23406.813849,41586.515795,18213.922467,2058.685071,-1626.648203,0.032000,0.952000,0.258000,192.000000,0.000000,0.000000,0.000000,0.000000,0.000000,0.000000,0.000000,0.000000,0.000000,1647837232.124270,0.000000
4.000000,22544.528251,-805.959202,27909.617473,23408.020843,41591.299068,18214.794185,2057.500429,-1629.397467,0.032000,0.952000,0.258000,192.000000,0.000000,0.000000,0.000000,0.000000,0.000000,0.000000,0.000000,0.000000,0.000000,1647837232.124277,0.000000
5.000000,22540.415530,-812.105931,27906.130601,23401.941169,41584.258268,18207.976902,2045.810467,-1634.046630,0.032000,0.952000,0.258000,192.000000,0.000000,0.000000,0.000000,0.000000,0.000000,0.000000,0.000000,0.000000,0.000000,1647837232.130427,0.000000
6.000000,22541.756635,-810.720123,27908.432830,23403.550494,41578.513870,18211.620237,2060.473211,-1622.781351,0.032000,0.952000,0.258000,192.000000,0.000000,0.000000,0.000000,0.000000,0.000000,0.000000,0.000000,0.000000,0.000000,1647837232.130431,0.000000
7.000000,22543.142443,-809.624888,27909.483362,23403.818715,41574.647018,18212.335493,2068.005749,-1617.483988,0.030000,0.954000,0.256000,192.000000,0.000000,240.000000,29.000000,208.000000,8.000000,0.000000,0.000000,0.000000,0.000000,1647837232.136581,0.000000
8.000000,22541.913097,-809.557832,27906.577636,23403.014052,41572.925934,18209.049786,2058.103926,-1625.977650,0.030000,0.954000,0.256000,192.000000,0.000000,0.000000,0.000000,0.000000,0.000000,0.000000,0.000000,0.000000,0.000000,1647837232.144462,0.000000
9.000000,22542.226022,-810.161330,27907.091726,23405.383337,41570.757815,18206.144059,2052.270121,-1636.974709,0.030000,0.954000,0.256000,192.000000,0.000000,0.000000,0.000000,0.000000,0.000000,0.000000,0.000000,0.000000,0.000000,1647837232.144492,0.000000
10.000000,22541.913097,-809.915460,27905.348290,23407.260884,41569.640228,18208.043958,2059.959121,-1638.204055,0.030000,0.954000,0.256000,192.000000,0.000000,0.000000,0.000000,0.000000,0.000000,0.000000,0.000000,0.000000,0.000000,1647837232.152484,0.000000
11.000000,22546.271687,-804.528690,27908.879865,23412.446488,41574.199983,18218.459871,2067.938694,-1609.236194,0.030000,0.954000,0.256000,192.000000,0.000000,0.000000,0.000000,0.000000,0.000000,0.000000,0.000000,0.000000,0.000000,1647837232.152505,0.000000
12.000000,22542.695408,-808.909632,27905.325938,23407.864381,41571.853050,18216.314103,2061.032004,-1608.722104,0.030000,0.954000,0.256000,192.000000,0.000000,0.000000,0.000000,0.000000,0.000000,0.000000,0.000000,0.000000,0.000000,1647837232.159024,0.000000
13.000000,22542.315429,-810.541309,27905.169476,23403.662253,41563.292332,18211.106147,2054.304129,-1625.128284,0.030000,0.954000,0.256000,192.000000,0.000000,0.000000,0.000000,0.000000,0.000000,0.000000,0.000000,0.000000,0.000000,1647837232.159029,0.000000
14.000000,22546.785777,-805.333353,27912.813772,23408.333767,41561.191268,18212.715472,2053.074783,-1627.542273,0.030000,0.954000,0.256000,192.000000,0.000000,0.000000,0.000000,0.000000,0.000000,0.000000,0.000000,0.000000,0.000000,1647837232.167028,0.000000
15.000000,22553.848929,-798.381960,27922.648540,23415.709843,41569.148489,18220.739749,2058.282740,-1621.261432,0.030000,0.954000,0.256000,192.000000,0.000000,0.000000,0.000000,0.000000,0.000000,0.000000,0.000000,0.000000,0.000000,1647837232.167034,0.000000
16.000000,22553.334839,-799.901879,27922.894409,23412.133564,41577.999780,18226.305333,2069.816240,-1611.538423,0.030000,0.954000,0.256000,192.000000,0.000000,0.000000,0.000000,0.000000,0.000000,0.000000,0.000000,0.000000,0.000000,1647837232.175069,0.000000
17.000000,22553.960687,-801.108873,27926.068357,23413.429965,41586.336981,18230.865089,2073.526630,-1598.082673,0.030000,0.950000,0.260000,192.000000,0.000000,240.000000,29.000000,176.000000,8.000000,32.000000,0.000000,0.000000,0.000000,1647837232.175095,0.000000
18.000000,22556.709952,-799.231326,27927.252999,23417.073300,41588.549803,18229.859260,2074.577162,-1602.374208,0.030000,0.950000,0.260000,192.000000,0.000000,0.000000,0.000000,0.000000,0.000000,0.000000,0.000000,0.000000,0.000000,1647837232.183081,0.000000
19.000000,22558.967478,-796.079731,27928.862325,23420.381358,41586.404036,18227.601734,2070.106813,-1612.208976,0.030000,0.950000,0.260000,192.000000,0.000000,0.000000,0.000000,0.000000,0.000000,0.000000,0.000000,0.000000,0.000000,1647837232.183109,0.000000
20.000000,22556.352324,-800.281858,27925.554267,23417.341520,41582.984219,18223.846641,2064.965912,-1620.814397,0.030000,0.950000,0.260000,192.000000,0.000000,0.000000,0.000000,0.000000,0.000000,0.000000,0.000000,0.000000,0.000000,1647837232.191762,0.000000
21.000000,22557.380504,-798.896050,27922.872057,23415.553381,41577.686856,18225.500670,2062.484868,-1615.159406,0.030000,0.950000,0.260000,192.000000,0.000000,0.000000,0.000000,0.000000,0.000000,0.000000,0.000000,0.000000,0.000000,1647837232.191789,0.000000
22.000000,22555.324144,-800.281858,27918.647578,23414.614608,41572.478899,18223.734882,2063.088365,-1616.634621,0.030000,0.950000,0.260000,192.000000,0.000000,0.000000,0.000000,0.000000,0.000000,0.000000,0.000000,0.000000,0.000000,1647837232.198050,0.000000
23.000000,22551.077312,-805.690981,27912.612607,23410.345424,41562.644131,18214.078929,2057.299263,-1628.704563,0.030000,0.950000,0.260000,192.000000,0.000000,0.000000,0.000000,0.000000,0.000000,0.000000,0.000000,0.000000,0.000000,1647837232.204166,0.000000
24.000000,22551.211423,-806.093312,27911.718537,23409.652520,41559.872515,18210.882629,2053.655929,-1638.315813,0.030000,0.950000,0.260000,192.000000,0.000000,0.000000,0.000000,0.000000,0.000000,0.000000,0.000000,0.000000,0.000000,1647837232.204191,0.000000
25.000000,22553.670115,-803.969896,27915.920665,23412.513544,41562.644131,18210.703815,2046.257501,-1642.339127,0.030000,0.950000,0.260000,192.000000,0.000000,0.000000,0.000000,0.000000,0.000000,0.000000,0.000000,0.000000,0.000000,1647837232.212012,0.000000
26.000000,22551.189071,-803.031123,27916.658272,23411.820640,41568.030902,18205.004120,2043.105905,-1644.440191,0.030000,0.950000,0.260000,192.000000,0.000000,0.000000,0.000000,0.000000,0.000000,0.000000,0.000000,0.000000,0.000000,1647837232.212018,0.000000
27.000000,22544.148272,-808.820225,27914.914836,23407.931436,41566.801556,18201.450193,2042.591815,-1640.238063,0.030000,0.950000,0.258000,192.000000,0.000000,240.000000,29.000000,176.000000,8.000000,16.000000,0.000000,0.000000,0.000000,1647837232.220073,0.000000
28.000000,22540.862565,-812.351800,27912.478496,23403.036404,41560.811288,18196.979844,2046.413964,-1646.407145,0.030000,0.950000,0.258000,192.000000,0.000000,0.000000,0.000000,0.000000,0.000000,0.000000,0.000000,0.000000,0.000000,1647837232.220079,0.000000
29.000000,22545.332914,-809.200205,27916.166534,23404.243398,41562.800594,18201.874876,2047.173923,-1633.241967,0.030000,0.950000,0.258000,192.000000,0.000000,0.000000,0.000000,0.000000,0.000000,0.000000,0.000000,0.000000,0.000000,1647837232.226634,0.000000
30.000000,22541.913097,-813.581146,27911.316205,23403.215218,41559.358425,18200.913751,2044.201141,-1651.257473,0.030000,0.950000,0.258000,192.000000,0.000000,0.000000,0.000000,0.000000,0.000000,0.000000,0.000000,0.000000,0.000000,1647837232.226640,0.000000
31.000000,22546.495205,-807.032085,27916.300644,23410.658349,41562.599428,18209.966208,2056.561656,-1625.262395,0.030000,0.950000,0.258000,192.000000,0.000000,0.000000,0.000000,0.000000,0.000000,0.000000,0.000000,0.000000,0.000000,1647837232.234643,0.000000
32.000000,22542.695408,-809.736646,27913.260807,23407.953788,41559.559591,18209.653283,2054.997033,-1619.003906,0.030000,0.950000,0.258000,192.000000,0.000000,0.000000,0.000000,0.000000,0.000000,0.000000,0.000000,0.000000,0.000000,1647837232.234668,0.000000
33.000000,22547.188109,-803.142882,27916.233589,23415.285160,41566.555687,18216.291751,2062.596627,-1622.110799,0.030000,0.950000,0.258000,192.000000,0.000000,0.000000,0.000000,0.000000,0.000000,0.000000,0.000000,0.000000,0.000000,1647837232.242735,0.000000
34.000000,22545.064693,-804.796911,27909.908046,23411.507715,41563.895829,18213.386025,2054.952330,-1627.519921,0.030000,0.950000,0.258000,192.000000,0.000000,0.000000,0.000000,0.000000,0.000000,0.000000,0.000000,0.000000,0.000000,1647837232.242761,0.000000
35.000000,22542.538946,-805.467463,27904.633034,23408.177305,41557.011492,18209.675635,2046.905702,-1627.318755,0.030000,0.950000,0.258000,192.000000,0.000000,0.000000,0.000000,0.000000,0.000000,0.000000,0.000000,0.000000,0.000000,1647837232.250609,0.000000
36.000000,22543.500071,-803.880489,27907.695223,23409.518410,41556.810326,18212.894286,2054.415888,-1623.027220,0.030000,0.950000,0.258000,192.000000,0.000000,0.000000,0.000000,0.000000,0.000000,0.000000,0.000000,0.000000,0.000000,1647837232.250614,0.000000
37.000000,22538.605039,-807.590879,27906.667043,23403.416384,41553.591675,18208.155716,2049.118525,-1642.942624,0.034000,0.948000,0.258000,192.000000,1.000000,16.000000,29.000000,160.000000,8.000000,16.000000,0.000000,0.000000,0.000000,1647837232.257777,0.000000
38.000000,22537.263934,-809.848405,27909.148086,23401.650596,41552.295274,18201.405490,2038.926129,-1660.086412,0.034000,0.948000,0.258000,192.000000,0.000000,0.000000,0.000000,0.000000,0.000000,0.000000,0.000000,0.000000,0.000000,1647837232.257799,0.000000
39.000000,22545.265859,-803.187585,27920.122793,23413.340558,41562.800594,18219.711568,2066.865810,-1621.730819,0.034000,0.948000,0.258000,192.000000,0.000000,0.000000,0.000000,0.000000,0.000000,0.000000,0.000000,0.000000,0.000000,1647837232.265733,0.000000
40.000000,22539.722626,-810.787178,27914.288987,23405.986834,41556.452698,18218.884554,2068.877467,-1619.808569,0.034000,0.948000,0.258000,192.000000,0.000000,0.000000,0.000000,0.000000,0.000000,0.000000,0.000000,0.000000,0.000000,1647837232.273863,0.000000
41.000000,22535.654609,-815.659859,27909.371604,23399.437773,41550.887114,18208.625103,2052.739507,-1632.839636,0.034000,0.948000,0.258000,192.000000,0.000000,0.000000,0.000000,0.000000,0.000000,0.000000,0.000000,0.000000,0.000000,1647837232.273869,0.000000
42.000000,22540.974324,-808.462597,27913.372566,23403.796363,41559.380777,18212.894286,2056.718118,-1623.384848,0.034000,0.948000,0.258000,192.000000,0.000000,0.000000,0.000000,0.000000,0.000000,0.000000,0.000000,0.000000,0.000000,1647837232.279933,0.000000
43.000000,22539.364998,-810.876585,27912.254979,23402.254093,41565.527507,18211.396719,2052.068955,-1629.889206,0.034000,0.948000,0.258000,192.000000,0.000000,0.000000,0.000000,0.000000,0.000000,0.000000,0.000000,0.000000,0.000000,1647837232.279946,0.000000
44.000000,22543.164795,-807.680286,27919.027557,23407.484401,41560.677178,18216.045882,2058.483906,-1622.848406,0.034000,0.948000,0.258000,192.000000,0.000000,0.000000,0.000000,0.000000,0.000000,0.000000,0.000000,0.000000,0.000000,1647837232.286979,0.000000
45.000000,22545.914059,-803.142882,27922.447374,23412.625302,41560.855992,18217.476394,2054.415888,-1621.954336,0.034000,0.948000,0.258000,192.000000,0.000000,0.000000,0.000000,0.000000,0.000000,0.000000,0.000000,0.000000,0.000000,1647837232.286985,0.000000
46.000000,22548.842138,-797.689056,27926.783613,23417.967369,41566.175707,18221.566763,2063.311882,-1616.008772,0.034000,0.948000,0.258000,192.000000,0.000000,0.000000,0.000000,0.000000,0.000000,0.000000,0.000000,0.000000,0.000000,1647837232.294919,0.000000
47.000000,22552.329010,-790.603553,27930.717520,23422.594180,41574.043521,18225.768891,2068.341025,-1601.860118,0.034000,0.948000,0.258000,192.000000,0.000000,0.000000,0.000000,0.000000,0.000000,0.000000,0.000000,0.000000,0.000000,1647837232.294947,0.000000
48.000000,22559.481568,-785.194431,27935.143165,23428.629151,41582.984219,18230.507461,2070.419737,-1601.010752,0.036000,0.946000,0.260000,192.000000,1.000000,32.000000,29.000000,144.000000,8.000000,32.000000,0.000000,0.000000,0.000000,1647837232.302011,0.000000
49.000000,22559.705086,-787.898992,27932.304493,23426.818660,41585.107635,18228.853432,2076.454708,-1607.224537,0.036000,0.946000,0.260000,192.000000,0.000000,0.000000,0.000000,0.000000,0.000000,0.000000,0.000000,0.000000,0.000000,1647837232.302039,0.000000
50.000000,22557.805187,-788.949524,27931.656293,23426.930419,41581.866632,18227.199403,2071.134993,-1620.859101,0.036000,0.946000,0.260000,192.000000,0.000000,0.000000,0.000000,0.000000,0.000000,0.000000,0.000000,0.000000,0.000000,1647837232.309583,0.000000
51.000000,22561.046190,-785.127376,27933.556191,23427.735082,41576.166937,18226.797071,2061.881371,-1639.321642,0.036000,0.946000,0.260000,192.000000,0.000000,0.000000,0.000000,0.000000,0.000000,0.000000,0.000000,0.000000,0.000000,1647837232.309589,0.000000
52.000000,22552.753693,-794.962143,27925.218990,23417.207410,41570.623704,18224.181917,2055.891103,-1629.777447,0.036000,0.946000,0.260000,192.000000,0.000000,0.000000,0.000000,0.000000,0.000000,0.000000,0.000000,0.000000,0.000000,1647837232.317520,0.000000
53.000000,22543.544774,-804.014600,27915.205409,23406.679738,41562.219448,18218.102243,2046.928054,-1623.720124,0.036000,0.946000,0.260000,192.000000,0.000000,0.000000,0.000000,0.000000,0.000000,0.000000,0.000000,0.000000,0.000000,1647837232.317528,0.000000
54.000000,22535.162870,-813.961126,27907.024670,23397.202599,41549.434251,18207.060481,2032.511179,-1646.965938,0.036000,0.946000,0.260000,192.000000,0.000000,0.000000,0.000000,0.000000,0.000000,0.000000,0.000000,0.000000,0.000000,1647837232.324577,0.000000
55.000000,22537.152176,-810.742475,27910.556246,23401.538837,41549.054271,18210.033263,2039.015536,-1646.094220,0.036000,0.946000,0.260000,192.000000,0.000000,0.000000,0.000000,0.000000,0.000000,0.000000,0.000000,0.000000,0.000000,1647837232.332598,0.000000
56.000000,22540.728455,-807.702638,27915.160705,23406.076241,41554.329283,18214.190687,2042.949443,-1631.833807,0.036000,0.946000,0.260000,192.000000,0.000000,0.000000,0.000000,0.000000,0.000000,0.000000,0.000000,0.000000,0.000000,1647837232.332604,0.000000
57.000000,22541.041379,-808.753170,27915.674796,23407.372642,41561.325379,18213.631894,2052.180714,-1634.583072,0.036000,0.946000,0.260000,192.000000,0.000000,0.000000,0.000000,0.000000,0.000000,0.000000,0.000000,0.000000,0.000000,1647837232.340582,0.000000
58.000000,22544.327086,-804.416931,27919.653406,23412.200619,41572.210678,18217.185821,2060.719080,-1625.172988,0.036000,0.944000,0.256000,192.000000,1.000000,32.000000,29.000000,128.000000,8.000000,0.000000,0.000000,0.000000,0.000000,1647837232.340588,0.000000
59.000000,22544.774120,-802.897013,27920.636883,23413.653483,41572.992989,18212.760176,2052.068955,-1638.561683,0.036000,0.944000,0.256000,192.000000,0.000000,0.000000,0.000000,0.000000,0.000000,0.000000,0.000000,0.000000,0.000000,1647837232.348686,0.000000
60.000000,22549.579745,-799.700713,27925.442508,23420.269599,41579.385588,18218.102243,2071.939656,-1648.128229,0.036000,0.944000,0.256000,192.000000,0.000000,0.000000,0.000000,0.000000,0.000000,0.000000,0.000000,0.000000,0.000000,1647837232.348714,0.000000
61.000000,22549.803263,-797.174966,27930.024616,23424.583486,41582.358370,18223.041978,2067.379900,-1626.469389,0.036000,0.944000,0.256000,192.000000,0.000000,0.000000,0.000000,0.000000,0.000000,0.000000,0.000000,0.000000,0.000000,1647837232.356752,0.000000
62.000000,22546.897536,-798.314905,27932.751528,23424.024692,41591.209661,18226.640609,2063.267179,-1610.264374,0.036000,0.944000,0.256000,192.000000,0.000000,0.000000,0.000000,0.000000,0.000000,0.000000,0.000000,0.000000,0.000000,1647837232.356757,0.000000
63.000000,22551.591402,-794.492757,27938.764148,23426.818660,41599.077475,18231.312124,2073.280760,-1604.072941,0.036000,0.944000,0.256000,192.000000,0.000000,0.000000,0.000000,0.000000,0.000000,0.000000,0.000000,0.000000,0.000000,1647837232.362910,0.000000
64.000000,22551.658458,-794.537460,27937.423043,23425.991646,41595.523548,18230.574516,2072.811374,-1615.137054,0.036000,0.944000,0.256000,192.000000,0.000000,0.000000,0.000000,0.000000,0.000000,0.000000,0.000000,0.000000,0.000000,1647837232.362916,0.000000
65.000000,22553.044266,-794.515108,27937.467746,23425.499907,41592.371952,18230.909792,2071.649083,-1615.159406,0.036000,0.944000,0.256000,192.000000,0.000000,0.000000,0.000000,0.000000,0.000000,0.000000,0.000000,0.000000,0.000000,1647837232.369868,0.000000
66.000000,22549.937373,-798.091388,27936.461918,23421.431890,41586.292277,18227.109996,2066.329368,-1617.953374,0.036000,0.944000,0.256000,192.000000,0.000000,0.000000,0.000000,0.000000,0.000000,0.000000,0.000000,0.000000,0.000000,1647837232.369871,0.000000
67.000000,22555.011219,-794.984495,27939.792328,23424.807003,41592.684876,18229.054598,2066.418775,-1622.446075,0.036000,0.944000,0.256000,192.000000,0.000000,0.000000,0.000000,0.000000,0.000000,0.000000,0.000000,0.000000,0.000000,1647837232.377784,0.000000
68.000000,22555.257089,-792.749321,27938.317113,23424.695244,41599.099827,18226.260629,2056.941635,-1607.693923,0.032000,0.946000,0.262000,192.000000,1.000000,0.000000,29.000000,144.000000,8.000000,48.000000,0.000000,0.000000,0.000000,1647837232.377791,0.000000
69.000000,22560.643859,-786.356722,27943.346255,23429.277352,41599.256289,18230.462757,2066.485830,-1611.136092,0.032000,0.946000,0.262000,192.000000,0.000000,0.000000,0.000000,0.000000,0.000000,0.000000,0.000000,0.000000,0.000000,1647837232.383957,0.000000
70.000000,22553.670115,-792.615210,27936.372511,23423.756471,41590.740274,18230.216888,2072.431394,-1616.344049,0.032000,0.946000,0.262000,192.000000,0.000000,0.000000,0.000000,0.000000,0.000000,0.000000,0.000000,0.000000,0.000000,1647837232.391424,0.000000
71.000000,22549.311525,-794.693922,27928.236476,23418.347349,41582.492481,18224.472490,2062.417813,-1618.713333,0.032000,0.946000,0.262000,192.000000,0.000000,0.000000,0.000000,0.000000,0.000000,0.000000,0.000000,0.000000,0.000000,1647837232.391430,0.000000
72.000000,22546.517556,-798.381960,27923.184982,23411.485363,41576.301047,18216.917600,2056.181676,-1627.832845,0.032000,0.946000,0.262000,192.000000,0.000000,0.000000,0.000000,0.000000,0.000000,0.000000,0.000000,0.000000,0.000000,1647837232.399484,0.000000
73.000000,22540.393179,-808.507300,27918.736985,23405.562151,41569.729634,18208.289827,2049.096173,-1641.601520,0.032000,0.946000,0.262000,192.000000,0.000000,0.000000,0.000000,0.000000,0.000000,0.000000,0.000000,0.000000,0.000000,1647837232.399489,0.000000
74.000000,22544.103568,-806.026257,27921.106269,23408.311416,41569.528469,18211.396719,2058.886237,-1636.505322,0.032000,0.946000,0.262000,192.000000,0.000000,0.000000,0.000000,0.000000,0.000000,0.000000,0.000000,0.000000,0.000000,1647837232.407469,0.000000
75.000000,22543.455368,-806.227423,27920.323958,23404.645730,41569.416710,18212.000216,2066.731699,-1629.576281,0.032000,0.946000,0.262000,192.000000,0.000000,0.000000,0.000000,0.000000,0.000000,0.000000,0.000000,0.000000,0.000000,1647837232.407494,0.000000
76.000000,22540.035551,-809.758998,27917.306473,23400.108325,41568.165012,18209.005083,2057.835705,-1633.778409,0.032000,0.946000,0.262000,192.000000,0.000000,0.000000,0.000000,0.000000,0.000000,0.000000,0.000000,0.000000,0.000000,1647837232.415513,0.000000
77.000000,22537.889783,-812.418856,27917.261769,23398.141372,41566.108652,18211.821403,2059.780307,-1623.764828,0.032000,0.946000,0.262000,192.000000,0.000000,0.000000,0.000000,0.000000,0.000000,0.000000,0.000000,0.000000,0.000000,1647837232.415519,0.000000
78.000000,22536.325161,-815.346934,27919.161668,23395.593273,41566.063948,18211.664940,2053.074783,-1621.440246,0.032000,0.952000,0.268000,192.000000,1.000000,0.000000,29.000000,192.000000,8.000000,96.000000,0.000000,0.000000,0.000000,1647837232.423561,0.000000
79.000000,22542.762463,-811.234213,27927.565924,23401.404727,41569.908448,18212.559010,2054.326481,-1629.911557,0.032000,0.952000,0.268000,192.000000,0.000000,0.000000,0.000000,0.000000,0.000000,0.000000,0.000000,0.000000,0.000000,1647837232.423588,0.000000
80.000000,22547.746902,-807.322658,27935.791366,23408.065547,41576.122233,18214.883592,2036.892120,-1625.329450,0.032000,0.952000,0.268000,192.000000,0.000000,0.000000,0.000000,0.000000,0.000000,0.000000,0.000000,0.000000,0.000000,1647837232.431594,0.000000
81.000000,22544.505899,-808.552004,27937.221877,23408.512581,41578.133890,18218.415167,2052.806563,-1624.502435,0.032000,0.952000,0.268000,192.000000,0.000000,0.000000,0.000000,0.000000,0.000000,0.000000,0.000000,0.000000,0.000000,1647837232.431601,0.000000
82.000000,22547.992772,-804.618097,27938.808851,23413.742890,41582.067797,18226.528850,2085.373054,-1614.555909,0.032000,0.952000,0.268000,192.000000,0.000000,0.000000,0.000000,0.000000,0.000000,0.000000,0.000000,0.000000,0.000000,1647837232.438591,0.000000
83.000000,22550.429112,-801.488853,27942.943924,23419.934323,41584.526489,18231.133310,2079.785118,-1607.671572,0.032000,0.952000,0.268000,192.000000,0.000000,0.000000,0.000000,0.000000,0.000000,0.000000,0.000000,0.000000,0.000000,1647837232.438598,0.000000
84.000000,22548.640972,-801.108873,27942.832165,23418.324997,41581.911335,18226.126519,2071.023234,-1633.666650,0.032000,0.952000,0.268000,192.000000,0.000000,0.000000,0.000000,0.000000,0.000000,0.000000,0.000000,0.000000,0.000000,1647837232.445162,0.000000
85.000000,22549.088007,-799.968934,27942.116909,23418.235590,41585.465263,18232.027380,2080.075691,-1637.131171,0.032000,0.952000,0.268000,192.000000,0.000000,0.000000,0.000000,0.000000,0.000000,0.000000,0.000000,0.000000,0.000000,1647837232.451833,0.000000
86.000000,22545.288211,-802.405274,27935.344331,23412.826468,41581.821928,18225.970057,2074.107775,-1628.704563,0.032000,0.952000,0.268000,192.000000,0.000000,0.000000,0.000000,0.000000,0.000000,0.000000,0.000000,0.000000,0.000000,1647837232.451846,0.000000
87.000000,22547.813958,-798.627829,27932.930342,23417.006244,41589.510928,18228.093472,2074.778327,-1611.918403,0.032000,0.952000,0.268000,192.000000,0.000000,0.000000,0.000000,0.000000,0.000000,0.000000,0.000000,0.000000,0.000000,1647837232.459819,0.000000
88.000000,22548.082179,-796.996152,27930.046967,23418.436756,41594.562423,18229.523984,2071.134993,-1601.122511,0.026000,0.950000,0.264000,192.000000,0.000000,208.000000,29.000000,176.000000,8.000000,64.000000,0.000000,0.000000,0.000000,1647837232.459825,0.000000
89.000000,22544.125920,-801.533556,27928.638807,23413.854648,41589.957963,18225.612429,2065.480002,-1606.509281,0.026000,0.950000,0.264000,192.000000,0.000000,0.000000,0.000000,0.000000,0.000000,0.000000,0.000000,0.000000,0.000000,1647837232.466950,0.000000
90.000000,22538.694446,-807.345010,27924.839011,23407.126773,41580.905507,18218.929257,2052.784211,-1618.512168,0.026000,0.950000,0.264000,192.000000,0.000000,0.000000,0.000000,0.000000,0.000000,0.000000,0.000000,0.000000,0.000000,1647837232.466957,0.000000
91.000000,22540.169661,-807.389713,27925.107232,23404.712785,41577.351579,18224.584249,2065.614112,-1603.760016,0.026000,0.950000,0.264000,192.000000,0.000000,0.000000,0.000000,0.000000,0.000000,0.000000,0.000000,0.000000,0.000000,1647837232.474347,0.000000
92.000000,22540.571992,-806.294478,27926.180115,23405.316282,41578.782091,18225.970057,2064.854153,-1599.803758,0.026000,0.950000,0.264000,192.000000,0.000000,0.000000,0.000000,0.000000,0.000000,0.000000,0.000000,0.000000,0.000000,1647837232.474352,0.000000
93.000000,22539.074426,-807.568527,27925.442508,23406.992663,41580.793748,18221.611467,2052.337176,-1614.935889,0.026000,0.950000,0.264000,192.000000,0.000000,0.000000,0.000000,0.000000,0.000000,0.000000,0.000000,0.000000,0.000000,1647837232.482460,0.000000
94.000000,22543.857699,-801.801777,27927.945903,23414.927532,41584.593545,18222.505536,2055.667586,-1608.453883,0.026000,0.950000,0.264000,192.000000,0.000000,0.000000,0.000000,0.000000,0.000000,0.000000,0.000000,0.000000,0.000000,1647837232.482464,0.000000
95.000000,22541.220193,-802.382922,27924.570790,23416.559209,41583.632420,18221.499708,2059.065051,-1609.549118,0.026000,0.950000,0.264000,192.000000,0.000000,0.000000,0.000000,0.000000,0.000000,0.000000,0.000000,0.000000,0.000000,1647837232.490546,0.000000
96.000000,22541.488414,-803.321696,27923.140278,23418.548515,41582.157204,18213.900115,2046.503371,-1625.776485,0.026000,0.950000,0.264000,192.000000,0.000000,0.000000,0.000000,0.000000,0.000000,0.000000,0.000000,0.000000,0.000000,1647837232.490569,0.000000
97.000000,22552.396065,-792.995190,27931.209258,23430.461994,41593.444835,18218.996312,2053.186542,-1615.785255,0.026000,0.950000,0.264000,192.000000,0.000000,0.000000,0.000000,0.000000,0.000000,0.000000,0.000000,0.000000,0.000000,1647837232.497499,0.000000
98.000000,22553.670115,-791.654085,27929.354063,23431.959561,41594.227146,18215.710606,2052.270121,-1622.803703,0.024000,0.946000,0.264000,192.000000,0.000000,192.000000,29.000000,144.000000,8.000000,64.000000,0.000000,0.000000,0.000000,1647837232.497503,0.000000
99.000000,22549.915022,-796.437358,27927.856496,23428.159765,41588.639210,18211.888458,2048.738545,-1625.195339,0.024000,0.946000,0.264000,192.000000,0.000000,0.000000,0.000000,0.000000,0.000000,0.000000,0.000000,0.000000,0.000000,1647837232.505574,0.000000
100.000000,22551.993734,-794.157480,27930.695168,23430.037311,41586.560498,18214.458908,2048.850304,-1616.008772,0.024000,0.946000,0.264000,192.000000,0.000000,0.000000,0.000000,0.000000,0.000000,0.000000,0.000000,0.000000,0.000000,1647837232.505599,0.000000
101.000000,22556.620545,-789.173041,27936.193697,23432.071320,41589.734446,18219.309237,2046.391612,-1625.776485,0.024000,0.946000,0.264000,192.000000,0.000000,0.000000,0.000000,0.000000,0.000000,0.000000,0.000000,0.000000,0.000000,1647837232.511996,0.000000
102.000000,22548.797434,-797.979629,27931.164554,23421.253076,41582.939515,18213.408376,2042.971795,-1640.998023,0.024000,0.946000,0.264000,192.000000,0.000000,0.000000,0.000000,0.000000,0.000000,0.000000,0.000000,0.000000,0.000000,1647837232.519134,0.000000
103.000000,22544.483548,-801.779425,27928.370586,23415.821602,41577.463338,18212.067272,2043.485885,-1626.223520,0.024000,0.946000,0.264000,192.000000,0.000000,0.000000,0.000000,0.000000,0.000000,0.000000,0.000000,0.000000,0.000000,1647837232.519138,0.000000
104.000000,22551.837272,-795.163309,27935.053758,23422.750643,41583.878289,18217.744615,2045.743411,-1619.585051,0.024000,0.946000,0.264000,192.000000,0.000000,0.000000,0.000000,0.000000,0.000000,0.000000,0.000000,0.000000,0.000000,1647837232.526597,0.000000
105.000000,22556.531138,-792.190527,27940.105252,23428.293875,41591.522585,18223.757234,2053.521818,-1608.543290,0.024000,0.946000,0.264000,192.000000,0.000000,0.000000,0.000000,0.000000,0.000000,0.000000,0.000000,0.000000,0.000000,1647837232.526600,0.000000
106.000000,22552.776045,-798.717236,27936.484270,23424.427023,41589.242707,18220.650342,2054.795868,-1615.852310,0.024000,0.946000,0.264000,192.000000,0.000000,0.000000,0.000000,0.000000,0.000000,0.000000,0.000000,0.000000,0.000000,1647837232.534636,0.000000
107.000000,22557.514615,-797.130263,27941.155784,23429.523221,41593.601298,18226.506499,2058.573313,-1616.902842,0.024000,0.946000,0.264000,192.000000,0.000000,0.000000,0.000000,0.000000,0.000000,0.000000,0.000000,0.000000,0.000000,1647837232.534645,0.000000
108.000000,22553.871280,-801.242983,27940.507584,23428.338579,41590.516757,18225.008932,2055.667586,-1622.535482,0.018000,0.946000,0.270000,192.000000,0.000000,144.000000,29.000000,144.000000,8.000000,112.000000,0.000000,0.000000,0.000000,1647837232.542624,0.000000
109.000000,22549.177414,-803.791082,27936.417214,23423.220029,41584.705303,18219.420996,2039.328461,-1629.598633,0.018000,0.946000,0.270000,192.000000,0.000000,0.000000,0.000000,0.000000,0.000000,0.000000,0.000000,0.000000,0.000000,1647837232.542628,0.000000
110.000000,22551.323182,-802.740550,27938.987665,23424.069396,41583.945344,18223.243144,2048.157400,-1623.384848,0.018000,0.946000,0.270000,192.000000,0.000000,0.000000,0.000000,0.000000,0.000000,0.000000,0.000000,0.000000,0.000000,1647837232.549279,0.000000
111.000000,22545.824652,-809.222556,27932.863287,23418.079128,41579.340885,18218.996312,2050.839609,-1632.683174,0.018000,0.946000,0.270000,192.000000,0.000000,0.000000,0.000000,0.000000,0.000000,0.000000,0.000000,0.000000,0.000000,1647837232.549282,0.000000
112.000000,22542.226022,-812.038876,27929.354063,23415.575733,41579.162071,18211.955513,2039.328461,-1633.331374,0.018000,0.946000,0.270000,192.000000,0.000000,0.000000,0.000000,0.000000,0.000000,0.000000,0.000000,0.000000,0.000000,1647837232.557298,0.000000
113.000000,22549.311525,-804.416931,27935.187868,23420.873096,41581.933687,18220.516231,2060.137935,-1612.320735,0.018000,0.946000,0.270000,192.000000,0.000000,0.000000,0.000000,0.000000,0.000000,0.000000,0.000000,0.000000,0.000000,1647837232.557303,0.000000
114.000000,22546.763426,-805.758036,27931.768052,23416.313340,41575.719902,18217.364635,2065.100022,-1621.216729,0.018000,0.946000,0.270000,192.000000,0.000000,0.000000,0.000000,0.000000,0.000000,0.000000,0.000000,0.000000,0.000000,1647837232.565226,0.000000
115.000000,22542.807167,-808.753170,27927.476517,23410.546590,41569.237896,18213.251914,2058.439202,-1624.569491,0.018000,0.946000,0.270000,192.000000,0.000000,0.000000,0.000000,0.000000,0.000000,0.000000,0.000000,0.000000,0.000000,1647837232.565231,0.000000
116.000000,22544.505899,-807.546175,27929.801098,23412.334730,41575.004646,18213.117804,2052.203065,-1626.134113,0.018000,0.946000,0.270000,192.000000,0.000000,0.000000,0.000000,0.000000,0.000000,0.000000,0.000000,0.000000,0.000000,1647837232.572412,0.000000
117.000000,22546.070522,-808.306135,27932.483307,23416.581561,41579.832623,18216.425862,2055.868752,-1615.762903,0.018000,0.946000,0.270000,192.000000,0.000000,0.000000,0.000000,0.000000,0.000000,0.000000,0.000000,0.000000,0.000000,1647837232.578870,0.000000
118.000000,22542.248373,-812.061228,27925.621322,23413.295855,41571.830698,18210.815574,2051.733679,-1630.962089,0.020000,0.946000,0.264000,192.000000,0.000000,160.000000,29.000000,144.000000,8.000000,64.000000,0.000000,0.000000,0.000000,1647837232.578873,0.000000
119.000000,22540.236716,-813.804664,27921.307435,23411.127736,41567.628571,18207.328702,2042.949443,-1647.122401,0.020000,0.946000,0.264000,192.000000,0.000000,0.000000,0.000000,0.000000,0.000000,0.000000,0.000000,0.000000,0.000000,1647837232.586928,0.000000
120.000000,22536.325161,-816.576280,27917.820563,23407.663215,41567.203887,18203.774775,2029.538397,-1668.110689,0.020000,0.946000,0.264000,192.000000,0.000000,0.000000,0.000000,0.000000,0.000000,0.000000,0.000000,0.000000,0.000000,1647837232.586933,0.000000
121.000000,22539.186184,-813.737609,27922.872057,23414.927532,41573.417672,18217.118766,2044.983452,-1613.773598,0.020000,0.946000,0.264000,192.000000,0.000000,0.000000,0.000000,0.000000,0.000000,0.000000,0.000000,0.000000,0.000000,1647837232.594898,0.000000
122.000000,22534.626428,-818.900862,27917.507639,23412.625302,41574.736425,18217.945781,2048.269158,-1616.142883,0.020000,0.946000,0.264000,192.000000,0.000000,0.000000,0.000000,0.000000,0.000000,0.000000,0.000000,0.000000,0.000000,1647837232.594901,0.000000
123.000000,22530.267838,-820.689001,27917.060604,23410.904218,41575.518736,18224.181917,2066.172906,-1609.392656,0.020000,0.946000,0.264000,192.000000,0.000000,0.000000,0.000000,0.000000,0.000000,0.000000,0.000000,0.000000,0.000000,1647837232.602061,0.000000
124.000000,22531.921867,-817.962088,27919.720461,23411.731233,41569.595524,18227.691141,2071.760842,-1594.081711,0.020000,0.946000,0.264000,192.000000,0.000000,0.000000,0.000000,0.000000,0.000000,0.000000,0.000000,0.000000,0.000000,1647837232.602087,0.000000
125.000000,22531.094853,-817.760923,27916.948845,23408.445526,41559.045501,18221.007969,2062.909551,-1604.475272,0.020000,0.946000,0.264000,192.000000,0.000000,0.000000,0.000000,0.000000,0.000000,0.000000,0.000000,0.000000,0.000000,1647837232.609579,0.000000
126.000000,22524.702254,-823.460617,27907.292891,23400.175381,41548.696643,18211.039091,2043.351775,-1618.042781,0.020000,0.946000,0.264000,192.000000,0.000000,0.000000,0.000000,0.000000,0.000000,0.000000,0.000000,0.000000,0.000000,1647837232.609599,0.000000
127.000000,22530.021969,-819.236138,27910.489191,23403.148163,41551.870591,18212.491955,2049.744374,-1619.093313,0.020000,0.946000,0.264000,192.000000,0.000000,0.000000,0.000000,0.000000,0.000000,0.000000,0.000000,0.000000,0.000000,1647837232.617514,0.000000
128.000000,22534.760539,-816.106894,27914.378394,23406.612683,41553.368158,18217.744615,2066.821106,-1616.478159,0.020000,0.946000,0.260000,192.000000,0.000000,160.000000,29.000000,144.000000,8.000000,32.000000,0.000000,0.000000,0.000000,1647837232.617534,0.000000
129.000000,22534.961705,-817.649164,27914.333691,23404.489267,41546.550875,18220.002141,2073.191353,-1608.833862,0.020000,0.946000,0.260000,192.000000,0.000000,0.000000,0.000000,0.000000,0.000000,0.000000,0.000000,0.000000,0.000000,1647837232.625529,0.000000
130.000000,22531.430129,-821.560719,27908.701051,23396.710860,41539.666538,18215.867068,2064.027138,-1608.856214,0.020000,0.946000,0.260000,192.000000,0.000000,0.000000,0.000000,0.000000,0.000000,0.000000,0.000000,0.000000,0.000000,1647837232.625550,0.000000
131.000000,22528.055016,-823.572376,27905.214179,23394.855666,41542.482858,18214.369501,2063.043661,-1614.801778,0.020000,0.946000,0.260000,192.000000,0.000000,0.000000,0.000000,0.000000,0.000000,0.000000,0.000000,0.000000,0.000000,1647837232.631719,0.000000
132.000000,22528.904382,-821.560719,27906.935264,23398.901331,41543.689852,18217.521097,2070.106813,-1626.067057,0.020000,0.946000,0.260000,192.000000,0.000000,0.000000,0.000000,0.000000,0.000000,0.000000,0.000000,0.000000,0.000000,1647837232.639233,0.000000
133.000000,22522.735300,-826.656917,27900.386202,23392.978119,41539.152448,18211.061443,2055.622882,-1634.180741,0.020000,0.946000,0.260000,192.000000,0.000000,0.000000,0.000000,0.000000,0.000000,0.000000,0.000000,0.000000,0.000000,1647837232.639241,0.000000
134.000000,22525.283399,-824.041763,27902.554322,23396.666157,41542.773431,18214.056577,2049.654967,-1610.487891,0.020000,0.946000,0.260000,192.000000,0.000000,0.000000,0.000000,0.000000,0.000000,0.000000,0.000000,0.000000,0.000000,1647837232.647165,0.000000
135.000000,22526.222173,-827.193359,27907.471705,23402.567017,41546.930855,18221.589115,2068.788060,-1601.368380,0.020000,0.946000,0.260000,192.000000,0.000000,0.000000,0.000000,0.000000,0.000000,0.000000,0.000000,0.000000,0.000000,1647837232.647173,0.000000
136.000000,22522.936466,-831.864873,27905.728269,23400.398898,41548.853105,18217.878725,2062.373109,-1610.912575,0.020000,0.946000,0.260000,192.000000,0.000000,0.000000,0.000000,0.000000,0.000000,0.000000,0.000000,0.000000,0.000000,1647837232.655212,0.000000
137.000000,22524.836364,-829.383830,27906.622339,23401.695299,41551.200038,18214.369501,2060.786135,-1617.595746,0.020000,0.946000,0.260000,192.000000,0.000000,0.000000,0.000000,0.000000,0.000000,0.000000,0.000000,0.000000,0.000000,1647837232.655217,0.000000
138.000000,22528.725568,-825.651088,27908.298720,23404.645730,41554.150469,18215.285923,2060.763784,-1612.432493,0.022000,0.944000,0.254000,192.000000,0.000000,176.000000,29.000000,128.000000,7.000000,240.000000,0.000000,0.000000,0.000000,1647837232.661820,0.000000
139.000000,22528.926734,-821.046629,27906.555284,23403.014052,41552.339977,18212.380196,2060.272045,-1616.567566,0.022000,0.944000,0.254000,192.000000,0.000000,0.000000,0.000000,0.000000,0.000000,0.000000,0.000000,0.000000,0.000000,1647837232.661826,0.000000
140.000000,22529.999617,-818.565585,27906.734098,23403.058756,41553.368158,18210.480298,2058.103926,-1622.557833,0.022000,0.944000,0.254000,192.000000,0.000000,0.000000,0.000000,0.000000,0.000000,0.000000,0.000000,0.000000,0.000000,1647837232.669924,0.000000
141.000000,22530.446652,-819.593766,27908.455182,23404.332805,41555.625684,18211.284961,2058.282740,-1621.306136,0.022000,0.944000,0.254000,192.000000,0.000000,0.000000,0.000000,0.000000,0.000000,0.000000,0.000000,0.000000,0.000000,1647837232.669952,0.000000
142.000000,22530.603114,-819.370248,27908.812810,23404.757488,41558.129079,18211.150850,2056.516952,-1620.881453,0.022000,0.944000,0.254000,192.000000,0.000000,0.000000,0.000000,0.000000,0.000000,0.000000,0.000000,0.000000,0.000000,1647837232.677789,0.000000
143.000000,22526.669207,-824.891129,27902.822543,23396.532046,41556.966788,18201.606655,2038.009708,-1647.971767,0.022000,0.944000,0.254000,192.000000,0.000000,0.000000,0.000000,0.000000,0.000000,0.000000,0.000000,0.000000,0.000000,1647837232.677794,0.000000
144.000000,22531.921867,-819.660821,27908.343423,23402.455259,41560.520716,18208.647455,2039.350812,-1633.331374,0.022000,0.944000,0.254000,192.000000,0.000000,0.000000,0.000000,0.000000,0.000000,0.000000,0.000000,0.000000,0.000000,1647837232.684391,0.000000
145.000000,22530.223135,-819.906690,27910.466839,23403.684605,41561.124213,18217.431690,2057.880409,-1611.203147,0.022000,0.944000,0.254000,192.000000,0.000000,0.000000,0.000000,0.000000,0.000000,0.000000,0.000000,0.000000,0.000000,1647837232.684395,0.000000
146.000000,22529.843155,-820.398428,27912.702014,23404.489267,41562.152393,18221.119728,2076.767633,-1613.997115,0.022000,0.944000,0.254000,192.000000,0.000000,0.000000,0.000000,0.000000,0.000000,0.000000,0.000000,0.000000,0.000000,1647837232.691400,0.000000
147.000000,22527.071539,-822.343030,27910.712708,23400.510657,41560.587771,18218.146946,2066.776403,-1619.249775,0.022000,0.944000,0.254000,192.000000,0.000000,0.000000,0.000000,0.000000,0.000000,0.000000,0.000000,0.000000,0.000000,1647837232.699440,0.000000
148.000000,22522.735300,-824.041763,27908.946921,23400.912988,41553.971655,18213.475432,2057.254560,-1623.876586,0.024000,0.948000,0.256000,192.000000,0.000000,192.000000,29.000000,160.000000,8.000000,0.000000,0.000000,0.000000,0.000000,1647837232.699445,0.000000
149.000000,22522.869411,-824.108818,27910.153915,23404.578674,41552.764660,18215.688254,2059.579141,-1629.844502,0.024000,0.948000,0.256000,192.000000,0.000000,0.000000,0.000000,0.000000,0.000000,0.000000,0.000000,0.000000,0.000000,1647837232.707378,0.000000
150.000000,22526.110414,-821.158388,27913.327862,23408.758451,41555.938608,18217.118766,2063.803621,-1641.355651,0.024000,0.948000,0.256000,192.000000,0.000000,0.000000,0.000000,0.000000,0.000000,0.000000,0.000000,0.000000,0.000000,1647837232.707387,0.000000
151.000000,22525.082234,-823.684135,27913.819601,23405.897427,41554.999835,18216.470565,2060.026176,-1625.284746,0.024000,0.948000,0.256000,192.000000,0.000000,0.000000,0.000000,0.000000,0.000000,0.000000,0.000000,0.000000,0.000000,1647837232.714001,0.000000
152.000000,22519.717815,-829.048554,27910.802115,23397.023785,41551.736480,18215.308275,2072.096118,-1621.037915,0.024000,0.948000,0.256000,192.000000,0.000000,0.000000,0.000000,0.000000,0.000000,0.000000,0.000000,0.000000,0.000000,1647837232.714005,0.000000
153.000000,22525.037530,-823.304155,27916.211237,23403.908122,41554.105765,18223.243144,2074.085423,-1592.606496,0.024000,0.948000,0.256000,192.000000,0.000000,0.000000,0.000000,0.000000,0.000000,0.000000,0.000000,0.000000,0.000000,1647837232.722027,0.000000
154.000000,22521.528306,-826.835731,27909.706880,23398.744869,41547.713166,18219.443347,2063.803621,-1605.302287,0.024000,0.948000,0.256000,192.000000,0.000000,0.000000,0.000000,0.000000,0.000000,0.000000,0.000000,0.000000,0.000000,1647837232.722031,0.000000
155.000000,22518.957856,-831.462542,27905.460048,23390.564131,41540.560608,18214.727129,2058.953292,-1621.686115,0.024000,0.948000,0.256000,192.000000,0.000000,0.000000,0.000000,0.000000,0.000000,0.000000,0.000000,0.000000,0.000000,1647837232.730070,0.000000
156.000000,22519.673111,-831.015507,27905.482400,23391.972291,41541.208809,18218.370464,2059.445031,-1608.431531,0.024000,0.948000,0.256000,192.000000,0.000000,0.000000,0.000000,0.000000,0.000000,0.000000,0.000000,0.000000,0.000000,1647837232.730074,0.000000
157.000000,22522.891763,-827.618042,27908.566941,23396.777916,41551.580018,18224.472490,2072.364339,-1600.228441,0.024000,0.948000,0.256000,192.000000,0.000000,0.000000,0.000000,0.000000,0.000000,0.000000,0.000000,0.000000,0.000000,1647837232.737160,0.000000
158.000000,22520.567181,-827.595690,27907.739926,23396.152067,41552.988178,18217.990484,2062.440164,-1622.937813,0.024000,0.948000,0.256000,192.000000,0.000000,0.000000,0.000000,0.000000,0.000000,0.000000,0.000000,0.000000,0.000000,1647837232.737163,0.000000
159.000000,22521.103623,-823.862949,27907.337595,23400.778878,41550.864762,18212.044920,2048.179751,-1642.562645,0.024000,0.946000,0.246000,192.000000,0.000000,192.000000,29.000000,144.000000,7.000000,176.000000,0.000000,0.000000,0.000000,1647837232.745153,0.000000
160.000000,22527.563277,-817.313888,27911.874999,23411.194791,41556.564457,18212.491955,2048.291510,-1630.492703,0.024000,0.946000,0.246000,192.000000,0.000000,0.000000,0.000000,0.000000,0.000000,0.000000,0.000000,0.000000,0.000000,1647837232.745181,0.000000
161.000000,22535.721664,-810.586013,27918.848743,23423.868230,41567.695626,18220.829156,2059.579141,-1617.327525,0.024000,0.946000,0.246000,192.000000,0.000000,0.000000,0.000000,0.000000,0.000000,0.000000,0.000000,0.000000,0.000000,1647837232.751793,0.000000
162.000000,22530.983094,-812.508263,27917.798211,23423.443547,41567.315646,18218.415167,2048.850304,-1616.299345,0.024000,0.946000,0.246000,192.000000,0.000000,0.000000,0.000000,0.000000,0.000000,0.000000,0.000000,0.000000,0.000000,1647837232.751819,0.000000
163.000000,22525.641027,-818.386771,27915.607740,23417.766204,41558.509059,18217.029359,2054.594702,-1605.101121,0.024000,0.946000,0.246000,192.000000,0.000000,0.000000,0.000000,0.000000,0.000000,0.000000,0.000000,0.000000,0.000000,1647837232.759831,0.000000
164.000000,22526.624504,-816.576280,27914.780726,23417.542686,41547.981387,18218.191650,2063.893028,-1613.795950,0.024000,0.946000,0.246000,192.000000,0.000000,0.000000,0.000000,0.000000,0.000000,0.000000,0.000000,0.000000,0.000000,1647837232.767013,0.000000
165.000000,22525.931600,-817.738571,27914.981892,23415.151050,41549.054271,18219.666865,2059.020347,-1616.969897,0.024000,0.946000,0.246000,192.000000,0.000000,0.000000,0.000000,0.000000,0.000000,0.000000,0.000000,0.000000,0.000000,1647837232.767039,0.000000
166.000000,22525.775138,-818.006792,27912.791421,23410.412480,41547.489649,18219.420996,2055.421717,-1616.433456,0.024000,0.946000,0.246000,192.000000,0.000000,0.000000,0.000000,0.000000,0.000000,0.000000,0.000000,0.000000,0.000000,1647837232.774344,0.000000
167.000000,22524.210516,-822.946527,27908.186961,23401.896465,41545.120364,18217.431690,2053.208894,-1616.008772,0.024000,0.946000,0.246000,192.000000,0.000000,0.000000,0.000000,0.000000,0.000000,0.000000,0.000000,0.000000,0.000000,1647837232.774347,0.000000
168.000000,22519.807222,-828.892091,27907.002319,23401.404727,41544.270998,18219.532754,2061.859019,-1616.321697,0.024000,0.946000,0.246000,192.000000,0.000000,0.000000,0.000000,0.000000,0.000000,0.000000,0.000000,0.000000,0.000000,1647837232.782326,0.000000
169.000000,22519.226077,-829.383830,27908.231665,23401.538837,41544.025128,18221.343246,2066.172906,-1603.648258,0.032000,0.946000,0.258000,192.000000,1.000000,0.000000,29.000000,144.000000,8.000000,16.000000,0.000000,0.000000,0.000000,1647837232.782330,0.000000
170.000000,22517.840268,-830.993155,27908.186961,23397.671985,41536.939625,18218.303408,2063.133068,-1607.917441,0.032000,0.946000,0.258000,192.000000,0.000000,0.000000,0.000000,0.000000,0.000000,0.000000,0.000000,0.000000,0.000000,1647837232.789425,0.000000
171.000000,22518.063786,-832.133094,27908.589293,23395.503866,41534.190361,18214.302446,2066.709348,-1616.433456,0.032000,0.946000,0.258000,192.000000,0.000000,0.000000,0.000000,0.000000,0.000000,0.000000,0.000000,0.000000,0.000000,1647837232.789434,0.000000
172.000000,22518.644931,-831.931929,27910.444487,23396.956730,41538.928931,18209.206248,2056.963987,-1626.692906,0.032000,0.946000,0.258000,192.000000,0.000000,0.000000,0.000000,0.000000,0.000000,0.000000,0.000000,0.000000,0.000000,1647837232.796954,0.000000
173.000000,22518.756690,-830.814341,27912.880828,23400.354195,41540.538256,18209.832097,2065.144725,-1625.910595,0.032000,0.946000,0.258000,192.000000,0.000000,0.000000,0.000000,0.000000,0.000000,0.000000,0.000000,0.000000,0.000000,1647837232.796958,0.000000
174.000000,22518.711986,-830.859045,27913.283159,23402.589369,41540.024166,18209.765042,2065.502353,-1627.676383,0.032000,0.946000,0.258000,192.000000,0.000000,0.000000,0.000000,0.000000,0.000000,0.000000,0.000000,0.000000,0.000000,1647837232.805007,0.000000
175.000000,22517.683806,-830.344955,27914.221932,23405.428041,41546.215599,18210.256780,2061.188467,-1628.793970,0.032000,0.946000,0.258000,192.000000,0.000000,0.000000,0.000000,0.000000,0.000000,0.000000,0.000000,0.000000,0.000000,1647837232.805011,0.000000
176.000000,22521.260085,-827.886263,27912.813772,23407.596160,41548.406070,18209.206248,2052.426583,-1624.435380,0.032000,0.946000,0.258000,192.000000,0.000000,0.000000,0.000000,0.000000,0.000000,0.000000,0.000000,0.000000,0.000000,1647837232.812965,0.000000
177.000000,22521.193030,-826.522806,27911.495019,23412.893523,41552.317626,18212.491955,2057.589836,-1623.273089,0.032000,0.946000,0.258000,192.000000,0.000000,0.000000,0.000000,0.000000,0.000000,0.000000,0.000000,0.000000,0.000000,1647837232.812969,0.000000
178.000000,22513.191106,-831.976632,27906.689394,23411.887695,41551.959998,18208.043958,2049.319690,-1639.053421,0.032000,0.946000,0.258000,192.000000,0.000000,0.000000,0.000000,0.000000,0.000000,0.000000,0.000000,0.000000,0.000000,1647837232.820127,0.000000
179.000000,22506.887914,-837.408106,27901.034403,23405.852724,41547.288483,18207.485164,2049.319690,-1643.166142,0.028000,0.946000,0.262000,192.000000,0.000000,224.000000,29.000000,144.000000,8.000000,48.000000,0.000000,0.000000,0.000000,1647837232.826672,0.000000
180.000000,22502.015233,-843.197208,27899.536836,23402.567017,41546.819096,18216.403510,2062.306054,-1617.081656,0.028000,0.946000,0.262000,192.000000,0.000000,0.000000,0.000000,0.000000,0.000000,0.000000,0.000000,0.000000,0.000000,1647837232.826690,0.000000
181.000000,22501.344681,-845.275920,27900.944996,23399.773049,41541.968768,18217.275228,2062.373109,-1628.302232,0.028000,0.946000,0.262000,192.000000,0.000000,0.000000,0.000000,0.000000,0.000000,0.000000,0.000000,0.000000,0.000000,1647837232.834704,0.000000
182.000000,22499.422431,-849.142772,27901.459086,23394.095706,41546.260303,18215.576496,2043.240016,-1626.044706,0.028000,0.946000,0.262000,192.000000,0.000000,0.000000,0.000000,0.000000,0.000000,0.000000,0.000000,0.000000,0.000000,1647837232.834708,0.000000
183.000000,22493.208646,-856.898827,27899.469781,23390.899407,41548.674291,18219.063368,2058.081574,-1604.385865,0.028000,0.946000,0.262000,192.000000,0.000000,0.000000,0.000000,0.000000,0.000000,0.000000,0.000000,0.000000,0.000000,1647837232.842721,0.000000
184.000000,22491.979300,-860.408051,27901.950824,23391.122924,41546.886152,18222.416129,2070.799717,-1611.694886,0.028000,0.946000,0.262000,192.000000,0.000000,0.000000,0.000000,0.000000,0.000000,0.000000,0.000000,0.000000,0.000000,1647837232.842724,0.000000
185.000000,22482.949195,-870.891019,27892.160760,23380.103514,41543.309873,18214.838888,2057.746298,-1621.864929,0.028000,0.946000,0.262000,192.000000,0.000000,0.000000,0.000000,0.000000,0.000000,0.000000,0.000000,0.000000,0.000000,1647837232.849366,0.000000
186.000000,22479.551730,-871.405109,27892.205464,23382.226930,41543.086355,18220.002141,2067.603417,-1609.593822,0.028000,0.946000,0.262000,192.000000,0.000000,0.000000,0.000000,0.000000,0.000000,0.000000,0.000000,0.000000,0.000000,1647837232.849391,0.000000
187.000000,22469.649907,-881.642208,27886.438714,23375.811979,41539.957111,18207.954551,2056.539304,-1667.864820,0.028000,0.946000,0.262000,192.000000,0.000000,0.000000,0.000000,0.000000,0.000000,0.000000,0.000000,0.000000,0.000000,1647837232.857394,0.000000
188.000000,22462.139721,-891.901659,27883.912967,23374.202654,41535.196189,18203.797126,2052.806563,-1675.665578,0.028000,0.946000,0.262000,192.000000,0.000000,0.000000,0.000000,0.000000,0.000000,0.000000,0.000000,0.000000,0.000000,1647837232.857419,0.000000
189.000000,22462.922032,-890.649961,27886.550473,23380.863474,41531.508151,18225.008932,2078.131089,-1560.732908,0.034000,0.942000,0.266000,192.000000,1.000000,16.000000,29.000000,112.000000,8.000000,80.000000,0.000000,0.000000,0.000000,1647837232.865224,0.000000
190.000000,22464.509006,-889.733540,27887.243377,23383.009241,41525.160256,18226.685313,2081.305037,-1553.602702,0.034000,0.942000,0.266000,192.000000,0.000000,0.000000,0.000000,0.000000,0.000000,0.000000,0.000000,0.000000,0.000000,1647837232.865251,0.000000
191.000000,22458.608146,-895.701456,27885.254071,23379.567072,41523.215654,18222.974923,2075.985322,-1582.972894,0.034000,0.942000,0.266000,192.000000,0.000000,0.000000,0.000000,0.000000,0.000000,0.000000,0.000000,0.000000,0.000000,1647837232.872453,0.000000
192.000000,22456.037695,-898.115444,27888.003336,23382.673965,41522.545102,18223.444310,2077.885220,-1590.237211,0.034000,0.942000,0.266000,192.000000,0.000000,0.000000,0.000000,0.000000,0.000000,0.000000,0.000000,0.000000,0.000000,1647837232.872457,0.000000
193.000000,22452.059084,-904.038656,27889.143275,23382.741020,41520.511093,18219.823327,2071.649083,-1598.641467,0.034000,0.942000,0.266000,192.000000,0.000000,0.000000,0.000000,0.000000,0.000000,0.000000,0.000000,0.000000,0.000000,1647837232.878994,0.000000
194.000000,22450.539166,-905.312706,27889.791476,23385.020898,41525.272015,18220.382121,2066.575237,-1604.207051,0.034000,0.942000,0.266000,192.000000,0.000000,0.000000,0.000000,0.000000,0.000000,0.000000,0.000000,0.000000,0.000000,1647837232.886819,0.000000
195.000000,22449.108654,-905.111540,27887.399839,23388.261901,41531.351689,18218.236353,2061.903723,-1613.505377,0.034000,0.942000,0.266000,192.000000,0.000000,0.000000,0.000000,0.000000,0.000000,0.000000,0.000000,0.000000,0.000000,1647837232.886844,0.000000
196.000000,22447.499329,-907.078493,27883.532987,23388.172494,41529.876474,18212.670769,2052.851266,-1620.546176,0.034000,0.942000,0.266000,192.000000,0.000000,0.000000,0.000000,0.000000,0.000000,0.000000,0.000000,0.000000,0.000000,1647837232.894995,0.000000
197.000000,22447.409922,-908.397246,27879.353211,23384.126828,41526.702526,18212.179030,2049.610263,-1625.128284,0.034000,0.942000,0.266000,192.000000,0.000000,0.000000,0.000000,0.000000,0.000000,0.000000,0.000000,0.000000,0.000000,1647837232.895020,0.000000
198.000000,22444.235974,-911.370028,27874.391124,23377.533064,41526.702526,18213.341321,2053.655929,-1624.658897,0.034000,0.942000,0.266000,192.000000,0.000000,0.000000,0.000000,0.000000,0.000000,0.000000,0.000000,0.000000,0.000000,1647837232.902137,0.000000
199.000000,22441.665523,-916.957965,27877.140388,23374.470875,41529.384736,18216.023530,2054.572350,-1624.480084,0.040000,0.936000,0.268000,192.000000,1.000000,64.000000,29.000000,64.000000,8.000000,96.000000,0.000000,0.000000,0.000000,1647837232.902141,0.000000
200.000000,22443.028980,-917.539110,27877.766237,23374.403819,41525.093201,18213.028397,2048.582083,-1623.742476,0.040000,0.936000,0.268000,192.000000,0.000000,0.000000,0.000000,0.000000,0.000000,0.000000,0.000000,0.000000,0.000000,1647837232.909445,0.000000
201.000000,22438.446872,-919.684877,27873.184129,23367.541834,41512.151541,18205.652321,2044.603472,-1627.341107,0.040000,0.936000,0.268000,192.000000,0.000000,0.000000,0.000000,0.000000,0.000000,0.000000,0.000000,0.000000,0.000000,1647837232.909472,0.000000
202.000000,22437.217526,-921.361258,27874.458179,23365.597232,41509.446980,18206.591094,2054.415888,-1621.887281,0.040000,0.936000,0.268000,192.000000,0.000000,0.000000,0.000000,0.000000,0.000000,0.000000,0.000000,0.000000,0.000000,1647837232.917627,0.000000
203.000000,22441.106730,-918.142607,27875.978097,23365.418418,41511.592747,18204.713548,2050.839609,-1631.096200,0.040000,0.936000,0.268000,192.000000,0.000000,0.000000,0.000000,0.000000,0.000000,0.000000,0.000000,0.000000,0.000000,1647837232.917645,0.000000
204.000000,22451.030904,-907.749046,27886.282252,23371.140465,41515.124323,18207.574571,2055.935807,-1623.921290,0.040000,0.936000,0.268000,192.000000,0.000000,0.000000,0.000000,0.000000,0.000000,0.000000,0.000000,0.000000,0.000000,1647837232.925402,0.000000
205.000000,22454.182500,-906.139720,27889.836179,23370.045229,41515.146675,18206.389929,2053.790039,-1620.859101,0.040000,0.936000,0.268000,192.000000,0.000000,0.000000,0.000000,0.000000,0.000000,0.000000,0.000000,0.000000,0.000000,1647837232.925405,0.000000
206.000000,22456.820006,-903.546918,27890.126752,23370.604023,41518.700602,18202.232504,2052.605397,-1626.648203,0.040000,0.936000,0.268000,192.000000,0.000000,0.000000,0.000000,0.000000,0.000000,0.000000,0.000000,0.000000,0.000000,1647837232.932137,0.000000
207.000000,22462.095018,-897.243726,27891.266691,23375.208482,41519.549968,18199.192667,2052.739507,-1620.300307,0.040000,0.936000,0.268000,192.000000,0.000000,0.000000,0.000000,0.000000,0.000000,0.000000,0.000000,0.000000,0.000000,1647837232.932142,0.000000
208.000000,22468.979355,-887.855993,27899.179208,23386.093782,41522.790971,18204.177106,2052.493638,-1607.492758,0.040000,0.936000,0.268000,192.000000,0.000000,0.000000,0.000000,0.000000,0.000000,0.000000,0.000000,0.000000,0.000000,1647837232.939188,0.000000
209.000000,22475.751934,-880.055234,27905.214179,23393.313395,41523.617986,18206.278170,2062.238999,-1609.884394,0.024000,0.948000,0.270000,192.000000,0.000000,192.000000,29.000000,160.000000,8.000000,112.000000,0.000000,0.000000,0.000000,1647837232.947185,0.000000
210.000000,22485.050259,-871.628627,27911.651482,23400.510657,41529.563550,18211.441423,2073.124298,-1609.437360,0.024000,0.948000,0.270000,192.000000,0.000000,0.000000,0.000000,0.000000,0.000000,0.000000,0.000000,0.000000,0.000000,1647837232.947190,0.000000
211.000000,22486.816047,-869.549915,27910.913874,23398.901331,41529.742364,18209.005083,2055.824048,-1620.345011,0.024000,0.948000,0.270000,192.000000,0.000000,0.000000,0.000000,0.000000,0.000000,0.000000,0.000000,0.000000,0.000000,1647837232.954365,0.000000
212.000000,22484.446762,-872.455641,27908.008147,23393.939244,41527.887169,18204.691196,2051.510161,-1628.346935,0.024000,0.948000,0.270000,192.000000,0.000000,0.000000,0.000000,0.000000,0.000000,0.000000,0.000000,0.000000,0.000000,1647837232.954369,0.000000
213.000000,22482.077477,-875.562534,27907.091726,23388.485418,41525.026146,18200.019681,2044.290548,-1627.341107,0.024000,0.948000,0.270000,192.000000,0.000000,0.000000,0.000000,0.000000,0.000000,0.000000,0.000000,0.000000,0.000000,1647837232.961794,0.000000
214.000000,22479.842303,-876.791880,27904.588330,23383.188055,41520.533445,18192.464792,2037.205045,-1642.830866,0.024000,0.948000,0.270000,192.000000,0.000000,0.000000,0.000000,0.000000,0.000000,0.000000,0.000000,0.000000,0.000000,1647837232.961823,0.000000
215.000000,22472.309765,-885.732578,27895.625281,23372.258052,41508.888186,18180.640719,2029.180769,-1670.681139,0.024000,0.948000,0.270000,192.000000,0.000000,0.000000,0.000000,0.000000,0.000000,0.000000,0.000000,0.000000,0.000000,1647837232.969906,0.000000
216.000000,22463.458474,-896.148490,27886.841045,23361.238642,41501.288593,18170.425972,2022.139969,-1673.564514,0.024000,0.948000,0.270000,192.000000,0.000000,0.000000,0.000000,0.000000,0.000000,0.000000,0.000000,0.000000,0.000000,1647837232.969933,0.000000
217.000000,22471.125122,-886.045502,27893.323051,23369.486436,41508.374096,18177.377364,2031.147722,-1642.137962,0.024000,0.948000,0.270000,192.000000,0.000000,0.000000,0.000000,0.000000,0.000000,0.000000,0.000000,0.000000,0.000000,1647837232.977964,0.000000
218.000000,22472.242710,-880.926952,27894.910025,23371.743962,41514.029087,18178.562007,2029.448990,-1641.825037,0.024000,0.948000,0.270000,192.000000,0.000000,0.000000,0.000000,0.000000,0.000000,0.000000,0.000000,0.000000,0.000000,1647837232.977969,0.000000
219.000000,22472.868559,-880.189345,27894.977080,23371.229872,41509.402276,18178.204379,2030.946556,-1638.405220,0.030000,0.946000,0.268000,192.000000,0.000000,240.000000,29.000000,144.000000,8.000000,96.000000,0.000000,0.000000,0.000000,1647837232.984547,0.000000
220.000000,22481.675146,-873.483822,27903.046060,23381.265805,41511.548044,18185.491048,2041.965966,-1618.445113,0.030000,0.946000,0.268000,192.000000,0.000000,0.000000,0.000000,0.000000,0.000000,0.000000,0.000000,0.000000,0.000000,1647837232.984577,0.000000
221.000000,22487.084268,-869.147583,27907.516409,23385.043250,41520.913425,18186.251007,2041.317766,-1623.496607,0.030000,0.946000,0.268000,192.000000,0.000000,0.000000,0.000000,0.000000,0.000000,0.000000,0.000000,0.000000,0.000000,1647837232.993933,0.000000
222.000000,22487.084268,-870.041653,27908.365775,23382.897482,41527.596596,18187.033318,2053.097135,-1637.064116,0.030000,0.946000,0.268000,192.000000,0.000000,0.000000,0.000000,0.000000,0.000000,0.000000,0.000000,0.000000,0.000000,1647837232.993957,0.000000
223.000000,22487.128971,-868.678197,27908.522237,23380.416439,41527.417782,18189.156734,2050.124353,-1631.900863,0.030000,0.946000,0.268000,192.000000,0.000000,0.000000,0.000000,0.000000,0.000000,0.000000,0.000000,0.000000,0.000000,1647837233.000933,0.000000
224.000000,22490.749954,-862.754984,27912.433793,23382.964537,41525.495532,18194.521152,2052.672452,-1620.143845,0.030000,0.946000,0.268000,192.000000,0.000000,0.000000,0.000000,0.000000,0.000000,0.000000,0.000000,0.000000,0.000000,1647837233.000937,0.000000
225.000000,22493.633329,-863.246723,27913.685490,23383.456276,41518.879416,18196.286940,2051.800734,-1618.646278,0.030000,0.946000,0.268000,192.000000,0.000000,0.000000,0.000000,0.000000,0.000000,0.000000,0.000000,0.000000,0.000000,1647837233.007512,0.000000
226.000000,22494.996786,-862.486763,27914.937188,23386.116133,41513.514997,18198.410356,2047.509199,-1616.612269,0.030000,0.946000,0.268000,192.000000,0.000000,0.000000,0.000000,0.000000,0.000000,0.000000,0.000000,0.000000,0.000000,1647837233.014089,0.000000
227.000000,22496.896684,-858.217580,27914.154877,23388.038383,41513.783218,18195.616388,2046.592778,-1624.211863,0.030000,0.946000,0.268000,192.000000,0.000000,0.000000,0.000000,0.000000,0.000000,0.000000,0.000000,0.000000,0.000000,1647837233.014093,0.000000
228.000000,22500.294149,-854.864818,27914.154877,23389.960634,41516.823055,18195.504629,2051.845438,-1622.624889,0.030000,0.946000,0.268000,192.000000,0.000000,0.000000,0.000000,0.000000,0.000000,0.000000,0.000000,0.000000,0.000000,1647837233.022048,0.000000
229.000000,22502.328158,-851.601464,27918.312301,23393.581616,41519.885244,18191.280149,2046.615129,-1628.235177,0.020000,0.954000,0.260000,192.000000,0.000000,160.000000,29.000000,208.000000,8.000000,32.000000,0.000000,0.000000,0.000000,1647837233.022073,0.000000
230.000000,22496.203780,-857.859952,27913.260807,23387.501942,41515.884282,18183.948777,2045.832818,-1628.257528,0.020000,0.954000,0.260000,192.000000,0.000000,0.000000,0.000000,0.000000,0.000000,0.000000,0.000000,0.000000,0.000000,1647837233.030182,0.000000
231.000000,22501.456440,-852.920217,27915.048947,23390.631186,41515.593709,18182.585321,2045.654004,-1628.145770,0.020000,0.954000,0.260000,192.000000,0.000000,0.000000,0.000000,0.000000,0.000000,0.000000,0.000000,0.000000,0.000000,1647837233.030207,0.000000
232.000000,22501.791716,-852.294368,27915.853610,23390.854703,41520.667555,18178.785524,2045.274025,-1628.346935,0.020000,0.954000,0.260000,192.000000,0.000000,0.000000,0.000000,0.000000,0.000000,0.000000,0.000000,0.000000,0.000000,1647837233.037216,0.000000
233.000000,22507.781983,-845.700603,27921.553304,23396.241474,41524.333242,18180.841885,2058.573313,-1631.856159,0.020000,0.954000,0.260000,192.000000,0.000000,0.000000,0.000000,0.000000,0.000000,0.000000,0.000000,0.000000,0.000000,1647837233.037241,0.000000
234.000000,22506.284416,-845.745307,27920.815697,23393.402802,41519.259396,18181.646548,2050.727850,-1634.471313,0.020000,0.954000,0.260000,192.000000,0.000000,0.000000,0.000000,0.000000,0.000000,0.000000,0.000000,0.000000,0.000000,1647837233.044711,0.000000
235.000000,22504.675091,-847.332281,27917.082955,23391.525256,41513.805570,18182.093582,2046.212798,-1639.120476,0.020000,0.954000,0.260000,192.000000,0.000000,0.000000,0.000000,0.000000,0.000000,0.000000,0.000000,0.000000,0.000000,1647837233.044734,0.000000
236.000000,22505.770326,-845.141810,27917.686453,23392.195808,41518.611195,18187.636815,2052.627749,-1632.951395,0.020000,0.954000,0.260000,192.000000,0.000000,0.000000,0.000000,0.000000,0.000000,0.000000,0.000000,0.000000,0.000000,1647837233.052830,0.000000
237.000000,22503.423393,-847.645205,27915.093650,23386.384354,41517.717125,18187.592112,2052.024251,-1642.763810,0.020000,0.954000,0.260000,192.000000,0.000000,0.000000,0.000000,0.000000,0.000000,0.000000,0.000000,0.000000,0.000000,1647837233.052834,0.000000
238.000000,22503.825725,-845.991176,27915.719499,23387.479590,41513.760866,18191.704833,2046.369260,-1629.375116,0.020000,0.954000,0.260000,192.000000,0.000000,0.000000,0.000000,0.000000,0.000000,0.000000,0.000000,0.000000,0.000000,1647837233.060698,0.000000
239.000000,22504.093946,-844.135981,27916.144182,23386.138485,41507.055343,18191.570722,2035.975699,-1635.767714,0.016000,0.958000,0.252000,192.000000,0.000000,128.000000,29.000000,240.000000,7.000000,224.000000,0.000000,0.000000,0.000000,1647837233.060724,0.000000
240.000000,22509.190143,-839.151542,27922.760299,23388.507770,41510.721029,18198.812687,2052.225417,-1632.102028,0.016000,0.958000,0.252000,192.000000,0.000000,0.000000,0.000000,0.000000,0.000000,0.000000,0.000000,0.000000,0.000000,1647837233.066875,0.000000
241.000000,22506.060899,-844.001871,27919.742813,23384.775029,41506.585956,18197.516286,2047.933882,-1620.233252,0.016000,0.958000,0.252000,192.000000,0.000000,0.000000,0.000000,0.000000,0.000000,0.000000,0.000000,0.000000,0.000000,1647837233.075778,0.000000
242.000000,22508.072556,-841.699641,27922.156801,23385.646747,41507.949413,18192.263626,2051.241940,-1640.640395,0.016000,0.958000,0.252000,192.000000,0.000000,0.000000,0.000000,0.000000,0.000000,0.000000,0.000000,0.000000,0.000000,1647837233.075783,0.000000
243.000000,22515.672149,-834.703545,27930.270485,23392.888712,41514.744343,18190.430783,2041.630690,-1653.403241,0.016000,0.958000,0.252000,192.000000,0.000000,0.000000,0.000000,0.000000,0.000000,0.000000,0.000000,0.000000,0.000000,1647837233.082488,0.000000
244.000000,22522.087100,-828.333298,27936.417214,23401.963520,41525.249663,18200.220847,2051.845438,-1608.677400,0.016000,0.958000,0.252000,192.000000,0.000000,0.000000,0.000000,0.000000,0.000000,0.000000,0.000000,0.000000,0.000000,1647837233.082508,0.000000
245.000000,22528.993789,-819.616117,27942.273371,23410.792459,41531.776372,18206.568743,2069.905647,-1591.690074,0.016000,0.958000,0.252000,192.000000,0.000000,0.000000,0.000000,0.000000,0.000000,0.000000,0.000000,0.000000,0.000000,1647837233.089574,0.000000
246.000000,22530.066673,-821.717181,27939.479403,23410.121907,41527.104858,18201.427841,2055.220551,-1611.918403,0.016000,0.958000,0.252000,192.000000,0.000000,0.000000,0.000000,0.000000,0.000000,0.000000,0.000000,0.000000,0.000000,1647837233.089578,0.000000
247.000000,22525.305751,-826.299289,27934.450261,23408.691395,41527.395430,18199.773812,2046.168094,-1616.075828,0.016000,0.958000,0.252000,192.000000,0.000000,0.000000,0.000000,0.000000,0.000000,0.000000,0.000000,0.000000,0.000000,1647837233.096931,0.000000
248.000000,22524.322274,-825.941661,27935.724310,23411.910047,41532.737497,18204.400623,2052.001900,-1613.550080,0.016000,0.958000,0.252000,192.000000,0.000000,0.000000,0.000000,0.000000,0.000000,0.000000,0.000000,0.000000,0.000000,1647837233.096956,0.000000
249.000000,22521.975341,-829.182664,27934.182040,23407.640863,41531.977538,18199.080908,2044.134086,-1619.987383,0.012000,0.960000,0.250000,192.000000,0.000000,96.000000,30.000000,0.000000,7.000000,208.000000,0.000000,0.000000,0.000000,1647837233.105072,0.000000
250.000000,22528.345588,-823.102990,27938.674741,23409.116079,41527.708355,18202.165449,2060.406156,-1617.863967,0.012000,0.960000,0.250000,192.000000,0.000000,0.000000,0.000000,0.000000,0.000000,0.000000,0.000000,0.000000,0.000000,1647837233.105097,0.000000
251.000000,22528.345588,-825.271109,27939.546459,23404.645730,41523.349765,18203.685368,2066.843458,-1616.120531,0.012000,0.960000,0.250000,192.000000,0.000000,0.000000,0.000000,0.000000,0.000000,0.000000,0.000000,0.000000,0.000000,1647837233.113069,0.000000
252.000000,22533.933524,-821.292498,27945.782595,23409.920741,41529.854122,18207.507516,2065.390595,-1600.697827,0.012000,0.960000,0.250000,192.000000,0.000000,0.000000,0.000000,0.000000,0.000000,0.000000,0.000000,0.000000,0.000000,1647837233.113089,0.000000
253.000000,22531.586591,-823.259452,27939.591162,23405.763317,41523.573282,18195.638740,2044.379955,-1613.483025,0.012000,0.960000,0.250000,192.000000,0.000000,0.000000,0.000000,0.000000,0.000000,0.000000,0.000000,0.000000,0.000000,1647837233.119731,0.000000
254.000000,22529.798452,-827.327469,27938.764148,23403.304625,41524.132076,18192.531847,2053.812391,-1617.372229,0.012000,0.960000,0.250000,192.000000,0.000000,0.000000,0.000000,0.000000,0.000000,0.000000,0.000000,0.000000,0.000000,1647837233.119735,0.000000
255.000000,22537.800376,-818.900862,27950.163537,23412.468840,41532.759849,18203.014815,2062.149592,-1599.870813,0.012000,0.960000,0.250000,192.000000,0.000000,0.000000,0.000000,0.000000,0.000000,0.000000,0.000000,0.000000,0.000000,1647837233.126651,0.000000
0.000000,22539.834385,-816.419818,27951.370531,23415.329863,41539.577131,18208.580400,2064.161249,-1597.747397,0.012000,0.960000,0.250000,192.000000,0.000000,0.000000,0.000000,0.000000,0.000000,0.000000,0.000000,0.000000,0.000000,1647837233.134728,0.000000
1.000000,22532.257144,-822.968879,27941.200488,23405.360985,41537.453715,18205.026472,2057.858057,-1607.939793,0.012000,0.960000,0.250000,192.000000,0.000000,0.000000,0.000000,0.000000,0.000000,0.000000,0.000000,0.000000,0.000000,1647837233.134757,0.000000
2.000000,22531.877164,-824.622908,27937.803023,23405.472744,41533.609215,18207.038129,2059.176810,-1610.577298,0.012000,0.960000,0.250000,192.000000,0.000000,0.000000,0.000000,0.000000,0.000000,0.000000,0.000000,0.000000,0.000000,1647837233.142655,0.000000
3.000000,22533.128862,-823.192397,27940.529935,23409.406651,41532.871608,18216.403510,2074.800679,-1602.195394,0.012000,0.960000,0.250000,192.000000,0.000000,0.000000,0.000000,0.000000,0.000000,0.000000,0.000000,0.000000,0.000000,1647837233.142658,0.000000
4.000000,22521.595361,-833.809475,27931.522182,23401.024747,41517.672422,18211.217905,2063.043661,-1592.315923,0.014000,0.956000,0.244000,192.000000,0.000000,112.000000,29.000000,224.000000,7.000000,160.000000,0.000000,0.000000,0.000000,1647837233.149247,0.000000
5.000000,22525.886896,-828.802684,27934.897296,23407.640863,41521.628680,18213.229562,2060.182638,-1602.240098,0.014000,0.956000,0.244000,192.000000,0.000000,0.000000,0.000000,0.000000,0.000000,0.000000,0.000000,0.000000,0.000000,1647837233.149251,0.000000
6.000000,22529.507879,-825.025240,27936.774842,23413.072337,41527.104858,18213.073100,2056.896932,-1615.114703,0.014000,0.956000,0.244000,192.000000,0.000000,0.000000,0.000000,0.000000,0.000000,0.000000,0.000000,0.000000,0.000000,1647837233.157380,0.000000
7.000000,22524.948123,-832.401315,27930.941037,23404.757488,41524.646166,18203.663016,2053.611225,-1612.588955,0.014000,0.956000,0.244000,192.000000,0.000000,0.000000,0.000000,0.000000,0.000000,0.000000,0.000000,0.000000,0.000000,1647837233.157384,0.000000
8.000000,22526.289228,-829.607347,27933.600895,23408.892561,41524.757925,18211.262609,2068.050452,-1581.095348,0.014000,0.956000,0.244000,192.000000,0.000000,0.000000,0.000000,0.000000,0.000000,0.000000,0.000000,0.000000,0.000000,1647837233.165324,0.000000
9.000000,22531.474832,-819.772580,27935.232572,23416.536858,41530.949358,18210.636760,2062.306054,-1596.160423,0.014000,0.956000,0.244000,192.000000,0.000000,0.000000,0.000000,0.000000,0.000000,0.000000,0.000000,0.000000,0.000000,1647837233.165327,0.000000
10.000000,22532.257144,-817.313888,27932.885639,23416.805079,41537.140791,18206.546391,2049.140876,-1596.026313,0.014000,0.956000,0.244000,192.000000,0.000000,0.000000,0.000000,0.000000,0.000000,0.000000,0.000000,0.000000,0.000000,1647837233.172304,0.000000
11.000000,22525.238696,-823.572376,27925.464860,23414.189925,41528.177742,18206.099356,2061.568446,-1594.372284,0.014000,0.956000,0.244000,192.000000,0.000000,0.000000,0.000000,0.000000,0.000000,0.000000,0.000000,0.000000,0.000000,1647837233.172308,0.000000
12.000000,22518.086138,-833.317737,27913.864304,23402.589369,41509.156407,18192.822420,2043.910568,-1620.099142,0.014000,0.956000,0.244000,192.000000,0.000000,0.000000,0.000000,0.000000,0.000000,0.000000,0.000000,0.000000,0.000000,1647837233.179862,0.000000
13.000000,22523.137632,-830.791990,27913.998415,23400.063622,41503.188491,18195.147001,2047.665661,-1603.290630,0.014000,0.956000,0.244000,192.000000,0.000000,0.000000,0.000000,0.000000,0.000000,0.000000,0.000000,0.000000,0.000000,1647837233.179881,0.000000
14.000000,22515.627446,-838.279824,27909.706880,23391.033517,41499.656916,18196.242237,2052.940673,-1598.417949,0.014000,0.950000,0.248000,192.000000,0.000000,112.000000,29.000000,176.000000,7.000000,192.000000,0.000000,0.000000,0.000000,1647837233.186911,0.000000
15.000000,22518.220248,-833.518902,27916.345348,23396.934378,41507.345916,18202.411318,2058.461554,-1598.864984,0.014000,0.950000,0.248000,192.000000,0.000000,0.000000,0.000000,0.000000,0.000000,0.000000,0.000000,0.000000,0.000000,1647837233.194921,0.000000
16.000000,22521.818879,-830.300251,27922.447374,23401.292968,41513.470294,18206.725205,2069.279798,-1598.060322,0.014000,0.950000,0.248000,192.000000,0.000000,0.000000,0.000000,0.000000,0.000000,0.000000,0.000000,0.000000,0.000000,1647837233.194946,0.000000
17.000000,22517.549696,-837.318699,27919.496944,23399.705994,41513.425590,18203.305388,2060.853191,-1608.185662,0.014000,0.950000,0.248000,192.000000,0.000000,0.000000,0.000000,0.000000,0.000000,0.000000,0.000000,0.000000,0.000000,1647837233.201509,0.000000
18.000000,22510.978283,-843.756001,27907.449354,23392.911064,41500.148654,18188.217960,2042.636519,-1628.168121,0.014000,0.950000,0.248000,192.000000,0.000000,0.000000,0.000000,0.000000,0.000000,0.000000,0.000000,0.000000,0.000000,1647837233.201527,0.000000
19.000000,22516.074481,-836.424629,27912.947883,23402.544666,41506.384791,18194.051766,2047.531551,-1617.618098,0.014000,0.950000,0.248000,192.000000,0.000000,0.000000,0.000000,0.000000,0.000000,0.000000,0.000000,0.000000,0.000000,1647837233.209531,0.000000
20.000000,22516.543867,-836.446981,27910.913874,23402.187038,41510.050477,18194.498801,2050.146705,-1623.429552,0.014000,0.950000,0.248000,192.000000,0.000000,0.000000,0.000000,0.000000,0.000000,0.000000,0.000000,0.000000,0.000000,1647837233.209535,0.000000
21.000000,22508.608998,-846.460563,27902.151990,23391.100572,41497.645259,18186.966263,2049.677318,-1628.145770,0.014000,0.950000,0.248000,192.000000,0.000000,0.000000,0.000000,0.000000,0.000000,0.000000,0.000000,0.000000,0.000000,1647837233.217651,0.000000
22.000000,22506.574989,-848.583978,27900.565016,23388.284253,41495.924174,18184.507571,2046.481019,-1627.341107,0.014000,0.950000,0.248000,192.000000,0.000000,0.000000,0.000000,0.000000,0.000000,0.000000,0.000000,0.000000,0.000000,1647837233.217681,0.000000
23.000000,22510.799469,-840.492647,27905.392993,23394.363927,41499.902785,18190.296673,2047.598606,-1618.936851,0.014000,0.950000,0.248000,192.000000,0.000000,0.000000,0.000000,0.000000,0.000000,0.000000,0.000000,0.000000,0.000000,1647837233.225512,0.000000
24.000000,22511.537076,-839.844446,27906.152952,23398.968387,41497.980535,18198.142135,2055.198199,-1608.386828,0.014000,0.954000,0.252000,192.000000,0.000000,112.000000,29.000000,208.000000,7.000000,224.000000,0.000000,0.000000,0.000000,1647837233.225530,0.000000
25.000000,22512.408794,-840.358536,27905.907083,23397.604930,41494.359552,18202.612484,2066.195257,-1595.735740,0.014000,0.954000,0.252000,192.000000,0.000000,0.000000,0.000000,0.000000,0.000000,0.000000,0.000000,0.000000,0.000000,1647837233.232207,0.000000
26.000000,22507.156135,-846.505266,27898.709822,23389.960634,41488.682209,18196.957492,2059.780307,-1602.329505,0.014000,0.954000,0.252000,192.000000,0.000000,0.000000,0.000000,0.000000,0.000000,0.000000,0.000000,0.000000,0.000000,1647837233.232211,0.000000
27.000000,22509.637178,-845.432382,27899.380374,23390.765296,41489.397465,18192.151867,2050.794906,-1621.172025,0.014000,0.954000,0.252000,192.000000,0.000000,0.000000,0.000000,0.000000,0.000000,0.000000,0.000000,0.000000,0.000000,1647837233.241570,0.000000
28.000000,22507.960797,-844.493609,27901.861418,23390.295910,41493.286668,18190.073155,2049.140876,-1622.937813,0.014000,0.954000,0.252000,192.000000,0.000000,0.000000,0.000000,0.000000,0.000000,0.000000,0.000000,0.000000,0.000000,1647837233.241573,0.000000
29.000000,22510.084213,-844.135981,27903.068412,23389.088915,41491.632639,18188.419126,2052.046603,-1623.675421,0.014000,0.954000,0.252000,192.000000,0.000000,0.000000,0.000000,0.000000,0.000000,0.000000,0.000000,0.000000,0.000000,1647837233.248756,0.000000
30.000000,22505.524457,-851.087374,27898.821580,23385.155008,41486.916421,18189.313196,2054.035908,-1616.031124,0.014000,0.954000,0.252000,192.000000,0.000000,0.000000,0.000000,0.000000,0.000000,0.000000,0.000000,0.000000,0.000000,1647837233.248760,0.000000
31.000000,22508.161963,-847.645205,27899.916816,23387.054907,41482.691942,18190.006100,2051.957196,-1610.979630,0.014000,0.954000,0.252000,192.000000,0.000000,0.000000,0.000000,0.000000,0.000000,0.000000,0.000000,0.000000,0.000000,1647837233.254780,0.000000
32.000000,22513.414623,-841.252606,27904.945958,23389.759468,41482.937811,18194.543504,2044.625824,-1597.367417,0.014000,0.954000,0.252000,192.000000,0.000000,0.000000,0.000000,0.000000,0.000000,0.000000,0.000000,0.000000,0.000000,1647837233.261721,0.000000
33.000000,22510.955931,-842.794876,27903.202522,23387.434886,41476.478157,18195.236408,2056.539304,-1600.586069,0.014000,0.954000,0.252000,192.000000,0.000000,0.000000,0.000000,0.000000,0.000000,0.000000,0.000000,0.000000,0.000000,1647837233.261724,0.000000
34.000000,22509.614826,-842.124324,27902.554322,23387.792514,41474.287686,18195.191705,2053.208894,-1606.397522,0.020000,0.956000,0.254000,192.000000,0.000000,160.000000,29.000000,224.000000,7.000000,240.000000,0.000000,0.000000,0.000000,1647837233.269785,0.000000
35.000000,22511.827649,-838.659804,27903.358984,23388.150142,41479.115662,18195.214056,2055.935807,-1610.130264,0.020000,0.956000,0.254000,192.000000,0.000000,0.000000,0.000000,0.000000,0.000000,0.000000,0.000000,0.000000,0.000000,1647837233.269789,0.000000
36.000000,22506.574989,-846.259397,27896.921682,23383.590386,41474.287686,18190.140210,2051.979548,-1616.500511,0.020000,0.956000,0.254000,192.000000,0.000000,0.000000,0.000000,0.000000,0.000000,0.000000,0.000000,0.000000,0.000000,1647837233.277811,0.000000
37.000000,22503.378690,-852.182609,27892.652499,23379.388258,41464.184697,18191.593074,2063.378938,-1608.789159,0.020000,0.956000,0.254000,192.000000,0.000000,0.000000,0.000000,0.000000,0.000000,0.000000,0.000000,0.000000,0.000000,1647837233.277836,0.000000
38.000000,22505.390347,-847.891074,27893.725383,23381.109343,41468.610343,18193.336510,2055.600531,-1619.763865,0.020000,0.956000,0.254000,192.000000,0.000000,0.000000,0.000000,0.000000,0.000000,0.000000,0.000000,0.000000,0.000000,1647837233.284413,0.000000
39.000000,22504.608036,-847.779315,27892.920720,23381.735192,41471.449014,18190.140210,2042.480057,-1628.034011,0.020000,0.956000,0.254000,192.000000,0.000000,0.000000,0.000000,0.000000,0.000000,0.000000,0.000000,0.000000,0.000000,1647837233.284417,0.000000
40.000000,22511.961760,-844.784182,27897.525179,23385.289119,41476.120529,18190.229617,2049.386746,-1634.448962,0.020000,0.956000,0.254000,192.000000,0.000000,0.000000,0.000000,0.000000,0.000000,0.000000,0.000000,0.000000,0.000000,1647837233.292455,0.000000
41.000000,22506.865562,-849.835676,27894.083010,23379.701183,41474.846479,18188.463830,2063.378938,-1624.323621,0.020000,0.956000,0.254000,192.000000,0.000000,0.000000,0.000000,0.000000,0.000000,0.000000,0.000000,0.000000,0.000000,1647837233.292483,0.000000
42.000000,22509.011329,-846.438211,27896.452295,23385.803209,41480.479119,18189.581417,2061.590798,-1620.210900,0.020000,0.956000,0.254000,192.000000,0.000000,0.000000,0.000000,0.000000,0.000000,0.000000,0.000000,0.000000,0.000000,1647837233.300439,0.000000
43.000000,22509.257198,-843.241911,27896.765220,23386.473761,41474.287686,18184.105239,2048.850304,-1632.794932,0.020000,0.956000,0.254000,192.000000,0.000000,0.000000,0.000000,0.000000,0.000000,0.000000,0.000000,0.000000,0.000000,1647837233.300448,0.000000
44.000000,22504.652739,-847.220522,27897.279310,23384.305642,41471.024331,18187.525056,2045.274025,-1629.710392,0.016000,0.946000,0.252000,192.000000,0.000000,128.000000,29.000000,144.000000,7.000000,224.000000,0.000000,0.000000,0.000000,1647837233.308604,0.000000
45.000000,22503.199876,-847.466391,27897.011089,23384.171532,41476.075825,18192.397737,2056.427545,-1631.163255,0.016000,0.946000,0.252000,192.000000,0.000000,0.000000,0.000000,0.000000,0.000000,0.000000,0.000000,0.000000,0.000000,1647837233.308608,0.000000
46.000000,22513.995768,-835.754077,27904.141295,23388.999509,41485.396503,18196.912789,2059.802659,-1624.055400,0.016000,0.946000,0.252000,192.000000,0.000000,0.000000,0.000000,0.000000,0.000000,0.000000,0.000000,0.000000,0.000000,1647837233.315551,0.000000
47.000000,22519.851925,-830.836693,27909.125734,23395.034480,41488.436340,18204.244161,2059.176810,-1594.841670,0.016000,0.946000,0.252000,192.000000,0.000000,0.000000,0.000000,0.000000,0.000000,0.000000,0.000000,0.000000,0.000000,1647837233.323456,0.000000
48.000000,22521.707120,-829.361478,27911.204447,23400.175381,41489.375113,18209.765042,2061.121411,-1597.434473,0.016000,0.946000,0.252000,192.000000,0.000000,0.000000,0.000000,0.000000,0.000000,0.000000,0.000000,0.000000,0.000000,1647837233.323482,0.000000
49.000000,22520.343664,-830.188493,27908.097554,23398.655462,41488.391636,18207.395757,2057.276911,-1609.794987,0.016000,0.946000,0.252000,192.000000,0.000000,0.000000,0.000000,0.000000,0.000000,0.000000,0.000000,0.000000,0.000000,1647837233.331486,0.000000
50.000000,22516.789736,-833.429496,27902.442563,23394.565093,41489.553927,18202.120745,2056.740470,-1606.956316,0.016000,0.946000,0.252000,192.000000,0.000000,0.000000,0.000000,0.000000,0.000000,0.000000,0.000000,0.000000,0.000000,1647837233.331510,0.000000
51.000000,22519.695463,-831.954280,27909.081031,23397.515523,41485.217689,18204.534734,2065.077670,-1602.776540,0.016000,0.946000,0.252000,192.000000,0.000000,0.000000,0.000000,0.000000,0.000000,0.000000,0.000000,0.000000,0.000000,1647837233.338730,0.000000
52.000000,22513.168754,-840.537350,27909.975101,23393.089878,41476.880488,18203.797126,2063.244827,-1613.505377,0.016000,0.946000,0.252000,192.000000,0.000000,0.000000,0.000000,0.000000,0.000000,0.000000,0.000000,0.000000,0.000000,1647837233.338734,0.000000
53.000000,22512.855829,-841.878455,27906.778801,23391.055869,41475.584087,18203.595961,2062.350757,-1617.171063,0.016000,0.946000,0.252000,192.000000,0.000000,0.000000,0.000000,0.000000,0.000000,0.000000,0.000000,0.000000,0.000000,1647837233.344851,0.000000
54.000000,22515.448632,-838.279824,27907.561112,23394.632148,41475.159404,18206.971074,2064.250656,-1604.095293,0.018000,0.946000,0.250000,192.000000,0.000000,144.000000,29.000000,144.000000,7.000000,208.000000,0.000000,0.000000,0.000000,1647837233.344855,0.000000
55.000000,22517.236771,-836.670498,27911.718537,23396.196770,41472.700712,18207.060481,2066.843458,-1605.928136,0.018000,0.946000,0.250000,192.000000,0.000000,0.000000,0.000000,0.000000,0.000000,0.000000,0.000000,0.000000,0.000000,1647837233.352659,0.000000
56.000000,22509.011329,-848.293406,27903.448391,23387.658404,41467.023369,18197.181010,2061.769612,-1624.345973,0.018000,0.946000,0.250000,192.000000,0.000000,0.000000,0.000000,0.000000,0.000000,0.000000,0.000000,0.000000,0.000000,1647837233.352683,0.000000
57.000000,22513.660492,-844.851237,27902.375508,23386.674927,41463.603552,18192.598902,2050.616092,-1618.534519,0.018000,0.946000,0.250000,192.000000,0.000000,0.000000,0.000000,0.000000,0.000000,0.000000,0.000000,0.000000,0.000000,1647837233.360784,0.000000
58.000000,22520.008388,-836.983423,27907.695223,23390.854703,41469.549116,18199.594998,2057.902760,-1607.291592,0.018000,0.946000,0.250000,192.000000,0.000000,0.000000,0.000000,0.000000,0.000000,0.000000,0.000000,0.000000,0.000000,1647837233.360788,0.000000
59.000000,22525.104585,-833.049516,27914.221932,23396.017956,41474.377093,18205.406452,2064.764746,-1611.270203,0.018000,0.946000,0.250000,192.000000,0.000000,0.000000,0.000000,0.000000,0.000000,0.000000,0.000000,0.000000,0.000000,1647837233.367381,0.000000
60.000000,22524.523440,-832.535426,27915.630092,23398.141372,41480.009732,18208.759214,2059.489734,-1606.464577,0.018000,0.946000,0.250000,192.000000,0.000000,0.000000,0.000000,0.000000,0.000000,0.000000,0.000000,0.000000,0.000000,1647837233.367385,0.000000
61.000000,22516.499164,-842.034917,27909.863342,23388.664232,41477.729854,18206.680501,2061.724909,-1607.515109,0.018000,0.946000,0.250000,192.000000,0.000000,0.000000,0.000000,0.000000,0.000000,0.000000,0.000000,0.000000,0.000000,1647837233.374414,0.000000
62.000000,22519.091966,-841.923158,27909.081031,23388.887750,41472.834822,18204.333568,2068.452784,-1616.522862,0.018000,0.946000,0.250000,192.000000,0.000000,0.000000,0.000000,0.000000,0.000000,0.000000,0.000000,0.000000,0.000000,1647837233.382329,0.000000
63.000000,22521.707120,-840.179722,27910.243322,23390.675889,41469.750282,18206.032301,2070.799717,-1609.750284,0.018000,0.946000,0.250000,192.000000,0.000000,0.000000,0.000000,0.000000,0.000000,0.000000,0.000000,0.000000,0.000000,1647837233.382353,0.000000
64.000000,22522.444728,-837.206940,27910.355080,23390.944110,41471.717235,18202.433670,2058.327443,-1608.677400,0.022000,0.952000,0.248000,192.000000,0.000000,176.000000,29.000000,192.000000,7.000000,192.000000,0.000000,0.000000,0.000000,1647837233.390493,0.000000
65.000000,22524.366978,-834.189455,27910.377432,23390.944110,41476.098177,18198.522115,2055.756993,-1632.169084,0.022000,0.952000,0.248000,192.000000,0.000000,0.000000,0.000000,0.000000,0.000000,0.000000,0.000000,0.000000,0.000000,1647837233.390503,0.000000
66.000000,22531.541888,-828.981498,27916.367700,23398.968387,41482.870756,18203.573609,2063.580103,-1627.698735,0.022000,0.952000,0.248000,192.000000,0.000000,0.000000,0.000000,0.000000,0.000000,0.000000,0.000000,0.000000,0.000000,1647837233.398486,0.000000
67.000000,22533.553545,-826.321641,27921.486249,23404.556323,41490.358590,18204.892362,2057.366318,-1621.350839,0.022000,0.952000,0.248000,192.000000,0.000000,0.000000,0.000000,0.000000,0.000000,0.000000,0.000000,0.000000,0.000000,1647837233.398511,0.000000
68.000000,22529.574934,-829.450885,27917.529990,23399.571884,41491.722046,18200.980806,2044.782286,-1619.138017,0.022000,0.952000,0.248000,192.000000,0.000000,0.000000,0.000000,0.000000,0.000000,0.000000,0.000000,0.000000,0.000000,1647837233.406535,0.000000
69.000000,22532.324199,-825.360516,27919.251075,23401.248264,41492.839634,18204.914713,2050.012594,-1599.848461,0.022000,0.952000,0.248000,192.000000,0.000000,0.000000,0.000000,0.000000,0.000000,0.000000,0.000000,0.000000,0.000000,1647837233.406561,0.000000
70.000000,22530.558411,-828.221539,27916.568865,23398.856628,41488.011657,18205.004120,2061.791964,-1595.512223,0.022000,0.952000,0.248000,192.000000,0.000000,0.000000,0.000000,0.000000,0.000000,0.000000,0.000000,0.000000,0.000000,1647837233.414455,0.000000
71.000000,22531.228963,-830.546120,27915.048947,23396.196770,41487.005828,18203.439498,2066.776403,-1605.704618,0.022000,0.952000,0.248000,192.000000,0.000000,0.000000,0.000000,0.000000,0.000000,0.000000,0.000000,0.000000,0.000000,1647837233.414482,0.000000
72.000000,22526.155117,-834.971766,27912.031461,23389.826523,41483.787177,18199.416184,2060.227342,-1613.930060,0.022000,0.952000,0.248000,192.000000,0.000000,0.000000,0.000000,0.000000,0.000000,0.000000,0.000000,0.000000,0.000000,1647837233.420725,0.000000
73.000000,22527.853850,-832.110743,27913.149048,23390.497075,41478.668628,18197.181010,2054.192371,-1618.601575,0.022000,0.952000,0.248000,192.000000,0.000000,0.000000,0.000000,0.000000,0.000000,0.000000,0.000000,0.000000,0.000000,1647837233.420730,0.000000
74.000000,22529.530231,-829.450885,27914.668967,23394.900369,41479.540346,18200.757289,2060.875542,-1603.000057,0.024000,0.948000,0.252000,192.000000,0.000000,192.000000,29.000000,160.000000,7.000000,224.000000,0.000000,0.000000,0.000000,1647837233.427679,0.000000
75.000000,22529.150251,-831.082562,27915.339519,23392.307567,41481.395540,18200.466716,2069.950351,-1611.024333,0.024000,0.948000,0.252000,192.000000,0.000000,0.000000,0.000000,0.000000,0.000000,0.000000,0.000000,0.000000,0.000000,1647837233.427704,0.000000
76.000000,22526.937428,-833.921234,27912.344386,23387.211369,41481.887279,18191.794239,2053.365356,-1632.303194,0.024000,0.948000,0.252000,192.000000,0.000000,0.000000,0.000000,0.000000,0.000000,0.000000,0.000000,0.000000,0.000000,1647837233.434685,0.000000
77.000000,22525.842193,-831.395487,27911.718537,23390.228854,41482.088444,18191.168391,2048.760897,-1634.404258,0.024000,0.948000,0.252000,192.000000,0.000000,0.000000,0.000000,0.000000,0.000000,0.000000,0.000000,0.000000,0.000000,1647837233.442784,0.000000
78.000000,22528.434995,-825.986365,27914.154877,23394.721555,41479.316828,18194.789373,2049.029118,-1632.884339,0.024000,0.948000,0.252000,192.000000,0.000000,0.000000,0.000000,0.000000,0.000000,0.000000,0.000000,0.000000,0.000000,1647837233.442809,0.000000
79.000000,22531.005446,-822.365382,27914.847781,23399.482477,41480.970857,18201.964283,2056.628711,-1609.303249,0.024000,0.948000,0.252000,192.000000,0.000000,0.000000,0.000000,0.000000,0.000000,0.000000,0.000000,0.000000,0.000000,1647837233.449374,0.000000
80.000000,22533.844117,-820.420780,27918.200543,23405.539799,41489.732741,18206.121708,2061.993129,-1593.902897,0.024000,0.948000,0.252000,192.000000,0.000000,0.000000,0.000000,0.000000,0.000000,0.000000,0.000000,0.000000,0.000000,1647837233.449379,0.000000
81.000000,22539.409702,-813.089408,27926.381281,23415.016939,41505.468369,18212.402548,2070.375034,-1598.954391,0.024000,0.948000,0.252000,192.000000,0.000000,0.000000,0.000000,0.000000,0.000000,0.000000,0.000000,0.000000,0.000000,1647837233.457292,0.000000
82.000000,22533.754710,-819.705524,27918.289950,23406.478573,41499.366343,18202.657187,2053.745336,-1619.003906,0.024000,0.948000,0.252000,192.000000,0.000000,0.000000,0.000000,0.000000,0.000000,0.000000,0.000000,0.000000,0.000000,1647837233.457317,0.000000
83.000000,22536.235754,-819.437303,27918.692281,23405.539799,41493.174910,18205.026472,2065.412946,-1614.846482,0.024000,0.948000,0.252000,192.000000,0.000000,0.000000,0.000000,0.000000,0.000000,0.000000,0.000000,0.000000,0.000000,1647837233.465393,0.000000
84.000000,22535.364036,-819.638469,27917.373528,23404.511619,41490.179776,18208.513344,2062.037833,-1606.956316,0.024000,0.950000,0.256000,192.000000,0.000000,192.000000,29.000000,176.000000,8.000000,0.000000,0.000000,0.000000,0.000000,1647837233.465419,0.000000
85.000000,22536.325161,-817.000963,27919.362833,23407.350291,41496.102988,18211.463775,2056.718118,-1611.828996,0.024000,0.950000,0.256000,192.000000,0.000000,0.000000,0.000000,0.000000,0.000000,0.000000,0.000000,0.000000,0.000000,1647837233.473345,0.000000
86.000000,22537.129824,-817.425646,27921.307435,23408.154953,41502.182663,18214.347150,2063.043661,-1613.035990,0.024000,0.950000,0.256000,192.000000,0.000000,0.000000,0.000000,0.000000,0.000000,0.000000,0.000000,0.000000,0.000000,1647837233.473374,0.000000
87.000000,22534.313504,-821.895995,27919.921627,23405.360985,41499.567509,18216.738786,2064.585932,-1596.071016,0.024000,0.950000,0.256000,192.000000,0.000000,0.000000,0.000000,0.000000,0.000000,0.000000,0.000000,0.000000,0.000000,1647837233.481301,0.000000
88.000000,22530.178431,-825.360516,27913.596083,23401.024747,41491.789102,18212.290789,2055.824048,-1607.582165,0.024000,0.950000,0.256000,192.000000,0.000000,0.000000,0.000000,0.000000,0.000000,0.000000,0.000000,0.000000,0.000000,1647837233.481306,0.000000
89.000000,22530.066673,-825.539330,27912.322034,23398.946035,41489.665686,18210.837926,2062.775441,-1612.499548,0.024000,0.950000,0.256000,192.000000,0.000000,0.000000,0.000000,0.000000,0.000000,0.000000,0.000000,0.000000,0.000000,1647837233.489418,0.000000
90.000000,22530.983094,-822.678306,27914.825429,23400.018919,41492.280840,18211.642589,2067.089327,-1608.900918,0.024000,0.950000,0.256000,192.000000,0.000000,0.000000,0.000000,0.000000,0.000000,0.000000,0.000000,0.000000,0.000000,1647837233.489422,0.000000
91.000000,22534.961705,-819.370248,27916.457107,23401.449430,41494.650125,18213.184859,2067.916342,-1600.250793,0.024000,0.950000,0.256000,192.000000,0.000000,0.000000,0.000000,0.000000,0.000000,0.000000,0.000000,0.000000,0.000000,1647837233.496407,0.000000
92.000000,22534.805242,-819.660821,27915.920665,23401.628244,41499.455750,18212.402548,2069.413909,-1604.475272,0.024000,0.950000,0.256000,192.000000,0.000000,0.000000,0.000000,0.000000,0.000000,0.000000,0.000000,0.000000,0.000000,1647837233.496433,0.000000
93.000000,22531.474832,-822.812417,27913.171400,23399.057794,41501.221538,18208.379234,2063.490696,-1619.875624,0.024000,0.950000,0.256000,192.000000,0.000000,0.000000,0.000000,0.000000,0.000000,0.000000,0.000000,0.000000,0.000000,1647837233.502426,0.000000
94.000000,22529.753748,-823.125341,27910.399784,23398.007262,41495.946526,18205.875839,2063.490696,-1621.350839,0.018000,0.950000,0.254000,192.000000,0.000000,144.000000,29.000000,176.000000,7.000000,240.000000,0.000000,0.000000,0.000000,1647837233.509724,0.000000
95.000000,22534.604077,-819.079676,27916.859438,23403.438735,41499.478102,18215.218868,2070.755013,-1602.061284,0.018000,0.950000,0.254000,192.000000,0.000000,0.000000,0.000000,0.000000,0.000000,0.000000,0.000000,0.000000,0.000000,1647837233.509729,0.000000
96.000000,22534.291152,-818.543234,27916.904142,23403.371680,41501.735628,18214.145984,2067.111679,-1605.615211,0.018000,0.950000,0.254000,192.000000,0.000000,0.000000,0.000000,0.000000,0.000000,0.000000,0.000000,0.000000,0.000000,1647837233.517562,0.000000
97.000000,22537.576859,-817.537405,27920.301607,23408.333767,41504.261375,18214.235391,2070.240923,-1609.459711,0.018000,0.950000,0.254000,192.000000,0.000000,0.000000,0.000000,0.000000,0.000000,0.000000,0.000000,0.000000,0.000000,1647837233.517587,0.000000
98.000000,22536.794548,-821.627774,27921.687415,23407.797326,41501.601517,18211.329664,2063.937731,-1615.517034,0.018000,0.950000,0.254000,192.000000,0.000000,0.000000,0.000000,0.000000,0.000000,0.000000,0.000000,0.000000,0.000000,1647837233.524588,0.000000
99.000000,22532.212440,-825.941661,27919.295778,23402.410555,41495.186567,18208.669807,2058.997996,-1618.512168,0.018000,0.950000,0.254000,192.000000,0.000000,0.000000,0.000000,0.000000,0.000000,0.000000,0.000000,0.000000,0.000000,1647837233.524612,0.000000
100.000000,22533.933524,-822.275975,27923.609665,23403.997529,41499.768674,18217.141118,2069.011577,-1597.970915,0.018000,0.950000,0.254000,192.000000,0.000000,0.000000,0.000000,0.000000,0.000000,0.000000,0.000000,0.000000,0.000000,1647837233.532236,0.000000
101.000000,22532.815937,-824.421742,27919.899275,23397.649634,41502.920270,18210.726167,2068.832763,-1619.853272,0.018000,0.950000,0.254000,192.000000,0.000000,0.000000,0.000000,0.000000,0.000000,0.000000,0.000000,0.000000,0.000000,1647837233.532240,0.000000
102.000000,22530.513707,-826.142827,27916.568865,23393.358099,41499.902785,18209.474469,2069.413909,-1605.101121,0.018000,0.950000,0.254000,192.000000,0.000000,0.000000,0.000000,0.000000,0.000000,0.000000,0.000000,0.000000,0.000000,1647837233.540151,0.000000
103.000000,22535.878126,-818.654992,27927.588275,23402.388203,41504.708410,18216.492917,2077.125260,-1604.251755,0.018000,0.950000,0.254000,192.000000,0.000000,0.000000,0.000000,0.000000,0.000000,0.000000,0.000000,0.000000,0.000000,1647837233.540185,0.000000
104.000000,22540.795510,-813.804664,27932.259790,23407.998491,41503.412009,18216.470565,2076.655874,-1613.773598,0.018000,0.950000,0.254000,192.000000,0.000000,0.000000,0.000000,0.000000,0.000000,0.000000,0.000000,0.000000,0.000000,1647837233.548214,0.000000
105.000000,22537.956838,-815.548100,27927.297703,23406.277407,41502.741456,18210.033263,2047.889179,-1624.055400,0.026000,0.956000,0.254000,192.000000,0.000000,208.000000,29.000000,224.000000,7.000000,240.000000,0.000000,0.000000,0.000000,1647837233.548219,0.000000
106.000000,22534.335856,-819.750228,27923.319092,23403.528142,41497.779369,18209.742690,2049.923187,-1610.689057,0.026000,0.956000,0.254000,192.000000,0.000000,0.000000,0.000000,0.000000,0.000000,0.000000,0.000000,0.000000,0.000000,1647837233.556232,0.000000
107.000000,22531.407777,-823.192397,27925.844839,23402.634073,41492.414950,18215.174164,2083.987246,-1603.648258,0.026000,0.956000,0.254000,192.000000,0.000000,0.000000,0.000000,0.000000,0.000000,0.000000,0.000000,0.000000,0.000000,1647837233.556260,0.000000
108.000000,22536.369865,-817.716219,27929.868153,23404.645730,41487.743436,18215.017702,2073.481926,-1619.674458,0.026000,0.956000,0.254000,192.000000,0.000000,0.000000,0.000000,0.000000,0.000000,0.000000,0.000000,0.000000,0.000000,1647837233.563278,0.000000
109.000000,22537.688617,-817.492702,27930.583409,23403.081108,41488.101064,18212.335493,2064.876505,-1630.202130,0.026000,0.956000,0.254000,192.000000,0.000000,0.000000,0.000000,0.000000,0.000000,0.000000,0.000000,0.000000,0.000000,1647837233.571280,0.000000
110.000000,22543.142443,-813.022353,27940.641694,23409.473706,41498.271107,18225.679484,2081.126223,-1584.045778,0.026000,0.956000,0.254000,192.000000,0.000000,0.000000,0.000000,0.000000,0.000000,0.000000,0.000000,0.000000,0.000000,1647837233.571304,0.000000
111.000000,22540.102606,-817.671516,27934.293799,23405.182171,41497.041762,18223.466661,2071.984359,-1586.929153,0.026000,0.956000,0.254000,192.000000,0.000000,0.000000,0.000000,0.000000,0.000000,0.000000,0.000000,0.000000,0.000000,1647837233.579259,0.000000
112.000000,22539.856737,-818.654992,27932.863287,23403.796363,41497.421741,18223.019627,2072.587856,-1602.240098,0.026000,0.956000,0.254000,192.000000,0.000000,0.000000,0.000000,0.000000,0.000000,0.000000,0.000000,0.000000,0.000000,1647837233.579263,0.000000
113.000000,22543.723588,-812.910594,27935.143165,23406.590331,41493.756055,18226.104167,2087.898801,-1595.579278,0.026000,0.956000,0.254000,192.000000,0.000000,0.000000,0.000000,0.000000,0.000000,0.000000,0.000000,0.000000,0.000000,1647837233.585343,0.000000
114.000000,22543.611830,-814.631678,27935.456089,23406.635035,41492.034971,18223.064330,2085.864793,-1604.117644,0.026000,0.956000,0.254000,192.000000,0.000000,0.000000,0.000000,0.000000,0.000000,0.000000,0.000000,0.000000,0.000000,1647837233.585367,0.000000
115.000000,22543.254202,-817.537405,27937.512450,23408.266712,41495.834767,18227.020589,2083.070825,-1586.817394,0.028000,0.948000,0.250000,192.000000,0.000000,224.000000,29.000000,160.000000,7.000000,208.000000,0.000000,0.000000,0.000000,1647837233.592404,0.000000
116.000000,22539.834385,-820.666649,27935.813717,23406.612683,41496.795892,18225.634781,2080.992112,-1591.332446,0.028000,0.948000,0.250000,192.000000,0.000000,0.000000,0.000000,0.000000,0.000000,0.000000,0.000000,0.000000,0.000000,1647837233.592409,0.000000
117.000000,22542.650705,-817.269184,27938.428871,23408.646692,41498.651087,18225.746539,2082.601438,-1595.154595,0.028000,0.948000,0.250000,192.000000,0.000000,0.000000,0.000000,0.000000,0.000000,0.000000,0.000000,0.000000,0.000000,1647837233.600508,0.000000
118.000000,22542.985981,-817.112722,27936.618380,23407.551456,41497.645259,18223.936048,2078.041682,-1598.127377,0.028000,0.948000,0.250000,192.000000,0.000000,0.000000,0.000000,0.000000,0.000000,0.000000,0.000000,0.000000,0.000000,1647837233.600512,0.000000
119.000000,22545.914059,-810.228385,27939.881735,23412.580599,41507.681192,18226.171222,2075.314769,-1609.593822,0.028000,0.948000,0.250000,192.000000,0.000000,0.000000,0.000000,0.000000,0.000000,0.000000,0.000000,0.000000,0.000000,1647837233.607579,0.000000
120.000000,22547.635144,-805.489815,27940.306418,23415.508677,41507.614137,18224.740711,2070.285627,-1617.461636,0.028000,0.948000,0.250000,192.000000,0.000000,0.000000,0.000000,0.000000,0.000000,0.000000,0.000000,0.000000,0.000000,1647837233.607604,0.000000
121.000000,22552.708990,-799.119568,27944.910877,23421.074262,41508.821131,18233.949630,2079.181621,-1579.798946,0.028000,0.948000,0.250000,192.000000,0.000000,0.000000,0.000000,0.000000,0.000000,0.000000,0.000000,0.000000,0.000000,1647837233.615041,0.000000
122.000000,22552.060789,-799.410140,27945.424967,23421.968332,41508.619965,18237.704723,2085.082482,-1577.116737,0.028000,0.948000,0.250000,192.000000,0.000000,0.000000,0.000000,0.000000,0.000000,0.000000,0.000000,0.000000,0.000000,1647837233.615066,0.000000
123.000000,22552.485472,-799.231326,27945.268505,23420.157840,41503.166140,18232.049731,2069.704481,-1595.489871,0.028000,0.948000,0.250000,192.000000,0.000000,0.000000,0.000000,0.000000,0.000000,0.000000,0.000000,0.000000,0.000000,1647837233.622033,0.000000
124.000000,22551.122016,-800.997114,27943.994456,23415.776898,41498.673439,18228.249935,2062.060185,-1604.341162,0.028000,0.948000,0.250000,192.000000,0.000000,0.000000,0.000000,0.000000,0.000000,0.000000,0.000000,0.000000,0.000000,1647837233.630173,0.000000
125.000000,22546.271687,-806.160367,27941.334598,23410.121907,41493.018448,18221.231487,2048.112696,-1616.165235,0.024000,0.958000,0.252000,192.000000,0.000000,192.000000,29.000000,240.000000,7.000000,224.000000,0.000000,0.000000,0.000000,1647837233.630176,0.000000
126.000000,22536.503975,-817.447998,27937.043063,23400.130677,41485.374151,18212.737824,2041.116600,-1628.749267,0.024000,0.958000,0.252000,192.000000,0.000000,0.000000,0.000000,0.000000,0.000000,0.000000,0.000000,0.000000,0.000000,1647837233.638187,0.000000
127.000000,22529.239658,-824.913481,27930.851630,23391.279386,41485.195337,18205.205286,2038.009708,-1640.528636,0.024000,0.958000,0.252000,192.000000,0.000000,0.000000,0.000000,0.000000,0.000000,0.000000,0.000000,0.000000,0.000000,1647837233.638212,0.000000
128.000000,22527.362111,-824.935833,27931.678645,23393.291043,41489.442168,18206.792260,2048.693842,-1636.527674,0.024000,0.958000,0.252000,192.000000,0.000000,0.000000,0.000000,0.000000,0.000000,0.000000,0.000000,0.000000,0.000000,1647837233.646158,0.000000
129.000000,22525.976303,-826.567510,27929.912857,23391.569959,41481.909631,18206.635798,2055.555827,-1627.743438,0.024000,0.958000,0.252000,192.000000,0.000000,0.000000,0.000000,0.000000,0.000000,0.000000,0.000000,0.000000,0.000000,1647837233.646167,0.000000
130.000000,22522.668245,-829.920272,27926.113060,23389.848875,41475.517032,18209.094490,2059.333272,-1625.083581,0.024000,0.958000,0.252000,192.000000,0.000000,0.000000,0.000000,0.000000,0.000000,0.000000,0.000000,0.000000,0.000000,1647837233.654161,0.000000
131.000000,22519.941332,-832.244853,27924.257865,23387.323128,41468.811508,18206.099356,2056.695766,-1632.280842,0.024000,0.958000,0.252000,192.000000,0.000000,0.000000,0.000000,0.000000,0.000000,0.000000,0.000000,0.000000,0.000000,1647837233.654165,0.000000
132.000000,22524.366978,-827.372173,27930.449299,23391.637014,41469.862040,18204.355920,2054.997033,-1639.522808,0.024000,0.958000,0.252000,192.000000,0.000000,0.000000,0.000000,0.000000,0.000000,0.000000,0.000000,0.000000,0.000000,1647837233.661223,0.000000
133.000000,22527.809146,-822.454789,27934.450261,23396.375584,41472.477194,18210.413243,2067.737528,-1629.933909,0.024000,0.958000,0.252000,192.000000,0.000000,0.000000,0.000000,0.000000,0.000000,0.000000,0.000000,0.000000,0.000000,1647837233.661229,0.000000
134.000000,22528.166774,-820.644298,27932.729177,23396.442639,41471.694883,18212.089623,2065.256484,-1612.745418,0.024000,0.958000,0.252000,192.000000,0.000000,0.000000,0.000000,0.000000,0.000000,0.000000,0.000000,0.000000,0.000000,1647837233.667463,0.000000
135.000000,22522.914114,-826.768676,27923.430851,23391.279386,41466.866907,18206.948722,2061.322577,-1624.703601,0.020000,0.958000,0.252000,192.000000,0.000000,160.000000,29.000000,240.000000,7.000000,224.000000,0.000000,0.000000,0.000000,1647837233.667467,0.000000
136.000000,22521.148327,-829.003850,27923.564961,23390.564131,41467.716273,18209.228600,2063.177772,-1604.899955,0.020000,0.958000,0.252000,192.000000,0.000000,0.000000,0.000000,0.000000,0.000000,0.000000,0.000000,0.000000,0.000000,1647837233.675332,0.000000
137.000000,22532.413606,-817.827978,27934.807889,23399.393070,41477.595744,18215.889420,2070.173868,-1594.886374,0.020000,0.958000,0.252000,192.000000,0.000000,0.000000,0.000000,0.000000,0.000000,0.000000,0.000000,0.000000,0.000000,1647837233.675357,0.000000
138.000000,22535.185222,-814.922251,27936.841898,23403.572846,41479.383883,18216.090586,2069.682130,-1609.862043,0.020000,0.958000,0.252000,192.000000,0.000000,0.000000,0.000000,0.000000,0.000000,0.000000,0.000000,0.000000,0.000000,1647837233.682438,0.000000
139.000000,22537.152176,-812.932946,27938.562982,23407.640863,41480.501471,18216.157641,2061.747260,-1618.713333,0.020000,0.958000,0.252000,192.000000,0.000000,0.000000,0.000000,0.000000,0.000000,0.000000,0.000000,0.000000,0.000000,1647837233.689575,0.000000
140.000000,22533.933524,-816.241004,27934.383206,23404.265750,41477.886317,18217.632856,2075.672397,-1612.298383,0.020000,0.958000,0.252000,192.000000,0.000000,0.000000,0.000000,0.000000,0.000000,0.000000,0.000000,0.000000,0.000000,1647837233.689579,0.000000
141.000000,22530.312542,-820.443132,27931.768052,23398.543703,41476.254639,18217.923429,2082.512031,-1604.765845,0.020000,0.958000,0.252000,192.000000,0.000000,0.000000,0.000000,0.000000,0.000000,0.000000,0.000000,0.000000,0.000000,1647837233.697061,0.000000
142.000000,22529.306713,-822.231272,27933.980874,23400.689471,41472.052511,18217.789318,2070.240923,-1604.162348,0.020000,0.958000,0.252000,192.000000,0.000000,0.000000,0.000000,0.000000,0.000000,0.000000,0.000000,0.000000,0.000000,1647837233.697087,0.000000
143.000000,22528.010312,-822.253623,27935.232572,23402.410555,41469.929095,18220.851507,2069.838592,-1601.882470,0.020000,0.958000,0.252000,192.000000,0.000000,0.000000,0.000000,0.000000,0.000000,0.000000,0.000000,0.000000,0.000000,1647837233.704941,0.000000
144.000000,22526.065710,-824.779370,27932.997398,23399.370718,41469.392654,18220.091548,2079.673359,-1602.418912,0.020000,0.958000,0.252000,192.000000,0.000000,0.000000,0.000000,0.000000,0.000000,0.000000,0.000000,0.000000,0.000000,1647837233.704967,0.000000
145.000000,22525.685731,-825.941661,27929.309360,23394.967424,41463.894124,18217.185821,2073.236057,-1607.090426,0.018000,0.958000,0.256000,192.000000,0.000000,144.000000,29.000000,240.000000,8.000000,0.000000,0.000000,0.000000,0.000000,1647837233.713046,0.000000
146.000000,22522.668245,-826.679269,27926.046005,23392.464029,41459.557886,18215.352978,2068.385728,-1607.626868,0.018000,0.958000,0.256000,192.000000,0.000000,0.000000,0.000000,0.000000,0.000000,0.000000,0.000000,0.000000,0.000000,1647837233.713070,0.000000
147.000000,22518.779042,-827.662745,27926.023653,23395.414459,41461.569543,18218.303408,2080.254505,-1604.899955,0.018000,0.958000,0.256000,192.000000,0.000000,0.000000,0.000000,0.000000,0.000000,0.000000,0.000000,0.000000,0.000000,1647837233.720968,0.000000
148.000000,22518.935504,-827.394525,27924.928418,23398.007262,41464.631732,18213.587190,2063.893028,-1613.617136,0.018000,0.958000,0.256000,192.000000,0.000000,0.000000,0.000000,0.000000,0.000000,0.000000,0.000000,0.000000,0.000000,1647837233.720993,0.000000
149.000000,22522.467079,-827.327469,27929.711691,23400.063622,41470.331427,18217.163469,2066.888162,-1613.952412,0.018000,0.958000,0.256000,192.000000,0.000000,0.000000,0.000000,0.000000,0.000000,0.000000,0.000000,0.000000,0.000000,1647837233.728994,0.000000
150.000000,22523.651722,-826.366344,27930.471650,23402.008224,41469.280895,18219.063368,2078.354606,-1608.163310,0.018000,0.958000,0.256000,192.000000,0.000000,0.000000,0.000000,0.000000,0.000000,0.000000,0.000000,0.000000,0.000000,1647837233.729023,0.000000
151.000000,22522.735300,-825.651088,27927.744738,23401.091802,41465.458747,18219.979789,2080.232153,-1604.408217,0.018000,0.958000,0.256000,192.000000,0.000000,0.000000,0.000000,0.000000,0.000000,0.000000,0.000000,0.000000,0.000000,1647837233.737011,0.000000
152.000000,22523.986998,-822.588899,27931.164554,23404.153991,41470.219668,18225.411263,2083.383749,-1590.304266,0.018000,0.958000,0.256000,192.000000,0.000000,0.000000,0.000000,0.000000,0.000000,0.000000,0.000000,0.000000,0.000000,1647837233.737015,0.000000
153.000000,22525.596324,-820.309022,27932.952694,23404.824544,41472.678360,18226.484147,2080.545077,-1586.102138,0.018000,0.958000,0.256000,192.000000,0.000000,0.000000,0.000000,0.000000,0.000000,0.000000,0.000000,0.000000,0.000000,1647837233.744118,0.000000
154.000000,22528.837327,-817.045667,27933.824412,23405.025709,41471.650180,18227.557031,2080.902705,-1589.790176,0.018000,0.958000,0.256000,192.000000,0.000000,0.000000,0.000000,0.000000,0.000000,0.000000,0.000000,0.000000,0.000000,1647837233.744143,0.000000
155.000000,22528.077367,-820.733705,27932.438604,23402.522314,41472.633657,18222.505536,2066.217609,-1604.832900,0.026000,0.956000,0.250000,192.000000,0.000000,208.000000,29.000000,224.000000,7.000000,208.000000,0.000000,0.000000,0.000000,1647837233.750150,0.000000
156.000000,22526.780966,-823.661783,27931.142203,23400.577712,41471.449014,18220.158603,2073.325464,-1605.749322,0.026000,0.956000,0.250000,192.000000,0.000000,0.000000,0.000000,0.000000,0.000000,0.000000,0.000000,0.000000,0.000000,1647837233.757280,0.000000
157.000000,22529.396120,-819.906690,27935.187868,23404.131639,41471.001979,18220.918563,2074.778327,-1604.028237,0.026000,0.956000,0.250000,192.000000,0.000000,0.000000,0.000000,0.000000,0.000000,0.000000,0.000000,0.000000,0.000000,1647837233.757283,0.000000
158.000000,22531.810109,-816.442170,27940.395825,23408.110250,41473.013636,18221.611467,2072.990188,-1608.789159,0.026000,0.956000,0.250000,192.000000,0.000000,0.000000,0.000000,0.000000,0.000000,0.000000,0.000000,0.000000,0.000000,1647837233.765321,0.000000
159.000000,22530.871335,-815.436341,27941.893392,23407.842029,41473.527726,18223.444310,2077.885220,-1607.470406,0.026000,0.956000,0.250000,192.000000,0.000000,0.000000,0.000000,0.000000,0.000000,0.000000,0.000000,0.000000,0.000000,1647837233.765325,0.000000
160.000000,22528.077367,-818.297365,27937.020712,23406.478573,41473.840651,18222.505536,2074.755976,-1603.111816,0.026000,0.956000,0.250000,192.000000,0.000000,0.000000,0.000000,0.000000,0.000000,0.000000,0.000000,0.000000,0.000000,1647837233.771994,0.000000
161.000000,22532.301847,-815.592803,27937.624209,23410.881866,41478.422758,18222.572592,2078.689883,-1614.846482,0.026000,0.956000,0.250000,192.000000,0.000000,0.000000,0.000000,0.000000,0.000000,0.000000,0.000000,0.000000,0.000000,1647837233.771998,0.000000
162.000000,22535.095815,-810.295440,27940.865212,23415.776898,41479.763863,18225.344208,2080.634484,-1605.212880,0.026000,0.956000,0.250000,192.000000,0.000000,0.000000,0.000000,0.000000,0.000000,0.000000,0.000000,0.000000,0.000000,1647837233.779946,0.000000
