%OpenBCI Raw EEG Data
%Number of channels = 8
%Sample Rate = 256 Hz
%Board = OpenBCI_GUI$BoardCytonSerial
%Channels = Fp1, Fp2, F3, F4, Fz, Pz, O1, O2
%Data recorded at AIMS Lab (http://aimsl.uiu.ac.bd) by Rana Depto (mail@ranadepto.com)
%Brainwaves were obtained via the Ultracortex Mark IV Headset using the OpenBCI Cyton Board
%Recording Application = ConcentrateToday (https://concentrate.today)
%Data type = RAW data with noise
%Day No = 6
%Subject ID = 2
%Session ID = 7
%Record starting timestamp (UTC+6) = 2022-03-13T12:52:51.524229
%Record ending timestamp (UTC+6)   = 2022-03-13T12:53:07.365122
%Recorded durations = ~15 seconds
Sample Index, EXG Channel 0, EXG Channel 1, EXG Channel 2, EXG Channel 3, EXG Channel 4, EXG Channel 5, EXG Channel 6, EXG Channel 7, Accel Channel 0, Accel Channel 1, Accel Channel 2, Other, Other, Other, Other, Other, Other, Other, Analog Channel 0, Analog Channel 1, Analog Channel 2, Timestamp, Timestamp (Formatted)
221.000000,37028.257493,35027.731660,18809.194125,-4921.675315,25381.478713,25195.735716,27518.596055,24638.842003,-0.078000,0.974000,0.100000,192.000000,0.000000,0.000000,0.000000,0.000000,0.000000,0.000000,0.000000,0.000000,0.000000,1647154371.530265,0.000000
222.000000,37032.616083,35030.145649,18813.150384,-4921.272984,25385.457323,25199.177885,27524.072233,24643.714683,-0.078000,0.974000,0.100000,192.000000,0.000000,0.000000,0.000000,0.000000,0.000000,0.000000,0.000000,0.000000,0.000000,1647154371.530271,0.000000
223.000000,37030.492667,35030.056242,18811.652817,-4923.284641,25382.953928,25198.663795,27530.464832,24637.187974,-0.072000,0.976000,0.098000,192.000000,253.000000,192.000000,30.000000,128.000000,3.000000,16.000000,0.000000,0.000000,0.000000,1647154371.537342,0.000000
224.000000,37027.855161,35029.542152,18810.132898,-4923.441103,25379.176483,25195.355737,27525.458041,24624.916866,-0.072000,0.976000,0.098000,192.000000,0.000000,0.000000,0.000000,0.000000,0.000000,0.000000,0.000000,0.000000,0.000000,1647154371.537347,0.000000
225.000000,37030.112687,35037.499373,18813.105680,-4920.177748,25381.232844,25201.390708,27536.879782,24641.166585,-0.072000,0.976000,0.098000,192.000000,0.000000,0.000000,0.000000,0.000000,0.000000,0.000000,0.000000,0.000000,0.000000,1647154371.544799,0.000000
226.000000,37028.548065,35037.052338,18812.368073,-4921.876481,25380.539939,25200.518990,27530.174259,24646.083968,-0.072000,0.976000,0.098000,192.000000,0.000000,0.000000,0.000000,0.000000,0.000000,0.000000,0.000000,0.000000,0.000000,1647154371.544804,0.000000
227.000000,37027.318719,35031.754974,18813.016273,-4921.898833,25381.858692,25199.893141,27529.928390,24639.534907,-0.072000,0.976000,0.098000,192.000000,0.000000,0.000000,0.000000,0.000000,0.000000,0.000000,0.000000,0.000000,0.000000,1647154371.552819,0.000000
228.000000,37028.860990,35033.207838,18814.312674,-4916.914394,25386.038469,25200.161362,27530.844811,24642.083006,-0.072000,0.976000,0.098000,192.000000,0.000000,0.000000,0.000000,0.000000,0.000000,0.000000,0.000000,0.000000,0.000000,1647154371.552823,0.000000
229.000000,37032.861952,35034.995977,18816.436090,-4913.338114,25389.100658,25198.864961,27523.468736,24640.652495,-0.072000,0.976000,0.098000,192.000000,0.000000,0.000000,0.000000,0.000000,0.000000,0.000000,0.000000,0.000000,0.000000,1647154371.560780,0.000000
230.000000,37028.033975,35029.609207,18811.094023,-4919.082513,25382.797466,25193.232321,27519.423070,24635.064558,-0.072000,0.976000,0.098000,192.000000,0.000000,0.000000,0.000000,0.000000,0.000000,0.000000,0.000000,0.000000,0.000000,1647154371.560785,0.000000
231.000000,37031.990234,35031.643216,18814.357378,-4917.272021,25383.982108,25196.026289,27524.407509,24633.388178,-0.072000,0.976000,0.098000,192.000000,0.000000,0.000000,0.000000,0.000000,0.000000,0.000000,0.000000,0.000000,0.000000,1647154371.566996,0.000000
232.000000,37025.195304,35026.278797,18807.495392,-4924.558690,25378.036544,25192.092382,27525.994483,24627.196744,-0.072000,0.976000,0.098000,192.000000,0.000000,0.000000,0.000000,0.000000,0.000000,0.000000,0.000000,0.000000,0.000000,1647154371.567000,0.000000
233.000000,37018.355670,35018.276872,18800.253427,-4931.487731,25368.939384,25180.760048,27522.909942,24600.195837,-0.072000,0.976000,0.098000,192.000000,0.000000,0.000000,0.000000,0.000000,0.000000,0.000000,0.000000,0.000000,0.000000,1647154371.574461,0.000000
234.000000,37029.375080,35033.967797,18810.691692,-4918.344905,25382.149265,25197.479152,27532.364730,24632.427053,-0.076000,0.974000,0.104000,192.000000,253.000000,160.000000,30.000000,112.000000,3.000000,64.000000,0.000000,0.000000,0.000000,1647154371.582403,0.000000
235.000000,37033.040766,35040.092175,18813.306846,-4915.014495,25387.759553,25201.122487,27527.939085,24643.491166,-0.076000,0.974000,0.104000,192.000000,0.000000,0.000000,0.000000,0.000000,0.000000,0.000000,0.000000,0.000000,0.000000,1647154371.582408,0.000000
236.000000,37033.912484,35038.527553,18814.446785,-4915.327420,25387.223111,25199.535513,27524.206343,24644.899326,-0.076000,0.974000,0.104000,192.000000,0.000000,0.000000,0.000000,0.000000,0.000000,0.000000,0.000000,0.000000,0.000000,1647154371.590504,0.000000
237.000000,37024.658862,35030.749146,18805.796660,-4927.911452,25377.678916,25189.410173,27515.533866,24634.908096,-0.076000,0.974000,0.104000,192.000000,0.000000,0.000000,0.000000,0.000000,0.000000,0.000000,0.000000,0.000000,0.000000,1647154371.590534,0.000000
238.000000,37025.172952,35030.615035,18806.266046,-4926.145664,25379.355297,25187.353812,27509.498895,24629.186050,-0.076000,0.974000,0.104000,192.000000,0.000000,0.000000,0.000000,0.000000,0.000000,0.000000,0.000000,0.000000,0.000000,1647154371.597065,0.000000
239.000000,37038.025205,35038.482849,18819.811203,-4909.515966,25393.749820,25204.698766,27528.989617,24648.565012,-0.076000,0.974000,0.104000,192.000000,0.000000,0.000000,0.000000,0.000000,0.000000,0.000000,0.000000,0.000000,0.000000,1647154371.597069,0.000000
240.000000,37036.237065,35035.443012,18814.625599,-4917.182614,25389.055954,25198.328519,27525.279227,24635.109262,-0.076000,0.974000,0.104000,192.000000,0.000000,0.000000,0.000000,0.000000,0.000000,0.000000,0.000000,0.000000,0.000000,1647154371.605084,0.000000
241.000000,37040.282731,35036.359434,18814.625599,-4918.143739,25387.960719,25196.853304,27520.786526,24631.689445,-0.076000,0.974000,0.104000,192.000000,0.000000,0.000000,0.000000,0.000000,0.000000,0.000000,0.000000,0.000000,0.000000,1647154371.605088,0.000000
242.000000,37035.566513,35035.241846,18820.191183,-4911.818196,25395.739126,25209.146763,27535.538678,24644.944029,-0.076000,0.974000,0.104000,192.000000,0.000000,0.000000,0.000000,0.000000,0.000000,0.000000,0.000000,0.000000,0.000000,1647154371.613040,0.000000
243.000000,37027.810458,35030.838553,18820.146480,-4910.365332,25396.476733,25208.431507,27534.778718,24643.759387,-0.076000,0.974000,0.104000,192.000000,0.000000,0.000000,0.000000,0.000000,0.000000,0.000000,0.000000,0.000000,0.000000,1647154371.613044,0.000000
244.000000,37037.712280,35037.722890,18823.163965,-4908.241917,25398.153114,25204.855228,27522.798183,24637.836175,-0.074000,0.982000,0.100000,192.000000,253.000000,176.000000,30.000000,176.000000,3.000000,32.000000,0.000000,0.000000,0.000000,1647154371.620208,0.000000
245.000000,37034.113650,35033.409003,18819.922962,-4914.276888,25394.465076,25204.072917,27521.434727,24635.444538,-0.074000,0.982000,0.100000,192.000000,0.000000,0.000000,0.000000,0.000000,0.000000,0.000000,0.000000,0.000000,0.000000,1647154371.620212,0.000000
246.000000,37023.585978,35026.949349,18812.882163,-4920.490673,25386.731373,25199.490809,27521.233561,24613.696291,-0.074000,0.982000,0.100000,192.000000,0.000000,0.000000,0.000000,0.000000,0.000000,0.000000,0.000000,0.000000,0.000000,1647154371.627686,0.000000
247.000000,37028.816286,35032.514934,18818.671264,-4914.858033,25393.235730,25209.392632,27529.816631,24639.043169,-0.074000,0.982000,0.100000,192.000000,0.000000,0.000000,0.000000,0.000000,0.000000,0.000000,0.000000,0.000000,0.000000,1647154371.627690,0.000000
248.000000,37032.392565,35032.961969,18821.532288,-4913.002838,25395.828533,25212.119545,27531.940047,24637.657361,-0.074000,0.982000,0.100000,192.000000,0.000000,0.000000,0.000000,0.000000,0.000000,0.000000,0.000000,0.000000,0.000000,1647154371.634607,0.000000
249.000000,37041.333263,35044.093137,18828.595439,-4906.029094,25401.818800,25218.556847,27532.789413,24650.755483,-0.074000,0.982000,0.100000,192.000000,0.000000,0.000000,0.000000,0.000000,0.000000,0.000000,0.000000,0.000000,0.000000,1647154371.642729,0.000000
250.000000,37042.160278,35048.429376,18828.058997,-4906.923164,25401.617634,25219.830897,27533.571724,24651.113111,-0.074000,0.982000,0.100000,192.000000,0.000000,0.000000,0.000000,0.000000,0.000000,0.000000,0.000000,0.000000,0.000000,1647154371.642734,0.000000
251.000000,37038.293426,35042.036777,18822.202840,-4909.895946,25396.834361,25214.354719,27527.313236,24643.669980,-0.074000,0.982000,0.100000,192.000000,0.000000,0.000000,0.000000,0.000000,0.000000,0.000000,0.000000,0.000000,0.000000,1647154371.649463,0.000000
252.000000,37029.777411,35034.638349,18815.854945,-4913.718094,25391.536998,25208.543266,27522.507611,24639.311390,-0.074000,0.982000,0.100000,192.000000,0.000000,0.000000,0.000000,0.000000,0.000000,0.000000,0.000000,0.000000,0.000000,1647154371.649467,0.000000
253.000000,37027.832809,35031.889085,18815.810241,-4913.785149,25390.195893,25210.420812,27530.509535,24641.904192,-0.074000,0.982000,0.100000,192.000000,0.000000,0.000000,0.000000,0.000000,0.000000,0.000000,0.000000,0.000000,0.000000,1647154371.657268,0.000000
254.000000,37024.725917,35026.368204,18811.049320,-4921.943536,25382.372783,25197.657966,27518.037262,24612.288131,-0.074000,0.980000,0.102000,192.000000,253.000000,176.000000,30.000000,160.000000,3.000000,48.000000,0.000000,0.000000,0.000000,1647154371.657272,0.000000
255.000000,37028.346900,35032.023195,18814.916171,-4919.373085,25384.853826,25191.377126,27519.132497,24581.979165,-0.074000,0.980000,0.102000,192.000000,0.000000,0.000000,0.000000,0.000000,0.000000,0.000000,0.000000,0.000000,0.000000,1647154371.665277,0.000000
0.000000,37023.653033,35027.664605,18809.797622,-4923.754027,25381.478713,25196.629786,27520.585361,24637.456195,-0.074000,0.980000,0.102000,192.000000,0.000000,0.000000,0.000000,0.000000,0.000000,0.000000,0.000000,0.000000,0.000000,1647154371.665280,0.000000
1.000000,37029.106859,35032.246713,18815.318503,-4918.434312,25386.686669,25203.312958,27521.010044,24657.416303,-0.074000,0.980000,0.102000,192.000000,0.000000,0.000000,0.000000,0.000000,0.000000,0.000000,0.000000,0.000000,0.000000,1647154371.672391,0.000000
2.000000,37030.380908,35036.001806,18817.687788,-4914.835681,25389.346527,25203.201199,27520.585361,24638.283210,-0.074000,0.980000,0.102000,192.000000,0.000000,0.000000,0.000000,0.000000,0.000000,0.000000,0.000000,0.000000,0.000000,1647154371.672395,0.000000
3.000000,37029.442135,35037.365262,18818.045416,-4909.270097,25392.386364,25205.190504,27520.987692,24637.970285,-0.074000,0.980000,0.102000,192.000000,0.000000,0.000000,0.000000,0.000000,0.000000,0.000000,0.000000,0.000000,0.000000,1647154371.679987,0.000000
4.000000,37024.100068,35032.291416,18816.123166,-4912.153472,25389.815913,25203.022385,27515.511515,24634.729282,-0.074000,0.980000,0.102000,192.000000,0.000000,0.000000,0.000000,0.000000,0.000000,0.000000,0.000000,0.000000,0.000000,1647154371.679990,0.000000
5.000000,37025.195304,35034.101908,18816.883125,-4914.656867,25389.480637,25208.923246,27529.347244,24640.876012,-0.074000,0.980000,0.102000,192.000000,0.000000,0.000000,0.000000,0.000000,0.000000,0.000000,0.000000,0.000000,0.000000,1647154371.687995,0.000000
6.000000,37027.184609,35035.554771,18816.324331,-4914.433350,25391.559349,25211.046661,27534.130518,24641.144233,-0.074000,0.980000,0.102000,192.000000,0.000000,0.000000,0.000000,0.000000,0.000000,0.000000,0.000000,0.000000,0.000000,1647154371.687999,0.000000
7.000000,37039.813344,35044.674283,18828.394273,-4902.117539,25404.545713,25217.752185,27538.869088,24642.306524,-0.074000,0.980000,0.102000,192.000000,0.000000,0.000000,0.000000,0.000000,0.000000,0.000000,0.000000,0.000000,0.000000,1647154371.694989,0.000000
8.000000,37033.979539,35039.622788,18825.108567,-4903.324533,25403.025794,25211.828972,27523.468736,24640.317218,-0.078000,0.982000,0.110000,192.000000,253.000000,144.000000,30.000000,176.000000,3.000000,112.000000,0.000000,0.000000,0.000000,1647154371.702100,0.000000
9.000000,37034.158353,35040.718024,18824.393311,-4902.966905,25401.595283,25208.945597,27524.854544,24640.093701,-0.078000,0.982000,0.110000,192.000000,0.000000,0.000000,0.000000,0.000000,0.000000,0.000000,0.000000,0.000000,0.000000,1647154371.702104,0.000000
10.000000,37033.554856,35040.427451,18823.409834,-4905.403245,25398.823666,25205.525780,27520.406547,24627.710834,-0.078000,0.982000,0.110000,192.000000,0.000000,0.000000,0.000000,0.000000,0.000000,0.000000,0.000000,0.000000,0.000000,1647154371.709614,0.000000
11.000000,37035.566513,35042.506163,18823.879221,-4903.033960,25399.807143,25207.023347,27516.785564,24632.739977,-0.078000,0.982000,0.110000,192.000000,0.000000,0.000000,0.000000,0.000000,0.000000,0.000000,0.000000,0.000000,0.000000,1647154371.709618,0.000000
12.000000,37026.938740,35038.058166,18817.911305,-4907.928992,25393.459248,25201.524818,27514.483334,24629.498974,-0.078000,0.982000,0.110000,192.000000,0.000000,0.000000,0.000000,0.000000,0.000000,0.000000,0.000000,0.000000,0.000000,1647154371.717587,0.000000
13.000000,37034.627740,35049.435204,18826.784948,-4900.195289,25400.723565,25207.828010,27521.546486,24631.085948,-0.078000,0.982000,0.110000,192.000000,0.000000,0.000000,0.000000,0.000000,0.000000,0.000000,0.000000,0.000000,0.000000,1647154371.717592,0.000000
14.000000,37036.840562,35046.708291,18824.281552,-4905.269135,25399.293053,25201.457763,27512.471677,24621.966436,-0.078000,0.982000,0.110000,192.000000,0.000000,0.000000,0.000000,0.000000,0.000000,0.000000,0.000000,0.000000,0.000000,1647154371.725587,0.000000
15.000000,37030.984405,35036.091213,18817.017235,-4915.170957,25391.514646,25194.081687,27510.057689,24617.518439,-0.078000,0.982000,0.110000,192.000000,0.000000,0.000000,0.000000,0.000000,0.000000,0.000000,0.000000,0.000000,0.000000,1647154371.725590,0.000000
16.000000,37020.389679,35025.205913,18806.936599,-4923.329344,25382.395134,25182.883463,27500.379384,24598.497104,-0.078000,0.982000,0.110000,192.000000,0.000000,0.000000,0.000000,0.000000,0.000000,0.000000,0.000000,0.000000,0.000000,1647154371.732212,0.000000
17.000000,37027.430478,35033.163134,18815.430262,-4911.304106,25391.045259,25192.941748,27510.258855,24612.735166,-0.078000,0.982000,0.110000,192.000000,0.000000,0.000000,0.000000,0.000000,0.000000,0.000000,0.000000,0.000000,0.000000,1647154371.732216,0.000000
18.000000,37034.314815,35043.444937,18824.706235,-4905.671466,25400.857675,25208.073879,27526.307407,24640.540736,-0.076000,0.978000,0.108000,192.000000,253.000000,160.000000,30.000000,144.000000,3.000000,96.000000,0.000000,0.000000,0.000000,1647154371.740262,0.000000
19.000000,37030.693833,35040.628617,18820.817032,-4915.439178,25394.129800,25199.848437,27515.198590,24630.169526,-0.076000,0.978000,0.108000,192.000000,0.000000,0.000000,0.000000,0.000000,0.000000,0.000000,0.000000,0.000000,0.000000,1647154371.740266,0.000000
20.000000,37024.994138,35031.106774,18815.452613,-4920.110693,25388.251291,25194.729888,27514.550390,24628.336683,-0.076000,0.978000,0.108000,192.000000,0.000000,0.000000,0.000000,0.000000,0.000000,0.000000,0.000000,0.000000,0.000000,1647154371.748240,0.000000
21.000000,37020.859065,35022.411945,18813.150384,-4919.529548,25387.625442,25195.333385,27518.663111,24626.950875,-0.076000,0.978000,0.108000,192.000000,0.000000,0.000000,0.000000,0.000000,0.000000,0.000000,0.000000,0.000000,0.000000,1647154371.748244,0.000000
22.000000,37013.415934,35015.862884,18803.270913,-4928.112618,25378.528282,25181.050620,27499.194741,24603.079212,-0.076000,0.978000,0.108000,192.000000,0.000000,0.000000,0.000000,0.000000,0.000000,0.000000,0.000000,0.000000,0.000000,1647154371.754491,0.000000
23.000000,37017.930987,35019.729736,18808.076538,-4922.636440,25382.439838,25186.392687,27506.883741,24605.761421,-0.076000,0.978000,0.108000,192.000000,0.000000,0.000000,0.000000,0.000000,0.000000,0.000000,0.000000,0.000000,0.000000,1647154371.761811,0.000000
24.000000,37030.045632,35032.067899,18821.398177,-4909.694780,25394.979166,25205.704594,27534.510497,24634.684579,-0.076000,0.978000,0.108000,192.000000,0.000000,0.000000,0.000000,0.000000,0.000000,0.000000,0.000000,0.000000,0.000000,1647154371.761815,0.000000
25.000000,37025.843504,35030.637387,18815.899648,-4913.047542,25389.570044,25203.894103,27529.794279,24639.981942,-0.076000,0.978000,0.108000,192.000000,0.000000,0.000000,0.000000,0.000000,0.000000,0.000000,0.000000,0.000000,0.000000,1647154371.769838,0.000000
26.000000,37016.969862,35026.032928,18807.361282,-4922.658792,25382.216320,25196.249806,27513.902189,24634.148137,-0.076000,0.978000,0.108000,192.000000,0.000000,0.000000,0.000000,0.000000,0.000000,0.000000,0.000000,0.000000,0.000000,1647154371.769842,0.000000
27.000000,37016.120495,35026.658777,18807.651854,-4921.608260,25383.155094,25196.585083,27512.829305,24632.136480,-0.076000,0.978000,0.108000,192.000000,0.000000,0.000000,0.000000,0.000000,0.000000,0.000000,0.000000,0.000000,0.000000,1647154371.777860,0.000000
28.000000,37024.725917,35033.341948,18816.905477,-4913.494577,25392.252254,25206.710423,27531.068329,24646.016913,-0.082000,0.986000,0.100000,192.000000,253.000000,112.000000,30.000000,208.000000,3.000000,32.000000,0.000000,0.000000,0.000000,1647154371.777864,0.000000
29.000000,37028.101030,35038.952236,18818.291285,-4910.901774,25392.967509,25204.296434,27529.391948,24641.546564,-0.082000,0.986000,0.100000,192.000000,0.000000,0.000000,0.000000,0.000000,0.000000,0.000000,0.000000,0.000000,0.000000,1647154371.784487,0.000000
30.000000,37032.057289,35043.288474,18808.657683,-4915.930917,25382.663355,25185.923300,27512.896361,24621.340587,-0.082000,0.986000,0.100000,192.000000,0.000000,0.000000,0.000000,0.000000,0.000000,0.000000,0.000000,0.000000,0.000000,1647154371.784491,0.000000
31.000000,37037.712280,35044.897800,18810.356416,-4912.846376,25385.882006,25186.303280,27514.036299,24627.308503,-0.082000,0.986000,0.100000,192.000000,0.000000,0.000000,0.000000,0.000000,0.000000,0.000000,0.000000,0.000000,0.000000,1647154371.792569,0.000000
32.000000,37018.378022,35018.902721,18811.429299,-4920.647135,25387.983070,25194.171094,27519.221904,24627.956704,-0.082000,0.986000,0.100000,192.000000,0.000000,0.000000,0.000000,0.000000,0.000000,0.000000,0.000000,0.000000,0.000000,1647154371.792574,0.000000
33.000000,37005.704582,35009.380878,18806.243695,-4929.878405,25383.378611,25189.834856,27511.868180,24617.116108,-0.082000,0.986000,0.100000,192.000000,0.000000,0.000000,0.000000,0.000000,0.000000,0.000000,0.000000,0.000000,0.000000,1647154371.800519,0.000000
34.000000,37017.752173,35017.606320,18812.502183,-4921.876481,25389.480637,25192.941748,27515.310349,24629.186050,-0.082000,0.986000,0.100000,192.000000,0.000000,0.000000,0.000000,0.000000,0.000000,0.000000,0.000000,0.000000,0.000000,1647154371.800523,0.000000
35.000000,37021.976652,35018.612149,18819.230058,-4916.735580,25395.672070,25198.507333,27518.931332,24634.036378,-0.082000,0.986000,0.100000,192.000000,0.000000,0.000000,0.000000,0.000000,0.000000,0.000000,0.000000,0.000000,0.000000,1647154371.807782,0.000000
36.000000,37014.399411,35008.956195,18811.943389,-4925.564519,25386.507855,25191.444181,27513.388099,24622.793451,-0.082000,0.986000,0.100000,192.000000,0.000000,0.000000,0.000000,0.000000,0.000000,0.000000,0.000000,0.000000,0.000000,1647154371.807785,0.000000
37.000000,37003.469408,34998.339116,18798.420584,-4937.969737,25373.946175,25183.062277,27505.408526,24617.719605,-0.082000,0.986000,0.100000,192.000000,0.000000,0.000000,0.000000,0.000000,0.000000,0.000000,0.000000,0.000000,0.000000,1647154371.814223,0.000000
38.000000,37011.873664,35010.811390,18806.355453,-4927.665583,25382.193969,25195.400440,27517.478468,24635.556297,-0.072000,0.984000,0.100000,192.000000,253.000000,192.000000,30.000000,192.000000,3.000000,32.000000,0.000000,0.000000,0.000000,1647154371.814227,0.000000
39.000000,37009.973766,35007.682146,18805.841363,-4929.632536,25381.232844,25194.394612,27518.663111,24627.912000,-0.072000,0.984000,0.100000,192.000000,0.000000,0.000000,0.000000,0.000000,0.000000,0.000000,0.000000,0.000000,0.000000,1647154371.822191,0.000000
40.000000,37015.226426,35017.092230,18809.283532,-4925.095132,25384.853826,25191.891216,27511.041166,24625.855640,-0.072000,0.984000,0.100000,192.000000,0.000000,0.000000,0.000000,0.000000,0.000000,0.000000,0.000000,0.000000,0.000000,1647154371.830187,0.000000
41.000000,37016.992213,35021.517875,18809.395291,-4924.513987,25384.786771,25192.606472,27521.434727,24629.588381,-0.072000,0.984000,0.100000,192.000000,0.000000,0.000000,0.000000,0.000000,0.000000,0.000000,0.000000,0.000000,0.000000,1647154371.830191,0.000000
42.000000,37019.607367,35023.775402,18811.250485,-4923.351696,25386.507855,25194.148742,27526.441518,24631.957666,-0.072000,0.984000,0.100000,192.000000,0.000000,0.000000,0.000000,0.000000,0.000000,0.000000,0.000000,0.000000,0.000000,1647154371.836814,0.000000
43.000000,37021.596673,35026.971701,18814.558544,-4919.931879,25390.262948,25197.233283,27527.447346,24633.119957,-0.072000,0.984000,0.100000,192.000000,0.000000,0.000000,0.000000,0.000000,0.000000,0.000000,0.000000,0.000000,0.000000,1647154371.836818,0.000000
44.000000,37016.589882,35020.400288,18810.714043,-4924.335173,25387.245463,25192.181789,27519.087794,24626.168564,-0.072000,0.984000,0.100000,192.000000,0.000000,0.000000,0.000000,0.000000,0.000000,0.000000,0.000000,0.000000,0.000000,1647154371.844767,0.000000
45.000000,37016.344013,35018.098058,18808.992959,-4926.592699,25385.457323,25187.577330,27514.125706,24619.641855,-0.072000,0.984000,0.100000,192.000000,0.000000,0.000000,0.000000,0.000000,0.000000,0.000000,0.000000,0.000000,0.000000,1647154371.844771,0.000000
46.000000,37002.754152,35007.168055,18795.045471,-4937.299184,25372.649774,25172.735771,27501.005232,24596.932482,-0.072000,0.984000,0.100000,192.000000,0.000000,0.000000,0.000000,0.000000,0.000000,0.000000,0.000000,0.000000,0.000000,1647154371.852820,0.000000
47.000000,37010.219635,35017.628672,18802.823878,-4928.604356,25381.165788,25182.369373,27509.096564,24616.959645,-0.072000,0.984000,0.100000,192.000000,0.000000,0.000000,0.000000,0.000000,0.000000,0.000000,0.000000,0.000000,0.000000,1647154371.852835,0.000000
48.000000,37018.087449,35024.580064,18810.155250,-4924.581042,25388.318347,25187.733792,27510.772945,24614.344491,-0.076000,0.984000,0.106000,192.000000,253.000000,160.000000,30.000000,192.000000,3.000000,80.000000,0.000000,0.000000,0.000000,1647154371.859903,0.000000
49.000000,37018.132152,35030.637387,18808.903552,-4923.664620,25388.698326,25187.309109,27502.614558,24610.924674,-0.076000,0.984000,0.106000,192.000000,0.000000,0.000000,0.000000,0.000000,0.000000,0.000000,0.000000,0.000000,0.000000,1647154371.859907,0.000000
50.000000,37019.897940,35036.784117,18808.076538,-4921.630612,25388.519512,25186.660908,27506.503762,24606.677843,-0.076000,0.984000,0.106000,192.000000,0.000000,0.000000,0.000000,0.000000,0.000000,0.000000,0.000000,0.000000,0.000000,1647154371.867415,0.000000
51.000000,37017.282786,35029.273931,18805.327273,-4924.111655,25383.982108,25185.409210,27508.247198,24619.239523,-0.076000,0.984000,0.106000,192.000000,0.000000,0.000000,0.000000,0.000000,0.000000,0.000000,0.000000,0.000000,0.000000,1647154371.867418,0.000000
52.000000,37010.756077,35019.439163,18800.029910,-4929.006687,25378.103599,25185.364507,27503.486276,24626.794413,-0.076000,0.984000,0.106000,192.000000,0.000000,0.000000,0.000000,0.000000,0.000000,0.000000,0.000000,0.000000,0.000000,1647154371.875417,0.000000
53.000000,36994.126379,35004.418791,18785.389517,-4946.105772,25362.837358,25171.372315,27489.382325,24606.297863,-0.076000,0.984000,0.106000,192.000000,0.000000,0.000000,0.000000,0.000000,0.000000,0.000000,0.000000,0.000000,0.000000,1647154371.875420,0.000000
54.000000,37007.157446,35012.465419,18797.258293,-4938.193254,25373.923823,25180.536530,27502.569855,24618.457212,-0.076000,0.984000,0.106000,192.000000,0.000000,0.000000,0.000000,0.000000,0.000000,0.000000,0.000000,0.000000,0.000000,1647154371.882491,0.000000
55.000000,37011.985423,35015.080573,18801.415718,-4934.460513,25379.511759,25184.291623,27500.446439,24626.548544,-0.076000,0.984000,0.106000,192.000000,0.000000,0.000000,0.000000,0.000000,0.000000,0.000000,0.000000,0.000000,0.000000,1647154371.889591,0.000000
56.000000,37008.096219,35009.716154,18798.621750,-4937.813275,25377.187178,25184.291623,27502.659262,24624.939218,-0.076000,0.984000,0.106000,192.000000,0.000000,0.000000,0.000000,0.000000,0.000000,0.000000,0.000000,0.000000,0.000000,1647154371.889595,0.000000
57.000000,37011.337222,35013.225378,18801.795697,-4932.381801,25380.919919,25189.432524,27518.260779,24627.397910,-0.076000,0.984000,0.106000,192.000000,0.000000,0.000000,0.000000,0.000000,0.000000,0.000000,0.000000,0.000000,0.000000,1647154371.897056,0.000000
58.000000,37010.666670,35012.241901,18799.560523,-4931.487731,25379.020021,25188.113771,27513.321044,24625.386253,-0.074000,0.978000,0.112000,192.000000,253.000000,176.000000,30.000000,144.000000,3.000000,128.000000,0.000000,0.000000,0.000000,1647154371.897061,0.000000
59.000000,37013.617100,35018.209817,18800.946331,-4932.627670,25380.159960,25188.963138,27511.689366,24624.179259,-0.074000,0.978000,0.112000,192.000000,0.000000,0.000000,0.000000,0.000000,0.000000,0.000000,0.000000,0.000000,0.000000,1647154371.905101,0.000000
60.000000,37011.448981,35021.204951,18799.091136,-4935.823969,25379.712925,25184.336327,27500.558198,24614.188029,-0.074000,0.978000,0.112000,192.000000,0.000000,0.000000,0.000000,0.000000,0.000000,0.000000,0.000000,0.000000,0.000000,1647154371.905105,0.000000
61.000000,37007.023335,35014.857056,18794.687843,-4935.309879,25376.918957,25180.313013,27499.194741,24613.316311,-0.074000,0.978000,0.112000,192.000000,0.000000,0.000000,0.000000,0.000000,0.000000,0.000000,0.000000,0.000000,0.000000,1647154371.913095,0.000000
62.000000,37010.644318,35012.040736,18798.152363,-4932.068876,25378.863559,25182.972870,27501.340509,24617.719605,-0.074000,0.978000,0.112000,192.000000,0.000000,0.000000,0.000000,0.000000,0.000000,0.000000,0.000000,0.000000,0.000000,1647154371.913099,0.000000
63.000000,37011.538388,35011.951329,18800.141668,-4932.493559,25377.991841,25181.184731,27500.826418,24605.023814,-0.074000,0.978000,0.112000,192.000000,0.000000,0.000000,0.000000,0.000000,0.000000,0.000000,0.000000,0.000000,0.000000,1647154371.919697,0.000000
64.000000,37011.739553,35015.684070,18804.142631,-4931.264213,25381.881044,25187.309109,27507.800163,24613.919808,-0.074000,0.978000,0.112000,192.000000,0.000000,0.000000,0.000000,0.000000,0.000000,0.000000,0.000000,0.000000,0.000000,1647154371.919702,0.000000
65.000000,37010.420800,35019.215646,18802.645064,-4932.962946,25380.942271,25187.711440,27505.855561,24625.989750,-0.074000,0.978000,0.112000,192.000000,0.000000,0.000000,0.000000,0.000000,0.000000,0.000000,0.000000,0.000000,0.000000,1647154371.927692,0.000000
66.000000,37009.794952,35017.539265,18803.092099,-4931.800655,25380.405829,25191.868865,27512.672843,24632.024721,-0.074000,0.978000,0.112000,192.000000,0.000000,0.000000,0.000000,0.000000,0.000000,0.000000,0.000000,0.000000,0.000000,1647154371.927725,0.000000
67.000000,37013.304176,35013.583006,18804.276741,-4931.778304,25382.015155,25195.355737,27519.356015,24633.879916,-0.074000,0.978000,0.112000,192.000000,0.000000,0.000000,0.000000,0.000000,0.000000,0.000000,0.000000,0.000000,0.000000,1647154371.935690,0.000000
68.000000,37002.687097,35003.189445,18793.033814,-4942.775362,25370.191082,25184.023402,27503.486276,24619.954779,-0.072000,0.982000,0.108000,192.000000,253.000000,192.000000,30.000000,176.000000,3.000000,96.000000,0.000000,0.000000,0.000000,1647154371.935693,0.000000
69.000000,37002.754152,35009.760858,18793.503200,-4939.735525,25373.767361,25182.682298,27498.211264,24617.205515,-0.072000,0.982000,0.108000,192.000000,0.000000,0.000000,0.000000,0.000000,0.000000,0.000000,0.000000,0.000000,0.000000,1647154371.941920,0.000000
70.000000,37011.918367,35018.522742,18802.578008,-4930.191330,25384.563253,25190.080725,27508.202494,24627.777890,-0.072000,0.982000,0.108000,192.000000,0.000000,0.000000,0.000000,0.000000,0.000000,0.000000,0.000000,0.000000,0.000000,1647154371.949306,0.000000
71.000000,37016.098144,35024.423602,18806.981302,-4925.117484,25390.084134,25191.488885,27506.548465,24624.112204,-0.072000,0.982000,0.108000,192.000000,0.000000,0.000000,0.000000,0.000000,0.000000,0.000000,0.000000,0.000000,0.000000,1647154371.949310,0.000000
72.000000,37020.926120,35028.603378,18812.144555,-4924.066952,25393.727469,25193.679356,27510.214151,24620.357111,-0.072000,0.982000,0.108000,192.000000,0.000000,0.000000,0.000000,0.000000,0.000000,0.000000,0.000000,0.000000,0.000000,1647154371.957474,0.000000
73.000000,37009.973766,35020.512047,18801.616883,-4933.678202,25383.713887,25188.426696,27514.058651,24612.690462,-0.072000,0.982000,0.108000,192.000000,0.000000,0.000000,0.000000,0.000000,0.000000,0.000000,0.000000,0.000000,0.000000,1647154371.957478,0.000000
74.000000,37007.313908,35014.521779,18798.666453,-4930.951289,25383.445666,25186.705612,27506.481410,24622.704044,-0.072000,0.982000,0.108000,192.000000,0.000000,0.000000,0.000000,0.000000,0.000000,0.000000,0.000000,0.000000,0.000000,1647154371.965370,0.000000
75.000000,37012.208940,35014.767649,18804.679072,-4924.469283,25388.564216,25191.153609,27516.629102,24624.156907,-0.072000,0.982000,0.108000,192.000000,0.000000,0.000000,0.000000,0.000000,0.000000,0.000000,0.000000,0.000000,0.000000,1647154371.965374,0.000000
76.000000,37013.393583,35017.539265,18807.875372,-4922.524681,25390.218245,25192.584120,27517.456116,24623.128727,-0.072000,0.982000,0.108000,192.000000,0.000000,0.000000,0.000000,0.000000,0.000000,0.000000,0.000000,0.000000,0.000000,1647154371.971965,0.000000
77.000000,37014.645280,35023.216608,18809.216477,-4921.228280,25392.676937,25191.399478,27510.236503,24617.898419,-0.072000,0.982000,0.108000,192.000000,0.000000,0.000000,0.000000,0.000000,0.000000,0.000000,0.000000,0.000000,0.000000,1647154371.971969,0.000000
78.000000,37012.320699,35024.222436,18805.707253,-4926.525644,25387.401925,25185.811542,27507.397831,24618.680730,-0.072000,0.982000,0.108000,192.000000,0.000000,0.000000,0.000000,0.000000,0.000000,0.000000,0.000000,0.000000,0.000000,1647154371.979994,0.000000
79.000000,37010.689021,35021.182599,18805.483735,-4928.872577,25386.440800,25183.889292,27510.929407,24607.616616,-0.074000,0.978000,0.110000,192.000000,253.000000,176.000000,30.000000,144.000000,3.000000,112.000000,0.000000,0.000000,0.000000,1647154371.979998,0.000000
80.000000,37005.682231,35009.425582,18799.068785,-4933.901719,25381.590471,25178.368411,27503.441573,24596.686613,-0.074000,0.978000,0.110000,192.000000,0.000000,0.000000,0.000000,0.000000,0.000000,0.000000,0.000000,0.000000,0.000000,1647154371.988094,0.000000
81.000000,37013.572396,35015.281739,18804.880238,-4926.145664,25388.474809,25187.152646,27509.163619,24629.700140,-0.074000,0.978000,0.110000,192.000000,0.000000,0.000000,0.000000,0.000000,0.000000,0.000000,0.000000,0.000000,0.000000,1647154371.988123,0.000000
82.000000,37002.955318,35006.452800,18794.151401,-4938.282661,25378.550634,25182.101152,27503.575683,24631.555335,-0.074000,0.978000,0.110000,192.000000,0.000000,0.000000,0.000000,0.000000,0.000000,0.000000,0.000000,0.000000,0.000000,1647154371.995454,0.000000
83.000000,36997.680306,35004.552901,18787.602340,-4941.501312,25371.308669,25172.445199,27489.471732,24615.886762,-0.074000,0.978000,0.110000,192.000000,0.000000,0.000000,0.000000,0.000000,0.000000,0.000000,0.000000,0.000000,0.000000,1647154371.995462,0.000000
84.000000,37012.924196,35019.372108,18805.237866,-4924.245766,25386.910187,25182.838760,27506.324948,24614.970340,-0.074000,0.978000,0.110000,192.000000,0.000000,0.000000,0.000000,0.000000,0.000000,0.000000,0.000000,0.000000,0.000000,1647154372.001797,0.000000
85.000000,37013.997080,35017.159285,18806.489564,-4929.856054,25386.485503,25185.498617,27510.594131,24620.200648,-0.074000,0.978000,0.110000,192.000000,0.000000,0.000000,0.000000,0.000000,0.000000,0.000000,0.000000,0.000000,0.000000,1647154372.010029,0.000000
86.000000,37005.391658,35014.208855,18801.058090,-4934.974603,25381.232844,25182.123504,27504.916788,24629.923657,-0.074000,0.978000,0.110000,192.000000,0.000000,0.000000,0.000000,0.000000,0.000000,0.000000,0.000000,0.000000,0.000000,1647154372.010046,0.000000
87.000000,37012.499513,35024.915341,18807.383634,-4927.620879,25388.407754,25187.152646,27514.416279,24630.527154,-0.074000,0.978000,0.110000,192.000000,0.000000,0.000000,0.000000,0.000000,0.000000,0.000000,0.000000,0.000000,0.000000,1647154372.018062,0.000000
88.000000,37012.834789,35018.433335,18805.796660,-4931.264213,25385.971413,25183.129332,27511.667015,24624.134555,-0.074000,0.978000,0.110000,192.000000,0.000000,0.000000,0.000000,0.000000,0.000000,0.000000,0.000000,0.000000,0.000000,1647154372.018078,0.000000
89.000000,37014.913501,35019.707384,18808.210648,-4931.107751,25386.865483,25180.491827,27511.376442,24622.882858,-0.074000,0.980000,0.110000,192.000000,253.000000,176.000000,30.000000,160.000000,3.000000,112.000000,0.000000,0.000000,0.000000,1647154372.025159,0.000000
90.000000,37014.846446,35023.954216,18810.535230,-4930.101923,25390.061783,25180.715344,27509.253026,24626.325026,-0.074000,0.980000,0.110000,192.000000,0.000000,0.000000,0.000000,0.000000,0.000000,0.000000,0.000000,0.000000,0.000000,1647154372.025176,0.000000
91.000000,37011.426629,35022.054317,18808.121241,-4929.274908,25387.737201,25177.474341,27500.111163,24623.665169,-0.074000,0.980000,0.110000,192.000000,0.000000,0.000000,0.000000,0.000000,0.000000,0.000000,0.000000,0.000000,0.000000,1647154372.032571,0.000000
92.000000,37008.073867,35015.974643,18799.851096,-4931.621841,25381.590471,25168.578347,27497.853636,24614.925637,-0.074000,0.980000,0.110000,192.000000,0.000000,0.000000,0.000000,0.000000,0.000000,0.000000,0.000000,0.000000,0.000000,1647154372.032588,0.000000
93.000000,37014.757039,35024.937692,18805.662549,-4922.301164,25386.776076,25172.758123,27513.186933,24616.512610,-0.074000,0.980000,0.110000,192.000000,0.000000,0.000000,0.000000,0.000000,0.000000,0.000000,0.000000,0.000000,0.000000,1647154372.040662,0.000000
94.000000,37012.275995,35018.142762,18804.991997,-4926.503292,25383.512721,25171.349963,27510.549427,24620.200648,-0.074000,0.980000,0.110000,192.000000,0.000000,0.000000,0.000000,0.000000,0.000000,0.000000,0.000000,0.000000,0.000000,1647154372.040679,0.000000
95.000000,37003.603518,34996.081590,18802.086270,-4937.612109,25379.042373,25170.657059,27506.459058,24612.310483,-0.074000,0.980000,0.110000,192.000000,0.000000,0.000000,0.000000,0.000000,0.000000,0.000000,0.000000,0.000000,0.000000,1647154372.048684,0.000000
96.000000,36997.345030,34988.213776,18799.560523,-4940.339022,25377.187178,25169.606527,27506.056727,24613.808049,-0.074000,0.980000,0.110000,192.000000,0.000000,0.000000,0.000000,0.000000,0.000000,0.000000,0.000000,0.000000,0.000000,1647154372.048700,0.000000
97.000000,36995.199263,34993.824064,18795.604264,-4939.847283,25374.549672,25167.460760,27511.689366,24611.975206,-0.074000,0.980000,0.110000,192.000000,0.000000,0.000000,0.000000,0.000000,0.000000,0.000000,0.000000,0.000000,0.000000,1647154372.055174,0.000000
98.000000,37005.145789,35004.262329,18806.266046,-4929.163149,25385.859655,25177.697859,27521.144154,24625.676826,-0.074000,0.980000,0.110000,192.000000,0.000000,0.000000,0.000000,0.000000,0.000000,0.000000,0.000000,0.000000,0.000000,1647154372.055190,0.000000
99.000000,36999.490797,34996.394515,18801.996863,-4936.874501,25380.830512,25170.813521,27517.322006,24621.698215,-0.074000,0.974000,0.104000,192.000000,253.000000,176.000000,30.000000,112.000000,3.000000,64.000000,0.000000,0.000000,0.000000,1647154372.062316,0.000000
100.000000,37002.821207,35001.267195,18805.930770,-4933.879368,25383.400963,25171.573481,27518.149020,24615.484430,-0.074000,0.974000,0.104000,192.000000,0.000000,0.000000,0.000000,0.000000,0.000000,0.000000,0.000000,0.000000,0.000000,1647154372.062332,0.000000
101.000000,36999.669611,35003.234148,18804.299093,-4936.606280,25381.992803,25170.701763,27516.070308,24605.426145,-0.074000,0.974000,0.104000,192.000000,0.000000,0.000000,0.000000,0.000000,0.000000,0.000000,0.000000,0.000000,0.000000,1647154372.070322,0.000000
102.000000,36993.478178,34996.148645,18796.096003,-4944.004708,25375.019059,25165.560861,27509.364785,24612.869276,-0.074000,0.974000,0.104000,192.000000,0.000000,0.000000,0.000000,0.000000,0.000000,0.000000,0.000000,0.000000,0.000000,1647154372.077505,0.000000
103.000000,36997.568547,34994.584023,18797.995901,-4943.870597,25376.851902,25169.047733,27507.934273,24627.397910,-0.074000,0.974000,0.104000,192.000000,0.000000,0.000000,0.000000,0.000000,0.000000,0.000000,0.000000,0.000000,0.000000,1647154372.077522,0.000000
104.000000,37007.470370,35004.865826,18809.082366,-4928.134969,25389.860617,25178.860149,27516.562047,24633.969323,-0.074000,0.974000,0.104000,192.000000,0.000000,0.000000,0.000000,0.000000,0.000000,0.000000,0.000000,0.000000,0.000000,1647154372.084913,0.000000
105.000000,37009.526731,35004.865826,18810.915209,-4922.122350,25393.101620,25179.284832,27519.847753,24632.762329,-0.074000,0.974000,0.104000,192.000000,0.000000,0.000000,0.000000,0.000000,0.000000,0.000000,0.000000,0.000000,0.000000,1647154372.084930,0.000000
106.000000,37014.019431,35012.867750,18818.827727,-4918.255498,25401.215303,25185.968004,27524.832192,24634.908096,-0.074000,0.974000,0.104000,192.000000,0.000000,0.000000,0.000000,0.000000,0.000000,0.000000,0.000000,0.000000,0.000000,1647154372.092947,0.000000
107.000000,37002.396524,35004.351736,18806.266046,-4934.728734,25388.765381,25168.578347,27508.694233,24602.296901,-0.074000,0.974000,0.104000,192.000000,0.000000,0.000000,0.000000,0.000000,0.000000,0.000000,0.000000,0.000000,0.000000,1647154372.092964,0.000000
108.000000,37006.397486,35005.849303,18809.350587,-4929.811350,25391.492294,25170.701763,27509.498895,24606.007291,-0.074000,0.974000,0.104000,192.000000,0.000000,0.000000,0.000000,0.000000,0.000000,0.000000,0.000000,0.000000,0.000000,1647154372.100930,0.000000
109.000000,37003.670574,35002.742410,18806.802488,-4928.649059,25390.151190,25171.282908,27512.449326,24614.590360,-0.078000,0.972000,0.106000,192.000000,253.000000,144.000000,30.000000,96.000000,3.000000,80.000000,0.000000,0.000000,0.000000,1647154372.100946,0.000000
110.000000,36998.395562,34996.908605,18803.293264,-4931.398324,25386.396097,25171.372315,27513.432802,24619.172468,-0.078000,0.972000,0.106000,192.000000,0.000000,0.000000,0.000000,0.000000,0.000000,0.000000,0.000000,0.000000,0.000000,1647154372.107580,0.000000
111.000000,37002.620042,34999.300241,18803.494430,-4931.130103,25386.574910,25171.953460,27504.961491,24628.135518,-0.078000,0.972000,0.106000,192.000000,0.000000,0.000000,0.000000,0.000000,0.000000,0.000000,0.000000,0.000000,0.000000,1647154372.107596,0.000000
112.000000,37001.837731,34999.613166,18800.923979,-4931.688897,25384.272681,25169.986507,27508.940102,24618.613674,-0.078000,0.972000,0.106000,192.000000,0.000000,0.000000,0.000000,0.000000,0.000000,0.000000,0.000000,0.000000,0.000000,1647154372.115591,0.000000
113.000000,36996.182739,34993.645250,18795.090174,-4939.064972,25377.388343,25164.689143,27498.770058,24615.126802,-0.078000,0.972000,0.106000,192.000000,0.000000,0.000000,0.000000,0.000000,0.000000,0.000000,0.000000,0.000000,0.000000,1647154372.115608,0.000000
114.000000,37001.547158,34998.272061,18803.583837,-4930.481902,25385.814951,25176.870844,27516.517343,24628.113166,-0.078000,0.972000,0.106000,192.000000,0.000000,0.000000,0.000000,0.000000,0.000000,0.000000,0.000000,0.000000,0.000000,1647154372.123578,0.000000
115.000000,36999.177873,34996.439218,18803.293264,-4933.432333,25388.318347,25179.418943,27519.557180,24629.498974,-0.078000,0.972000,0.106000,192.000000,0.000000,0.000000,0.000000,0.000000,0.000000,0.000000,0.000000,0.000000,0.000000,1647154372.123594,0.000000
116.000000,36999.155521,34997.959137,18803.136802,-4935.443990,25388.072477,25172.892233,27504.156828,24622.793451,-0.078000,0.972000,0.106000,192.000000,0.000000,0.000000,0.000000,0.000000,0.000000,0.000000,0.000000,0.000000,0.000000,1647154372.130536,0.000000
117.000000,36991.824149,34988.370238,18801.929808,-4939.243786,25385.859655,25170.522949,27507.688404,24611.595227,-0.078000,0.972000,0.106000,192.000000,0.000000,0.000000,0.000000,0.000000,0.000000,0.000000,0.000000,0.000000,0.000000,1647154372.137267,0.000000
118.000000,36981.609402,34981.284735,18798.577046,-4940.942519,25383.199797,25170.165321,27509.208323,24612.355186,-0.078000,0.972000,0.106000,192.000000,0.000000,0.000000,0.000000,0.000000,0.000000,0.000000,0.000000,0.000000,0.000000,1647154372.137283,0.000000
119.000000,36982.056437,34981.776474,18803.226209,-4938.327365,25386.753724,25173.428675,27510.728241,24612.824573,-0.072000,0.968000,0.110000,192.000000,253.000000,192.000000,30.000000,64.000000,3.000000,112.000000,0.000000,0.000000,0.000000,1647154372.145115,0.000000
120.000000,36979.128358,34977.663753,18803.315616,-4939.087324,25386.530207,25174.970946,27509.767116,24613.651587,-0.072000,0.968000,0.110000,192.000000,0.000000,0.000000,0.000000,0.000000,0.000000,0.000000,0.000000,0.000000,0.000000,1647154372.145132,0.000000
121.000000,36960.799928,34956.474299,18788.027023,-4953.794772,25372.336849,25165.426751,27498.278320,24610.544695,-0.072000,0.968000,0.110000,192.000000,0.000000,0.000000,0.000000,0.000000,0.000000,0.000000,0.000000,0.000000,0.000000,1647154372.153213,0.000000
122.000000,36963.593896,34962.308104,18793.883180,-4947.648042,25379.690573,25177.429638,27515.712680,24620.826497,-0.072000,0.968000,0.110000,192.000000,0.000000,0.000000,0.000000,0.000000,0.000000,0.000000,0.000000,0.000000,0.000000,1647154372.153229,0.000000
123.000000,36954.832012,34956.027264,18790.217494,-4949.391478,25376.851902,25178.860149,27520.540657,24626.123861,-0.072000,0.968000,0.110000,192.000000,0.000000,0.000000,0.000000,0.000000,0.000000,0.000000,0.000000,0.000000,0.000000,1647154372.159545,0.000000
124.000000,36942.471497,34941.655092,18780.539188,-4957.683975,25367.598279,25172.556957,27511.845829,24618.904247,-0.072000,0.968000,0.110000,192.000000,0.000000,0.000000,0.000000,0.000000,0.000000,0.000000,0.000000,0.000000,0.000000,1647154372.159556,0.000000
125.000000,36923.450163,34923.125496,18766.077610,-4970.960912,25354.008419,25160.978754,27500.401735,24606.655491,-0.072000,0.968000,0.110000,192.000000,0.000000,0.000000,0.000000,0.000000,0.000000,0.000000,0.000000,0.000000,0.000000,1647154372.167886,0.000000
126.000000,36911.782552,34913.491894,18759.170921,-4976.638255,25347.884041,25159.995277,27500.535846,24610.634102,-0.072000,0.968000,0.110000,192.000000,0.000000,0.000000,0.000000,0.000000,0.000000,0.000000,0.000000,0.000000,0.000000,1647154372.167902,0.000000
127.000000,36908.161570,34910.005022,18760.824950,-4973.844287,25350.052160,25169.718286,27509.275378,24619.060709,-0.072000,0.968000,0.110000,192.000000,0.000000,0.000000,0.000000,0.000000,0.000000,0.000000,0.000000,0.000000,0.000000,1647154372.175838,0.000000
128.000000,36890.950726,34890.469598,18753.582985,-4985.064862,25343.145471,25166.678449,27504.223884,24605.046166,-0.072000,0.968000,0.110000,192.000000,0.000000,0.000000,0.000000,0.000000,0.000000,0.000000,0.000000,0.000000,0.000000,1647154372.175854,0.000000
129.000000,36887.933241,34886.513339,18756.645174,-4977.711138,25348.733407,25175.976774,27512.650491,24617.317273,-0.082000,0.978000,0.104000,192.000000,253.000000,112.000000,30.000000,144.000000,3.000000,64.000000,0.000000,0.000000,0.000000,1647154372.182895,0.000000
130.000000,36876.600906,34876.387999,18752.465397,-4983.634351,25345.179480,25176.468513,27517.858448,24623.978093,-0.082000,0.978000,0.104000,192.000000,0.000000,0.000000,0.000000,0.000000,0.000000,0.000000,0.000000,0.000000,0.000000,1647154372.182911,0.000000
131.000000,36857.780738,34860.406501,18743.591755,-4995.123147,25334.651808,25172.735771,27514.997424,24626.347378,-0.082000,0.978000,0.104000,192.000000,0.000000,0.000000,0.000000,0.000000,0.000000,0.000000,0.000000,0.000000,0.000000,1647154372.189493,0.000000
132.000000,36853.444499,34852.806908,18739.903717,-4998.520613,25331.097881,25173.361620,27513.633968,24628.962532,-0.082000,0.978000,0.104000,192.000000,0.000000,0.000000,0.000000,0.000000,0.000000,0.000000,0.000000,0.000000,0.000000,1647154372.197531,0.000000
133.000000,36848.616522,34846.838992,18739.166109,-5000.062883,25330.181459,25171.931108,27514.684500,24621.027663,-0.082000,0.978000,0.104000,192.000000,0.000000,0.000000,0.000000,0.000000,0.000000,0.000000,0.000000,0.000000,0.000000,1647154372.197547,0.000000
134.000000,36840.614598,34840.424042,18739.657848,-5001.605153,25328.996817,25170.098265,27510.795297,24619.306579,-0.082000,0.978000,0.104000,192.000000,0.000000,0.000000,0.000000,0.000000,0.000000,0.000000,0.000000,0.000000,0.000000,1647154372.205417,0.000000
135.000000,36840.324025,34843.374472,18739.970772,-5000.353456,25330.963770,25173.965117,27511.845829,24625.498012,-0.082000,0.978000,0.104000,192.000000,0.000000,0.000000,0.000000,0.000000,0.000000,0.000000,0.000000,0.000000,0.000000,1647154372.205434,0.000000
136.000000,36828.768173,34830.164591,18729.510156,-5006.142557,25324.392357,25165.292640,27501.631081,24618.524267,-0.082000,0.978000,0.104000,192.000000,0.000000,0.000000,0.000000,0.000000,0.000000,0.000000,0.000000,0.000000,0.000000,1647154372.212454,0.000000
137.000000,36828.879932,34825.001338,18729.778377,-5003.482700,25326.940456,25167.036076,27504.514456,24616.378500,-0.082000,0.978000,0.104000,192.000000,0.000000,0.000000,0.000000,0.000000,0.000000,0.000000,0.000000,0.000000,0.000000,1647154372.212471,0.000000
138.000000,36822.509685,34813.087858,18725.933877,-5011.574031,25320.190229,25165.784379,27506.302596,24610.187067,-0.082000,0.978000,0.104000,192.000000,0.000000,0.000000,0.000000,0.000000,0.000000,0.000000,0.000000,0.000000,0.000000,1647154372.220151,0.000000
139.000000,36830.601016,34822.252074,18732.170013,-5007.304848,25325.062910,25170.075914,27505.363823,24612.265779,-0.084000,0.980000,0.098000,192.000000,253.000000,96.000000,30.000000,160.000000,3.000000,16.000000,0.000000,0.000000,0.000000,1647154372.220168,0.000000
140.000000,36844.146173,34836.713652,18739.501386,-4999.682903,25333.355407,25172.333440,27502.703965,24609.091831,-0.084000,0.980000,0.098000,192.000000,0.000000,0.000000,0.000000,0.000000,0.000000,0.000000,0.000000,0.000000,0.000000,1647154372.228153,0.000000
141.000000,36856.149060,34845.766109,18745.134025,-4994.050264,25338.093977,25180.000088,27512.874009,24613.629235,-0.084000,0.980000,0.098000,192.000000,0.000000,0.000000,0.000000,0.000000,0.000000,0.000000,0.000000,0.000000,0.000000,1647154372.228169,0.000000
142.000000,36869.291886,34862.149937,18748.106807,-4990.004598,25340.597372,25177.630803,27505.587340,24603.928578,-0.084000,0.980000,0.098000,192.000000,0.000000,0.000000,0.000000,0.000000,0.000000,0.000000,0.000000,0.000000,0.000000,1647154372.236166,0.000000
143.000000,36877.718494,34873.526975,18750.610203,-4985.802470,25343.905430,25176.535568,27505.900264,24622.435823,-0.084000,0.980000,0.098000,192.000000,0.000000,0.000000,0.000000,0.000000,0.000000,0.000000,0.000000,0.000000,0.000000,1647154372.236182,0.000000
144.000000,36888.112055,34884.389923,18759.774418,-4974.246618,25353.986067,25185.722135,27523.513439,24634.952800,-0.084000,0.980000,0.098000,192.000000,0.000000,0.000000,0.000000,0.000000,0.000000,0.000000,0.000000,0.000000,0.000000,1647154372.242743,0.000000
145.000000,36894.862282,34892.972993,18761.361392,-4969.999787,25354.522509,25184.872769,27524.943951,24621.653512,-0.084000,0.980000,0.098000,192.000000,0.000000,0.000000,0.000000,0.000000,0.000000,0.000000,0.000000,0.000000,0.000000,1647154372.242759,0.000000
146.000000,36903.847683,34904.238272,18763.149531,-4968.390461,25355.796558,25180.156550,27515.243294,24622.145250,-0.084000,0.980000,0.098000,192.000000,0.000000,0.000000,0.000000,0.000000,0.000000,0.000000,0.000000,0.000000,0.000000,1647154372.249668,0.000000
147.000000,36914.107134,34914.721240,18769.005688,-4963.093098,25360.199852,25179.441295,27516.249122,24623.799279,-0.084000,0.980000,0.098000,192.000000,0.000000,0.000000,0.000000,0.000000,0.000000,0.000000,0.000000,0.000000,0.000000,1647154372.257589,0.000000
148.000000,36913.928320,34918.476333,18764.423581,-4969.396290,25355.662448,25170.813521,27508.023680,24616.467907,-0.084000,0.980000,0.098000,192.000000,0.000000,0.000000,0.000000,0.000000,0.000000,0.000000,0.000000,0.000000,0.000000,1647154372.257604,0.000000
149.000000,36920.589140,34924.108973,18764.647098,-4969.798621,25356.377704,25168.935975,27507.219017,24619.820669,-0.074000,0.980000,0.098000,192.000000,253.000000,176.000000,30.000000,160.000000,3.000000,16.000000,0.000000,0.000000,0.000000,1647154372.264851,0.000000
150.000000,36925.171247,34924.667767,18767.508121,-4964.881237,25360.043390,25169.472417,27505.296767,24619.172468,-0.074000,0.980000,0.098000,192.000000,0.000000,0.000000,0.000000,0.000000,0.000000,0.000000,0.000000,0.000000,0.000000,1647154372.264868,0.000000
151.000000,36943.946712,34942.415052,18784.182523,-4946.150475,25376.069591,25184.962175,27518.864276,24633.768157,-0.074000,0.980000,0.098000,192.000000,0.000000,0.000000,0.000000,0.000000,0.000000,0.000000,0.000000,0.000000,0.000000,1647154372.272239,0.000000
152.000000,36947.634750,34947.980636,18782.483790,-4947.469228,25372.873291,25182.011745,27519.333663,24627.353207,-0.074000,0.980000,0.098000,192.000000,0.000000,0.000000,0.000000,0.000000,0.000000,0.000000,0.000000,0.000000,0.000000,1647154372.272256,0.000000
153.000000,36948.484117,34952.585095,18777.834627,-4950.665528,25366.301878,25174.546263,27516.025605,24612.891628,-0.074000,0.980000,0.098000,192.000000,0.000000,0.000000,0.000000,0.000000,0.000000,0.000000,0.000000,0.000000,0.000000,1647154372.280435,0.000000
154.000000,36944.729024,34947.623008,18769.050392,-4959.986205,25357.204718,25164.175053,27503.754497,24608.868314,-0.074000,0.980000,0.098000,192.000000,0.000000,0.000000,0.000000,0.000000,0.000000,0.000000,0.000000,0.000000,0.000000,1647154372.280451,0.000000
155.000000,36952.663893,34949.992293,18771.732601,-4960.433240,25359.372837,25166.812559,27504.246235,24608.868314,-0.074000,0.980000,0.098000,192.000000,0.000000,0.000000,0.000000,0.000000,0.000000,0.000000,0.000000,0.000000,0.000000,1647154372.288407,0.000000
156.000000,36955.323750,34955.624933,18771.754953,-4961.260255,25360.356314,25167.036076,27502.547503,24618.233695,-0.074000,0.980000,0.098000,192.000000,0.000000,0.000000,0.000000,0.000000,0.000000,0.000000,0.000000,0.000000,0.000000,1647154372.288423,0.000000
157.000000,36964.733835,34969.214793,18780.293319,-4951.649004,25367.397114,25172.266385,27510.325910,24623.419300,-0.074000,0.980000,0.098000,192.000000,0.000000,0.000000,0.000000,0.000000,0.000000,0.000000,0.000000,0.000000,0.000000,1647154372.295072,0.000000
158.000000,36963.638599,34965.258535,18776.158247,-4955.940539,25361.295087,25166.186710,27504.827381,24606.789602,-0.074000,0.980000,0.098000,192.000000,0.000000,0.000000,0.000000,0.000000,0.000000,0.000000,0.000000,0.000000,0.000000,1647154372.295088,0.000000
159.000000,36964.063282,34968.991276,18776.940558,-4953.794772,25362.926765,25172.847530,27505.676747,24615.238561,-0.072000,0.986000,0.096000,192.000000,253.000000,192.000000,30.000000,208.000000,3.000000,0.000000,0.000000,0.000000,0.000000,1647154372.302961,0.000000
160.000000,36977.027294,34984.659849,18790.284549,-4942.462437,25376.471922,25190.214835,27522.462907,24633.991675,-0.072000,0.986000,0.096000,192.000000,0.000000,0.000000,0.000000,0.000000,0.000000,0.000000,0.000000,0.000000,0.000000,1647154372.302978,0.000000
161.000000,36979.463634,34986.626802,18788.272892,-4944.250577,25375.242576,25188.136123,27523.871067,24633.499936,-0.072000,0.986000,0.096000,192.000000,0.000000,0.000000,0.000000,0.000000,0.000000,0.000000,0.000000,0.000000,0.000000,1647154372.310094,0.000000
162.000000,36976.557908,34979.831872,18782.148514,-4951.850170,25369.542881,25176.289699,27511.421145,24618.524267,-0.072000,0.986000,0.096000,192.000000,0.000000,0.000000,0.000000,0.000000,0.000000,0.000000,0.000000,0.000000,0.000000,1647154372.310111,0.000000
163.000000,36981.877623,34985.442160,18787.289415,-4946.664565,25374.840245,25178.368411,27517.769041,24615.596189,-0.072000,0.986000,0.096000,192.000000,0.000000,0.000000,0.000000,0.000000,0.000000,0.000000,0.000000,0.000000,0.000000,1647154372.318086,0.000000
164.000000,36991.287707,34995.366334,18796.498334,-4936.896853,25383.803294,25188.381992,27531.045977,24630.638913,-0.072000,0.986000,0.096000,192.000000,0.000000,0.000000,0.000000,0.000000,0.000000,0.000000,0.000000,0.000000,0.000000,1647154372.324681,0.000000
165.000000,36985.364495,34990.985392,18789.457534,-4943.289452,25377.634213,25179.396591,27518.126669,24622.681692,-0.072000,0.986000,0.096000,192.000000,0.000000,0.000000,0.000000,0.000000,0.000000,0.000000,0.000000,0.000000,0.000000,1647154372.324698,0.000000
166.000000,36980.536518,34989.219605,18781.254444,-4949.033850,25370.593413,25175.686202,27516.517343,24628.984884,-0.072000,0.986000,0.096000,192.000000,0.000000,0.000000,0.000000,0.000000,0.000000,0.000000,0.000000,0.000000,0.000000,1647154372.332713,0.000000
167.000000,36989.611326,34999.993145,18788.384651,-4942.998879,25377.187178,25180.871806,27521.211209,24629.409567,-0.072000,0.986000,0.096000,192.000000,0.000000,0.000000,0.000000,0.000000,0.000000,0.000000,0.000000,0.000000,0.000000,1647154372.332729,0.000000
168.000000,36990.728914,34997.825026,18788.608168,-4942.149513,25377.835378,25176.490864,27510.929407,24622.033491,-0.072000,0.986000,0.096000,192.000000,0.000000,0.000000,0.000000,0.000000,0.000000,0.000000,0.000000,0.000000,0.000000,1647154372.340626,0.000000
169.000000,36994.416951,35000.462532,18790.798639,-4941.389554,25378.975317,25171.729943,27505.721451,24615.193858,-0.072000,0.986000,0.096000,192.000000,0.000000,0.000000,0.000000,0.000000,0.000000,0.000000,0.000000,0.000000,0.000000,1647154372.340642,0.000000
170.000000,36994.707524,34998.942613,18792.698537,-4941.367202,25380.405829,25170.478245,27510.616483,24615.283265,-0.078000,0.978000,0.098000,192.000000,253.000000,144.000000,30.000000,144.000000,3.000000,16.000000,0.000000,0.000000,0.000000,1647154372.347826,0.000000
171.000000,36998.395562,35001.088381,18796.386575,-4937.433295,25382.328079,25173.093399,27517.836096,24624.335721,-0.078000,0.978000,0.098000,192.000000,0.000000,0.000000,0.000000,0.000000,0.000000,0.000000,0.000000,0.000000,0.000000,1647154372.347843,0.000000
172.000000,37004.162312,35007.816256,18801.549828,-4934.505216,25384.250329,25172.668716,27515.332701,24614.612712,-0.078000,0.978000,0.098000,192.000000,0.000000,0.000000,0.000000,0.000000,0.000000,0.000000,0.000000,0.000000,0.000000,1647154372.355164,0.000000
173.000000,36997.993231,35004.016459,18795.961892,-4941.702478,25380.383477,25169.360658,27506.861390,24606.007291,-0.078000,0.978000,0.098000,192.000000,0.000000,0.000000,0.000000,0.000000,0.000000,0.000000,0.000000,0.000000,0.000000,1647154372.355180,0.000000
174.000000,36994.349896,35003.480018,18791.670357,-4943.848246,25376.851902,25165.046771,27493.360936,24601.961625,-0.078000,0.978000,0.098000,192.000000,0.000000,0.000000,0.000000,0.000000,0.000000,0.000000,0.000000,0.000000,0.000000,1647154372.363338,0.000000
175.000000,37009.414972,35015.505256,18805.148459,-4931.554786,25389.346527,25182.727001,27521.434727,24627.688483,-0.078000,0.978000,0.098000,192.000000,0.000000,0.000000,0.000000,0.000000,0.000000,0.000000,0.000000,0.000000,0.000000,1647154372.363354,0.000000
176.000000,37014.242949,35016.488733,18807.785965,-4929.431370,25390.598224,25191.243016,27534.175221,24642.038303,-0.078000,0.978000,0.098000,192.000000,0.000000,0.000000,0.000000,0.000000,0.000000,0.000000,0.000000,0.000000,0.000000,1647154372.370424,0.000000
177.000000,37009.705545,35012.308957,18802.555657,-4935.041658,25382.909224,25180.827103,27514.550390,24625.877991,-0.078000,0.978000,0.098000,192.000000,0.000000,0.000000,0.000000,0.000000,0.000000,0.000000,0.000000,0.000000,0.000000,1647154372.370440,0.000000
178.000000,37014.153542,35015.773477,18804.164982,-4930.794827,25386.306690,25182.369373,27513.209285,24616.378500,-0.078000,0.978000,0.098000,192.000000,0.000000,0.000000,0.000000,0.000000,0.000000,0.000000,0.000000,0.000000,0.000000,1647154372.376850,0.000000
179.000000,37007.492722,35010.744335,18797.571218,-4934.907548,25378.930614,25176.535568,27505.162657,24613.048090,-0.078000,0.978000,0.098000,192.000000,0.000000,0.000000,0.000000,0.000000,0.000000,0.000000,0.000000,0.000000,0.000000,1647154372.384979,0.000000
180.000000,37016.478123,35019.036832,18810.803450,-4926.883272,25388.452457,25186.482094,27513.388099,24617.496087,-0.072000,0.980000,0.096000,192.000000,253.000000,192.000000,30.000000,160.000000,3.000000,0.000000,0.000000,0.000000,0.000000,1647154372.384995,0.000000
181.000000,37014.712335,35019.997957,18808.054186,-4929.476074,25386.440800,25180.201254,27501.228750,24608.018948,-0.072000,0.980000,0.096000,192.000000,0.000000,0.000000,0.000000,0.000000,0.000000,0.000000,0.000000,0.000000,0.000000,1647154372.392913,0.000000
182.000000,37020.814362,35026.278797,18812.792756,-4926.682106,25393.571006,25181.005917,27496.221959,24606.744898,-0.072000,0.980000,0.096000,192.000000,0.000000,0.000000,0.000000,0.000000,0.000000,0.000000,0.000000,0.000000,0.000000,1647154372.392930,0.000000
183.000000,37017.930987,35022.031965,18811.295189,-4928.805522,25393.258082,25184.179864,27511.264683,24615.149154,-0.072000,0.980000,0.096000,192.000000,0.000000,0.000000,0.000000,0.000000,0.000000,0.000000,0.000000,0.000000,0.000000,1647154372.400171,0.000000
184.000000,37020.479086,35025.496486,18812.144555,-4924.581042,25395.046222,25184.492789,27515.578570,24617.831363,-0.072000,0.980000,0.096000,192.000000,0.000000,0.000000,0.000000,0.000000,0.000000,0.000000,0.000000,0.000000,0.000000,1647154372.400188,0.000000
185.000000,37020.926120,35022.568407,18811.429299,-4928.470245,25394.107448,25177.362582,27503.776849,24607.460154,-0.072000,0.980000,0.096000,192.000000,0.000000,0.000000,0.000000,0.000000,0.000000,0.000000,0.000000,0.000000,0.000000,1647154372.407634,0.000000
186.000000,37023.720088,35026.390556,18813.843288,-4924.357524,25397.527265,25181.207082,27507.062555,24614.433898,-0.072000,0.980000,0.096000,192.000000,0.000000,0.000000,0.000000,0.000000,0.000000,0.000000,0.000000,0.000000,0.000000,1647154372.407650,0.000000
187.000000,37021.730783,35023.462477,18810.512878,-4927.307955,25396.968472,25183.486960,27516.539695,24619.127765,-0.072000,0.980000,0.096000,192.000000,0.000000,0.000000,0.000000,0.000000,0.000000,0.000000,0.000000,0.000000,0.000000,1647154372.415542,0.000000
188.000000,37025.977615,35028.961006,18811.876334,-4927.263251,25399.494219,25182.168207,27513.991596,24600.106430,-0.072000,0.980000,0.096000,192.000000,0.000000,0.000000,0.000000,0.000000,0.000000,0.000000,0.000000,0.000000,0.000000,1647154372.415558,0.000000
189.000000,37022.177818,35028.513971,18806.981302,-4930.437199,25396.610844,25180.201254,27508.269549,24598.944139,-0.072000,0.980000,0.096000,192.000000,0.000000,0.000000,0.000000,0.000000,0.000000,0.000000,0.000000,0.000000,0.000000,1647154372.423287,0.000000
190.000000,37024.167123,35022.166076,18816.369035,-4929.431370,25399.427164,25184.224568,27509.096564,24615.998520,-0.078000,0.974000,0.096000,192.000000,253.000000,144.000000,30.000000,112.000000,3.000000,0.000000,0.000000,0.000000,0.000000,1647154372.423296,0.000000
191.000000,37023.317757,35019.573274,18816.212573,-4926.726809,25401.058841,25189.209007,27508.738936,24636.696236,-0.078000,0.974000,0.096000,192.000000,0.000000,0.000000,0.000000,0.000000,0.000000,0.000000,0.000000,0.000000,0.000000,1647154372.430150,0.000000
192.000000,37019.450905,35018.187465,18811.094023,-4928.492597,25397.661376,25182.570539,27504.402698,24623.039320,-0.078000,0.974000,0.096000,192.000000,0.000000,0.000000,0.000000,0.000000,0.000000,0.000000,0.000000,0.000000,0.000000,1647154372.430167,0.000000
193.000000,37024.569455,35024.870637,18811.697520,-4924.625745,25399.315405,25177.854321,27501.765192,24621.362939,-0.078000,0.974000,0.096000,192.000000,0.000000,0.000000,0.000000,0.000000,0.000000,0.000000,0.000000,0.000000,0.000000,1647154372.437238,0.000000
194.000000,37034.605388,35037.901704,18822.314599,-4912.376989,25412.234713,25193.679356,27523.222866,24634.505765,-0.078000,0.974000,0.096000,192.000000,0.000000,0.000000,0.000000,0.000000,0.000000,0.000000,0.000000,0.000000,0.000000,1647154372.445353,0.000000
195.000000,37027.765754,35032.023195,18815.318503,-4918.456664,25404.836286,25183.352850,27504.022718,24611.595227,-0.078000,0.974000,0.096000,192.000000,0.000000,0.000000,0.000000,0.000000,0.000000,0.000000,0.000000,0.000000,0.000000,1647154372.445369,0.000000
196.000000,37029.755059,35032.514934,18816.234924,-4916.623821,25404.880989,25185.632728,27511.644663,24623.151079,-0.078000,0.974000,0.096000,192.000000,0.000000,0.000000,0.000000,0.000000,0.000000,0.000000,0.000000,0.000000,0.000000,1647154372.453269,0.000000
197.000000,37029.039804,35032.202009,18815.653779,-4916.132082,25404.791582,25188.717269,27519.892457,24624.179259,-0.078000,0.974000,0.096000,192.000000,0.000000,0.000000,0.000000,0.000000,0.000000,0.000000,0.000000,0.000000,0.000000,1647154372.453286,0.000000
198.000000,37036.125307,35036.828820,18821.532288,-4912.376989,25410.491277,25191.377126,27518.350186,24624.268666,-0.078000,0.974000,0.096000,192.000000,0.000000,0.000000,0.000000,0.000000,0.000000,0.000000,0.000000,0.000000,0.000000,1647154372.459809,0.000000
199.000000,37030.470315,35029.899780,18815.586724,-4917.875519,25405.439783,25183.643423,27502.435744,24618.457212,-0.078000,0.974000,0.096000,192.000000,0.000000,0.000000,0.000000,0.000000,0.000000,0.000000,0.000000,0.000000,0.000000,1647154372.459826,0.000000
200.000000,37034.873609,35035.443012,18820.459404,-4913.136949,25412.212361,25189.544283,27505.408526,24621.877029,-0.078000,0.978000,0.094000,192.000000,253.000000,144.000000,30.000000,144.000000,2.000000,240.000000,0.000000,0.000000,0.000000,1647154372.467854,0.000000
201.000000,37030.269150,35031.307939,18814.893820,-4918.680181,25408.747841,25185.789190,27504.559160,24618.703081,-0.078000,0.978000,0.094000,192.000000,0.000000,0.000000,0.000000,0.000000,0.000000,0.000000,0.000000,0.000000,0.000000,1647154372.467870,0.000000
202.000000,37026.894036,35028.648082,18810.199953,-4921.630612,25404.702175,25184.179864,27508.537770,24615.037395,-0.078000,0.978000,0.094000,192.000000,0.000000,0.000000,0.000000,0.000000,0.000000,0.000000,0.000000,0.000000,0.000000,1647154372.475925,0.000000
203.000000,37032.101993,35033.140782,18814.715006,-4917.942574,25408.859600,25192.852341,27516.740861,24623.553410,-0.078000,0.978000,0.094000,192.000000,0.000000,0.000000,0.000000,0.000000,0.000000,0.000000,0.000000,0.000000,0.000000,1647154372.475942,0.000000
204.000000,37028.860990,35029.676262,18812.256314,-4921.183577,25404.724527,25190.684222,27516.025605,24622.346416,-0.078000,0.978000,0.094000,192.000000,0.000000,0.000000,0.000000,0.000000,0.000000,0.000000,0.000000,0.000000,0.000000,1647154372.482330,0.000000
205.000000,37016.567530,35018.008651,18798.845267,-4933.454684,25392.274605,25181.385896,27509.074212,24613.740994,-0.078000,0.978000,0.094000,192.000000,0.000000,0.000000,0.000000,0.000000,0.000000,0.000000,0.000000,0.000000,0.000000,1647154372.482346,0.000000
206.000000,37019.920292,35020.221474,18802.466250,-4930.168978,25395.180332,25185.073934,27509.744765,24616.423204,-0.078000,0.978000,0.094000,192.000000,0.000000,0.000000,0.000000,0.000000,0.000000,0.000000,0.000000,0.000000,0.000000,1647154372.490440,0.000000
207.000000,37023.764792,35023.529532,18809.238828,-4926.458588,25399.628329,25188.605510,27512.158753,24616.624369,-0.078000,0.978000,0.094000,192.000000,0.000000,0.000000,0.000000,0.000000,0.000000,0.000000,0.000000,0.000000,0.000000,1647154372.490456,0.000000
208.000000,37029.375080,35033.520762,18812.703349,-4922.994068,25404.501010,25189.030193,27508.180142,24620.625331,-0.078000,0.978000,0.094000,192.000000,0.000000,0.000000,0.000000,0.000000,0.000000,0.000000,0.000000,0.000000,0.000000,1647154372.497451,0.000000
209.000000,37033.979539,35041.008597,18813.776232,-4916.087379,25406.825591,25184.023402,27507.107259,24616.177334,-0.078000,0.978000,0.094000,192.000000,0.000000,0.000000,0.000000,0.000000,0.000000,0.000000,0.000000,0.000000,0.000000,1647154372.505396,0.000000
210.000000,37028.302196,35030.547980,18806.936599,-4925.273946,25397.683727,25176.066181,27501.988709,24598.050070,-0.072000,0.978000,0.098000,192.000000,253.000000,192.000000,30.000000,144.000000,3.000000,16.000000,0.000000,0.000000,0.000000,1647154372.505412,0.000000
211.000000,37032.191400,35027.776364,18814.469137,-4921.541205,25403.294015,25188.471399,27517.366709,24620.692387,-0.072000,0.978000,0.098000,192.000000,0.000000,0.000000,0.000000,0.000000,0.000000,0.000000,0.000000,0.000000,0.000000,1647154372.512094,0.000000
212.000000,37035.566513,35029.363338,18822.247544,-4916.176786,25409.440745,25194.685184,27520.853582,24627.576724,-0.072000,0.978000,0.098000,192.000000,0.000000,0.000000,0.000000,0.000000,0.000000,0.000000,0.000000,0.000000,0.000000,1647154372.512110,0.000000
213.000000,37033.890132,35026.658777,18818.403044,-4919.998934,25403.651643,25187.733792,27511.331738,24619.239523,-0.072000,0.978000,0.098000,192.000000,0.000000,0.000000,0.000000,0.000000,0.000000,0.000000,0.000000,0.000000,0.000000,1647154372.520125,0.000000
214.000000,37037.645225,35034.101908,18820.437052,-4917.204966,25405.685652,25186.169170,27504.693270,24602.855695,-0.072000,0.978000,0.098000,192.000000,0.000000,0.000000,0.000000,0.000000,0.000000,0.000000,0.000000,0.000000,0.000000,1647154372.520142,0.000000
215.000000,37030.984405,35030.972663,18816.972532,-4921.898833,25401.952911,25184.023402,27507.375480,24603.503895,-0.072000,0.978000,0.098000,192.000000,0.000000,0.000000,0.000000,0.000000,0.000000,0.000000,0.000000,0.000000,0.000000,1647154372.528152,0.000000
216.000000,37026.648167,35026.479963,18812.479831,-4927.687934,25396.186161,25186.683260,27516.494991,24628.381387,-0.072000,0.978000,0.098000,192.000000,0.000000,0.000000,0.000000,0.000000,0.000000,0.000000,0.000000,0.000000,0.000000,1647154372.528168,0.000000
217.000000,37023.518923,35024.758878,18804.276741,-4934.952251,25388.474809,25178.256652,27506.839038,24622.659340,-0.072000,0.978000,0.098000,192.000000,0.000000,0.000000,0.000000,0.000000,0.000000,0.000000,0.000000,0.000000,0.000000,1647154372.535028,0.000000
218.000000,37023.228350,35021.830800,18804.321445,-4934.192292,25387.692498,25170.835873,27499.932349,24602.408660,-0.072000,0.978000,0.098000,192.000000,0.000000,0.000000,0.000000,0.000000,0.000000,0.000000,0.000000,0.000000,0.000000,1647154372.535045,0.000000
219.000000,37031.766716,35027.686957,18814.335026,-4922.569385,25399.941254,25182.503484,27508.046032,24614.433898,-0.072000,0.978000,0.098000,192.000000,0.000000,0.000000,0.000000,0.000000,0.000000,0.000000,0.000000,0.000000,0.000000,1647154372.542552,0.000000
220.000000,37029.710356,35027.016405,18815.430262,-4921.809426,25402.556408,25184.336327,27505.721451,24619.641855,-0.078000,0.980000,0.100000,192.000000,253.000000,144.000000,30.000000,160.000000,3.000000,32.000000,0.000000,0.000000,0.000000,1647154372.542567,0.000000
221.000000,37026.581112,35023.775402,18811.518706,-4926.346830,25399.136591,25181.341193,27505.028546,24616.937294,-0.078000,0.980000,0.100000,192.000000,0.000000,0.000000,0.000000,0.000000,0.000000,0.000000,0.000000,0.000000,0.000000,1647154372.550694,0.000000
222.000000,37030.291501,35027.441088,18814.647950,-4924.469283,25403.003443,25184.224568,27505.319119,24625.453308,-0.078000,0.980000,0.100000,192.000000,0.000000,0.000000,0.000000,0.000000,0.000000,0.000000,0.000000,0.000000,0.000000,1647154372.550711,0.000000
223.000000,37037.533467,35038.013463,18821.822860,-4911.348809,25412.167658,25190.885388,27513.566913,24634.818689,-0.078000,0.980000,0.100000,192.000000,0.000000,0.000000,0.000000,0.000000,0.000000,0.000000,0.000000,0.000000,0.000000,1647154372.557320,0.000000
224.000000,37036.929969,35036.381785,18820.727625,-4913.494577,25410.826553,25191.198312,27517.009081,24631.331817,-0.078000,0.980000,0.100000,192.000000,0.000000,0.000000,0.000000,0.000000,0.000000,0.000000,0.000000,0.000000,0.000000,1647154372.557331,0.000000
225.000000,37036.237065,35032.045547,18819.587686,-4917.517891,25410.491277,25190.192484,27514.460983,24626.012102,-0.078000,0.980000,0.100000,192.000000,0.000000,0.000000,0.000000,0.000000,0.000000,0.000000,0.000000,0.000000,0.000000,1647154372.564833,0.000000
226.000000,37035.477106,35031.978492,18817.665436,-4918.300202,25409.798373,25186.079763,27507.554294,24620.088890,-0.078000,0.980000,0.100000,192.000000,0.000000,0.000000,0.000000,0.000000,0.000000,0.000000,0.000000,0.000000,0.000000,1647154372.572356,0.000000
227.000000,37036.594693,35037.208800,18819.744148,-4915.260364,25412.324120,25186.951481,27507.554294,24620.223000,-0.078000,0.980000,0.100000,192.000000,0.000000,0.000000,0.000000,0.000000,0.000000,0.000000,0.000000,0.000000,0.000000,1647154372.572372,0.000000
228.000000,37028.928045,35030.637387,18811.518706,-4924.134007,25404.344547,25179.575405,27501.385212,24615.819706,-0.078000,0.980000,0.100000,192.000000,0.000000,0.000000,0.000000,0.000000,0.000000,0.000000,0.000000,0.000000,0.000000,1647154372.580318,0.000000
229.000000,37029.822115,35032.850210,18811.943389,-4923.195234,25405.193914,25182.950518,27509.543599,24615.797355,-0.078000,0.980000,0.100000,192.000000,0.000000,0.000000,0.000000,0.000000,0.000000,0.000000,0.000000,0.000000,0.000000,1647154372.580334,0.000000
230.000000,37017.171027,35022.233131,18799.582875,-4935.309879,25392.319309,25169.941803,27496.177256,24598.184180,-0.078000,0.980000,0.100000,192.000000,253.000000,144.000000,30.000000,160.000000,3.000000,32.000000,0.000000,0.000000,0.000000,1647154372.587495,0.000000
231.000000,37020.322623,35023.462477,18801.080442,-4934.348754,25392.229902,25173.227510,27499.775887,24605.850828,-0.078000,0.980000,0.100000,192.000000,0.000000,0.000000,0.000000,0.000000,0.000000,0.000000,0.000000,0.000000,0.000000,1647154372.587512,0.000000
232.000000,37040.394490,35041.366224,18818.090119,-4914.701571,25409.485449,25189.946614,27514.773907,24620.245352,-0.078000,0.980000,0.100000,192.000000,0.000000,0.000000,0.000000,0.000000,0.000000,0.000000,0.000000,0.000000,0.000000,1647154372.595039,0.000000
233.000000,37046.295350,35043.511992,18824.929753,-4909.918298,25415.788640,25196.093344,27515.690329,24631.801204,-0.078000,0.980000,0.100000,192.000000,0.000000,0.000000,0.000000,0.000000,0.000000,0.000000,0.000000,0.000000,0.000000,1647154372.595056,0.000000
234.000000,37046.474164,35042.908495,18826.270858,-4910.275925,25416.146268,25198.596740,27517.992558,24626.570896,-0.078000,0.980000,0.100000,192.000000,0.000000,0.000000,0.000000,0.000000,0.000000,0.000000,0.000000,0.000000,0.000000,1647154372.603085,0.000000
235.000000,37045.177763,35043.623751,18823.611000,-4912.712266,25411.675919,25189.968966,27497.741878,24611.237599,-0.078000,0.980000,0.100000,192.000000,0.000000,0.000000,0.000000,0.000000,0.000000,0.000000,0.000000,0.000000,0.000000,1647154372.603103,0.000000
236.000000,37044.417804,35043.757861,18819.632390,-4914.299239,25408.926655,25184.649251,27491.192817,24605.113221,-0.078000,0.980000,0.100000,192.000000,0.000000,0.000000,0.000000,0.000000,0.000000,0.000000,0.000000,0.000000,0.000000,1647154372.610958,0.000000
237.000000,37041.802650,35038.549905,18814.715006,-4919.641306,25405.462135,25182.749353,27487.325965,24603.101564,-0.078000,0.980000,0.100000,192.000000,0.000000,0.000000,0.000000,0.000000,0.000000,0.000000,0.000000,0.000000,0.000000,1647154372.610973,0.000000
238.000000,37026.581112,35031.084422,18799.471116,-4932.605318,25391.760515,25171.662888,27483.995555,24591.791581,-0.078000,0.980000,0.100000,192.000000,0.000000,0.000000,0.000000,0.000000,0.000000,0.000000,0.000000,0.000000,0.000000,1647154372.617487,0.000000
239.000000,37026.290539,35031.397346,18801.706290,-4930.839530,25393.012213,25171.081742,27486.364840,24575.497159,-0.078000,0.980000,0.100000,192.000000,0.000000,0.000000,0.000000,0.000000,0.000000,0.000000,0.000000,0.000000,0.000000,1647154372.617503,0.000000
240.000000,37031.945530,35029.273931,18805.640197,-4929.453722,25397.147286,25178.435466,27493.986785,24596.977186,-0.076000,0.984000,0.100000,192.000000,253.000000,160.000000,30.000000,192.000000,3.000000,32.000000,0.000000,0.000000,0.000000,1647154372.624564,0.000000
241.000000,37035.342996,35030.816201,18810.535230,-4922.658792,25400.254178,25183.174036,27499.552369,24615.171506,-0.076000,0.984000,0.100000,192.000000,0.000000,0.000000,0.000000,0.000000,0.000000,0.000000,0.000000,0.000000,0.000000,1647154372.632379,0.000000
242.000000,37032.705490,35031.687919,18808.590628,-4921.831777,25400.678861,25187.823199,27517.411413,24623.642817,-0.076000,0.984000,0.100000,192.000000,0.000000,0.000000,0.000000,0.000000,0.000000,0.000000,0.000000,0.000000,0.000000,1647154372.632390,0.000000
243.000000,37031.140868,35033.587817,18809.685863,-4918.546071,25401.707041,25192.740583,27518.596055,24630.817727,-0.076000,0.984000,0.100000,192.000000,0.000000,0.000000,0.000000,0.000000,0.000000,0.000000,0.000000,0.000000,0.000000,1647154372.640401,0.000000
244.000000,37033.130173,35034.012501,18809.507049,-4921.541205,25400.321233,25188.024364,27515.511515,24614.724471,-0.076000,0.984000,0.100000,192.000000,0.000000,0.000000,0.000000,0.000000,0.000000,0.000000,0.000000,0.000000,0.000000,1647154372.640412,0.000000
245.000000,37026.178780,35027.731660,18803.561485,-4930.146626,25394.129800,25178.189597,27504.246235,24594.652604,-0.076000,0.984000,0.100000,192.000000,0.000000,0.000000,0.000000,0.000000,0.000000,0.000000,0.000000,0.000000,0.000000,1647154372.647297,0.000000
246.000000,37029.397432,35032.917265,18807.584799,-4926.033905,25398.086059,25187.800847,27508.582474,24618.568971,-0.076000,0.984000,0.100000,192.000000,0.000000,0.000000,0.000000,0.000000,0.000000,0.000000,0.000000,0.000000,0.000000,1647154372.647314,0.000000
247.000000,37033.688966,35034.012501,18813.329198,-4921.720019,25403.003443,25192.114734,27509.431840,24628.113166,-0.076000,0.984000,0.100000,192.000000,0.000000,0.000000,0.000000,0.000000,0.000000,0.000000,0.000000,0.000000,0.000000,1647154372.655163,0.000000
248.000000,37030.202094,35028.849248,18809.596456,-4925.497463,25401.662338,25186.683260,27500.848770,24610.656453,-0.076000,0.984000,0.100000,192.000000,0.000000,0.000000,0.000000,0.000000,0.000000,0.000000,0.000000,0.000000,0.000000,1647154372.655180,0.000000
249.000000,37040.640359,35037.767594,18816.927828,-4916.310896,25409.217228,25193.388783,27500.960529,24618.613674,-0.076000,0.984000,0.100000,192.000000,0.000000,0.000000,0.000000,0.000000,0.000000,0.000000,0.000000,0.000000,0.000000,1647154372.662989,0.000000
250.000000,37043.389624,35043.601399,18818.313637,-4912.913431,25412.614693,25201.167190,27517.836096,24637.992637,-0.078000,0.980000,0.098000,192.000000,253.000000,144.000000,30.000000,160.000000,3.000000,16.000000,0.000000,0.000000,0.000000,1647154372.663000,0.000000
251.000000,37037.198190,35038.684015,18814.066805,-4917.607298,25407.965530,25197.680318,27519.087794,24630.862430,-0.078000,0.980000,0.098000,192.000000,0.000000,0.000000,0.000000,0.000000,0.000000,0.000000,0.000000,0.000000,0.000000,1647154372.670489,0.000000
252.000000,37032.861952,35038.795774,18812.882163,-4916.623821,25407.563199,25193.925225,27514.528038,24626.459137,-0.078000,0.980000,0.098000,192.000000,0.000000,0.000000,0.000000,0.000000,0.000000,0.000000,0.000000,0.000000,0.000000,1647154372.670506,0.000000
253.000000,37034.806554,35038.885181,18814.089157,-4917.473187,25406.847943,25190.706574,27510.840000,24624.961570,-0.078000,0.980000,0.098000,192.000000,0.000000,0.000000,0.000000,0.000000,0.000000,0.000000,0.000000,0.000000,0.000000,1647154372.677915,0.000000
254.000000,37034.225408,35038.460498,18813.820936,-4918.255498,25409.060765,25190.058373,27506.727279,24614.590360,-0.078000,0.980000,0.098000,192.000000,0.000000,0.000000,0.000000,0.000000,0.000000,0.000000,0.000000,0.000000,0.000000,1647154372.677932,0.000000
255.000000,37029.643301,35034.750108,18811.317541,-4918.143739,25407.630254,25185.252748,27503.575683,24607.147230,-0.078000,0.980000,0.098000,192.000000,0.000000,0.000000,0.000000,0.000000,0.000000,0.000000,0.000000,0.000000,0.000000,1647154372.684970,0.000000
0.000000,37042.964940,35047.557658,18824.572125,-4902.162242,25420.147231,25195.959234,27514.371576,24620.178297,-0.078000,0.980000,0.098000,192.000000,0.000000,0.000000,0.000000,0.000000,0.000000,0.000000,0.000000,0.000000,0.000000,1647154372.692885,0.000000
1.000000,37039.299254,35043.847268,18820.459404,-4908.420731,25415.900399,25191.399478,27503.776849,24614.255084,-0.078000,0.980000,0.098000,192.000000,0.000000,0.000000,0.000000,0.000000,0.000000,0.000000,0.000000,0.000000,0.000000,1647154372.692902,0.000000
2.000000,37035.097126,35039.287512,18813.887991,-4914.478053,25409.172524,25187.689088,27500.826418,24614.992692,-0.078000,0.980000,0.098000,192.000000,0.000000,0.000000,0.000000,0.000000,0.000000,0.000000,0.000000,0.000000,0.000000,1647154372.699533,0.000000
3.000000,37039.679234,35042.729681,18817.397215,-4913.159300,25410.290111,25191.600644,27506.146134,24613.584532,-0.078000,0.980000,0.098000,192.000000,0.000000,0.000000,0.000000,0.000000,0.000000,0.000000,0.000000,0.000000,0.000000,1647154372.699550,0.000000
4.000000,37045.066004,35045.724815,18820.280590,-4911.214699,25412.569989,25194.863998,27507.375480,24617.920770,-0.076000,0.978000,0.102000,192.000000,253.000000,160.000000,30.000000,144.000000,3.000000,48.000000,0.000000,0.000000,0.000000,1647154372.707612,0.000000
5.000000,37040.886228,35041.477983,18816.659607,-4917.808463,25408.792544,25191.712402,27504.782677,24610.745860,-0.076000,0.978000,0.102000,192.000000,0.000000,0.000000,0.000000,0.000000,0.000000,0.000000,0.000000,0.000000,0.000000,1647154372.707629,0.000000
6.000000,37031.051461,35033.096079,18809.037663,-4926.682106,25400.656509,25186.079763,27501.161695,24601.939273,-0.076000,0.978000,0.102000,192.000000,0.000000,0.000000,0.000000,0.000000,0.000000,0.000000,0.000000,0.000000,0.000000,1647154372.715558,0.000000
7.000000,37035.410051,35038.795774,18817.173698,-4919.261327,25408.166696,25195.579254,27508.873047,24621.295884,-0.076000,0.978000,0.102000,192.000000,0.000000,0.000000,0.000000,0.000000,0.000000,0.000000,0.000000,0.000000,0.000000,1647154372.715574,0.000000
8.000000,37040.439193,35040.718024,18821.822860,-4912.779321,25411.787678,25199.110830,27511.175276,24623.374596,-0.076000,0.978000,0.102000,192.000000,0.000000,0.000000,0.000000,0.000000,0.000000,0.000000,0.000000,0.000000,0.000000,1647154372.722583,0.000000
9.000000,37044.194286,35045.724815,18822.359302,-4909.314800,25412.033547,25196.808600,27505.810858,24624.067500,-0.076000,0.978000,0.102000,192.000000,0.000000,0.000000,0.000000,0.000000,0.000000,0.000000,0.000000,0.000000,0.000000,1647154372.722599,0.000000
10.000000,37042.897885,35051.089233,18823.186317,-4907.258440,25411.430050,25202.754164,27518.439593,24642.865317,-0.076000,0.978000,0.102000,192.000000,0.000000,0.000000,0.000000,0.000000,0.000000,0.000000,0.000000,0.000000,0.000000,1647154372.730237,0.000000
11.000000,37040.550952,35050.619847,18818.648913,-4911.617030,25406.646777,25196.406269,27515.019776,24629.230753,-0.076000,0.978000,0.102000,192.000000,0.000000,0.000000,0.000000,0.000000,0.000000,0.000000,0.000000,0.000000,0.000000,1647154372.730255,0.000000
12.000000,37049.893981,35058.241792,18825.287381,-4906.006742,25413.531114,25198.708498,27517.009081,24628.850773,-0.076000,0.978000,0.102000,192.000000,0.000000,0.000000,0.000000,0.000000,0.000000,0.000000,0.000000,0.000000,0.000000,1647154372.738280,0.000000
13.000000,37047.345882,35048.630541,18822.269895,-4908.376027,25412.838210,25196.696841,27517.947855,24623.084023,-0.076000,0.978000,0.102000,192.000000,0.000000,0.000000,0.000000,0.000000,0.000000,0.000000,0.000000,0.000000,0.000000,1647154372.738296,0.000000
14.000000,37044.931894,35040.919190,18818.179526,-4912.756969,25409.530152,25191.287719,27514.617445,24614.366843,-0.076000,0.978000,0.102000,192.000000,0.000000,0.000000,0.000000,0.000000,0.000000,0.000000,0.000000,0.000000,0.000000,1647154372.745269,0.000000
15.000000,37046.116536,35042.103832,18817.799546,-4912.086417,25409.373690,25190.103077,27504.939139,24621.944084,-0.082000,0.980000,0.106000,192.000000,253.000000,112.000000,30.000000,160.000000,3.000000,80.000000,0.000000,0.000000,0.000000,1647154372.752338,0.000000
16.000000,37051.302141,35048.429376,18826.717892,-4905.783225,25416.034510,25196.875655,27513.991596,24626.168564,-0.082000,0.980000,0.106000,192.000000,0.000000,0.000000,0.000000,0.000000,0.000000,0.000000,0.000000,0.000000,0.000000,1647154372.752355,0.000000
17.000000,37053.671426,35052.497393,18831.970552,-4898.965943,25420.169582,25204.005862,27525.458041,24638.238506,-0.082000,0.980000,0.106000,192.000000,0.000000,0.000000,0.000000,0.000000,0.000000,0.000000,0.000000,0.000000,0.000000,1647154372.759877,0.000000
18.000000,37051.860935,35051.715082,18829.042474,-4902.788091,25416.034510,25200.451934,27523.245218,24625.565067,-0.082000,0.980000,0.106000,192.000000,0.000000,0.000000,0.000000,0.000000,0.000000,0.000000,0.000000,0.000000,0.000000,1647154372.759892,0.000000
19.000000,37045.244818,35046.708291,18823.365131,-4910.432388,25410.379518,25194.707536,27519.423070,24629.789547,-0.082000,0.980000,0.106000,192.000000,0.000000,0.000000,0.000000,0.000000,0.000000,0.000000,0.000000,0.000000,0.000000,1647154372.767822,0.000000
20.000000,37046.474164,35053.883201,18825.756767,-4906.543184,25413.128783,25193.455838,27515.958549,24625.542715,-0.082000,0.980000,0.106000,192.000000,0.000000,0.000000,0.000000,0.000000,0.000000,0.000000,0.000000,0.000000,0.000000,1647154372.767839,0.000000
21.000000,37055.839545,35072.189280,18833.222250,-4893.690931,25422.002425,25195.869827,27514.997424,24622.704044,-0.082000,0.980000,0.106000,192.000000,0.000000,0.000000,0.000000,0.000000,0.000000,0.000000,0.000000,0.000000,0.000000,1647154372.775759,0.000000
22.000000,37062.500365,35073.396274,18832.931677,-4893.489765,25421.153059,25196.272158,27525.569800,24624.559239,-0.082000,0.980000,0.106000,192.000000,0.000000,0.000000,0.000000,0.000000,0.000000,0.000000,0.000000,0.000000,0.000000,1647154372.775776,0.000000
23.000000,37063.550897,35063.673265,18835.569183,-4893.400358,25421.063652,25200.675452,27533.348207,24636.852698,-0.082000,0.980000,0.106000,192.000000,0.000000,0.000000,0.000000,0.000000,0.000000,0.000000,0.000000,0.000000,0.000000,1647154372.782474,0.000000
24.000000,37059.393473,35059.739358,18835.166852,-4894.830870,25422.605923,25202.687109,27536.186878,24638.663189,-0.082000,0.980000,0.106000,192.000000,0.000000,0.000000,0.000000,0.000000,0.000000,0.000000,0.000000,0.000000,0.000000,1647154372.782490,0.000000
25.000000,37049.290484,35049.882239,18826.181451,-4906.587888,25411.273588,25193.657004,27528.006140,24635.556297,-0.070000,0.980000,0.106000,192.000000,253.000000,208.000000,30.000000,160.000000,3.000000,80.000000,0.000000,0.000000,0.000000,1647154372.790314,0.000000
26.000000,37046.228295,35039.063995,18826.963762,-4909.024228,25408.926655,25194.618129,27525.636855,24638.663189,-0.070000,0.980000,0.106000,192.000000,0.000000,0.000000,0.000000,0.000000,0.000000,0.000000,0.000000,0.000000,0.000000,1647154372.790332,0.000000
27.000000,37039.478068,35030.793849,18816.547849,-4919.149568,25398.868370,25181.989393,27514.393927,24624.045148,-0.070000,0.980000,0.106000,192.000000,0.000000,0.000000,0.000000,0.000000,0.000000,0.000000,0.000000,0.000000,0.000000,1647154372.797900,0.000000
28.000000,37040.170972,35032.939617,18818.648913,-4916.355600,25402.891684,25183.039925,27514.528038,24624.313369,-0.070000,0.980000,0.106000,192.000000,0.000000,0.000000,0.000000,0.000000,0.000000,0.000000,0.000000,0.000000,0.000000,1647154372.797917,0.000000
29.000000,37046.742385,35039.980416,18827.008465,-4909.158338,25410.983015,25190.885388,27532.476489,24626.213268,-0.070000,0.980000,0.106000,192.000000,0.000000,0.000000,0.000000,0.000000,0.000000,0.000000,0.000000,0.000000,0.000000,1647154372.804889,0.000000
30.000000,37046.630627,35045.233076,18824.080387,-4905.559707,25409.641911,25187.890254,27525.636855,24630.795375,-0.070000,0.980000,0.106000,192.000000,0.000000,0.000000,0.000000,0.000000,0.000000,0.000000,0.000000,0.000000,0.000000,1647154372.804905,0.000000
31.000000,37044.998949,35044.718986,18819.721796,-4907.526661,25406.087983,25184.805713,27523.468736,24632.784680,-0.070000,0.980000,0.106000,192.000000,0.000000,0.000000,0.000000,0.000000,0.000000,0.000000,0.000000,0.000000,0.000000,1647154372.812861,0.000000
32.000000,37042.428499,35042.662626,18814.290323,-4913.002838,25400.880027,25180.335364,27521.099451,24623.039320,-0.070000,0.980000,0.106000,192.000000,0.000000,0.000000,0.000000,0.000000,0.000000,0.000000,0.000000,0.000000,0.000000,1647154372.819914,0.000000
33.000000,37045.870667,35040.315692,18816.212573,-4910.298277,25402.757573,25184.537492,27522.820535,24625.766233,-0.070000,0.980000,0.106000,192.000000,0.000000,0.000000,0.000000,0.000000,0.000000,0.000000,0.000000,0.000000,0.000000,1647154372.819930,0.000000
34.000000,37049.335188,35042.908495,18820.146480,-4908.264268,25406.691480,25187.644385,27527.223829,24622.078195,-0.070000,0.980000,0.106000,192.000000,0.000000,0.000000,0.000000,0.000000,0.000000,0.000000,0.000000,0.000000,0.000000,1647154372.827424,0.000000
35.000000,37054.923124,35053.771443,18825.354436,-4902.430463,25411.899437,25193.075859,27531.448308,24635.802166,-0.070000,0.976000,0.106000,192.000000,253.000000,208.000000,30.000000,128.000000,3.000000,80.000000,0.000000,0.000000,0.000000,1647154372.827441,0.000000
36.000000,37054.409034,35055.559582,18824.773291,-4900.999951,25413.508763,25189.253710,27526.307407,24636.852698,-0.070000,0.976000,0.106000,192.000000,0.000000,0.000000,0.000000,0.000000,0.000000,0.000000,0.000000,0.000000,0.000000,1647154372.835475,0.000000
37.000000,37046.138888,35049.614018,18816.190221,-4908.644248,25405.417431,25179.754219,27520.764175,24624.536887,-0.070000,0.976000,0.106000,192.000000,0.000000,0.000000,0.000000,0.000000,0.000000,0.000000,0.000000,0.000000,0.000000,1647154372.835491,0.000000
38.000000,37050.162202,35053.503222,18821.576991,-4904.933859,25409.820725,25183.084629,27525.458041,24637.009160,-0.070000,0.976000,0.106000,192.000000,0.000000,0.000000,0.000000,0.000000,0.000000,0.000000,0.000000,0.000000,0.000000,1647154372.843433,0.000000
39.000000,37047.994083,35049.457556,18817.956009,-4910.812367,25403.897512,25175.529739,27521.524134,24623.464003,-0.070000,0.976000,0.106000,192.000000,0.000000,0.000000,0.000000,0.000000,0.000000,0.000000,0.000000,0.000000,0.000000,1647154372.843449,0.000000
40.000000,37051.659769,35051.200992,18819.051244,-4909.627725,25402.846980,25173.786303,27517.076137,24613.629235,-0.070000,0.976000,0.106000,192.000000,0.000000,0.000000,0.000000,0.000000,0.000000,0.000000,0.000000,0.000000,0.000000,1647154372.850093,0.000000
41.000000,37052.598542,35044.294303,18821.644047,-4907.392550,25405.685652,25180.648289,27516.025605,24632.382349,-0.070000,0.976000,0.106000,192.000000,0.000000,0.000000,0.000000,0.000000,0.000000,0.000000,0.000000,0.000000,0.000000,1647154372.850110,0.000000
42.000000,37056.130118,35043.891972,18824.527422,-4904.822100,25408.524324,25182.324670,27520.205381,24627.062634,-0.070000,0.976000,0.106000,192.000000,0.000000,0.000000,0.000000,0.000000,0.000000,0.000000,0.000000,0.000000,0.000000,1647154372.857959,0.000000
43.000000,37056.621856,35048.250562,18824.549773,-4903.279829,25409.753669,25182.458780,27518.037262,24626.794413,-0.070000,0.976000,0.106000,192.000000,0.000000,0.000000,0.000000,0.000000,0.000000,0.000000,0.000000,0.000000,0.000000,1647154372.857976,0.000000
44.000000,37053.358502,35050.217515,18820.705273,-4904.911507,25407.920826,25178.815446,27509.700061,24620.088890,-0.070000,0.976000,0.106000,192.000000,0.000000,0.000000,0.000000,0.000000,0.000000,0.000000,0.000000,0.000000,0.000000,1647154372.866112,0.000000
45.000000,37058.633513,35053.190297,18823.968628,-4899.770606,25411.385347,25183.285795,27515.198590,24629.163698,-0.072000,0.972000,0.106000,192.000000,253.000000,192.000000,30.000000,96.000000,3.000000,80.000000,0.000000,0.000000,0.000000,1647154372.866129,0.000000
46.000000,37055.481917,35051.290399,18821.241715,-4901.357579,25408.345510,25180.089495,27510.147096,24628.001407,-0.072000,0.972000,0.106000,192.000000,0.000000,0.000000,0.000000,0.000000,0.000000,0.000000,0.000000,0.000000,0.000000,1647154372.872205,0.000000
47.000000,37042.808478,35041.120355,18807.294227,-4917.003801,25393.950986,25170.031210,27514.572741,24617.227866,-0.072000,0.972000,0.106000,192.000000,0.000000,0.000000,0.000000,0.000000,0.000000,0.000000,0.000000,0.000000,0.000000,1647154372.879729,0.000000
48.000000,37044.306045,35039.198105,18806.936599,-4916.422655,25394.554483,25169.606527,27510.594131,24609.672977,-0.072000,0.972000,0.106000,192.000000,0.000000,0.000000,0.000000,0.000000,0.000000,0.000000,0.000000,0.000000,0.000000,1647154372.879745,0.000000
49.000000,37050.206906,35044.182544,18813.373901,-4914.410998,25400.723565,25172.445199,27508.470715,24601.425183,-0.072000,0.972000,0.106000,192.000000,0.000000,0.000000,0.000000,0.000000,0.000000,0.000000,0.000000,0.000000,0.000000,1647154372.887768,0.000000
50.000000,37054.409034,35049.077576,18819.364169,-4908.912469,25406.557370,25179.307184,27514.863314,24615.439727,-0.072000,0.972000,0.106000,192.000000,0.000000,0.000000,0.000000,0.000000,0.000000,0.000000,0.000000,0.000000,0.000000,1647154372.887784,0.000000
51.000000,37053.805536,35049.390501,18819.364169,-4908.241917,25407.250274,25182.257614,27510.705890,24627.017930,-0.072000,0.972000,0.106000,192.000000,0.000000,0.000000,0.000000,0.000000,0.000000,0.000000,0.000000,0.000000,0.000000,1647154372.895778,0.000000
52.000000,37054.453737,35051.290399,18819.967666,-4907.124329,25408.546675,25183.062277,27510.102392,24620.960608,-0.072000,0.972000,0.106000,192.000000,0.000000,0.000000,0.000000,0.000000,0.000000,0.000000,0.000000,0.000000,0.000000,1647154372.895795,0.000000
53.000000,37052.911467,35050.731605,18819.744148,-4907.280792,25407.518495,25185.699783,27519.758346,24623.687520,-0.072000,0.972000,0.106000,192.000000,0.000000,0.000000,0.000000,0.000000,0.000000,0.000000,0.000000,0.000000,0.000000,1647154372.902371,0.000000
54.000000,37047.144717,35048.004693,18815.072634,-4908.756007,25403.294015,25181.475303,27514.662148,24621.653512,-0.072000,0.972000,0.106000,192.000000,0.000000,0.000000,0.000000,0.000000,0.000000,0.000000,0.000000,0.000000,0.000000,1647154372.902387,0.000000
55.000000,37044.753080,35043.467288,18813.485660,-4909.605373,25401.349414,25179.731867,27509.767116,24618.233695,-0.076000,0.976000,0.102000,192.000000,253.000000,160.000000,30.000000,128.000000,3.000000,48.000000,0.000000,0.000000,0.000000,1647154372.910347,0.000000
56.000000,37046.675330,35040.248637,18815.206744,-4908.867766,25401.885855,25181.363545,27513.343395,24614.545657,-0.076000,0.976000,0.102000,192.000000,0.000000,0.000000,0.000000,0.000000,0.000000,0.000000,0.000000,0.000000,0.000000,1647154372.910364,0.000000
57.000000,37051.413900,35045.881277,18818.872430,-4906.051446,25405.842114,25185.252748,27517.500820,24623.106375,-0.076000,0.976000,0.102000,192.000000,0.000000,0.000000,0.000000,0.000000,0.000000,0.000000,0.000000,0.000000,0.000000,1647154372.918300,0.000000
58.000000,37061.449833,35057.750053,18829.333047,-4895.277905,25415.140440,25196.652138,27531.291846,24643.848794,-0.076000,0.976000,0.102000,192.000000,0.000000,0.000000,0.000000,0.000000,0.000000,0.000000,0.000000,0.000000,0.000000,1647154372.918317,0.000000
59.000000,37057.873554,35052.028007,18826.561430,-4897.870707,25413.508763,25193.120562,27527.804974,24640.361922,-0.076000,0.976000,0.102000,192.000000,0.000000,0.000000,0.000000,0.000000,0.000000,0.000000,0.000000,0.000000,0.000000,1647154372.925391,0.000000
60.000000,37052.598542,35047.222381,18820.168831,-4905.671466,25407.473792,25187.107943,27524.854544,24634.483413,-0.076000,0.976000,0.102000,192.000000,0.000000,0.000000,0.000000,0.000000,0.000000,0.000000,0.000000,0.000000,0.000000,1647154372.925406,0.000000
61.000000,37041.713243,35040.963893,18809.954084,-4913.829853,25398.533094,25179.307184,27517.031433,24617.607846,-0.076000,0.976000,0.102000,192.000000,0.000000,0.000000,0.000000,0.000000,0.000000,0.000000,0.000000,0.000000,0.000000,1647154372.932094,0.000000
62.000000,37039.478068,35033.476059,18807.383634,-4919.663658,25392.565178,25175.954422,27511.711718,24617.183163,-0.076000,0.976000,0.102000,192.000000,0.000000,0.000000,0.000000,0.000000,0.000000,0.000000,0.000000,0.000000,0.000000,1647154372.940015,0.000000
63.000000,37048.038786,35039.131050,18815.519669,-4914.880385,25396.096754,25182.950518,27517.456116,24630.638913,-0.076000,0.976000,0.102000,192.000000,0.000000,0.000000,0.000000,0.000000,0.000000,0.000000,0.000000,0.000000,0.000000,1647154372.940031,0.000000
64.000000,37049.156374,35043.243771,18816.167869,-4910.030056,25398.689556,25184.313975,27517.322006,24632.158832,-0.076000,0.976000,0.102000,192.000000,0.000000,0.000000,0.000000,0.000000,0.000000,0.000000,0.000000,0.000000,0.000000,1647154372.947994,0.000000
65.000000,37056.867725,35055.269010,18825.712064,-4897.446024,25410.401870,25192.762934,27519.445422,24643.647628,-0.072000,0.966000,0.100000,192.000000,253.000000,192.000000,30.000000,48.000000,3.000000,32.000000,0.000000,0.000000,0.000000,1647154372.948011,0.000000
66.000000,37065.696665,35061.795719,18834.205727,-4892.148661,25418.873181,25204.452897,27536.812727,24645.145195,-0.072000,0.966000,0.100000,192.000000,0.000000,0.000000,0.000000,0.000000,0.000000,0.000000,0.000000,0.000000,0.000000,1647154372.955122,0.000000
67.000000,37055.370159,35053.592629,18823.476890,-4904.106844,25408.971358,25190.527760,27526.530925,24630.080119,-0.072000,0.966000,0.100000,192.000000,0.000000,0.000000,0.000000,0.000000,0.000000,0.000000,0.000000,0.000000,0.000000,1647154372.955138,0.000000
68.000000,37055.325455,35054.218478,18821.912267,-4905.358542,25408.032585,25187.554978,27518.752518,24625.609770,-0.072000,0.966000,0.100000,192.000000,0.000000,0.000000,0.000000,0.000000,0.000000,0.000000,0.000000,0.000000,0.000000,1647154372.962656,0.000000
69.000000,37053.067929,35048.541134,18817.844250,-4909.270097,25404.344547,25180.402420,27509.655358,24617.876067,-0.072000,0.966000,0.100000,192.000000,0.000000,0.000000,0.000000,0.000000,0.000000,0.000000,0.000000,0.000000,0.000000,1647154372.962672,0.000000
70.000000,37049.044615,35038.304035,18813.105680,-4915.170957,25398.443687,25172.132274,27506.749631,24603.414488,-0.072000,0.966000,0.100000,192.000000,0.000000,0.000000,0.000000,0.000000,0.000000,0.000000,0.000000,0.000000,0.000000,1647154372.970589,0.000000
71.000000,37045.982426,35033.990149,18811.853982,-4918.300202,25396.610844,25174.233338,27514.148058,24605.716718,-0.072000,0.966000,0.100000,192.000000,0.000000,0.000000,0.000000,0.000000,0.000000,0.000000,0.000000,0.000000,0.000000,1647154372.970605,0.000000
72.000000,37050.005740,35041.232114,18818.112471,-4908.264268,25404.165733,25185.520969,27517.187895,24633.991675,-0.072000,0.966000,0.100000,192.000000,0.000000,0.000000,0.000000,0.000000,0.000000,0.000000,0.000000,0.000000,0.000000,1647154372.977641,0.000000
73.000000,37044.171935,35034.817163,18812.837459,-4916.243841,25399.561274,25181.363545,27511.376442,24625.274494,-0.072000,0.966000,0.100000,192.000000,0.000000,0.000000,0.000000,0.000000,0.000000,0.000000,0.000000,0.000000,0.000000,1647154372.977658,0.000000
74.000000,37045.066004,35041.254466,18816.972532,-4911.013533,25403.964568,25188.337289,27519.959512,24623.776927,-0.072000,0.966000,0.100000,192.000000,0.000000,0.000000,0.000000,0.000000,0.000000,0.000000,0.000000,0.000000,0.000000,1647154372.985128,0.000000
75.000000,37044.529563,35043.310826,18816.950180,-4909.493614,25405.059803,25190.974795,27521.077099,24629.431919,-0.074000,0.976000,0.100000,192.000000,253.000000,176.000000,30.000000,128.000000,3.000000,32.000000,0.000000,0.000000,0.000000,1647154372.985144,0.000000
76.000000,37038.360481,35034.973626,18810.199953,-4919.797769,25395.917940,25182.123504,27514.863314,24618.658378,-0.074000,0.976000,0.100000,192.000000,0.000000,0.000000,0.000000,0.000000,0.000000,0.000000,0.000000,0.000000,0.000000,1647154372.992273,0.000000
77.000000,37042.294388,35036.672358,18814.066805,-4913.159300,25399.181294,25187.353812,27517.277302,24628.694311,-0.074000,0.976000,0.100000,192.000000,0.000000,0.000000,0.000000,0.000000,0.000000,0.000000,0.000000,0.000000,0.000000,1647154373.000255,0.000000
78.000000,37052.978522,35044.987207,18821.733453,-4908.443082,25405.059803,25193.589949,27525.368634,24635.712759,-0.074000,0.976000,0.100000,192.000000,0.000000,0.000000,0.000000,0.000000,0.000000,0.000000,0.000000,0.000000,0.000000,1647154373.000273,0.000000
79.000000,37052.218563,35046.216553,18821.152308,-4911.482920,25403.472829,25191.041850,27521.792355,24631.264762,-0.074000,0.976000,0.100000,192.000000,0.000000,0.000000,0.000000,0.000000,0.000000,0.000000,0.000000,0.000000,0.000000,1647154373.006946,0.000000
80.000000,37051.995045,35045.836573,18822.359302,-4911.281754,25404.948044,25190.550112,27522.552314,24625.050977,-0.074000,0.976000,0.100000,192.000000,0.000000,0.000000,0.000000,0.000000,0.000000,0.000000,0.000000,0.000000,0.000000,1647154373.006952,0.000000
81.000000,37046.116536,35036.426489,18815.206744,-4917.406132,25399.203646,25187.532626,27522.038224,24626.772061,-0.074000,0.976000,0.100000,192.000000,0.000000,0.000000,0.000000,0.000000,0.000000,0.000000,0.000000,0.000000,0.000000,1647154373.014841,0.000000
82.000000,37041.713243,35037.052338,18810.646988,-4919.954231,25395.180332,25186.213873,27520.160677,24624.134555,-0.074000,0.976000,0.100000,192.000000,0.000000,0.000000,0.000000,0.000000,0.000000,0.000000,0.000000,0.000000,0.000000,1647154373.014858,0.000000
83.000000,37038.651054,35037.320559,18808.970607,-4922.479978,25393.369841,25185.945652,27522.641721,24624.559239,-0.074000,0.976000,0.100000,192.000000,0.000000,0.000000,0.000000,0.000000,0.000000,0.000000,0.000000,0.000000,0.000000,1647154373.024206,0.000000
84.000000,37035.655920,35031.687919,18806.444860,-4922.658792,25390.732335,25183.218739,27516.562047,24622.122898,-0.074000,0.976000,0.100000,192.000000,0.000000,0.000000,0.000000,0.000000,0.000000,0.000000,0.000000,0.000000,0.000000,1647154373.024223,0.000000
85.000000,37034.091298,35025.563541,18805.349625,-4925.251594,25390.262948,25182.905815,27513.678672,24632.002369,-0.072000,0.974000,0.096000,192.000000,253.000000,192.000000,30.000000,112.000000,3.000000,0.000000,0.000000,0.000000,0.000000,1647154373.030870,0.000000
86.000000,37038.472240,35028.871599,18808.456517,-4918.702533,25394.018041,25185.677431,27518.730166,24631.734148,-0.072000,0.974000,0.096000,192.000000,0.000000,0.000000,0.000000,0.000000,0.000000,0.000000,0.000000,0.000000,0.000000,1647154373.030888,0.000000
87.000000,37050.631589,35043.891972,18814.849116,-4907.794882,25400.589454,25187.845551,27520.898285,24627.062634,-0.072000,0.974000,0.096000,192.000000,0.000000,0.000000,0.000000,0.000000,0.000000,0.000000,0.000000,0.000000,0.000000,1647154373.037571,0.000000
88.000000,37049.446946,35038.460498,18815.653779,-4912.935783,25397.817838,25184.939824,27516.986730,24620.535924,-0.072000,0.974000,0.096000,192.000000,0.000000,0.000000,0.000000,0.000000,0.000000,0.000000,0.000000,0.000000,0.000000,1647154373.037588,0.000000
89.000000,37044.574266,35031.397346,18821.979323,-4912.734617,25403.182257,25194.282853,27521.255913,24636.249201,-0.072000,0.974000,0.096000,192.000000,0.000000,0.000000,0.000000,0.000000,0.000000,0.000000,0.000000,0.000000,0.000000,1647154373.045559,0.000000
90.000000,37043.747251,35028.938655,18820.504108,-4915.081550,25402.355242,25190.483056,27514.796259,24633.835212,-0.072000,0.974000,0.096000,192.000000,0.000000,0.000000,0.000000,0.000000,0.000000,0.000000,0.000000,0.000000,0.000000,1647154373.045576,0.000000
91.000000,37050.542182,35036.650006,18821.085253,-4913.226356,25402.623463,25188.583158,27518.774869,24625.453308,-0.072000,0.974000,0.096000,192.000000,0.000000,0.000000,0.000000,0.000000,0.000000,0.000000,0.000000,0.000000,0.000000,1647154373.052513,0.000000
92.000000,37044.998949,35036.068861,18818.358340,-4915.819158,25400.522399,25185.677431,27517.634930,24622.905209,-0.072000,0.974000,0.096000,192.000000,0.000000,0.000000,0.000000,0.000000,0.000000,0.000000,0.000000,0.000000,0.000000,1647154373.052529,0.000000
93.000000,37044.909542,35037.566428,18815.877296,-4913.896908,25398.913073,25183.554016,27514.013948,24614.053919,-0.072000,0.974000,0.096000,192.000000,0.000000,0.000000,0.000000,0.000000,0.000000,0.000000,0.000000,0.000000,0.000000,1647154373.060595,0.000000
94.000000,37041.333263,35036.180620,18812.435128,-4915.863862,25396.074402,25178.480170,27511.599959,24610.455288,-0.072000,0.974000,0.096000,192.000000,0.000000,0.000000,0.000000,0.000000,0.000000,0.000000,0.000000,0.000000,0.000000,1647154373.067269,0.000000
95.000000,37041.847353,35035.867695,18809.551753,-4920.088341,25393.682765,25179.329536,27508.761288,24626.950875,-0.072000,0.978000,0.102000,192.000000,253.000000,192.000000,30.000000,144.000000,3.000000,48.000000,0.000000,0.000000,0.000000,1647154373.067286,0.000000
96.000000,37059.371121,35049.792832,18824.281552,-4906.051446,25408.144344,25190.661870,27515.735032,24629.387215,-0.072000,0.978000,0.102000,192.000000,0.000000,0.000000,0.000000,0.000000,0.000000,0.000000,0.000000,0.000000,0.000000,1647154373.074984,0.000000
97.000000,37051.413900,35034.928922,18820.124128,-4912.376989,25404.009271,25188.471399,27527.648512,24619.798317,-0.072000,0.978000,0.102000,192.000000,0.000000,0.000000,0.000000,0.000000,0.000000,0.000000,0.000000,0.000000,0.000000,1647154373.075000,0.000000
98.000000,37052.844411,35028.156343,18820.973494,-4910.454739,25405.640948,25191.399478,27525.167468,24627.889648,-0.072000,0.978000,0.102000,192.000000,0.000000,0.000000,0.000000,0.000000,0.000000,0.000000,0.000000,0.000000,0.000000,1647154373.083113,0.000000
99.000000,37054.319627,35028.961006,18821.711102,-4909.381856,25405.864466,25190.706574,27517.433765,24629.990712,-0.072000,0.978000,0.102000,192.000000,0.000000,0.000000,0.000000,0.000000,0.000000,0.000000,0.000000,0.000000,0.000000,1647154373.083130,0.000000
100.000000,37047.524696,35032.514934,18817.128994,-4909.918298,25402.690518,25188.650213,27513.611616,24622.413471,-0.072000,0.978000,0.102000,192.000000,0.000000,0.000000,0.000000,0.000000,0.000000,0.000000,0.000000,0.000000,0.000000,1647154373.089669,0.000000
101.000000,37046.809440,35037.409966,18816.100814,-4912.399341,25402.556408,25190.706574,27520.272436,24628.850773,-0.072000,0.978000,0.102000,192.000000,0.000000,0.000000,0.000000,0.000000,0.000000,0.000000,0.000000,0.000000,0.000000,1647154373.089685,0.000000
102.000000,37052.576191,35040.293341,18820.906439,-4912.064065,25404.098678,25193.880522,27523.021701,24627.286151,-0.072000,0.978000,0.102000,192.000000,0.000000,0.000000,0.000000,0.000000,0.000000,0.000000,0.000000,0.000000,0.000000,1647154373.097871,0.000000
103.000000,37049.223429,35039.354567,18815.899648,-4914.835681,25400.209475,25184.090457,27513.589265,24604.308558,-0.072000,0.978000,0.102000,192.000000,0.000000,0.000000,0.000000,0.000000,0.000000,0.000000,0.000000,0.000000,0.000000,1647154373.097888,0.000000
104.000000,37045.893019,35040.226285,18812.479831,-4914.232184,25399.985957,25185.565673,27517.567875,24615.260913,-0.072000,0.978000,0.102000,192.000000,0.000000,0.000000,0.000000,0.000000,0.000000,0.000000,0.000000,0.000000,0.000000,1647154373.105731,0.000000
105.000000,37041.377967,35033.006672,18806.511916,-4920.401266,25392.699288,25183.174036,27508.716584,24624.849811,-0.072000,0.978000,0.102000,192.000000,0.000000,0.000000,0.000000,0.000000,0.000000,0.000000,0.000000,0.000000,0.000000,1647154373.105749,0.000000
106.000000,37059.974618,35046.663588,18821.711102,-4905.313838,25405.640948,25194.416963,27516.226770,24636.606829,-0.072000,0.976000,0.104000,192.000000,253.000000,192.000000,30.000000,128.000000,3.000000,64.000000,0.000000,0.000000,0.000000,1647154373.112887,0.000000
107.000000,37065.741368,35050.686902,18828.014294,-4904.196251,25408.256103,25199.602568,27527.648512,24638.171451,-0.072000,0.976000,0.104000,192.000000,0.000000,0.000000,0.000000,0.000000,0.000000,0.000000,0.000000,0.000000,0.000000,1647154373.112904,0.000000
108.000000,37061.203964,35048.854059,18823.253372,-4908.800710,25404.411603,25195.892179,27526.396814,24627.800241,-0.072000,0.976000,0.104000,192.000000,0.000000,0.000000,0.000000,0.000000,0.000000,0.000000,0.000000,0.000000,0.000000,1647154373.119459,0.000000
109.000000,37057.828850,35040.427451,18819.587686,-4909.270097,25403.294015,25194.036984,27516.383233,24622.078195,-0.072000,0.976000,0.104000,192.000000,0.000000,0.000000,0.000000,0.000000,0.000000,0.000000,0.000000,0.000000,0.000000,1647154373.127465,0.000000
110.000000,37058.968789,35036.828820,18822.471061,-4907.504309,25404.389251,25194.774591,27517.232599,24617.563142,-0.072000,0.976000,0.104000,192.000000,0.000000,0.000000,0.000000,0.000000,0.000000,0.000000,0.000000,0.000000,0.000000,1647154373.127481,0.000000
111.000000,37052.442080,35034.772460,18818.067767,-4912.153472,25401.997614,25192.293548,27515.131535,24623.933390,-0.072000,0.976000,0.104000,192.000000,0.000000,0.000000,0.000000,0.000000,0.000000,0.000000,0.000000,0.000000,0.000000,1647154373.135473,0.000000
112.000000,37051.302141,35038.996940,18818.514802,-4909.650077,25403.673995,25191.131257,27511.219980,24629.856602,-0.072000,0.976000,0.104000,192.000000,0.000000,0.000000,0.000000,0.000000,0.000000,0.000000,0.000000,0.000000,0.000000,1647154373.135489,0.000000
113.000000,37055.861897,35036.985283,18822.135785,-4907.571364,25406.803239,25193.746411,27517.590227,24624.894515,-0.072000,0.976000,0.104000,192.000000,0.000000,0.000000,0.000000,0.000000,0.000000,0.000000,0.000000,0.000000,0.000000,1647154373.142537,0.000000
114.000000,37042.964940,35022.031965,18807.070709,-4920.378914,25393.548655,25179.374239,27499.485314,24610.321177,-0.072000,0.976000,0.104000,192.000000,0.000000,0.000000,0.000000,0.000000,0.000000,0.000000,0.000000,0.000000,0.000000,1647154373.142553,0.000000
115.000000,37050.720996,35035.219495,18814.782061,-4909.135986,25399.695384,25182.324670,27504.559160,24606.990767,-0.072000,0.976000,0.104000,192.000000,0.000000,0.000000,0.000000,0.000000,0.000000,0.000000,0.000000,0.000000,0.000000,1647154373.150135,0.000000
116.000000,37047.971731,35033.096079,18812.412776,-4914.813330,25394.286262,25181.274138,27504.112125,24616.713776,-0.074000,0.976000,0.100000,192.000000,253.000000,176.000000,30.000000,128.000000,3.000000,32.000000,0.000000,0.000000,0.000000,1647154373.150151,0.000000
117.000000,37052.129156,35036.895876,18814.692654,-4913.405170,25396.789658,25183.621071,27504.849733,24619.060709,-0.074000,0.976000,0.100000,192.000000,0.000000,0.000000,0.000000,0.000000,0.000000,0.000000,0.000000,0.000000,0.000000,1647154373.158021,0.000000
118.000000,37055.928952,35044.741338,18821.800509,-4905.582059,25404.724527,25192.941748,27511.331738,24628.046111,-0.074000,0.976000,0.100000,192.000000,0.000000,0.000000,0.000000,0.000000,0.000000,0.000000,0.000000,0.000000,0.000000,1647154373.158039,0.000000
119.000000,37058.432348,35049.882239,18824.616829,-4903.145719,25407.965530,25198.194408,27519.601884,24636.606829,-0.074000,0.976000,0.100000,192.000000,0.000000,0.000000,0.000000,0.000000,0.000000,0.000000,0.000000,0.000000,0.000000,1647154373.166161,0.000000
120.000000,37062.567420,35048.384672,18824.505070,-4903.905678,25409.328986,25194.819295,27520.942989,24624.089852,-0.074000,0.976000,0.100000,192.000000,0.000000,0.000000,0.000000,0.000000,0.000000,0.000000,0.000000,0.000000,0.000000,1647154373.166178,0.000000
121.000000,37058.611162,35043.132012,18822.135785,-4906.565536,25408.256103,25192.762934,27519.825401,24622.234657,-0.074000,0.976000,0.100000,192.000000,0.000000,0.000000,0.000000,0.000000,0.000000,0.000000,0.000000,0.000000,0.000000,1647154373.172677,0.000000
122.000000,37048.284656,35034.683053,18813.932695,-4912.734617,25399.941254,25186.012707,27510.996462,24615.842058,-0.074000,0.976000,0.100000,192.000000,0.000000,0.000000,0.000000,0.000000,0.000000,0.000000,0.000000,0.000000,0.000000,1647154373.172693,0.000000
123.000000,37052.017397,35039.086347,18817.732491,-4907.101978,25403.763402,25191.153609,27511.152924,24629.610733,-0.074000,0.976000,0.100000,192.000000,0.000000,0.000000,0.000000,0.000000,0.000000,0.000000,0.000000,0.000000,0.000000,1647154373.179831,0.000000
124.000000,37061.025150,35050.508088,18825.153270,-4903.436292,25412.882914,25199.222588,27522.619369,24634.617524,-0.074000,0.976000,0.100000,192.000000,0.000000,0.000000,0.000000,0.000000,0.000000,0.000000,0.000000,0.000000,0.000000,1647154373.187755,0.000000
125.000000,37054.923124,35045.478945,18815.497317,-4911.907603,25404.501010,25190.147780,27511.331738,24621.519401,-0.074000,0.976000,0.100000,192.000000,0.000000,0.000000,0.000000,0.000000,0.000000,0.000000,0.000000,0.000000,0.000000,1647154373.187773,0.000000
126.000000,37048.977560,35034.995977,18809.171773,-4920.065990,25397.147286,25183.621071,27505.922616,24613.472773,-0.076000,0.978000,0.104000,192.000000,253.000000,160.000000,30.000000,144.000000,3.000000,64.000000,0.000000,0.000000,0.000000,1647154373.194821,0.000000
127.000000,37043.188458,35022.300186,18810.065843,-4923.239937,25398.331928,25186.929129,27510.370613,24614.344491,-0.076000,0.978000,0.104000,192.000000,0.000000,0.000000,0.000000,0.000000,0.000000,0.000000,0.000000,0.000000,0.000000,1647154373.194838,0.000000
128.000000,37051.235086,35029.564503,18820.839384,-4914.299239,25408.300806,25198.663795,27520.540657,24624.894515,-0.076000,0.978000,0.104000,192.000000,0.000000,0.000000,0.000000,0.000000,0.000000,0.000000,0.000000,0.000000,0.000000,1647154373.202471,0.000000
129.000000,37041.489725,35022.031965,18808.255352,-4929.073743,25393.123972,25182.503484,27498.524189,24601.603997,-0.076000,0.978000,0.104000,192.000000,0.000000,0.000000,0.000000,0.000000,0.000000,0.000000,0.000000,0.000000,0.000000,1647154373.202488,0.000000
130.000000,37041.534429,35024.490657,18810.423471,-4925.899795,25393.101620,25187.577330,27503.218055,24605.604959,-0.076000,0.978000,0.104000,192.000000,0.000000,0.000000,0.000000,0.000000,0.000000,0.000000,0.000000,0.000000,0.000000,1647154373.210465,0.000000
131.000000,37055.258400,35032.805506,18823.923924,-4912.086417,25405.685652,25202.776516,27521.859410,24632.605867,-0.076000,0.978000,0.104000,192.000000,0.000000,0.000000,0.000000,0.000000,0.000000,0.000000,0.000000,0.000000,0.000000,1647154373.210482,0.000000
132.000000,37055.191345,35033.744280,18820.347645,-4916.310896,25402.735222,25198.417926,27520.115974,24628.470794,-0.076000,0.978000,0.104000,192.000000,0.000000,0.000000,0.000000,0.000000,0.000000,0.000000,0.000000,0.000000,0.000000,1647154373.218357,0.000000
133.000000,37051.883286,35025.250617,18816.279628,-4920.401266,25400.365937,25194.640481,27516.316177,24624.291018,-0.076000,0.978000,0.104000,192.000000,0.000000,0.000000,0.000000,0.000000,0.000000,0.000000,0.000000,0.000000,0.000000,1647154373.218374,0.000000
134.000000,37052.509135,35024.602416,18816.436090,-4916.892042,25402.310539,25194.886350,27511.845829,24622.927561,-0.076000,0.978000,0.104000,192.000000,0.000000,0.000000,0.000000,0.000000,0.000000,0.000000,0.000000,0.000000,0.000000,1647154373.224897,0.000000
135.000000,37049.938685,35030.168000,18816.436090,-4913.047542,25401.975262,25196.182751,27521.859410,24618.792488,-0.076000,0.978000,0.104000,192.000000,0.000000,0.000000,0.000000,0.000000,0.000000,0.000000,0.000000,0.000000,0.000000,1647154373.224913,0.000000
136.000000,37055.593676,35039.600437,18822.471061,-4907.124329,25408.390213,25201.547170,27519.914808,24629.990712,-0.076000,0.974000,0.102000,192.000000,253.000000,160.000000,30.000000,112.000000,3.000000,48.000000,0.000000,0.000000,0.000000,1647154373.233035,0.000000
137.000000,37046.317702,35028.268102,18812.859811,-4917.562594,25400.522399,25194.528722,27512.605788,24628.068462,-0.076000,0.974000,0.102000,192.000000,0.000000,0.000000,0.000000,0.000000,0.000000,0.000000,0.000000,0.000000,0.000000,1647154373.233052,0.000000
138.000000,37044.395452,35029.788021,18811.764575,-4918.590774,25398.935425,25189.968966,27506.213189,24621.094718,-0.076000,0.974000,0.102000,192.000000,0.000000,0.000000,0.000000,0.000000,0.000000,0.000000,0.000000,0.000000,0.000000,1647154373.240065,0.000000
139.000000,37054.923124,35039.242809,18823.923924,-4911.035885,25407.250274,25196.093344,27512.941064,24622.413471,-0.076000,0.974000,0.102000,192.000000,0.000000,0.000000,0.000000,0.000000,0.000000,0.000000,0.000000,0.000000,0.000000,1647154373.248079,0.000000
140.000000,37052.576191,35031.620864,18817.732491,-4917.383780,25401.081193,25188.717269,27508.314253,24615.059747,-0.076000,0.974000,0.102000,192.000000,0.000000,0.000000,0.000000,0.000000,0.000000,0.000000,0.000000,0.000000,0.000000,1647154373.248094,0.000000
141.000000,37048.195249,35025.898817,18810.646988,-4925.564519,25392.811047,25181.497655,27502.301634,24610.522343,-0.076000,0.974000,0.102000,192.000000,0.000000,0.000000,0.000000,0.000000,0.000000,0.000000,0.000000,0.000000,0.000000,1647154373.254565,0.000000
142.000000,37047.077661,35026.547018,18811.272837,-4925.810388,25392.699288,25186.683260,27504.246235,24614.657416,-0.076000,0.974000,0.102000,192.000000,0.000000,0.000000,0.000000,0.000000,0.000000,0.000000,0.000000,0.000000,0.000000,1647154373.254582,0.000000
143.000000,37049.178725,35033.409003,18816.883125,-4918.210795,25398.980129,25193.634652,27515.176238,24621.921733,-0.076000,0.974000,0.102000,192.000000,0.000000,0.000000,0.000000,0.000000,0.000000,0.000000,0.000000,0.000000,0.000000,1647154373.262780,0.000000
144.000000,37050.072795,35034.772460,18818.134823,-4916.310896,25399.315405,25192.897045,27507.375480,24630.258933,-0.076000,0.974000,0.102000,192.000000,0.000000,0.000000,0.000000,0.000000,0.000000,0.000000,0.000000,0.000000,0.000000,1647154373.262796,0.000000
145.000000,37051.592714,35038.393442,18819.252410,-4914.165129,25400.276530,25196.205103,27515.757384,24629.878954,-0.076000,0.974000,0.102000,192.000000,0.000000,0.000000,0.000000,0.000000,0.000000,0.000000,0.000000,0.000000,0.000000,1647154373.270646,0.000000
146.000000,37051.950342,35040.673320,18819.610038,-4915.036847,25401.103544,25200.250769,27520.585361,24623.307541,-0.082000,0.978000,0.102000,192.000000,253.000000,112.000000,30.000000,144.000000,3.000000,48.000000,0.000000,0.000000,0.000000,1647154373.270662,0.000000
147.000000,37043.970769,35024.334195,18807.428337,-4924.245766,25389.860617,25185.900949,27500.938177,24605.694366,-0.082000,0.978000,0.102000,192.000000,0.000000,0.000000,0.000000,0.000000,0.000000,0.000000,0.000000,0.000000,0.000000,1647154373.277743,0.000000
148.000000,37051.033920,35032.291416,18812.971570,-4916.735580,25396.342623,25191.064202,27508.291901,24605.336738,-0.082000,0.978000,0.102000,192.000000,0.000000,0.000000,0.000000,0.000000,0.000000,0.000000,0.000000,0.000000,0.000000,1647154373.277760,0.000000
149.000000,37043.523734,35026.770535,18806.154288,-4928.716115,25390.195893,25185.364507,27504.067421,24608.890666,-0.082000,0.978000,0.102000,192.000000,0.000000,0.000000,0.000000,0.000000,0.000000,0.000000,0.000000,0.000000,0.000000,1647154373.285291,0.000000
150.000000,37049.022263,35034.124259,18812.077500,-4920.781245,25397.013175,25196.138048,27513.075174,24631.823555,-0.082000,0.978000,0.102000,192.000000,0.000000,0.000000,0.000000,0.000000,0.000000,0.000000,0.000000,0.000000,0.000000,1647154373.285308,0.000000
151.000000,37044.037824,35029.676262,18809.529401,-4923.351696,25394.107448,25195.065164,27513.678672,24629.767195,-0.082000,0.978000,0.102000,192.000000,0.000000,0.000000,0.000000,0.000000,0.000000,0.000000,0.000000,0.000000,0.000000,1647154373.293286,0.000000
152.000000,37043.747251,35029.788021,18812.435128,-4924.469283,25394.912111,25197.032117,27513.388099,24628.314332,-0.082000,0.978000,0.102000,192.000000,0.000000,0.000000,0.000000,0.000000,0.000000,0.000000,0.000000,0.000000,0.000000,1647154373.293302,0.000000
153.000000,37054.364330,35040.405099,18825.846174,-4911.594678,25408.479620,25208.163286,27521.010044,24634.841041,-0.082000,0.978000,0.102000,192.000000,0.000000,0.000000,0.000000,0.000000,0.000000,0.000000,0.000000,0.000000,0.000000,1647154373.300395,0.000000
154.000000,37043.546086,35027.150515,18813.910343,-4923.396399,25396.633195,25190.438353,27501.273453,24604.643834,-0.082000,0.978000,0.102000,192.000000,0.000000,0.000000,0.000000,0.000000,0.000000,0.000000,0.000000,0.000000,0.000000,1647154373.300411,0.000000
155.000000,37047.748214,35033.744280,18816.167869,-4918.411960,25399.807143,25192.204141,27503.553331,24609.605921,-0.082000,0.978000,0.102000,192.000000,0.000000,0.000000,0.000000,0.000000,0.000000,0.000000,0.000000,0.000000,0.000000,1647154373.306948,0.000000
156.000000,37057.426519,35039.734547,18824.817994,-4909.963001,25407.071460,25201.658929,27515.287997,24637.970285,-0.072000,0.984000,0.098000,192.000000,253.000000,192.000000,30.000000,192.000000,3.000000,16.000000,0.000000,0.000000,0.000000,1647154373.314865,0.000000
157.000000,37049.156374,35033.654873,18818.604209,-4915.193309,25401.595283,25197.479152,27506.526113,24626.727358,-0.072000,0.984000,0.098000,192.000000,0.000000,0.000000,0.000000,0.000000,0.000000,0.000000,0.000000,0.000000,0.000000,1647154373.314882,0.000000
158.000000,37044.417804,35034.012501,18813.709177,-4918.322553,25396.677899,25193.589949,27503.441573,24620.357111,-0.072000,0.984000,0.098000,192.000000,0.000000,0.000000,0.000000,0.000000,0.000000,0.000000,0.000000,0.000000,0.000000,1647154373.322929,0.000000
159.000000,37048.754042,35038.840477,18814.715006,-4917.361428,25395.962643,25191.444181,27496.557235,24611.014081,-0.072000,0.984000,0.098000,192.000000,0.000000,0.000000,0.000000,0.000000,0.000000,0.000000,0.000000,0.000000,0.000000,1647154373.322945,0.000000
160.000000,37049.581057,35037.834649,18815.743186,-4912.511100,25397.460210,25192.181789,27497.294843,24610.030605,-0.072000,0.984000,0.098000,192.000000,0.000000,0.000000,0.000000,0.000000,0.000000,0.000000,0.000000,0.000000,0.000000,1647154373.330068,0.000000
161.000000,37060.913391,35046.797698,18826.941410,-4902.609277,25407.920826,25204.363490,27511.331738,24625.676826,-0.072000,0.984000,0.098000,192.000000,0.000000,0.000000,0.000000,0.000000,0.000000,0.000000,0.000000,0.000000,0.000000,1647154373.330085,0.000000
