%OpenBCI Raw EEG Data
%Number of channels = 8
%Sample Rate = 256 Hz
%Board = OpenBCI_GUI$BoardCytonSerial
%Channels = Fp1, Fp2, F3, F4, Fz, Pz, O1, O2
%Data recorded at AIMS Lab (http://aimsl.uiu.ac.bd) by Rana Depto (mail@ranadepto.com)
%Brainwaves were obtained via the Ultracortex Mark IV Headset using the OpenBCI Cyton Board
%Recording Application = ConcentrateToday (https://concentrate.today)
%Data type = RAW data with noise
%Day No = 6
%Subject ID = 5
%Session ID = 7
%Record starting timestamp (UTC+6) = 2022-03-23T10:48:51.631690
%Record ending timestamp (UTC+6)   = 2022-03-23T10:49:12.507160
%Recorded durations = ~20 seconds
Sample Index, EXG Channel 0, EXG Channel 1, EXG Channel 2, EXG Channel 3, EXG Channel 4, EXG Channel 5, EXG Channel 6, EXG Channel 7, Accel Channel 0, Accel Channel 1, Accel Channel 2, Other, Other, Other, Other, Other, Other, Other, Analog Channel 0, Analog Channel 1, Analog Channel 2, Timestamp, Timestamp (Formatted)
219.000000,1629.799799,-14005.401910,11139.014201,46087.933610,-14838.116150,24522.434118,10691.621684,16085.656415,-0.074000,0.962000,0.220000,192.000000,0.000000,0.000000,0.000000,0.000000,0.000000,0.000000,0.000000,0.000000,0.000000,1648010931.631435,0.000000
220.000000,1631.744400,-14000.685692,11142.881053,46094.616782,-14829.443673,24523.082319,10696.293199,16094.239485,-0.074000,0.962000,0.220000,192.000000,0.000000,0.000000,0.000000,0.000000,0.000000,0.000000,0.000000,0.000000,0.000000,1648010931.631451,0.000000
221.000000,1613.527729,-14021.673980,11125.580803,46083.999703,-14842.385333,24504.396260,10670.052251,16075.642833,-0.074000,0.962000,0.220000,192.000000,0.000000,0.000000,0.000000,0.000000,0.000000,0.000000,0.000000,0.000000,0.000000,1648010931.639312,0.000000
222.000000,1618.065133,-14017.561259,11127.279535,46080.602238,-14841.603022,24510.207714,10667.124172,16070.412525,-0.074000,0.962000,0.220000,192.000000,0.000000,0.000000,0.000000,0.000000,0.000000,0.000000,0.000000,0.000000,0.000000,1648010931.639319,0.000000
223.000000,1640.528636,-13996.751785,11146.837312,46094.549727,-14823.945144,24536.940400,10692.672216,16099.626255,-0.066000,0.956000,0.212000,192.000000,253.000000,240.000000,29.000000,224.000000,6.000000,160.000000,0.000000,0.000000,0.000000,1648010931.647290,0.000000
224.000000,1632.660822,-14005.960704,11142.836349,46092.828642,-14831.432978,24532.671217,10697.410786,16098.039281,-0.066000,0.956000,0.212000,192.000000,0.000000,0.000000,0.000000,0.000000,0.000000,0.000000,0.000000,0.000000,0.000000,1648010931.647296,0.000000
225.000000,1634.426610,-14008.419395,11145.853835,46092.269849,-14829.957763,24532.604162,10702.350521,16074.681708,-0.066000,0.956000,0.212000,192.000000,0.000000,0.000000,0.000000,0.000000,0.000000,0.000000,0.000000,0.000000,0.000000,1648010931.653842,0.000000
226.000000,1628.346935,-14013.269724,11139.640050,46088.537108,-14836.953859,24526.971522,10691.956960,16085.790525,-0.066000,0.956000,0.212000,192.000000,0.000000,0.000000,0.000000,0.000000,0.000000,0.000000,0.000000,0.000000,0.000000,1648010931.653846,0.000000
227.000000,1615.762903,-14019.170585,11124.820843,46072.868535,-14852.890653,24513.180496,10676.936588,16081.566045,-0.066000,0.956000,0.212000,192.000000,0.000000,0.000000,0.000000,0.000000,0.000000,0.000000,0.000000,0.000000,0.000000,1648010931.661846,0.000000
228.000000,1618.758037,-14013.560297,11127.056018,46074.634322,-14851.080161,24514.834525,10676.266036,16076.469848,-0.066000,0.956000,0.212000,192.000000,0.000000,0.000000,0.000000,0.000000,0.000000,0.000000,0.000000,0.000000,0.000000,1648010931.661850,0.000000
229.000000,1605.391694,-14031.464044,11119.724646,46071.706244,-14856.891615,24505.916179,10669.202884,16081.722508,-0.066000,0.956000,0.212000,192.000000,0.000000,0.000000,0.000000,0.000000,0.000000,0.000000,0.000000,0.000000,0.000000,1648010931.669894,0.000000
230.000000,1601.681304,-14037.364905,11118.495300,46066.990026,-14857.137484,24504.932702,10674.544951,16085.321139,-0.066000,0.956000,0.212000,192.000000,0.000000,0.000000,0.000000,0.000000,0.000000,0.000000,0.000000,0.000000,0.000000,1648010931.669898,0.000000
231.000000,1610.867871,-14028.267745,11122.988000,46076.802442,-14854.432923,24509.112478,10676.400146,16088.249217,-0.066000,0.956000,0.212000,192.000000,0.000000,0.000000,0.000000,0.000000,0.000000,0.000000,0.000000,0.000000,0.000000,1648010931.677059,0.000000
232.000000,1610.510243,-14026.926640,11116.595401,46079.037616,-14857.204539,24502.116382,10662.765582,16073.608824,-0.066000,0.956000,0.212000,192.000000,0.000000,0.000000,0.000000,0.000000,0.000000,0.000000,0.000000,0.000000,0.000000,1648010931.677066,0.000000
233.000000,1614.198281,-14016.421320,11120.909288,46085.117291,-14849.292022,24505.871475,10658.943434,16069.093772,-0.064000,0.958000,0.204000,192.000000,254.000000,0.000000,29.000000,240.000000,6.000000,96.000000,0.000000,0.000000,0.000000,1648010931.683497,0.000000
234.000000,1618.601575,-14013.672055,11125.223175,46089.766453,-14847.392124,24508.821906,10661.469181,16060.197778,-0.064000,0.958000,0.204000,192.000000,0.000000,0.000000,0.000000,0.000000,0.000000,0.000000,0.000000,0.000000,0.000000,1648010931.691523,0.000000
235.000000,1639.120476,-13999.322236,11143.082219,46100.316477,-14829.555432,24528.759662,10682.055137,16073.899397,-0.064000,0.958000,0.204000,192.000000,0.000000,0.000000,0.000000,0.000000,0.000000,0.000000,0.000000,0.000000,0.000000,1648010931.691534,0.000000
236.000000,1625.798836,-14013.917925,11131.258146,46089.922916,-14839.613717,24520.042481,10679.819963,16080.157886,-0.064000,0.958000,0.204000,192.000000,0.000000,0.000000,0.000000,0.000000,0.000000,0.000000,0.000000,0.000000,0.000000,1648010931.699575,0.000000
237.000000,1611.918403,-14022.657457,11116.505994,46073.337921,-14852.778894,24506.050289,10664.486666,16067.015060,-0.064000,0.958000,0.204000,192.000000,0.000000,0.000000,0.000000,0.000000,0.000000,0.000000,0.000000,0.000000,0.000000,1648010931.699579,0.000000
238.000000,1609.236194,-14023.663285,11112.370922,46065.157183,-14855.997545,24504.128039,10669.716974,16070.233711,-0.064000,0.958000,0.204000,192.000000,0.000000,0.000000,0.000000,0.000000,0.000000,0.000000,0.000000,0.000000,0.000000,1648010931.706745,0.000000
239.000000,1621.194377,-14016.577782,11120.506957,46068.577000,-14848.085028,24514.633359,10684.335015,16083.890627,-0.064000,0.958000,0.204000,192.000000,0.000000,0.000000,0.000000,0.000000,0.000000,0.000000,0.000000,0.000000,0.000000,1648010931.706749,0.000000
240.000000,1625.351802,-14013.403835,11131.593422,46076.914200,-14839.971344,24519.394281,10685.206733,16087.757479,-0.064000,0.958000,0.204000,192.000000,0.000000,0.000000,0.000000,0.000000,0.000000,0.000000,0.000000,0.000000,0.000000,1648010931.714100,0.000000
241.000000,1620.926156,-14019.215288,11129.291192,46079.439948,-14844.531100,24513.225199,10674.544951,16075.151095,-0.064000,0.958000,0.204000,192.000000,0.000000,0.000000,0.000000,0.000000,0.000000,0.000000,0.000000,0.000000,0.000000,1648010931.714104,0.000000
242.000000,1627.609328,-14009.760500,11130.788759,46080.848107,-14843.011182,24513.582827,10676.310739,16078.146229,-0.064000,0.958000,0.204000,192.000000,0.000000,0.000000,0.000000,0.000000,0.000000,0.000000,0.000000,0.000000,0.000000,1648010931.722146,0.000000
243.000000,1644.037860,-13989.733337,11146.792608,46086.391340,-14827.633182,24528.491441,10696.919047,16095.848810,-0.060000,0.962000,0.208000,192.000000,254.000000,32.000000,30.000000,16.000000,6.000000,128.000000,0.000000,0.000000,0.000000,1648010931.722149,0.000000
244.000000,1633.174912,-14001.155079,11142.232852,46082.010398,-14831.857661,24520.981255,10694.996797,16095.737051,-0.060000,0.962000,0.208000,192.000000,0.000000,0.000000,0.000000,0.000000,0.000000,0.000000,0.000000,0.000000,0.000000,1648010931.729440,0.000000
245.000000,1607.604516,-14023.663285,11119.299962,46066.095956,-14852.711839,24497.221350,10668.957015,16070.323118,-0.060000,0.962000,0.208000,192.000000,0.000000,0.000000,0.000000,0.000000,0.000000,0.000000,0.000000,0.000000,0.000000,1648010931.729466,0.000000
246.000000,1610.733761,-14020.936372,11122.138634,46062.989064,-14853.628260,24503.859818,10679.708204,16080.023775,-0.060000,0.962000,0.208000,192.000000,0.000000,0.000000,0.000000,0.000000,0.000000,0.000000,0.000000,0.000000,0.000000,1648010931.736828,0.000000
247.000000,1610.577298,-14021.294000,11119.344666,46062.273808,-14858.255071,24501.825810,10678.232989,16077.319214,-0.060000,0.962000,0.208000,192.000000,0.000000,0.000000,0.000000,0.000000,0.000000,0.000000,0.000000,0.000000,0.000000,1648010931.736852,0.000000
248.000000,1625.508264,-14004.284323,11130.587593,46066.207715,-14844.508749,24512.778164,10687.620722,16081.878970,-0.060000,0.962000,0.208000,192.000000,0.000000,0.000000,0.000000,0.000000,0.000000,0.000000,0.000000,0.000000,0.000000,1648010931.743886,0.000000
249.000000,1616.969897,-14007.726491,11124.932602,46064.307817,-14846.185129,24507.525505,10690.369986,16094.284188,-0.060000,0.962000,0.208000,192.000000,0.000000,0.000000,0.000000,0.000000,0.000000,0.000000,0.000000,0.000000,0.000000,1648010931.751873,0.000000
250.000000,1620.054438,-14008.508802,11130.073503,46071.214506,-14843.569975,24508.196057,10703.244591,16098.039281,-0.060000,0.962000,0.208000,192.000000,0.000000,0.000000,0.000000,0.000000,0.000000,0.000000,0.000000,0.000000,0.000000,1648010931.751892,0.000000
251.000000,1606.241060,-14025.898460,11118.115320,46059.390433,-14858.724458,24494.606196,10692.806326,16094.440650,-0.060000,0.962000,0.208000,192.000000,0.000000,0.000000,0.000000,0.000000,0.000000,0.000000,0.000000,0.000000,0.000000,1648010931.758975,0.000000
252.000000,1607.716275,-14019.930544,11122.026875,46064.240761,-14854.410571,24502.630472,10696.941399,16109.528078,-0.060000,0.962000,0.208000,192.000000,0.000000,0.000000,0.000000,0.000000,0.000000,0.000000,0.000000,0.000000,0.000000,1648010931.758979,0.000000
253.000000,1592.293572,-14037.700181,11107.945276,46053.422517,-14870.481476,24483.989118,10673.337957,16083.935330,-0.064000,0.960000,0.218000,192.000000,254.000000,0.000000,30.000000,0.000000,6.000000,208.000000,0.000000,0.000000,0.000000,1648010931.766466,0.000000
254.000000,1583.464632,-14044.383352,11099.831593,46041.710203,-14880.897389,24472.567376,10653.310794,16058.588452,-0.064000,0.960000,0.218000,192.000000,0.000000,0.000000,0.000000,0.000000,0.000000,0.000000,0.000000,0.000000,0.000000,1648010931.766470,0.000000
255.000000,1603.111816,-14020.891669,11125.156119,46050.539142,-14863.395973,24493.756830,10660.709221,16061.203606,-0.064000,0.960000,0.218000,192.000000,0.000000,0.000000,0.000000,0.000000,0.000000,0.000000,0.000000,0.000000,0.000000,1648010931.774386,0.000000
0.000000,1607.783330,-14014.074387,11133.023934,46055.411822,-14858.657403,24499.255359,10666.163047,16073.184141,-0.064000,0.960000,0.218000,192.000000,0.000000,0.000000,0.000000,0.000000,0.000000,0.000000,0.000000,0.000000,0.000000,1648010931.774392,0.000000
1.000000,1597.836804,-14021.919849,11123.949125,46053.154296,-14868.201598,24494.561493,10680.423460,16106.644703,-0.064000,0.960000,0.218000,192.000000,0.000000,0.000000,0.000000,0.000000,0.000000,0.000000,0.000000,0.000000,0.000000,1648010931.782393,0.000000
2.000000,1585.677455,-14034.526233,11112.393273,46046.716994,-14875.734136,24484.525559,10678.009472,16102.934313,-0.064000,0.960000,0.218000,192.000000,0.000000,0.000000,0.000000,0.000000,0.000000,0.000000,0.000000,0.000000,0.000000,1648010931.782399,0.000000
3.000000,1577.004978,-14047.266727,11102.089119,46038.089220,-14885.971235,24477.127132,10667.682966,16086.349319,-0.064000,0.960000,0.218000,192.000000,0.000000,0.000000,0.000000,0.000000,0.000000,0.000000,0.000000,0.000000,0.000000,1648010931.789110,0.000000
4.000000,1586.772691,-14037.543719,11113.600268,46043.788915,-14875.220045,24487.744211,10671.527466,16083.242426,-0.064000,0.960000,0.218000,192.000000,0.000000,0.000000,0.000000,0.000000,0.000000,0.000000,0.000000,0.000000,0.000000,1648010931.789126,0.000000
5.000000,1589.365493,-14032.514576,11117.556526,46045.957034,-14870.302662,24490.739344,10671.907445,16082.191894,-0.064000,0.960000,0.218000,192.000000,0.000000,0.000000,0.000000,0.000000,0.000000,0.000000,0.000000,0.000000,0.000000,1648010931.796977,0.000000
6.000000,1596.629810,-14027.217213,11122.585669,46052.215523,-14861.630185,24499.657690,10683.440946,16101.168525,-0.064000,0.960000,0.218000,192.000000,0.000000,0.000000,0.000000,0.000000,0.000000,0.000000,0.000000,0.000000,0.000000,1648010931.796981,0.000000
7.000000,1582.347045,-14041.634088,11113.980247,46045.219427,-14872.314319,24487.118362,10666.453620,16080.716679,-0.066000,0.952000,0.212000,192.000000,253.000000,240.000000,29.000000,192.000000,6.000000,160.000000,0.000000,0.000000,0.000000,1648010931.804091,0.000000
8.000000,1586.705635,-14039.443617,11117.601230,46042.179590,-14872.426077,24491.253435,10670.856913,16083.085964,-0.066000,0.952000,0.212000,192.000000,0.000000,0.000000,0.000000,0.000000,0.000000,0.000000,0.000000,0.000000,0.000000,1648010931.812288,0.000000
9.000000,1589.499603,-14036.604945,11119.881108,46046.471124,-14867.598101,24494.494438,10673.315605,16081.163714,-0.066000,0.952000,0.212000,192.000000,0.000000,0.000000,0.000000,0.000000,0.000000,0.000000,0.000000,0.000000,0.000000,1648010931.812292,0.000000
10.000000,1599.870813,-14026.770178,11126.966611,46048.438078,-14861.607833,24506.072641,10677.942416,16087.846886,-0.066000,0.952000,0.212000,192.000000,0.000000,0.000000,0.000000,0.000000,0.000000,0.000000,0.000000,0.000000,0.000000,1648010931.818794,0.000000
11.000000,1620.412066,-14002.071500,11146.166759,46063.145526,-14843.726438,24525.339845,10704.920972,16100.140345,-0.066000,0.952000,0.212000,192.000000,0.000000,0.000000,0.000000,0.000000,0.000000,0.000000,0.000000,0.000000,0.000000,1648010931.818800,0.000000
12.000000,1606.285764,-14006.765366,11133.962707,46061.871476,-14852.600080,24516.823830,10699.601257,16098.307502,-0.066000,0.952000,0.212000,192.000000,0.000000,0.000000,0.000000,0.000000,0.000000,0.000000,0.000000,0.000000,0.000000,1648010931.826729,0.000000
13.000000,1586.549173,-14032.045189,11117.288305,46051.768488,-14867.329880,24503.278673,10688.090108,16092.093717,-0.066000,0.952000,0.212000,192.000000,0.000000,0.000000,0.000000,0.000000,0.000000,0.000000,0.000000,0.000000,0.000000,1648010931.826734,0.000000
14.000000,1590.907763,-14034.258012,11122.384503,46052.371985,-14866.569920,24504.396260,10683.083318,16091.959607,-0.066000,0.952000,0.212000,192.000000,0.000000,0.000000,0.000000,0.000000,0.000000,0.000000,0.000000,0.000000,0.000000,1648010931.834904,0.000000
15.000000,1598.775577,-14021.383407,11128.464178,46057.199962,-14860.557301,24509.380699,10683.776222,16096.295845,-0.066000,0.952000,0.212000,192.000000,0.000000,0.000000,0.000000,0.000000,0.000000,0.000000,0.000000,0.000000,0.000000,1648010931.834910,0.000000
16.000000,1604.631734,-14013.180317,11134.856777,46060.888000,-14855.058772,24513.225199,10685.989044,16097.301674,-0.066000,0.952000,0.212000,192.000000,0.000000,0.000000,0.000000,0.000000,0.000000,0.000000,0.000000,0.000000,0.000000,1648010931.841796,0.000000
17.000000,1614.734723,-14003.278494,11141.830521,46065.894790,-14842.742961,24516.399147,10679.685852,16085.522304,-0.068000,0.962000,0.214000,192.000000,253.000000,224.000000,30.000000,16.000000,6.000000,176.000000,0.000000,0.000000,0.000000,1648010931.841800,0.000000
18.000000,1612.030162,-14006.184221,11138.835387,46067.526468,-14843.189996,24509.783031,10674.522600,16066.322156,-0.068000,0.962000,0.214000,192.000000,0.000000,0.000000,0.000000,0.000000,0.000000,0.000000,0.000000,0.000000,0.000000,1648010931.849340,0.000000
19.000000,1583.598743,-14033.520405,11114.203765,46048.438078,-14866.525217,24487.431286,10664.598425,16054.319269,-0.068000,0.962000,0.214000,192.000000,0.000000,0.000000,0.000000,0.000000,0.000000,0.000000,0.000000,0.000000,0.000000,1648010931.849345,0.000000
20.000000,1584.179888,-14031.329934,11114.069654,46042.470162,-14864.491208,24494.248568,10669.851085,16068.914958,-0.068000,0.962000,0.214000,192.000000,0.000000,0.000000,0.000000,0.000000,0.000000,0.000000,0.000000,0.000000,0.000000,1648010931.857412,0.000000
21.000000,1567.170211,-14050.351268,11099.362206,46030.802552,-14878.483400,24479.697583,10650.338012,16061.136551,-0.068000,0.962000,0.214000,192.000000,0.000000,0.000000,0.000000,0.000000,0.000000,0.000000,0.000000,0.000000,0.000000,1648010931.857416,0.000000
22.000000,1586.817394,-14038.214271,11113.153233,46034.557645,-14870.079144,24495.656728,10665.783067,16070.256063,-0.068000,0.962000,0.214000,192.000000,0.000000,0.000000,0.000000,0.000000,0.000000,0.000000,0.000000,0.000000,0.000000,1648010931.864336,0.000000
23.000000,1582.682321,-14043.466931,11110.895707,46031.808380,-14876.225874,24488.258301,10661.357422,16069.809028,-0.068000,0.962000,0.214000,192.000000,0.000000,0.000000,0.000000,0.000000,0.000000,0.000000,0.000000,0.000000,0.000000,1648010931.870867,0.000000
24.000000,1590.952467,-14033.542756,11117.333009,46037.731592,-14869.475647,24494.494438,10666.274806,16057.135589,-0.068000,0.962000,0.214000,192.000000,0.000000,0.000000,0.000000,0.000000,0.000000,0.000000,0.000000,0.000000,0.000000,1648010931.870873,0.000000
25.000000,1596.450996,-14027.038399,11124.194994,46045.465296,-14860.870226,24509.559513,10682.301007,16086.483429,-0.068000,0.962000,0.214000,192.000000,0.000000,0.000000,0.000000,0.000000,0.000000,0.000000,0.000000,0.000000,0.000000,1648010931.878957,0.000000
26.000000,1603.357685,-14021.249297,11130.364076,46049.980348,-14855.103475,24512.979330,10676.780126,16089.500915,-0.068000,0.962000,0.214000,192.000000,0.000000,0.000000,0.000000,0.000000,0.000000,0.000000,0.000000,0.000000,0.000000,1648010931.878961,0.000000
27.000000,1598.239136,-14027.887765,11125.983134,46049.019223,-14857.696278,24504.508019,10665.090163,16067.506798,-0.072000,0.964000,0.212000,192.000000,253.000000,192.000000,30.000000,32.000000,6.000000,160.000000,0.000000,0.000000,0.000000,1648010931.886981,0.000000
28.000000,1580.581257,-14042.058771,11112.169756,46039.810305,-14870.012089,24492.683946,10662.586768,16065.629252,-0.072000,0.964000,0.212000,192.000000,0.000000,0.000000,0.000000,0.000000,0.000000,0.000000,0.000000,0.000000,0.000000,1648010931.886985,0.000000
29.000000,1595.735740,-14025.205556,11127.145425,46045.085316,-14852.600080,24511.839391,10685.229085,16098.486316,-0.072000,0.964000,0.212000,192.000000,0.000000,0.000000,0.000000,0.000000,0.000000,0.000000,0.000000,0.000000,0.000000,1648010931.894030,0.000000
30.000000,1599.177909,-14023.685637,11132.666306,46049.957997,-14848.800284,24512.398185,10680.199943,16095.915865,-0.072000,0.964000,0.212000,192.000000,0.000000,0.000000,0.000000,0.000000,0.000000,0.000000,0.000000,0.000000,0.000000,1648010931.894034,0.000000
31.000000,1603.268278,-14017.874183,11133.158044,46052.282578,-14848.643821,24510.565342,10682.613931,16069.786676,-0.072000,0.964000,0.212000,192.000000,0.000000,0.000000,0.000000,0.000000,0.000000,0.000000,0.000000,0.000000,0.000000,1648010931.901501,0.000000
32.000000,1605.168176,-14010.945143,11133.873300,46054.785973,-14847.079199,24513.404013,10677.897713,16062.254138,-0.072000,0.964000,0.212000,192.000000,0.000000,0.000000,0.000000,0.000000,0.000000,0.000000,0.000000,0.000000,0.000000,1648010931.901505,0.000000
33.000000,1620.121493,-14001.266837,11149.743038,46065.604218,-14831.388275,24533.341769,10689.900600,16097.681653,-0.072000,0.964000,0.212000,192.000000,0.000000,0.000000,0.000000,0.000000,0.000000,0.000000,0.000000,0.000000,0.000000,1648010931.909523,0.000000
34.000000,1606.732798,-14018.254163,11138.991849,46059.435136,-14841.290097,24522.858801,10693.476879,16101.704967,-0.072000,0.964000,0.212000,192.000000,0.000000,0.000000,0.000000,0.000000,0.000000,0.000000,0.000000,0.000000,0.000000,1648010931.909528,0.000000
35.000000,1591.846537,-14030.994657,11123.569146,46048.773354,-14858.322127,24508.151353,10680.378757,16090.953778,-0.072000,0.964000,0.212000,192.000000,0.000000,0.000000,0.000000,0.000000,0.000000,0.000000,0.000000,0.000000,0.000000,1648010931.917549,0.000000
36.000000,1591.511260,-14031.061713,11120.462253,46046.068793,-14861.764295,24505.871475,10668.688794,16074.569949,-0.072000,0.964000,0.212000,192.000000,0.000000,0.000000,0.000000,0.000000,0.000000,0.000000,0.000000,0.000000,0.000000,1648010931.917553,0.000000
37.000000,1584.962199,-14032.000486,11114.695503,46043.431287,-14868.536874,24503.859818,10664.307852,16085.432897,-0.072000,0.962000,0.214000,192.000000,253.000000,192.000000,30.000000,16.000000,6.000000,176.000000,0.000000,0.000000,0.000000,1648010931.923725,0.000000
38.000000,1592.919420,-14022.858622,11122.697428,46049.376851,-14862.747772,24512.197019,10668.554684,16091.311406,-0.072000,0.962000,0.214000,192.000000,0.000000,0.000000,0.000000,0.000000,0.000000,0.000000,0.000000,0.000000,0.000000,1648010931.923729,0.000000
39.000000,1607.805682,-14010.274590,11140.534120,46062.363215,-14847.168606,24527.776185,10683.776222,16099.268627,-0.072000,0.962000,0.214000,192.000000,0.000000,0.000000,0.000000,0.000000,0.000000,0.000000,0.000000,0.000000,0.000000,1648010931.931150,0.000000
40.000000,1599.289668,-14019.148233,11132.889823,46056.127078,-14856.154007,24518.299045,10688.738309,16087.802182,-0.072000,0.962000,0.214000,192.000000,0.000000,0.000000,0.000000,0.000000,0.000000,0.000000,0.000000,0.000000,0.000000,1648010931.939146,0.000000
41.000000,1601.234269,-14017.941239,11130.185262,46053.444869,-14858.813865,24517.650845,10690.705263,16083.644758,-0.072000,0.962000,0.214000,192.000000,0.000000,0.000000,0.000000,0.000000,0.000000,0.000000,0.000000,0.000000,0.000000,1648010931.939181,0.000000
42.000000,1607.515109,-14013.783814,11135.370867,46061.156221,-14852.398914,24523.954037,10690.682911,16085.030566,-0.072000,0.962000,0.214000,192.000000,0.000000,0.000000,0.000000,0.000000,0.000000,0.000000,0.000000,0.000000,0.000000,1648010931.947212,0.000000
43.000000,1610.577298,-14010.319294,11141.048210,46063.413747,-14846.006315,24525.071624,10695.667350,16081.811915,-0.072000,0.962000,0.214000,192.000000,0.000000,0.000000,0.000000,0.000000,0.000000,0.000000,0.000000,0.000000,0.000000,1648010931.947222,0.000000
44.000000,1596.428644,-14024.937335,11130.609945,46051.723784,-14852.421266,24512.554647,10678.903541,16075.553426,-0.072000,0.962000,0.214000,192.000000,0.000000,0.000000,0.000000,0.000000,0.000000,0.000000,0.000000,0.000000,0.000000,1648010931.953829,0.000000
45.000000,1572.601685,-14043.891614,11105.643047,46031.495456,-14876.337633,24488.615929,10653.668422,16055.839188,-0.072000,0.962000,0.214000,192.000000,0.000000,0.000000,0.000000,0.000000,0.000000,0.000000,0.000000,0.000000,0.000000,1648010931.953833,0.000000
46.000000,1567.952522,-14046.305602,11099.943352,46032.456581,-14884.294854,24486.246644,10652.126152,16056.777961,-0.072000,0.962000,0.214000,192.000000,0.000000,0.000000,0.000000,0.000000,0.000000,0.000000,0.000000,0.000000,0.000000,1648010931.961836,0.000000
47.000000,1582.503507,-14030.480567,11111.901535,46042.023127,-14872.157856,24503.613949,10663.480838,16067.775019,-0.066000,0.960000,0.210000,192.000000,253.000000,240.000000,30.000000,0.000000,6.000000,144.000000,0.000000,0.000000,0.000000,1648010931.961840,0.000000
48.000000,1558.587141,-14053.480512,11091.896724,46032.367174,-14889.346348,24480.636356,10642.604308,16042.897528,-0.066000,0.960000,0.210000,192.000000,0.000000,0.000000,0.000000,0.000000,0.000000,0.000000,0.000000,0.000000,0.000000,1648010931.969825,0.000000
49.000000,1561.962254,-14054.374582,11092.522573,46029.617909,-14894.263732,24481.843350,10642.425494,16042.182272,-0.066000,0.960000,0.210000,192.000000,0.000000,0.000000,0.000000,0.000000,0.000000,0.000000,0.000000,0.000000,0.000000,1648010931.969829,0.000000
50.000000,1596.607458,-14022.836271,11121.155157,46048.035747,-14867.374583,24517.717900,10690.012358,16086.662243,-0.066000,0.960000,0.210000,192.000000,0.000000,0.000000,0.000000,0.000000,0.000000,0.000000,0.000000,0.000000,0.000000,1648010931.976998,0.000000
51.000000,1592.137109,-14022.813919,11117.511823,46048.393374,-14869.676813,24511.168839,10692.381643,16076.738069,-0.066000,0.960000,0.210000,192.000000,0.000000,0.000000,0.000000,0.000000,0.000000,0.000000,0.000000,0.000000,0.000000,1648010931.977002,0.000000
52.000000,1573.875734,-14042.729323,11101.887954,46035.630528,-14887.580560,24491.298138,10668.152352,16055.347449,-0.066000,0.960000,0.210000,192.000000,0.000000,0.000000,0.000000,0.000000,0.000000,0.000000,0.000000,0.000000,0.000000,1648010931.984453,0.000000
53.000000,1583.665798,-14034.749750,11111.365093,46040.637319,-14878.706918,24500.395298,10670.968672,16059.214301,-0.066000,0.960000,0.210000,192.000000,0.000000,0.000000,0.000000,0.000000,0.000000,0.000000,0.000000,0.000000,0.000000,1648010931.984457,0.000000
54.000000,1591.421853,-14027.261916,11119.948163,46050.427383,-14867.218121,24506.698490,10673.136791,16055.593318,-0.066000,0.960000,0.210000,192.000000,0.000000,0.000000,0.000000,0.000000,0.000000,0.000000,0.000000,0.000000,0.000000,1648010931.991509,0.000000
55.000000,1586.057435,-14030.838195,11118.741169,46049.779183,-14866.592272,24505.290330,10672.198018,16054.162807,-0.066000,0.960000,0.210000,192.000000,0.000000,0.000000,0.000000,0.000000,0.000000,0.000000,0.000000,0.000000,0.000000,1648010931.999513,0.000000
56.000000,1571.752318,-14045.947974,11106.760634,46038.290386,-14881.210313,24494.695603,10662.184437,16077.520380,-0.066000,0.960000,0.210000,192.000000,0.000000,0.000000,0.000000,0.000000,0.000000,0.000000,0.000000,0.000000,0.000000,1648010931.999517,0.000000
57.000000,1597.769749,-14023.462120,11128.106550,46048.058098,-14864.245339,24517.002644,10683.597408,16095.893514,-0.070000,0.960000,0.214000,192.000000,253.000000,208.000000,30.000000,0.000000,6.000000,176.000000,0.000000,0.000000,0.000000,1648010932.006722,0.000000
58.000000,1584.135185,-14036.962573,11117.668285,46048.683947,-14874.057755,24502.004624,10673.315605,16079.576740,-0.070000,0.960000,0.214000,192.000000,0.000000,0.000000,0.000000,0.000000,0.000000,0.000000,0.000000,0.000000,0.000000,1648010932.006727,0.000000
59.000000,1590.796005,-14026.636067,11119.746997,46055.456526,-14870.526179,24508.151353,10682.748041,16088.137458,-0.070000,0.960000,0.214000,192.000000,0.000000,0.000000,0.000000,0.000000,0.000000,0.000000,0.000000,0.000000,0.000000,1648010932.014054,0.000000
60.000000,1589.231383,-14024.311486,11114.539041,46057.378776,-14871.554359,24505.424441,10680.915198,16092.138421,-0.070000,0.960000,0.214000,192.000000,0.000000,0.000000,0.000000,0.000000,0.000000,0.000000,0.000000,0.000000,0.000000,1648010932.014058,0.000000
61.000000,1599.244964,-14014.387311,11119.434073,46058.943398,-14865.988775,24508.441926,10679.775259,16074.681708,-0.070000,0.960000,0.214000,192.000000,0.000000,0.000000,0.000000,0.000000,0.000000,0.000000,0.000000,0.000000,0.000000,1648010932.022075,0.000000
62.000000,1592.360627,-14017.427149,11111.052169,46056.596465,-14872.649595,24500.708222,10675.819001,16067.864426,-0.070000,0.960000,0.214000,192.000000,0.000000,0.000000,0.000000,0.000000,0.000000,0.000000,0.000000,0.000000,0.000000,1648010932.022078,0.000000
63.000000,1583.107005,-14021.361056,11106.894744,46057.579941,-14879.466877,24495.053231,10674.813172,16085.008214,-0.070000,0.960000,0.214000,192.000000,0.000000,0.000000,0.000000,0.000000,0.000000,0.000000,0.000000,0.000000,0.000000,1648010932.029177,0.000000
64.000000,1597.590935,-14003.122032,11122.540965,46065.067776,-14867.553397,24509.157182,10682.949207,16097.234618,-0.070000,0.960000,0.214000,192.000000,0.000000,0.000000,0.000000,0.000000,0.000000,0.000000,0.000000,0.000000,0.000000,1648010932.029181,0.000000
65.000000,1596.674513,-14006.921829,11121.512785,46060.664482,-14870.727345,24507.369042,10686.681949,16097.256970,-0.070000,0.960000,0.214000,192.000000,0.000000,0.000000,0.000000,0.000000,0.000000,0.000000,0.000000,0.000000,0.000000,1648010932.036719,0.000000
66.000000,1592.897069,-14011.392178,11118.607058,46057.244665,-14874.549493,24503.904522,10678.724727,16082.370708,-0.070000,0.960000,0.214000,192.000000,0.000000,0.000000,0.000000,0.000000,0.000000,0.000000,0.000000,0.000000,0.000000,1648010932.036723,0.000000
67.000000,1596.138072,-14009.335817,11120.618715,46056.752927,-14870.704993,24506.698490,10677.718899,16072.558292,-0.076000,0.964000,0.218000,192.000000,253.000000,160.000000,30.000000,32.000000,6.000000,208.000000,0.000000,0.000000,0.000000,1648010932.044743,0.000000
68.000000,1594.305229,-14014.409663,11114.807262,46053.333110,-14871.062621,24503.301025,10670.521637,16077.319214,-0.076000,0.964000,0.218000,192.000000,0.000000,0.000000,0.000000,0.000000,0.000000,0.000000,0.000000,0.000000,0.000000,1648010932.044747,0.000000
69.000000,1587.845574,-14021.584573,11108.347608,46052.774316,-14872.537836,24498.271882,10658.496399,16074.681708,-0.076000,0.964000,0.218000,192.000000,0.000000,0.000000,0.000000,0.000000,0.000000,0.000000,0.000000,0.000000,0.000000,1648010932.051817,0.000000
70.000000,1586.437414,-14016.309561,11106.671227,46055.680043,-14875.689432,24503.368080,10676.444850,16082.102487,-0.076000,0.964000,0.218000,192.000000,0.000000,0.000000,0.000000,0.000000,0.000000,0.000000,0.000000,0.000000,0.000000,1648010932.058919,0.000000
71.000000,1594.037008,-14005.290151,11115.008428,46063.011415,-14867.866322,24514.007510,10686.056100,16097.502839,-0.076000,0.964000,0.218000,192.000000,0.000000,0.000000,0.000000,0.000000,0.000000,0.000000,0.000000,0.000000,0.000000,1648010932.058923,0.000000
72.000000,1594.595801,-14007.771195,11111.901535,46066.677101,-14869.855627,24506.944359,10674.321434,16086.081098,-0.076000,0.964000,0.218000,192.000000,0.000000,0.000000,0.000000,0.000000,0.000000,0.000000,0.000000,0.000000,0.000000,1648010932.066319,0.000000
73.000000,1590.952467,-14013.962628,11109.107567,46063.190229,-14873.566016,24501.736403,10669.739326,16098.128688,-0.076000,0.964000,0.218000,192.000000,0.000000,0.000000,0.000000,0.000000,0.000000,0.000000,0.000000,0.000000,0.000000,1648010932.066323,0.000000
74.000000,1594.953429,-14013.783814,11110.471023,46057.579941,-14871.777877,24503.949225,10684.290312,16096.631121,-0.076000,0.964000,0.218000,192.000000,0.000000,0.000000,0.000000,0.000000,0.000000,0.000000,0.000000,0.000000,0.000000,1648010932.074345,0.000000
75.000000,1614.488854,-13995.254218,11127.100721,46064.196058,-14856.846912,24521.987083,10697.343731,16098.374557,-0.076000,0.964000,0.218000,192.000000,0.000000,0.000000,0.000000,0.000000,0.000000,0.000000,0.000000,0.000000,0.000000,1648010932.074348,0.000000
76.000000,1622.513130,-13987.185238,11134.476797,46076.489517,-14847.347420,24532.291237,10704.004550,16107.069386,-0.076000,0.964000,0.218000,192.000000,0.000000,0.000000,0.000000,0.000000,0.000000,0.000000,0.000000,0.000000,0.000000,1648010932.082438,0.000000
77.000000,1603.357685,-14006.720663,11117.333009,46070.611008,-14863.395973,24512.845220,10690.682911,16100.989711,-0.076000,0.964000,0.218000,192.000000,0.000000,0.000000,0.000000,0.000000,0.000000,0.000000,0.000000,0.000000,0.000000,1648010932.082442,0.000000
78.000000,1594.461691,-14015.549602,11113.801433,46064.866610,-14866.994604,24502.406955,10677.696547,16090.707909,-0.076000,0.964000,0.210000,192.000000,253.000000,160.000000,30.000000,32.000000,6.000000,144.000000,0.000000,0.000000,0.000000,1648010932.088993,0.000000
79.000000,1592.852365,-14020.042303,11109.845175,46059.926875,-14873.945996,24492.929815,10662.877341,16064.019926,-0.076000,0.964000,0.210000,192.000000,0.000000,0.000000,0.000000,0.000000,0.000000,0.000000,0.000000,0.000000,0.000000,1648010932.088997,0.000000
80.000000,1595.489871,-14018.544736,11111.342741,46061.469145,-14876.203522,24494.695603,10673.025033,16051.078266,-0.076000,0.964000,0.210000,192.000000,0.000000,0.000000,0.000000,0.000000,0.000000,0.000000,0.000000,0.000000,0.000000,1648010932.097019,0.000000
81.000000,1602.418912,-14010.945143,11117.355361,46065.470107,-14869.855627,24502.876342,10675.640187,16054.632193,-0.076000,0.964000,0.210000,192.000000,0.000000,0.000000,0.000000,0.000000,0.000000,0.000000,0.000000,0.000000,0.000000,1648010932.097023,0.000000
82.000000,1608.967973,-14004.999579,11123.680904,46069.806346,-14863.105400,24511.124135,10680.356405,16070.703098,-0.076000,0.964000,0.210000,192.000000,0.000000,0.000000,0.000000,0.000000,0.000000,0.000000,0.000000,0.000000,0.000000,1648010932.105172,0.000000
83.000000,1605.816377,-14012.442709,11123.345628,46072.108575,-14864.088877,24511.459412,10679.819963,16105.974150,-0.076000,0.964000,0.210000,192.000000,0.000000,0.000000,0.000000,0.000000,0.000000,0.000000,0.000000,0.000000,0.000000,1648010932.105186,0.000000
84.000000,1598.283839,-14017.583611,11118.316486,46064.866610,-14869.028612,24505.938531,10678.747079,16097.413432,-0.076000,0.964000,0.210000,192.000000,0.000000,0.000000,0.000000,0.000000,0.000000,0.000000,0.000000,0.000000,0.000000,1648010932.112227,0.000000
85.000000,1582.235287,-14032.112245,11102.871430,46052.662558,-14886.686490,24492.974519,10669.873437,16086.014043,-0.076000,0.964000,0.210000,192.000000,0.000000,0.000000,0.000000,0.000000,0.000000,0.000000,0.000000,0.000000,0.000000,1648010932.118692,0.000000
86.000000,1581.967066,-14029.474739,11099.272799,46046.337014,-14889.838086,24492.236911,10663.190265,16068.311461,-0.076000,0.964000,0.210000,192.000000,0.000000,0.000000,0.000000,0.000000,0.000000,0.000000,0.000000,0.000000,0.000000,1648010932.118726,0.000000
87.000000,1585.275124,-14026.747826,11101.530326,46046.873456,-14885.166572,24497.131943,10666.855951,16066.657432,-0.076000,0.964000,0.210000,192.000000,0.000000,0.000000,0.000000,0.000000,0.000000,0.000000,0.000000,0.000000,0.000000,1648010932.126735,0.000000
88.000000,1580.961237,-14034.816806,11097.641122,46044.280654,-14890.218066,24495.477914,10666.900655,16083.756516,-0.076000,0.964000,0.210000,192.000000,253.000000,160.000000,30.000000,32.000000,6.000000,144.000000,0.000000,0.000000,0.000000,1648010932.126739,0.000000
89.000000,1574.434528,-14033.855681,11093.304884,46046.448773,-14893.973159,24486.581920,10655.836541,16065.115162,-0.076000,0.964000,0.210000,192.000000,0.000000,0.000000,0.000000,0.000000,0.000000,0.000000,0.000000,0.000000,0.000000,1648010932.135048,0.000000
90.000000,1601.860118,-14008.061768,11114.270820,46064.687796,-14868.469819,24511.012377,10676.735422,16080.135534,-0.076000,0.964000,0.210000,192.000000,0.000000,0.000000,0.000000,0.000000,0.000000,0.000000,0.000000,0.000000,0.000000,1648010932.135057,0.000000
91.000000,1608.498586,-14001.132727,11121.736303,46077.808270,-14856.154007,24519.126060,10688.023053,16084.829400,-0.076000,0.964000,0.210000,192.000000,0.000000,0.000000,0.000000,0.000000,0.000000,0.000000,0.000000,0.000000,0.000000,1648010932.142167,0.000000
92.000000,1590.997170,-14016.421320,11111.990942,46070.745119,-14868.380412,24507.972539,10677.495382,16075.575778,-0.076000,0.964000,0.210000,192.000000,0.000000,0.000000,0.000000,0.000000,0.000000,0.000000,0.000000,0.000000,0.000000,1648010932.142184,0.000000
93.000000,1580.514202,-14028.088931,11107.788814,46061.200924,-14876.583502,24504.440964,10672.846219,16066.232749,-0.076000,0.964000,0.210000,192.000000,0.000000,0.000000,0.000000,0.000000,0.000000,0.000000,0.000000,0.000000,0.000000,1648010932.149650,0.000000
94.000000,1583.039949,-14030.882899,11113.175584,46059.904523,-14871.442601,24512.465240,10676.869533,16075.642833,-0.076000,0.964000,0.210000,192.000000,0.000000,0.000000,0.000000,0.000000,0.000000,0.000000,0.000000,0.000000,0.000000,1648010932.149666,0.000000
95.000000,1593.634676,-14021.919849,11122.608021,46062.474973,-14863.999470,24518.790784,10681.094012,16078.682670,-0.076000,0.964000,0.210000,192.000000,0.000000,0.000000,0.000000,0.000000,0.000000,0.000000,0.000000,0.000000,0.000000,1648010932.157552,0.000000
96.000000,1595.065188,-14020.399931,11119.746997,46065.000721,-14866.256996,24511.861743,10675.439021,16064.779885,-0.076000,0.964000,0.210000,192.000000,0.000000,0.000000,0.000000,0.000000,0.000000,0.000000,0.000000,0.000000,0.000000,1648010932.157569,0.000000
97.000000,1588.091444,-14026.591364,11112.505032,46061.715014,-14871.889636,24503.837467,10670.856913,16062.924691,-0.076000,0.964000,0.210000,192.000000,0.000000,0.000000,0.000000,0.000000,0.000000,0.000000,0.000000,0.000000,0.000000,1648010932.164769,0.000000
98.000000,1593.813490,-14016.711893,11119.858756,46067.526468,-14863.507731,24511.101784,10680.177591,16078.034470,-0.076000,0.960000,0.216000,192.000000,253.000000,160.000000,30.000000,0.000000,6.000000,192.000000,0.000000,0.000000,0.000000,1648010932.164785,0.000000
99.000000,1595.266354,-14017.158928,11119.612887,46067.861744,-14864.848836,24510.341824,10687.955998,16080.381403,-0.076000,0.960000,0.216000,192.000000,0.000000,0.000000,0.000000,0.000000,0.000000,0.000000,0.000000,0.000000,0.000000,1648010932.171380,0.000000
100.000000,1599.021447,-14016.242506,11122.719779,46066.408881,-14865.139409,24514.946284,10692.895733,16088.740955,-0.076000,0.960000,0.216000,192.000000,0.000000,0.000000,0.000000,0.000000,0.000000,0.000000,0.000000,0.000000,0.000000,1648010932.171397,0.000000
101.000000,1588.359664,-14025.294963,11110.694541,46056.462354,-14874.147162,24505.558551,10680.110536,16079.107354,-0.076000,0.960000,0.216000,192.000000,0.000000,0.000000,0.000000,0.000000,0.000000,0.000000,0.000000,0.000000,0.000000,1648010932.179345,0.000000
102.000000,1597.188604,-14017.695369,11116.684808,46057.915218,-14868.335708,24513.314606,10680.401108,16092.428993,-0.076000,0.960000,0.216000,192.000000,0.000000,0.000000,0.000000,0.000000,0.000000,0.000000,0.000000,0.000000,0.000000,1648010932.187347,0.000000
103.000000,1590.013694,-14029.564146,11110.493375,46056.417651,-14871.420249,24503.345728,10668.532332,16069.049069,-0.076000,0.960000,0.216000,192.000000,0.000000,0.000000,0.000000,0.000000,0.000000,0.000000,0.000000,0.000000,0.000000,1648010932.187363,0.000000
104.000000,1602.217746,-14017.181279,11118.249430,46063.234933,-14865.340574,24507.637263,10671.371004,16035.610859,-0.076000,0.960000,0.216000,192.000000,0.000000,0.000000,0.000000,0.000000,0.000000,0.000000,0.000000,0.000000,0.000000,1648010932.194425,0.000000
105.000000,1605.034066,-14013.023855,11119.299962,46068.197020,-14863.015993,24509.224237,10669.292291,16026.491347,-0.076000,0.960000,0.216000,192.000000,0.000000,0.000000,0.000000,0.000000,0.000000,0.000000,0.000000,0.000000,0.000000,1648010932.194442,0.000000
106.000000,1595.713388,-14023.976210,11111.230983,46061.335035,-14873.007223,24511.213542,10677.785954,16084.605883,-0.076000,0.960000,0.216000,192.000000,0.000000,0.000000,0.000000,0.000000,0.000000,0.000000,0.000000,0.000000,0.000000,1648010932.201924,0.000000
107.000000,1599.714351,-14020.623448,11111.387445,46061.603255,-14870.213255,24517.762603,10688.514792,16106.309427,-0.076000,0.960000,0.216000,192.000000,0.000000,0.000000,0.000000,0.000000,0.000000,0.000000,0.000000,0.000000,0.000000,1648010932.201958,0.000000
108.000000,1586.817394,-14028.535966,11102.871430,46058.630473,-14875.577673,24509.157182,10678.814134,16079.599092,-0.074000,0.958000,0.218000,192.000000,253.000000,176.000000,29.000000,240.000000,6.000000,208.000000,0.000000,0.000000,0.000000,1648010932.210028,0.000000
109.000000,1598.373246,-14014.342608,11114.762558,46062.832601,-14868.358060,24521.987083,10684.402071,16084.471772,-0.074000,0.958000,0.218000,192.000000,0.000000,0.000000,0.000000,0.000000,0.000000,0.000000,0.000000,0.000000,0.000000,1648010932.210045,0.000000
110.000000,1604.050589,-14012.152137,11118.651762,46068.375834,-14862.256034,24527.150336,10682.099841,16092.786621,-0.074000,0.958000,0.218000,192.000000,0.000000,0.000000,0.000000,0.000000,0.000000,0.000000,0.000000,0.000000,0.000000,1648010932.217747,0.000000
111.000000,1596.205127,-14020.355227,11110.158099,46069.582828,-14870.772048,24516.242685,10670.298120,16078.257987,-0.074000,0.958000,0.218000,192.000000,0.000000,0.000000,0.000000,0.000000,0.000000,0.000000,0.000000,0.000000,0.000000,1648010932.217763,0.000000
112.000000,1607.403351,-14011.325122,11119.746997,46077.651808,-14865.541740,24520.936551,10684.200905,16090.819668,-0.074000,0.958000,0.218000,192.000000,0.000000,0.000000,0.000000,0.000000,0.000000,0.000000,0.000000,0.000000,0.000000,1648010932.224317,0.000000
113.000000,1594.886374,-14025.362018,11110.113395,46071.348616,-14872.761354,24503.613949,10671.706280,16074.547598,-0.074000,0.958000,0.218000,192.000000,0.000000,0.000000,0.000000,0.000000,0.000000,0.000000,0.000000,0.000000,0.000000,1648010932.224329,0.000000
114.000000,1605.101121,-14017.427149,11113.756730,46074.299046,-14865.564092,24508.598388,10677.785954,16076.112220,-0.074000,0.958000,0.218000,192.000000,0.000000,0.000000,0.000000,0.000000,0.000000,0.000000,0.000000,0.000000,0.000000,1648010932.232276,0.000000
115.000000,1602.217746,-14021.137538,11109.062863,46070.655712,-14873.990700,24502.585769,10669.761678,16067.775019,-0.074000,0.958000,0.218000,192.000000,0.000000,0.000000,0.000000,0.000000,0.000000,0.000000,0.000000,0.000000,0.000000,1648010932.232284,0.000000
116.000000,1599.423778,-14022.724512,11108.951105,46070.588657,-14877.343461,24502.272845,10667.146524,16073.005327,-0.074000,0.958000,0.218000,192.000000,0.000000,0.000000,0.000000,0.000000,0.000000,0.000000,0.000000,0.000000,0.000000,1648010932.239376,0.000000
117.000000,1591.466557,-14034.392123,11097.998750,46060.820944,-14888.608740,24488.817094,10650.472122,16053.291089,-0.074000,0.958000,0.218000,192.000000,0.000000,0.000000,0.000000,0.000000,0.000000,0.000000,0.000000,0.000000,0.000000,1648010932.247207,0.000000
118.000000,1603.335333,-14021.517518,11109.442843,46068.040558,-14878.863380,24501.781106,10668.577035,16060.577757,-0.070000,0.956000,0.214000,192.000000,253.000000,208.000000,29.000000,224.000000,6.000000,176.000000,0.000000,0.000000,0.000000,1648010932.247214,0.000000
119.000000,1604.765845,-14014.633180,11115.589573,46075.729558,-14871.688470,24508.888961,10675.908408,16070.993670,-0.070000,0.956000,0.214000,192.000000,0.000000,0.000000,0.000000,0.000000,0.000000,0.000000,0.000000,0.000000,0.000000,1648010932.253816,0.000000
120.000000,1604.542327,-14015.795471,11113.935544,46076.243648,-14872.895464,24507.614912,10678.992948,16061.717696,-0.070000,0.956000,0.214000,192.000000,0.000000,0.000000,0.000000,0.000000,0.000000,0.000000,0.000000,0.000000,0.000000,1648010932.253823,0.000000
121.000000,1596.942734,-14023.015085,11105.643047,46070.186325,-14880.651519,24500.752926,10679.216466,16058.253176,-0.070000,0.956000,0.214000,192.000000,0.000000,0.000000,0.000000,0.000000,0.000000,0.000000,0.000000,0.000000,0.000000,1648010932.261839,0.000000
122.000000,1586.325656,-14032.224003,11097.618770,46059.636302,-14888.117002,24494.628548,10677.629492,16068.020888,-0.070000,0.956000,0.214000,192.000000,0.000000,0.000000,0.000000,0.000000,0.000000,0.000000,0.000000,0.000000,0.000000,1648010932.261846,0.000000
123.000000,1586.929153,-14030.100588,11098.848116,46058.876343,-14885.121868,24493.265092,10669.381698,16070.479580,-0.070000,0.956000,0.214000,192.000000,0.000000,0.000000,0.000000,0.000000,0.000000,0.000000,0.000000,0.000000,0.000000,1648010932.270233,0.000000
124.000000,1593.209993,-14023.260954,11103.094948,46061.960883,-14884.697185,24494.047403,10665.157219,16062.924691,-0.070000,0.956000,0.214000,192.000000,0.000000,0.000000,0.000000,0.000000,0.000000,0.000000,0.000000,0.000000,0.000000,1648010932.270251,0.000000
125.000000,1602.575374,-14018.723550,11111.633314,46068.487593,-14878.483400,24499.545932,10675.841352,16059.415467,-0.070000,0.956000,0.214000,192.000000,0.000000,0.000000,0.000000,0.000000,0.000000,0.000000,0.000000,0.000000,0.000000,1648010932.277308,0.000000
126.000000,1614.891185,-14006.050111,11124.999657,46075.304875,-14863.038345,24516.242685,10687.911294,16069.473752,-0.070000,0.956000,0.214000,192.000000,0.000000,0.000000,0.000000,0.000000,0.000000,0.000000,0.000000,0.000000,0.000000,1648010932.277324,0.000000
127.000000,1612.544252,-14013.046207,11123.569146,46074.142584,-14863.664194,24515.348615,10680.289350,16077.788601,-0.070000,0.956000,0.214000,192.000000,0.000000,0.000000,0.000000,0.000000,0.000000,0.000000,0.000000,0.000000,0.000000,1648010932.284858,0.000000
128.000000,1601.882470,-14024.803224,11111.476852,46068.085261,-14875.376508,24499.300063,10666.878303,16047.501987,-0.072000,0.954000,0.218000,192.000000,253.000000,192.000000,29.000000,208.000000,6.000000,208.000000,0.000000,0.000000,0.000000,1648010932.284875,0.000000
129.000000,1607.559813,-14014.096739,11116.818919,46074.209639,-14873.498961,24499.478877,10669.024070,16033.822719,-0.072000,0.954000,0.218000,192.000000,0.000000,0.000000,0.000000,0.000000,0.000000,0.000000,0.000000,0.000000,0.000000,1648010932.292854,0.000000
130.000000,1608.766807,-14015.370788,11117.467119,46076.623628,-14872.873112,24503.122211,10666.431268,16055.302746,-0.072000,0.954000,0.218000,192.000000,0.000000,0.000000,0.000000,0.000000,0.000000,0.000000,0.000000,0.000000,0.000000,1648010932.292870,0.000000
131.000000,1625.262395,-14002.943218,11128.665343,46085.385512,-14860.490246,24518.969598,10681.183419,16091.780793,-0.072000,0.954000,0.218000,192.000000,0.000000,0.000000,0.000000,0.000000,0.000000,0.000000,0.000000,0.000000,0.000000,1648010932.299825,0.000000
132.000000,1633.979575,-13995.567142,11137.449579,46095.846128,-14848.196786,24528.156165,10693.342768,16100.006235,-0.072000,0.954000,0.218000,192.000000,0.000000,0.000000,0.000000,0.000000,0.000000,0.000000,0.000000,0.000000,0.000000,1648010932.307150,0.000000
133.000000,1603.536499,-14024.937335,11109.398140,46080.490480,-14872.470781,24498.808324,10671.482762,16061.762400,-0.072000,0.954000,0.218000,192.000000,0.000000,0.000000,0.000000,0.000000,0.000000,0.000000,0.000000,0.000000,0.000000,1648010932.307166,0.000000
134.000000,1604.005886,-14024.177375,11109.398140,46077.651808,-14871.107324,24501.423478,10679.931722,16060.801275,-0.072000,0.954000,0.218000,192.000000,0.000000,0.000000,0.000000,0.000000,0.000000,0.000000,0.000000,0.000000,0.000000,1648010932.314564,0.000000
135.000000,1604.922307,-14020.668151,11110.336913,46075.170764,-14874.147162,24504.083336,10683.128021,16066.165694,-0.072000,0.954000,0.218000,192.000000,0.000000,0.000000,0.000000,0.000000,0.000000,0.000000,0.000000,0.000000,0.000000,1648010932.314580,0.000000
136.000000,1597.054493,-14025.406721,11104.816032,46073.248514,-14881.255016,24498.718917,10674.567303,16079.532037,-0.072000,0.954000,0.218000,192.000000,0.000000,0.000000,0.000000,0.000000,0.000000,0.000000,0.000000,0.000000,0.000000,1648010932.322565,0.000000
137.000000,1602.977705,-14023.506823,11108.660532,46073.941418,-14878.975139,24501.557589,10670.812210,16070.948967,-0.072000,0.954000,0.218000,192.000000,0.000000,0.000000,0.000000,0.000000,0.000000,0.000000,0.000000,0.000000,0.000000,1648010932.322581,0.000000
138.000000,1625.061229,-14004.709006,11125.781968,46087.821852,-14857.025725,24517.919066,10684.714995,16073.944101,-0.072000,0.946000,0.224000,192.000000,253.000000,192.000000,29.000000,144.000000,7.000000,0.000000,0.000000,0.000000,0.000000,1648010932.329625,0.000000
139.000000,1620.255604,-14011.660398,11121.758654,46092.091035,-14857.495112,24513.739289,10689.855896,16073.877045,-0.072000,0.946000,0.224000,192.000000,0.000000,0.000000,0.000000,0.000000,0.000000,0.000000,0.000000,0.000000,0.000000,1648010932.329642,0.000000
140.000000,1601.211918,-14030.569974,11103.340817,46076.064834,-14876.292929,24496.148467,10672.265073,16081.029604,-0.072000,0.946000,0.224000,192.000000,0.000000,0.000000,0.000000,0.000000,0.000000,0.000000,0.000000,0.000000,0.000000,1648010932.337164,0.000000
141.000000,1597.434473,-14030.838195,11098.714006,46069.649883,-14881.433830,24493.667423,10660.373945,16079.576740,-0.072000,0.946000,0.224000,192.000000,0.000000,0.000000,0.000000,0.000000,0.000000,0.000000,0.000000,0.000000,0.000000,1648010932.337181,0.000000
142.000000,1589.991342,-14032.358114,11093.573105,46068.465241,-14882.774935,24486.872493,10647.946375,16064.399906,-0.072000,0.946000,0.224000,192.000000,0.000000,0.000000,0.000000,0.000000,0.000000,0.000000,0.000000,0.000000,0.000000,1648010932.345189,0.000000
143.000000,1608.789159,-14013.694407,11108.705236,46079.395244,-14871.152028,24499.255359,10661.737402,16061.024792,-0.072000,0.946000,0.224000,192.000000,0.000000,0.000000,0.000000,0.000000,0.000000,0.000000,0.000000,0.000000,0.000000,1648010932.345206,0.000000
144.000000,1613.572432,-14007.011236,11116.170718,46090.705227,-14862.859531,24509.827734,10679.842315,16062.701173,-0.072000,0.946000,0.224000,192.000000,0.000000,0.000000,0.000000,0.000000,0.000000,0.000000,0.000000,0.000000,0.000000,1648010932.353154,0.000000
145.000000,1604.251755,-14019.304695,11108.749939,46084.603201,-14874.325976,24505.893827,10670.633396,16074.905226,-0.072000,0.946000,0.224000,192.000000,0.000000,0.000000,0.000000,0.000000,0.000000,0.000000,0.000000,0.000000,0.000000,1648010932.353170,0.000000
146.000000,1613.930060,-14015.326085,11113.935544,46087.307762,-14872.783705,24512.621702,10680.669329,16089.344453,-0.072000,0.946000,0.224000,192.000000,0.000000,0.000000,0.000000,0.000000,0.000000,0.000000,0.000000,0.000000,0.000000,1648010932.359418,0.000000
147.000000,1603.603554,-14021.741035,11104.860736,46079.886982,-14878.036365,24501.825810,10675.997815,16068.870255,-0.072000,0.946000,0.224000,192.000000,0.000000,0.000000,0.000000,0.000000,0.000000,0.000000,0.000000,0.000000,0.000000,1648010932.366821,0.000000
148.000000,1596.473348,-14028.871242,11099.071634,46073.293218,-14886.082993,24498.853028,10673.270902,16069.809028,-0.078000,0.952000,0.226000,192.000000,253.000000,144.000000,29.000000,192.000000,7.000000,16.000000,0.000000,0.000000,0.000000,1648010932.366837,0.000000
149.000000,1601.010752,-14030.726436,11103.184355,46074.947247,-14882.931397,24503.792763,10682.971559,16072.982976,-0.078000,0.952000,0.226000,192.000000,0.000000,0.000000,0.000000,0.000000,0.000000,0.000000,0.000000,0.000000,0.000000,1648010932.374734,0.000000
150.000000,1613.483025,-14015.124919,11110.649837,46077.674160,-14875.130638,24519.751909,10699.645960,16087.936293,-0.078000,0.952000,0.226000,192.000000,0.000000,0.000000,0.000000,0.000000,0.000000,0.000000,0.000000,0.000000,0.000000,1648010932.374768,0.000000
151.000000,1622.334316,-14003.300846,11119.367018,46086.167823,-14860.624356,24527.820888,10698.729539,16093.345415,-0.078000,0.952000,0.226000,192.000000,0.000000,0.000000,0.000000,0.000000,0.000000,0.000000,0.000000,0.000000,0.000000,1648010932.382504,0.000000
152.000000,1599.937868,-14026.770178,11099.518669,46074.075529,-14881.143258,24500.574112,10675.997815,16061.024792,-0.078000,0.952000,0.226000,192.000000,0.000000,0.000000,0.000000,0.000000,0.000000,0.000000,0.000000,0.000000,0.000000,1648010932.382515,0.000000
153.000000,1615.382924,-14012.733282,11110.493375,46080.892811,-14870.794400,24509.805382,10674.768469,16056.174464,-0.078000,0.952000,0.226000,192.000000,0.000000,0.000000,0.000000,0.000000,0.000000,0.000000,0.000000,0.000000,0.000000,1648010932.389235,0.000000
154.000000,1623.742476,-14005.178393,11118.629410,46088.447701,-14861.496074,24514.253380,10668.755849,16054.386324,-0.078000,0.952000,0.226000,192.000000,0.000000,0.000000,0.000000,0.000000,0.000000,0.000000,0.000000,0.000000,0.000000,1648010932.389251,0.000000
155.000000,1592.271220,-14034.682695,11091.852020,46067.794689,-14890.128659,24488.012432,10650.382716,16056.353278,-0.078000,0.952000,0.226000,192.000000,0.000000,0.000000,0.000000,0.000000,0.000000,0.000000,0.000000,0.000000,0.000000,1648010932.397435,0.000000
156.000000,1596.540403,-14026.569012,11093.304884,46062.162049,-14889.771031,24498.741269,10672.555646,16084.337662,-0.078000,0.952000,0.226000,192.000000,0.000000,0.000000,0.000000,0.000000,0.000000,0.000000,0.000000,0.000000,0.000000,1648010932.397452,0.000000
157.000000,1606.241060,-14015.259029,11100.882125,46066.431232,-14879.377470,24506.631435,10675.081393,16080.046127,-0.078000,0.952000,0.226000,192.000000,0.000000,0.000000,0.000000,0.000000,0.000000,0.000000,0.000000,0.000000,0.000000,1648010932.405468,0.000000
158.000000,1627.609328,-13996.796488,11118.607058,46081.272791,-14863.977118,24525.965694,10691.331111,16087.757479,-0.068000,0.950000,0.226000,192.000000,253.000000,224.000000,29.000000,176.000000,7.000000,16.000000,0.000000,0.000000,0.000000,1648010932.405485,0.000000
159.000000,1619.182720,-14012.398006,11111.208631,46087.844203,-14869.252130,24514.789821,10675.930759,16071.150133,-0.068000,0.950000,0.226000,192.000000,0.000000,0.000000,0.000000,0.000000,0.000000,0.000000,0.000000,0.000000,0.000000,1648010932.412622,0.000000
160.000000,1602.262450,-14031.039361,11094.198953,46069.605180,-14889.122831,24496.483743,10657.647032,16050.631231,-0.068000,0.950000,0.226000,192.000000,0.000000,0.000000,0.000000,0.000000,0.000000,0.000000,0.000000,0.000000,0.000000,1648010932.412639,0.000000
161.000000,1603.603554,-14027.083102,11097.037625,46068.085261,-14888.899313,24502.116382,10658.272881,16065.338679,-0.068000,0.950000,0.226000,192.000000,0.000000,0.000000,0.000000,0.000000,0.000000,0.000000,0.000000,0.000000,0.000000,1648010932.419160,0.000000
162.000000,1615.114703,-14015.527250,11109.934582,46077.428291,-14876.382336,24513.873400,10667.302986,16070.613691,-0.068000,0.950000,0.226000,192.000000,0.000000,0.000000,0.000000,0.000000,0.000000,0.000000,0.000000,0.000000,0.000000,1648010932.419176,0.000000
163.000000,1622.155502,-14013.090910,11115.723683,46080.222259,-14867.486342,24521.182420,10678.791783,16061.717696,-0.068000,0.950000,0.226000,192.000000,0.000000,0.000000,0.000000,0.000000,0.000000,0.000000,0.000000,0.000000,0.000000,1648010932.427075,0.000000
164.000000,1628.726915,-14004.910172,11123.278573,46089.833509,-14859.573824,24536.247496,10707.334960,16090.372633,-0.068000,0.950000,0.226000,192.000000,0.000000,0.000000,0.000000,0.000000,0.000000,0.000000,0.000000,0.000000,0.000000,1648010932.435132,0.000000
165.000000,1616.835787,-14014.432015,11116.528346,46089.699398,-14867.978080,24532.246534,10700.316513,16095.513534,-0.068000,0.950000,0.226000,192.000000,0.000000,0.000000,0.000000,0.000000,0.000000,0.000000,0.000000,0.000000,0.000000,1648010932.435149,0.000000
166.000000,1608.878566,-14019.885840,11105.911268,46083.105634,-14881.031499,24521.405938,10678.858838,16069.093772,-0.068000,0.950000,0.226000,192.000000,0.000000,0.000000,0.000000,0.000000,0.000000,0.000000,0.000000,0.000000,0.000000,1648010932.442310,0.000000
167.000000,1620.590880,-14006.810070,11110.940410,46083.955000,-14875.175342,24527.552668,10684.469126,16061.583586,-0.068000,0.950000,0.226000,192.000000,0.000000,0.000000,0.000000,0.000000,0.000000,0.000000,0.000000,0.000000,0.000000,1648010932.442327,0.000000
168.000000,1609.370304,-14018.030646,11105.441881,46080.535183,-14879.221008,24514.365138,10679.484687,16056.979127,-0.076000,0.958000,0.222000,192.000000,253.000000,160.000000,29.000000,240.000000,6.000000,240.000000,0.000000,0.000000,0.000000,1648010932.450305,0.000000
169.000000,1595.266354,-14030.324105,11096.612942,46068.353482,-14892.989682,24499.478877,10662.184437,16049.692458,-0.076000,0.958000,0.222000,192.000000,0.000000,0.000000,0.000000,0.000000,0.000000,0.000000,0.000000,0.000000,0.000000,1648010932.450322,0.000000
170.000000,1609.482063,-14020.265820,11108.727587,46074.746081,-14883.289025,24520.377758,10682.189248,16097.905171,-0.076000,0.958000,0.222000,192.000000,0.000000,0.000000,0.000000,0.000000,0.000000,0.000000,0.000000,0.000000,0.000000,1648010932.457540,0.000000
171.000000,1611.963107,-14017.158928,11108.124090,46075.506041,-14880.830333,24519.260170,10682.256303,16090.842019,-0.076000,0.958000,0.222000,192.000000,0.000000,0.000000,0.000000,0.000000,0.000000,0.000000,0.000000,0.000000,0.000000,1648010932.457574,0.000000
172.000000,1608.587993,-14021.070483,11103.229058,46070.655712,-14882.059679,24509.648920,10678.344748,16073.228845,-0.076000,0.958000,0.222000,192.000000,0.000000,0.000000,0.000000,0.000000,0.000000,0.000000,0.000000,0.000000,0.000000,1648010932.465658,0.000000
173.000000,1603.134168,-14029.675904,11099.317503,46066.230067,-14887.401746,24499.702394,10671.572169,16051.212377,-0.076000,0.958000,0.222000,192.000000,0.000000,0.000000,0.000000,0.000000,0.000000,0.000000,0.000000,0.000000,0.000000,1648010932.465674,0.000000
174.000000,1611.896051,-14021.115186,11108.928753,46075.036654,-14878.885732,24504.999757,10670.923969,16058.230824,-0.076000,0.958000,0.222000,192.000000,0.000000,0.000000,0.000000,0.000000,0.000000,0.000000,0.000000,0.000000,0.000000,1648010932.472341,0.000000
175.000000,1612.745418,-14017.896535,11111.275686,46079.507003,-14876.158819,24506.094993,10666.900655,16070.993670,-0.076000,0.958000,0.222000,192.000000,0.000000,0.000000,0.000000,0.000000,0.000000,0.000000,0.000000,0.000000,0.000000,1648010932.472358,0.000000
176.000000,1615.986421,-14013.917925,11115.276648,46083.329151,-14875.644729,24504.217446,10669.024070,16060.711868,-0.076000,0.958000,0.222000,192.000000,0.000000,0.000000,0.000000,0.000000,0.000000,0.000000,0.000000,0.000000,0.000000,1648010932.480297,0.000000
177.000000,1624.591842,-14005.960704,11125.871375,46089.565288,-14866.636976,24511.526467,10688.134812,16055.682725,-0.076000,0.958000,0.222000,192.000000,0.000000,0.000000,0.000000,0.000000,0.000000,0.000000,0.000000,0.000000,0.000000,1648010932.480314,0.000000
178.000000,1597.725045,-14030.055884,11102.223230,46074.723729,-14887.357043,24490.448772,10670.968672,16068.557330,-0.080000,0.962000,0.226000,192.000000,253.000000,128.000000,30.000000,16.000000,7.000000,16.000000,0.000000,0.000000,0.000000,1648010932.487378,0.000000
179.000000,1618.869796,-14007.368864,11118.182375,46082.211564,-14873.230740,24508.665443,10685.273789,16095.848810,-0.080000,0.962000,0.226000,192.000000,0.000000,0.000000,0.000000,0.000000,0.000000,0.000000,0.000000,0.000000,0.000000,1648010932.494664,0.000000
180.000000,1633.085505,-13994.538962,11132.822768,46088.224183,-14858.120961,24519.640150,10698.818946,16097.100508,-0.080000,0.962000,0.226000,192.000000,0.000000,0.000000,0.000000,0.000000,0.000000,0.000000,0.000000,0.000000,0.000000,1648010932.494680,0.000000
181.000000,1621.976688,-14008.419395,11122.451558,46078.545878,-14869.833275,24502.004624,10676.266036,16070.077249,-0.080000,0.962000,0.226000,192.000000,0.000000,0.000000,0.000000,0.000000,0.000000,0.000000,0.000000,0.000000,0.000000,1648010932.502012,0.000000
182.000000,1632.549063,-13996.572971,11130.229965,46084.893773,-14862.367792,24507.547856,10685.229085,16075.754592,-0.080000,0.962000,0.226000,192.000000,0.000000,0.000000,0.000000,0.000000,0.000000,0.000000,0.000000,0.000000,0.000000,1648010932.502029,0.000000
183.000000,1624.949470,-14005.424262,11124.284401,46089.811157,-14866.793438,24501.535237,10680.222294,16072.334775,-0.080000,0.962000,0.226000,192.000000,0.000000,0.000000,0.000000,0.000000,0.000000,0.000000,0.000000,0.000000,0.000000,1648010932.509975,0.000000
184.000000,1606.889261,-14018.880012,11112.393273,46086.860727,-14878.863380,24486.470161,10665.470143,16056.509740,-0.080000,0.962000,0.226000,192.000000,0.000000,0.000000,0.000000,0.000000,0.000000,0.000000,0.000000,0.000000,0.000000,1648010932.509992,0.000000
185.000000,1610.398485,-14010.095776,11120.171680,46088.358294,-14872.984871,24496.953129,10676.221332,16080.493162,-0.080000,0.962000,0.226000,192.000000,0.000000,0.000000,0.000000,0.000000,0.000000,0.000000,0.000000,0.000000,0.000000,1648010932.517803,0.000000
186.000000,1625.150636,-14001.445651,11134.543852,46095.466148,-14860.378487,24515.348615,10688.045405,16095.312368,-0.080000,0.962000,0.226000,192.000000,0.000000,0.000000,0.000000,0.000000,0.000000,0.000000,0.000000,0.000000,0.000000,1648010932.517819,0.000000
187.000000,1635.164217,-13987.252293,11145.339745,46098.550689,-14849.984926,24527.530316,10700.294161,16115.339531,-0.080000,0.962000,0.226000,192.000000,0.000000,0.000000,0.000000,0.000000,0.000000,0.000000,0.000000,0.000000,0.000000,1648010932.524441,0.000000
188.000000,1638.718145,-13981.552599,11150.011259,46101.590526,-14844.084065,24527.329150,10693.275713,16101.481450,-0.080000,0.962000,0.226000,192.000000,0.000000,0.000000,0.000000,0.000000,0.000000,0.000000,0.000000,0.000000,0.000000,1648010932.524457,0.000000
189.000000,1615.897014,-14009.604038,11133.314506,46090.816985,-14862.256034,24503.189266,10668.554684,16069.406696,-0.068000,0.966000,0.226000,192.000000,253.000000,224.000000,30.000000,48.000000,7.000000,16.000000,0.000000,0.000000,0.000000,1648010932.532524,0.000000
190.000000,1608.945621,-14018.164756,11123.233869,46078.925857,-14872.515484,24497.444868,10666.140695,16080.403755,-0.068000,0.966000,0.226000,192.000000,0.000000,0.000000,0.000000,0.000000,0.000000,0.000000,0.000000,0.000000,0.000000,1648010932.532540,0.000000
191.000000,1616.075828,-14013.157965,11127.883032,46081.451605,-14866.636976,24505.089164,10672.153315,16094.977092,-0.068000,0.966000,0.226000,192.000000,0.000000,0.000000,0.000000,0.000000,0.000000,0.000000,0.000000,0.000000,0.000000,1648010932.540385,0.000000
192.000000,1615.159406,-14008.553506,11130.364076,46083.686779,-14866.391106,24504.619778,10675.260207,16088.360976,-0.068000,0.966000,0.226000,192.000000,0.000000,0.000000,0.000000,0.000000,0.000000,0.000000,0.000000,0.000000,0.000000,1648010932.540400,0.000000
193.000000,1618.109836,-13997.914076,11133.985059,46087.643038,-14860.579653,24512.822868,10685.452603,16094.999444,-0.068000,0.966000,0.226000,192.000000,0.000000,0.000000,0.000000,0.000000,0.000000,0.000000,0.000000,0.000000,0.000000,1648010932.547344,0.000000
194.000000,1603.692961,-14013.426186,11121.937468,46073.784956,-14873.409554,24501.222313,10670.119306,16072.915920,-0.068000,0.966000,0.226000,192.000000,0.000000,0.000000,0.000000,0.000000,0.000000,0.000000,0.000000,0.000000,0.000000,1648010932.553825,0.000000
195.000000,1589.343141,-14028.759483,11109.107567,46061.558552,-14889.301644,24486.179589,10661.871512,16042.830472,-0.068000,0.966000,0.226000,192.000000,0.000000,0.000000,0.000000,0.000000,0.000000,0.000000,0.000000,0.000000,0.000000,1648010932.553830,0.000000
196.000000,1584.202240,-14033.788625,11103.005541,46056.931741,-14895.895409,24481.977461,10657.512922,16039.902394,-0.068000,0.966000,0.226000,192.000000,0.000000,0.000000,0.000000,0.000000,0.000000,0.000000,0.000000,0.000000,0.000000,1648010932.561796,0.000000
197.000000,1589.119624,-14025.093797,11107.386483,46060.195096,-14891.179191,24489.442943,10666.364213,16064.601071,-0.068000,0.966000,0.226000,192.000000,0.000000,0.000000,0.000000,0.000000,0.000000,0.000000,0.000000,0.000000,0.000000,1648010932.561800,0.000000
198.000000,1600.675476,-14016.913058,11116.930678,46066.632398,-14880.383298,24498.942435,10680.289350,16069.764324,-0.068000,0.966000,0.226000,192.000000,0.000000,0.000000,0.000000,0.000000,0.000000,0.000000,0.000000,0.000000,0.000000,1648010932.569877,0.000000
199.000000,1602.709484,-14023.372713,11117.735340,46071.706244,-14878.125772,24498.249531,10677.003643,16069.920787,-0.070000,0.956000,0.218000,192.000000,253.000000,208.000000,29.000000,224.000000,6.000000,208.000000,0.000000,0.000000,0.000000,1648010932.569881,0.000000
200.000000,1601.927173,-14023.126843,11116.483643,46068.062910,-14878.751621,24494.226217,10671.952149,16073.407659,-0.070000,0.956000,0.218000,192.000000,0.000000,0.000000,0.000000,0.000000,0.000000,0.000000,0.000000,0.000000,0.000000,1648010932.576880,0.000000
201.000000,1599.647295,-14022.523346,11113.913192,46064.285465,-14881.992624,24487.967728,10664.419611,16067.797371,-0.070000,0.956000,0.218000,192.000000,0.000000,0.000000,0.000000,0.000000,0.000000,0.000000,0.000000,0.000000,0.000000,1648010932.576884,0.000000
202.000000,1598.976743,-14021.718683,11112.795605,46062.698491,-14880.852685,24486.291347,10646.985250,16056.576795,-0.070000,0.956000,0.218000,192.000000,0.000000,0.000000,0.000000,0.000000,0.000000,0.000000,0.000000,0.000000,0.000000,1648010932.584352,0.000000
203.000000,1606.710447,-14011.235715,11120.126977,46075.684854,-14873.990700,24493.957996,10652.796704,16056.621499,-0.070000,0.956000,0.218000,192.000000,0.000000,0.000000,0.000000,0.000000,0.000000,0.000000,0.000000,0.000000,0.000000,1648010932.584356,0.000000
204.000000,1606.397522,-14011.839212,11118.271782,46081.898639,-14875.018880,24493.220388,10660.776277,16047.189062,-0.070000,0.956000,0.218000,192.000000,0.000000,0.000000,0.000000,0.000000,0.000000,0.000000,0.000000,0.000000,0.000000,1648010932.592379,0.000000
205.000000,1606.553984,-14013.582648,11116.282477,46076.958904,-14879.578636,24494.159161,10668.353518,16051.547653,-0.070000,0.956000,0.218000,192.000000,0.000000,0.000000,0.000000,0.000000,0.000000,0.000000,0.000000,0.000000,0.000000,1648010932.592383,0.000000
206.000000,1614.086522,-14001.937390,11127.994791,46079.507003,-14872.403726,24508.598388,10692.046367,16092.652511,-0.070000,0.956000,0.218000,192.000000,0.000000,0.000000,0.000000,0.000000,0.000000,0.000000,0.000000,0.000000,0.000000,1648010932.600398,0.000000
207.000000,1605.704618,-14009.760500,11121.512785,46075.886020,-14872.739002,24504.306853,10687.307797,16098.776889,-0.070000,0.956000,0.218000,192.000000,0.000000,0.000000,0.000000,0.000000,0.000000,0.000000,0.000000,0.000000,0.000000,1648010932.600402,0.000000
208.000000,1601.122511,-14015.437843,11116.550698,46076.601276,-14874.281272,24496.640205,10679.931722,16070.613691,-0.070000,0.956000,0.218000,192.000000,0.000000,0.000000,0.000000,0.000000,0.000000,0.000000,0.000000,0.000000,0.000000,1648010932.606459,0.000000
209.000000,1596.495699,-14021.964553,11112.035645,46074.880192,-14879.735098,24489.822923,10674.723765,16048.284298,-0.074000,0.956000,0.220000,192.000000,253.000000,176.000000,29.000000,224.000000,6.000000,224.000000,0.000000,0.000000,0.000000,1648010932.614082,0.000000
210.000000,1615.561737,-14000.953913,11129.849986,46082.591544,-14864.267691,24513.627531,10690.660559,16065.741010,-0.074000,0.956000,0.220000,192.000000,0.000000,0.000000,0.000000,0.000000,0.000000,0.000000,0.000000,0.000000,0.000000,1648010932.614085,0.000000
211.000000,1615.047647,-14000.104547,11132.487492,46085.452567,-14861.339612,24518.768432,10681.004605,16092.540752,-0.074000,0.956000,0.220000,192.000000,0.000000,0.000000,0.000000,0.000000,0.000000,0.000000,0.000000,0.000000,0.000000,1648010932.622514,0.000000
212.000000,1603.134168,-14010.587515,11119.165852,46075.394282,-14873.856589,24506.698490,10666.654785,16096.184086,-0.074000,0.956000,0.220000,192.000000,0.000000,0.000000,0.000000,0.000000,0.000000,0.000000,0.000000,0.000000,0.000000,1648010932.622531,0.000000
213.000000,1592.874717,-14023.462120,11108.235849,46066.967674,-14887.580560,24498.696565,10675.483725,16084.360014,-0.074000,0.956000,0.220000,192.000000,0.000000,0.000000,0.000000,0.000000,0.000000,0.000000,0.000000,0.000000,0.000000,1648010932.630554,0.000000
214.000000,1606.911612,-14007.905305,11118.517651,46073.516735,-14875.667080,24515.102746,10697.455489,16087.131630,-0.074000,0.956000,0.220000,192.000000,0.000000,0.000000,0.000000,0.000000,0.000000,0.000000,0.000000,0.000000,0.000000,1648010932.630589,0.000000
215.000000,1608.878566,-14003.680826,11120.998695,46076.534221,-14868.045136,24518.075528,10691.845201,16079.643795,-0.074000,0.956000,0.220000,192.000000,0.000000,0.000000,0.000000,0.000000,0.000000,0.000000,0.000000,0.000000,0.000000,1648010932.637135,0.000000
216.000000,1613.818301,-13999.389291,11125.379637,46081.809232,-14867.240473,24520.221295,10690.817021,16081.744859,-0.074000,0.956000,0.220000,192.000000,0.000000,0.000000,0.000000,0.000000,0.000000,0.000000,0.000000,0.000000,0.000000,1648010932.637151,0.000000
217.000000,1623.921290,-13984.257160,11135.214404,46092.538070,-14857.249243,24530.704264,10702.819908,16101.995540,-0.074000,0.956000,0.220000,192.000000,0.000000,0.000000,0.000000,0.000000,0.000000,0.000000,0.000000,0.000000,0.000000,1648010932.645032,0.000000
218.000000,1608.811511,-14001.155079,11119.367018,46081.988046,-14872.426077,24510.051252,10675.461373,16084.985862,-0.074000,0.956000,0.220000,192.000000,0.000000,0.000000,0.000000,0.000000,0.000000,0.000000,0.000000,0.000000,0.000000,1648010932.645043,0.000000
219.000000,1606.106950,-14010.945143,11114.762558,46077.629456,-14879.757450,24503.077507,10664.620777,16074.480542,-0.074000,0.954000,0.222000,192.000000,253.000000,176.000000,29.000000,208.000000,6.000000,240.000000,0.000000,0.000000,0.000000,1648010932.653025,0.000000
220.000000,1607.380999,-14012.241544,11117.109491,46076.087186,-14877.119944,24507.771374,10681.541047,16067.015060,-0.074000,0.954000,0.222000,192.000000,0.000000,0.000000,0.000000,0.000000,0.000000,0.000000,0.000000,0.000000,0.000000,1648010932.653036,0.000000
221.000000,1617.260470,-14004.217268,11127.346590,46076.064834,-14864.759429,24518.366101,10687.844239,16061.874159,-0.074000,0.954000,0.222000,192.000000,0.000000,0.000000,0.000000,0.000000,0.000000,0.000000,0.000000,0.000000,0.000000,1648010932.659837,0.000000
222.000000,1614.377095,-14004.641951,11122.965649,46076.578924,-14867.128714,24515.683891,10687.397204,16081.566045,-0.074000,0.954000,0.222000,192.000000,0.000000,0.000000,0.000000,0.000000,0.000000,0.000000,0.000000,0.000000,0.000000,1648010932.659854,0.000000
223.000000,1618.735685,-14002.630294,11128.352419,46080.088148,-14863.485380,24521.964731,10694.572114,16099.693310,-0.074000,0.954000,0.222000,192.000000,0.000000,0.000000,0.000000,0.000000,0.000000,0.000000,0.000000,0.000000,0.000000,1648010932.666839,0.000000
224.000000,1630.224482,-13989.040433,11139.640050,46088.447701,-14851.527196,24528.536144,10698.438966,16105.504764,-0.074000,0.954000,0.222000,192.000000,0.000000,0.000000,0.000000,0.000000,0.000000,0.000000,0.000000,0.000000,0.000000,1648010932.666856,0.000000
225.000000,1614.377095,-14002.719701,11121.624544,46075.282523,-14868.536874,24508.084298,10681.295178,16090.797316,-0.074000,0.954000,0.222000,192.000000,0.000000,0.000000,0.000000,0.000000,0.000000,0.000000,0.000000,0.000000,0.000000,1648010932.674650,0.000000
226.000000,1613.795950,-14005.804241,11118.741169,46069.158145,-14875.667080,24505.312682,10681.473992,16081.767211,-0.074000,0.954000,0.222000,192.000000,0.000000,0.000000,0.000000,0.000000,0.000000,0.000000,0.000000,0.000000,0.000000,1648010932.682813,0.000000
227.000000,1617.506339,-13998.361110,11121.646896,46070.141622,-14872.783705,24508.933664,10678.925893,16076.894531,-0.074000,0.954000,0.222000,192.000000,0.000000,0.000000,0.000000,0.000000,0.000000,0.000000,0.000000,0.000000,0.000000,1648010932.682829,0.000000
228.000000,1620.747342,-13992.840230,11129.157082,46074.477860,-14863.217159,24516.801478,10678.501210,16078.459153,-0.074000,0.954000,0.222000,192.000000,0.000000,0.000000,0.000000,0.000000,0.000000,0.000000,0.000000,0.000000,0.000000,1648010932.689444,0.000000
229.000000,1600.787234,-14016.980114,11113.712026,46063.793726,-14878.952787,24503.122211,10670.968672,16065.785714,-0.078000,0.952000,0.220000,192.000000,253.000000,144.000000,29.000000,192.000000,6.000000,224.000000,0.000000,0.000000,0.000000,1648010932.689461,0.000000
230.000000,1608.252717,-14009.626390,11115.746035,46062.720843,-14879.422173,24512.174667,10685.720823,16073.698231,-0.078000,0.952000,0.220000,192.000000,0.000000,0.000000,0.000000,0.000000,0.000000,0.000000,0.000000,0.000000,0.000000,1648010932.697402,0.000000
231.000000,1613.125397,-14008.933486,11119.456425,46061.938532,-14875.845894,24518.611970,10690.191172,16070.479580,-0.078000,0.952000,0.220000,192.000000,0.000000,0.000000,0.000000,0.000000,0.000000,0.000000,0.000000,0.000000,0.000000,1648010932.697418,0.000000
232.000000,1607.738627,-14013.448538,11116.796567,46060.843296,-14878.885732,24515.549781,10686.503135,16067.395039,-0.078000,0.952000,0.220000,192.000000,0.000000,0.000000,0.000000,0.000000,0.000000,0.000000,0.000000,0.000000,0.000000,1648010932.705409,0.000000
233.000000,1599.624944,-14016.130747,11109.174622,46058.965750,-14885.926531,24505.625606,10675.908408,16073.027679,-0.078000,0.952000,0.220000,192.000000,0.000000,0.000000,0.000000,0.000000,0.000000,0.000000,0.000000,0.000000,0.000000,1648010932.705425,0.000000
234.000000,1593.880545,-14021.182242,11101.351512,46051.992005,-14892.229723,24496.416688,10665.604253,16065.361031,-0.078000,0.952000,0.220000,192.000000,0.000000,0.000000,0.000000,0.000000,0.000000,0.000000,0.000000,0.000000,0.000000,1648010932.712522,0.000000
235.000000,1617.282822,-14002.697349,11118.294134,46061.357386,-14877.142295,24510.095955,10680.468164,16069.183179,-0.078000,0.952000,0.220000,192.000000,0.000000,0.000000,0.000000,0.000000,0.000000,0.000000,0.000000,0.000000,0.000000,1648010932.712557,0.000000
236.000000,1630.202130,-13990.538000,11129.402951,46073.248514,-14864.625319,24519.059005,10685.787879,16068.490275,-0.078000,0.952000,0.220000,192.000000,0.000000,0.000000,0.000000,0.000000,0.000000,0.000000,0.000000,0.000000,0.000000,1648010932.720125,0.000000
237.000000,1622.088447,-13997.310579,11122.876242,46072.600314,-14870.079144,24517.919066,10686.793707,16073.206493,-0.078000,0.952000,0.220000,192.000000,0.000000,0.000000,0.000000,0.000000,0.000000,0.000000,0.000000,0.000000,0.000000,1648010932.720142,0.000000
238.000000,1626.804665,-13991.879105,11127.994791,46082.390378,-14864.759429,24529.229048,10697.410786,16097.122860,-0.078000,0.952000,0.220000,192.000000,0.000000,0.000000,0.000000,0.000000,0.000000,0.000000,0.000000,0.000000,0.000000,1648010932.727879,0.000000
239.000000,1623.273089,-13992.281436,11124.932602,46085.027884,-14867.352231,24526.189211,10696.941399,16087.265740,-0.080000,0.956000,0.216000,192.000000,253.000000,128.000000,29.000000,224.000000,6.000000,192.000000,0.000000,0.000000,0.000000,1648010932.727889,0.000000
240.000000,1600.675476,-14013.314428,11106.626523,46068.241724,-14891.045081,24505.513848,10673.606178,16082.817743,-0.080000,0.956000,0.216000,192.000000,0.000000,0.000000,0.000000,0.000000,0.000000,0.000000,0.000000,0.000000,0.000000,1648010932.735029,0.000000
241.000000,1609.079732,-14004.239619,11113.622619,46072.935590,-14885.121868,24514.298083,10682.278655,16086.483429,-0.080000,0.956000,0.216000,192.000000,0.000000,0.000000,0.000000,0.000000,0.000000,0.000000,0.000000,0.000000,0.000000,1648010932.742140,0.000000
242.000000,1622.870758,-13994.963645,11124.150291,46079.216430,-14870.816752,24525.205734,10686.726652,16090.596150,-0.080000,0.956000,0.216000,192.000000,0.000000,0.000000,0.000000,0.000000,0.000000,0.000000,0.000000,0.000000,0.000000,1648010932.742157,0.000000
243.000000,1612.767769,-14004.418433,11118.137672,46076.489517,-14875.868246,24512.822868,10677.294216,16082.035432,-0.080000,0.956000,0.216000,192.000000,0.000000,0.000000,0.000000,0.000000,0.000000,0.000000,0.000000,0.000000,0.000000,1648010932.749718,0.000000
244.000000,1609.504415,-14002.898515,11114.539041,46075.170764,-14881.120906,24505.469144,10672.712108,16061.002441,-0.080000,0.956000,0.216000,192.000000,0.000000,0.000000,0.000000,0.000000,0.000000,0.000000,0.000000,0.000000,0.000000,1648010932.749735,0.000000
245.000000,1594.148766,-14017.874183,11101.284456,46068.219372,-14891.358005,24494.673251,10663.659652,16048.843092,-0.080000,0.956000,0.216000,192.000000,0.000000,0.000000,0.000000,0.000000,0.000000,0.000000,0.000000,0.000000,0.000000,1648010932.757536,0.000000
246.000000,1600.362551,-14017.918887,11106.291247,46068.778165,-14889.525162,24506.989063,10676.109573,16080.984900,-0.080000,0.956000,0.216000,192.000000,0.000000,0.000000,0.000000,0.000000,0.000000,0.000000,0.000000,0.000000,0.000000,1648010932.757552,0.000000
247.000000,1610.063208,-14007.815898,11117.020085,46073.203811,-14880.919740,24515.594484,10679.283521,16090.327929,-0.080000,0.956000,0.216000,192.000000,0.000000,0.000000,0.000000,0.000000,0.000000,0.000000,0.000000,0.000000,0.000000,1648010932.765659,0.000000
248.000000,1626.111761,-13983.273683,11131.347553,46094.683837,-14863.552435,24532.961790,10694.616818,16083.756516,-0.080000,0.956000,0.216000,192.000000,0.000000,0.000000,0.000000,0.000000,0.000000,0.000000,0.000000,0.000000,0.000000,1648010932.765676,0.000000
249.000000,1623.206034,-13984.950064,11131.369904,46100.316477,-14863.373621,24527.440909,10700.651789,16067.953833,-0.082000,0.960000,0.214000,192.000000,253.000000,112.000000,30.000000,0.000000,6.000000,176.000000,0.000000,0.000000,0.000000,1648010932.772343,0.000000
250.000000,1587.040912,-14021.830442,11095.584762,46074.522564,-14898.868191,24494.919121,10672.466239,16075.016984,-0.082000,0.960000,0.214000,192.000000,0.000000,0.000000,0.000000,0.000000,0.000000,0.000000,0.000000,0.000000,0.000000,1648010932.772360,0.000000
251.000000,1589.209031,-14021.361056,11093.774270,46067.861744,-14902.198601,24495.053231,10667.101820,16080.716679,-0.082000,0.960000,0.214000,192.000000,0.000000,0.000000,0.000000,0.000000,0.000000,0.000000,0.000000,0.000000,0.000000,1648010932.780370,0.000000
252.000000,1601.658952,-14011.727454,11106.604172,46081.272791,-14884.384261,24503.904522,10666.498323,16076.671013,-0.082000,0.960000,0.214000,192.000000,0.000000,0.000000,0.000000,0.000000,0.000000,0.000000,0.000000,0.000000,0.000000,1648010932.780387,0.000000
253.000000,1588.985513,-14029.497091,11093.528401,46072.175631,-14901.326883,24486.425458,10656.685907,16053.715772,-0.082000,0.960000,0.214000,192.000000,0.000000,0.000000,0.000000,0.000000,0.000000,0.000000,0.000000,0.000000,0.000000,1648010932.788320,0.000000
254.000000,1609.683229,-14008.441747,11109.688712,46087.419520,-14885.323034,24507.413746,10696.337902,16072.558292,-0.082000,0.960000,0.214000,192.000000,0.000000,0.000000,0.000000,0.000000,0.000000,0.000000,0.000000,0.000000,0.000000,1648010932.788336,0.000000
255.000000,1604.050589,-14008.531154,11106.671227,46083.887945,-14882.305548,24509.246589,10702.484632,16082.996557,-0.082000,0.960000,0.214000,192.000000,0.000000,0.000000,0.000000,0.000000,0.000000,0.000000,0.000000,0.000000,0.000000,1648010932.795396,0.000000
0.000000,1599.468481,-14009.089948,11104.816032,46079.551706,-14883.378432,24507.212580,10690.012358,16089.322101,-0.082000,0.960000,0.214000,192.000000,0.000000,0.000000,0.000000,0.000000,0.000000,0.000000,0.000000,0.000000,0.000000,1648010932.801872,0.000000
1.000000,1587.845574,-14022.612753,11095.830631,46067.235895,-14894.576656,24488.370060,10660.977442,16058.230824,-0.082000,0.960000,0.214000,192.000000,0.000000,0.000000,0.000000,0.000000,0.000000,0.000000,0.000000,0.000000,0.000000,1648010932.801905,0.000000
2.000000,1611.650182,-14003.837288,11116.327180,46076.511869,-14876.829371,24511.906446,10684.089146,16077.185104,-0.082000,0.960000,0.214000,192.000000,0.000000,0.000000,0.000000,0.000000,0.000000,0.000000,0.000000,0.000000,0.000000,1648010932.810005,0.000000
3.000000,1594.104063,-14019.505861,11103.251410,46073.673197,-14884.540723,24499.054193,10686.614893,16081.834266,-0.078000,0.956000,0.212000,192.000000,253.000000,144.000000,29.000000,224.000000,6.000000,160.000000,0.000000,0.000000,0.000000,1648010932.810022,0.000000
4.000000,1584.716330,-14029.228870,11092.902552,46059.703357,-14899.002302,24487.811266,10680.222294,16068.982013,-0.078000,0.956000,0.212000,192.000000,0.000000,0.000000,0.000000,0.000000,0.000000,0.000000,0.000000,0.000000,0.000000,1648010932.817953,0.000000
5.000000,1611.985458,-14006.094814,11115.477814,46074.522564,-14877.902255,24513.091089,10698.863649,16096.675825,-0.078000,0.956000,0.212000,192.000000,0.000000,0.000000,0.000000,0.000000,0.000000,0.000000,0.000000,0.000000,0.000000,1648010932.817970,0.000000
6.000000,1596.428644,-14018.030646,11103.430224,46070.208677,-14888.653444,24497.400164,10678.881190,16088.629197,-0.078000,0.956000,0.212000,192.000000,0.000000,0.000000,0.000000,0.000000,0.000000,0.000000,0.000000,0.000000,0.000000,1648010932.824399,0.000000
7.000000,1601.927173,-14015.124919,11104.704273,46071.058043,-14885.658310,24502.429307,10684.379719,16079.733202,-0.078000,0.956000,0.212000,192.000000,0.000000,0.000000,0.000000,0.000000,0.000000,0.000000,0.000000,0.000000,0.000000,1648010932.824415,0.000000
8.000000,1612.410142,-14007.502974,11114.740207,46083.016227,-14875.130638,24512.152316,10694.572114,16087.288092,-0.078000,0.956000,0.212000,192.000000,0.000000,0.000000,0.000000,0.000000,0.000000,0.000000,0.000000,0.000000,0.000000,1648010932.832579,0.000000
9.000000,1607.492758,-14013.448538,11113.644971,46080.021093,-14880.338595,24507.547856,10692.806326,16076.983938,-0.078000,0.956000,0.212000,192.000000,0.000000,0.000000,0.000000,0.000000,0.000000,0.000000,0.000000,0.000000,0.000000,1648010932.832595,0.000000
10.000000,1606.375171,-14011.213364,11109.733416,46079.238782,-14881.500886,24508.196057,10697.321379,16076.201627,-0.078000,0.956000,0.212000,192.000000,0.000000,0.000000,0.000000,0.000000,0.000000,0.000000,0.000000,0.000000,0.000000,1648010932.840649,0.000000
11.000000,1595.758092,-14022.121015,11097.663474,46071.840354,-14890.061604,24496.528446,10679.082355,16067.238577,-0.078000,0.956000,0.212000,192.000000,0.000000,0.000000,0.000000,0.000000,0.000000,0.000000,0.000000,0.000000,0.000000,1648010932.840666,0.000000
12.000000,1595.288705,-14022.724512,11102.133823,46075.193116,-14882.551418,24502.585769,10680.356405,16073.966452,-0.078000,0.956000,0.212000,192.000000,0.000000,0.000000,0.000000,0.000000,0.000000,0.000000,0.000000,0.000000,0.000000,1648010932.847854,0.000000
13.000000,1590.304266,-14025.719646,11095.808279,46069.806346,-14893.101441,24496.394336,10668.353518,16066.322156,-0.074000,0.952000,0.210000,192.000000,253.000000,176.000000,29.000000,192.000000,6.000000,144.000000,0.000000,0.000000,0.000000,1648010932.847871,0.000000
14.000000,1587.957333,-14025.630239,11092.187296,46065.179535,-14902.399767,24495.589673,10669.873437,16067.171522,-0.074000,0.952000,0.210000,192.000000,0.000000,0.000000,0.000000,0.000000,0.000000,0.000000,0.000000,0.000000,0.000000,1648010932.854229,0.000000
15.000000,1582.101176,-14029.340628,11086.800526,46057.669348,-14907.965351,24494.785010,10669.068774,16064.936348,-0.074000,0.952000,0.210000,192.000000,0.000000,0.000000,0.000000,0.000000,0.000000,0.000000,0.000000,0.000000,0.000000,1648010932.861906,0.000000
16.000000,1585.208069,-14025.719646,11090.600323,46056.462354,-14904.970217,24496.595501,10671.303948,16058.923728,-0.074000,0.952000,0.210000,192.000000,0.000000,0.000000,0.000000,0.000000,0.000000,0.000000,0.000000,0.000000,0.000000,1648010932.861915,0.000000
17.000000,1581.810603,-14030.614678,11088.186334,46054.383642,-14910.111119,24491.588711,10666.386565,16049.692458,-0.074000,0.952000,0.210000,192.000000,0.000000,0.000000,0.000000,0.000000,0.000000,0.000000,0.000000,0.000000,0.000000,1648010932.870275,0.000000
18.000000,1596.093368,-14024.602058,11098.781061,46066.252418,-14899.650502,24502.652824,10673.047384,16052.709943,-0.074000,0.952000,0.210000,192.000000,0.000000,0.000000,0.000000,0.000000,0.000000,0.000000,0.000000,0.000000,0.000000,1648010932.870291,0.000000
19.000000,1588.650237,-14030.078236,11087.828706,46064.598389,-14908.300627,24494.337975,10663.257320,16048.932499,-0.074000,0.952000,0.210000,192.000000,0.000000,0.000000,0.000000,0.000000,0.000000,0.000000,0.000000,0.000000,0.000000,1648010932.877405,0.000000
20.000000,1587.018560,-14023.350361,11084.945331,46062.162049,-14909.887601,24493.622719,10662.072678,16041.645830,-0.074000,0.952000,0.210000,192.000000,0.000000,0.000000,0.000000,0.000000,0.000000,0.000000,0.000000,0.000000,0.000000,1648010932.877421,0.000000
21.000000,1593.880545,-14018.790605,11090.779137,46065.850087,-14901.729214,24498.718917,10667.235931,16048.016077,-0.074000,0.952000,0.210000,192.000000,0.000000,0.000000,0.000000,0.000000,0.000000,0.000000,0.000000,0.000000,0.000000,1648010932.884670,0.000000
22.000000,1580.961237,-14032.268707,11079.558561,46060.440965,-14915.430834,24487.811266,10662.519713,16048.530167,-0.074000,0.952000,0.210000,192.000000,0.000000,0.000000,0.000000,0.000000,0.000000,0.000000,0.000000,0.000000,0.000000,1648010932.884705,0.000000
23.000000,1583.866964,-14029.161814,11081.838439,46067.124136,-14914.447357,24489.644109,10662.139733,16034.895603,-0.068000,0.958000,0.210000,192.000000,253.000000,224.000000,29.000000,240.000000,6.000000,144.000000,0.000000,0.000000,0.000000,1648010932.892843,0.000000
24.000000,1594.081711,-14019.327047,11095.048320,46072.935590,-14905.752528,24501.579941,10666.699489,16057.917900,-0.068000,0.958000,0.210000,192.000000,0.000000,0.000000,0.000000,0.000000,0.000000,0.000000,0.000000,0.000000,0.000000,1648010932.892859,0.000000
25.000000,1605.659915,-14008.084119,11104.726625,46078.322360,-14895.426022,24513.851048,10690.146469,16100.430918,-0.068000,0.958000,0.210000,192.000000,0.000000,0.000000,0.000000,0.000000,0.000000,0.000000,0.000000,0.000000,0.000000,1648010932.900930,0.000000
26.000000,1604.832900,-14008.397044,11107.230020,46077.674160,-14893.771993,24512.688758,10683.083318,16086.617540,-0.068000,0.958000,0.210000,192.000000,0.000000,0.000000,0.000000,0.000000,0.000000,0.000000,0.000000,0.000000,0.000000,1648010932.900947,0.000000
27.000000,1597.948563,-14018.857660,11100.055110,46074.634322,-14900.544572,24505.849124,10668.666442,16080.135534,-0.068000,0.958000,0.210000,192.000000,0.000000,0.000000,0.000000,0.000000,0.000000,0.000000,0.000000,0.000000,0.000000,1648010932.907386,0.000000
28.000000,1598.216784,-14016.868355,11101.127994,46077.852974,-14897.996473,24509.403051,10676.355443,16076.872179,-0.068000,0.958000,0.210000,192.000000,0.000000,0.000000,0.000000,0.000000,0.000000,0.000000,0.000000,0.000000,0.000000,1648010932.907404,0.000000
29.000000,1604.497624,-14004.686654,11107.542945,46084.849070,-14887.178229,24522.232952,10704.742158,16084.449421,-0.068000,0.958000,0.210000,192.000000,0.000000,0.000000,0.000000,0.000000,0.000000,0.000000,0.000000,0.000000,0.000000,1648010932.914618,0.000000
30.000000,1590.192508,-14022.344532,11094.914209,46076.824793,-14898.376453,24506.519676,10686.234914,16073.318252,-0.068000,0.958000,0.210000,192.000000,0.000000,0.000000,0.000000,0.000000,0.000000,0.000000,0.000000,0.000000,0.000000,1648010932.914635,0.000000
31.000000,1587.934981,-14025.026742,11094.780099,46076.266000,-14899.829316,24509.514810,10688.134812,16073.988804,-0.068000,0.958000,0.210000,192.000000,0.000000,0.000000,0.000000,0.000000,0.000000,0.000000,0.000000,0.000000,0.000000,1648010932.922611,0.000000
32.000000,1593.925249,-14019.662323,11101.083291,46084.893773,-14888.586389,24516.086223,10694.214486,16076.715717,-0.068000,0.958000,0.210000,192.000000,0.000000,0.000000,0.000000,0.000000,0.000000,0.000000,0.000000,0.000000,0.000000,1648010932.930634,0.000000
33.000000,1600.898993,-14012.532116,11104.816032,46091.308724,-14882.037328,24523.238781,10701.098824,16081.275473,-0.076000,0.960000,0.216000,192.000000,253.000000,160.000000,30.000000,0.000000,6.000000,192.000000,0.000000,0.000000,0.000000,1648010932.930651,0.000000
34.000000,1598.999095,-14013.850869,11100.390387,46088.291238,-14888.139354,24517.919066,10692.091071,16075.441667,-0.076000,0.960000,0.216000,192.000000,0.000000,0.000000,0.000000,0.000000,0.000000,0.000000,0.000000,0.000000,0.000000,1648010932.937158,0.000000
35.000000,1615.427627,-13997.534096,11115.589573,46099.131834,-14875.220045,24526.613894,10693.901562,16071.284243,-0.076000,0.960000,0.216000,192.000000,0.000000,0.000000,0.000000,0.000000,0.000000,0.000000,0.000000,0.000000,0.000000,1648010932.937174,0.000000
36.000000,1625.150636,-13981.172619,11125.424340,46109.704210,-14864.737077,24533.297066,10701.344693,16077.900359,-0.076000,0.960000,0.216000,192.000000,0.000000,0.000000,0.000000,0.000000,0.000000,0.000000,0.000000,0.000000,0.000000,1648010932.945155,0.000000
37.000000,1615.740551,-13985.955892,11117.824747,46110.397114,-14871.219083,24524.177554,10692.940437,16084.002386,-0.076000,0.960000,0.216000,192.000000,0.000000,0.000000,0.000000,0.000000,0.000000,0.000000,0.000000,0.000000,0.000000,1648010932.945171,0.000000
38.000000,1609.415008,-13995.298922,11112.527384,46106.977297,-14875.152990,24513.091089,10674.589655,16062.879987,-0.076000,0.960000,0.216000,192.000000,0.000000,0.000000,0.000000,0.000000,0.000000,0.000000,0.000000,0.000000,0.000000,1648010932.953085,0.000000
39.000000,1613.125397,-13997.377634,11115.433111,46103.490425,-14874.683604,24518.142583,10683.418594,16057.090885,-0.076000,0.960000,0.216000,192.000000,0.000000,0.000000,0.000000,0.000000,0.000000,0.000000,0.000000,0.000000,0.000000,1648010932.953101,0.000000
40.000000,1612.968935,-14002.339721,11112.437977,46098.863613,-14877.231702,24515.639188,10686.346672,16070.770153,-0.076000,0.960000,0.216000,192.000000,0.000000,0.000000,0.000000,0.000000,0.000000,0.000000,0.000000,0.000000,0.000000,1648010932.960330,0.000000
41.000000,1609.303249,-14006.474794,11108.280552,46093.678009,-14880.293891,24510.140659,10680.401108,16069.719621,-0.076000,0.960000,0.216000,192.000000,0.000000,0.000000,0.000000,0.000000,0.000000,0.000000,0.000000,0.000000,0.000000,1648010932.960346,0.000000
42.000000,1600.675476,-14009.872259,11099.965703,46089.431177,-14887.871133,24505.849124,10675.059041,16079.219112,-0.076000,0.960000,0.216000,192.000000,0.000000,0.000000,0.000000,0.000000,0.000000,0.000000,0.000000,0.000000,0.000000,1648010932.967794,0.000000
43.000000,1611.963107,-13995.343625,11107.788814,46098.237765,-14881.478534,24510.900618,10677.607140,16074.592301,-0.076000,0.960000,0.216000,192.000000,0.000000,0.000000,0.000000,0.000000,0.000000,0.000000,0.000000,0.000000,0.000000,1648010932.967829,0.000000
44.000000,1620.277956,-13988.682805,11115.477814,46104.295087,-14876.181170,24516.354444,10685.519658,16065.942176,-0.074000,0.956000,0.216000,192.000000,253.000000,176.000000,29.000000,224.000000,6.000000,192.000000,0.000000,0.000000,0.000000,1648010932.975774,0.000000
45.000000,1616.768732,-13997.221172,11113.846137,46101.456416,-14878.081069,24520.958903,10684.111498,16069.496103,-0.074000,0.956000,0.216000,192.000000,0.000000,0.000000,0.000000,0.000000,0.000000,0.000000,0.000000,0.000000,0.000000,1648010932.975790,0.000000
46.000000,1625.620022,-13987.855791,11123.770311,46111.961736,-14864.558263,24534.347598,10689.520620,16075.307557,-0.074000,0.956000,0.216000,192.000000,0.000000,0.000000,0.000000,0.000000,0.000000,0.000000,0.000000,0.000000,0.000000,1648010932.982868,0.000000
47.000000,1625.552967,-13985.620616,11123.703256,46118.980183,-14859.663231,24531.486575,10692.091071,16065.025755,-0.074000,0.956000,0.216000,192.000000,0.000000,0.000000,0.000000,0.000000,0.000000,0.000000,0.000000,0.000000,0.000000,1648010932.989404,0.000000
48.000000,1608.722104,-14001.423299,11109.576954,46109.056009,-14872.604891,24520.489516,10689.051233,16075.374612,-0.074000,0.956000,0.216000,192.000000,0.000000,0.000000,0.000000,0.000000,0.000000,0.000000,0.000000,0.000000,0.000000,1648010932.989421,0.000000
49.000000,1619.383886,-13987.453459,11117.377712,46112.587585,-14866.078182,24530.950133,10692.001664,16100.252104,-0.074000,0.956000,0.216000,192.000000,0.000000,0.000000,0.000000,0.000000,0.000000,0.000000,0.000000,0.000000,0.000000,1648010932.997493,0.000000
50.000000,1626.782313,-13982.960759,11121.065750,46113.280489,-14861.429019,24532.067720,10694.460356,16089.411508,-0.074000,0.956000,0.216000,192.000000,0.000000,0.000000,0.000000,0.000000,0.000000,0.000000,0.000000,0.000000,0.000000,1648010932.997509,0.000000
51.000000,1613.304211,-14001.244486,11112.013294,46104.406846,-14868.916854,24520.221295,10686.972521,16082.370708,-0.074000,0.956000,0.216000,192.000000,0.000000,0.000000,0.000000,0.000000,0.000000,0.000000,0.000000,0.000000,0.000000,1648010933.005067,0.000000
52.000000,1630.716220,-13984.055994,11124.530271,46106.642021,-14859.506769,24532.805328,10696.851992,16083.667109,-0.074000,0.956000,0.216000,192.000000,0.000000,0.000000,0.000000,0.000000,0.000000,0.000000,0.000000,0.000000,0.000000,1648010933.005076,0.000000
53.000000,1644.127267,-13970.086154,11137.918966,46119.047239,-14844.486397,24546.797520,10702.954018,16097.927522,-0.074000,0.956000,0.216000,192.000000,0.000000,0.000000,0.000000,0.000000,0.000000,0.000000,0.000000,0.000000,0.000000,1648010933.012563,0.000000
54.000000,1631.230310,-13981.262026,11123.859718,46114.509835,-14857.696278,24538.080339,10697.164917,16093.211304,-0.076000,0.950000,0.214000,192.000000,253.000000,160.000000,29.000000,176.000000,6.000000,176.000000,0.000000,0.000000,0.000000,1648010933.012579,0.000000
55.000000,1604.497624,-14004.977227,11101.195049,46097.969544,-14883.221970,24514.253380,10673.919102,16071.239540,-0.076000,0.950000,0.214000,192.000000,0.000000,0.000000,0.000000,0.000000,0.000000,0.000000,0.000000,0.000000,0.000000,1648010933.019996,0.000000
56.000000,1617.640450,-13991.052090,11116.573050,46101.612878,-14873.141333,24525.988045,10690.191172,16069.317290,-0.076000,0.950000,0.214000,192.000000,0.000000,0.000000,0.000000,0.000000,0.000000,0.000000,0.000000,0.000000,0.000000,1648010933.020007,0.000000
57.000000,1610.867871,-13998.763442,11114.248468,46101.501119,-14873.051926,24518.947246,10694.885039,16068.423220,-0.076000,0.950000,0.214000,192.000000,0.000000,0.000000,0.000000,0.000000,0.000000,0.000000,0.000000,0.000000,0.000000,1648010933.028139,0.000000
58.000000,1606.442226,-14001.333893,11105.307770,46097.746026,-14883.534894,24510.207714,10685.318492,16073.832342,-0.076000,0.950000,0.214000,192.000000,0.000000,0.000000,0.000000,0.000000,0.000000,0.000000,0.000000,0.000000,0.000000,1648010933.028155,0.000000
59.000000,1603.648258,-14004.105509,11099.943352,46094.795596,-14890.329825,24504.865647,10681.898675,16071.887740,-0.076000,0.950000,0.214000,192.000000,0.000000,0.000000,0.000000,0.000000,0.000000,0.000000,0.000000,0.000000,0.000000,1648010933.035787,0.000000
60.000000,1600.764883,-14012.286247,11094.869506,46082.457433,-14895.493078,24503.926874,10679.954073,16067.059763,-0.076000,0.950000,0.214000,192.000000,0.000000,0.000000,0.000000,0.000000,0.000000,0.000000,0.000000,0.000000,0.000000,1648010933.035797,0.000000
61.000000,1607.626868,-14005.781890,11101.127994,46085.273753,-14886.172400,24514.454545,10689.073585,16074.882874,-0.076000,0.950000,0.214000,192.000000,0.000000,0.000000,0.000000,0.000000,0.000000,0.000000,0.000000,0.000000,0.000000,1648010933.041743,0.000000
62.000000,1609.012676,-14003.010273,11100.859773,46084.066759,-14885.770069,24510.967673,10681.071661,16066.120990,-0.076000,0.950000,0.214000,192.000000,0.000000,0.000000,0.000000,0.000000,0.000000,0.000000,0.000000,0.000000,0.000000,1648010933.049324,0.000000
63.000000,1605.369342,-14007.905305,11097.954046,46080.043445,-14885.166572,24504.955054,10670.231065,16052.866406,-0.076000,0.950000,0.214000,192.000000,0.000000,0.000000,0.000000,0.000000,0.000000,0.000000,0.000000,0.000000,0.000000,1648010933.049330,0.000000
64.000000,1595.691037,-14018.812957,11089.661549,46073.717901,-14895.336615,24494.963824,10655.590672,16044.775074,-0.076000,0.952000,0.216000,192.000000,253.000000,160.000000,29.000000,192.000000,6.000000,192.000000,0.000000,0.000000,0.000000,1648010933.057336,0.000000
65.000000,1602.687133,-14014.387311,11096.277666,46072.175631,-14895.671892,24500.104725,10664.374908,16055.459208,-0.076000,0.952000,0.216000,192.000000,0.000000,0.000000,0.000000,0.000000,0.000000,0.000000,0.000000,0.000000,0.000000,1648010933.057348,0.000000
66.000000,1605.101121,-14013.895573,11098.557544,46075.371930,-14891.201543,24499.970615,10668.286463,16051.860577,-0.076000,0.952000,0.216000,192.000000,0.000000,0.000000,0.000000,0.000000,0.000000,0.000000,0.000000,0.000000,0.000000,1648010933.065329,0.000000
67.000000,1616.321697,-14001.155079,11110.180451,46085.430215,-14879.489229,24515.125098,10683.172725,16060.868330,-0.076000,0.952000,0.216000,192.000000,0.000000,0.000000,0.000000,0.000000,0.000000,0.000000,0.000000,0.000000,0.000000,1648010933.065333,0.000000
68.000000,1624.256566,-13991.096794,11120.126977,46099.735332,-14870.168551,24523.216429,10700.092995,16072.871217,-0.076000,0.952000,0.216000,192.000000,0.000000,0.000000,0.000000,0.000000,0.000000,0.000000,0.000000,0.000000,0.000000,1648010933.071917,0.000000
69.000000,1612.030162,-14003.725529,11106.782986,46092.336904,-14884.138392,24504.843295,10677.629492,16067.305633,-0.076000,0.952000,0.216000,192.000000,0.000000,0.000000,0.000000,0.000000,0.000000,0.000000,0.000000,0.000000,0.000000,1648010933.071922,0.000000
70.000000,1607.738627,-14010.498108,11098.110509,46084.022055,-14890.106307,24498.607158,10673.315605,16058.409638,-0.076000,0.952000,0.216000,192.000000,0.000000,0.000000,0.000000,0.000000,0.000000,0.000000,0.000000,0.000000,0.000000,1648010933.079939,0.000000
71.000000,1646.183627,-13971.874293,11133.985059,46108.430160,-14857.450409,24538.817947,10716.677990,16092.473697,-0.076000,0.952000,0.216000,192.000000,0.000000,0.000000,0.000000,0.000000,0.000000,0.000000,0.000000,0.000000,0.000000,1648010933.079944,0.000000
72.000000,1623.027220,-13993.935465,11118.830576,46104.697419,-14872.917816,24517.472031,10694.549763,16073.050031,-0.076000,0.952000,0.216000,192.000000,0.000000,0.000000,0.000000,0.000000,0.000000,0.000000,0.000000,0.000000,0.000000,1648010933.088005,0.000000
73.000000,1615.718200,-14002.786756,11109.509898,46099.668276,-14879.757450,24503.390432,10676.824829,16045.669144,-0.076000,0.952000,0.216000,192.000000,0.000000,0.000000,0.000000,0.000000,0.000000,0.000000,0.000000,0.000000,0.000000,1648010933.088011,0.000000
74.000000,1618.892147,-13995.410680,11113.197936,46106.262041,-14874.907121,24506.363214,10683.083318,16058.700211,-0.078000,0.952000,0.220000,192.000000,253.000000,144.000000,29.000000,192.000000,6.000000,224.000000,0.000000,0.000000,0.000000,1648010933.095197,0.000000
75.000000,1588.963162,-14017.382445,11086.152325,46091.286372,-14902.913857,24473.304984,10644.660669,16033.934478,-0.078000,0.952000,0.220000,192.000000,0.000000,0.000000,0.000000,0.000000,0.000000,0.000000,0.000000,0.000000,0.000000,1648010933.095209,0.000000
76.000000,1604.341162,-14006.184221,11094.802451,46091.398131,-14898.018825,24478.132961,10645.800608,16012.029768,-0.078000,0.952000,0.220000,192.000000,0.000000,0.000000,0.000000,0.000000,0.000000,0.000000,0.000000,0.000000,0.000000,1648010933.101731,0.000000
77.000000,1632.638470,-13977.015195,11122.429207,46112.788750,-14864.222987,24508.464278,10678.076527,16033.330981,-0.078000,0.952000,0.220000,192.000000,0.000000,0.000000,0.000000,0.000000,0.000000,0.000000,0.000000,0.000000,0.000000,1648010933.109756,0.000000
78.000000,1618.668630,-13995.455384,11113.846137,46108.005477,-14872.314319,24500.328243,10662.989099,16059.147246,-0.078000,0.952000,0.220000,192.000000,0.000000,0.000000,0.000000,0.000000,0.000000,0.000000,0.000000,0.000000,0.000000,1648010933.109768,0.000000
79.000000,1611.694886,-14007.078291,11106.872393,46094.616782,-14882.104383,24493.108629,10653.355498,16054.118103,-0.078000,0.952000,0.220000,192.000000,0.000000,0.000000,0.000000,0.000000,0.000000,0.000000,0.000000,0.000000,0.000000,1648010933.118013,0.000000
80.000000,1605.928136,-14012.554468,11101.418567,46083.999703,-14888.295816,24491.164028,10656.372983,16055.995650,-0.078000,0.952000,0.220000,192.000000,0.000000,0.000000,0.000000,0.000000,0.000000,0.000000,0.000000,0.000000,0.000000,1648010933.118029,0.000000
81.000000,1615.829958,-14003.725529,11109.331084,46090.839337,-14879.243359,24503.278673,10675.439021,16062.924691,-0.078000,0.952000,0.220000,192.000000,0.000000,0.000000,0.000000,0.000000,0.000000,0.000000,0.000000,0.000000,0.000000,1648010933.124369,0.000000
82.000000,1617.416932,-14001.445651,11110.582782,46095.957887,-14877.075240,24503.233970,10677.517733,16049.424237,-0.078000,0.952000,0.220000,192.000000,0.000000,0.000000,0.000000,0.000000,0.000000,0.000000,0.000000,0.000000,0.000000,1648010933.124385,0.000000
83.000000,1627.229348,-13990.940331,11118.897631,46108.363105,-14869.319185,24510.453583,10686.927818,16050.519472,-0.078000,0.952000,0.220000,192.000000,0.000000,0.000000,0.000000,0.000000,0.000000,0.000000,0.000000,0.000000,0.000000,1648010933.132529,0.000000
84.000000,1613.192453,-14006.318332,11104.659570,46097.656619,-14883.445487,24495.254397,10669.515809,16046.004420,-0.072000,0.952000,0.216000,192.000000,253.000000,192.000000,29.000000,192.000000,6.000000,192.000000,0.000000,0.000000,0.000000,1648010933.132546,0.000000
85.000000,1625.888243,-13991.879105,11116.170718,46099.422407,-14874.214217,24505.692661,10671.482762,16054.788656,-0.072000,0.952000,0.216000,192.000000,0.000000,0.000000,0.000000,0.000000,0.000000,0.000000,0.000000,0.000000,0.000000,1648010933.140620,0.000000
86.000000,1641.668575,-13974.847075,11135.169701,46113.526358,-14855.349345,24519.506040,10687.687777,16076.201627,-0.072000,0.952000,0.216000,192.000000,0.000000,0.000000,0.000000,0.000000,0.000000,0.000000,0.000000,0.000000,0.000000,1648010933.140655,0.000000
87.000000,1635.723011,-13979.004500,11126.899556,46113.660468,-14860.289080,24509.112478,10689.520620,16064.601071,-0.072000,0.952000,0.216000,192.000000,0.000000,0.000000,0.000000,0.000000,0.000000,0.000000,0.000000,0.000000,0.000000,1648010933.147852,0.000000
88.000000,1635.275976,-13980.658529,11125.200823,46115.895643,-14861.652537,24507.905484,10686.436079,16057.761438,-0.072000,0.952000,0.216000,192.000000,0.000000,0.000000,0.000000,0.000000,0.000000,0.000000,0.000000,0.000000,0.000000,1648010933.147868,0.000000
89.000000,1631.319717,-13989.778041,11117.489471,46108.944250,-14871.867284,24506.005586,10686.793707,16059.527225,-0.072000,0.952000,0.216000,192.000000,0.000000,0.000000,0.000000,0.000000,0.000000,0.000000,0.000000,0.000000,0.000000,1648010933.155226,0.000000
90.000000,1623.764828,-13998.919904,11110.962762,46103.646887,-14876.292929,24506.094993,10684.312664,16059.035487,-0.072000,0.952000,0.216000,192.000000,0.000000,0.000000,0.000000,0.000000,0.000000,0.000000,0.000000,0.000000,0.000000,1648010933.155242,0.000000
91.000000,1617.998078,-14000.596285,11105.777157,46095.689666,-14882.216141,24503.077507,10675.729594,16053.671068,-0.072000,0.952000,0.216000,192.000000,0.000000,0.000000,0.000000,0.000000,0.000000,0.000000,0.000000,0.000000,0.000000,1648010933.162343,0.000000
92.000000,1647.189456,-13974.243578,11131.526367,46112.945212,-14858.478589,24529.027883,10698.327207,16083.823572,-0.072000,0.952000,0.216000,192.000000,0.000000,0.000000,0.000000,0.000000,0.000000,0.000000,0.000000,0.000000,0.000000,1648010933.162359,0.000000
93.000000,1642.719107,-13986.402927,11128.955916,46118.264928,-14862.814827,24523.372891,10686.123155,16070.747801,-0.072000,0.952000,0.216000,192.000000,0.000000,0.000000,0.000000,0.000000,0.000000,0.000000,0.000000,0.000000,0.000000,1648010933.170238,0.000000
94.000000,1647.010642,-13979.987977,11128.553585,46119.829550,-14863.217159,24522.903505,10686.100803,16061.941214,-0.078000,0.958000,0.220000,192.000000,253.000000,144.000000,29.000000,240.000000,6.000000,224.000000,0.000000,0.000000,0.000000,1648010933.177399,0.000000
95.000000,1650.899845,-13973.662433,11131.816939,46124.858692,-14859.931452,24523.596409,10691.264056,16063.550539,-0.078000,0.958000,0.220000,192.000000,0.000000,0.000000,0.000000,0.000000,0.000000,0.000000,0.000000,0.000000,0.000000,1648010933.177415,0.000000
96.000000,1638.695793,-13987.475811,11119.948163,46117.795541,-14867.799266,24509.380699,10675.684890,16061.047144,-0.078000,0.958000,0.220000,192.000000,0.000000,0.000000,0.000000,0.000000,0.000000,0.000000,0.000000,0.000000,0.000000,1648010933.184951,0.000000
97.000000,1640.103953,-13985.955892,11117.154195,46120.120122,-14868.089839,24506.989063,10677.741251,16059.795446,-0.078000,0.958000,0.220000,192.000000,0.000000,0.000000,0.000000,0.000000,0.000000,0.000000,0.000000,0.000000,0.000000,1648010933.184967,0.000000
98.000000,1634.761886,-13993.689596,11112.147404,46116.163864,-14869.922682,24499.657690,10661.804457,16033.107463,-0.078000,0.958000,0.220000,192.000000,0.000000,0.000000,0.000000,0.000000,0.000000,0.000000,0.000000,0.000000,0.000000,1648010933.192881,0.000000
99.000000,1627.654031,-13995.209515,11107.319427,46107.379628,-14874.616548,24495.857894,10655.210692,16013.013245,-0.078000,0.958000,0.220000,192.000000,0.000000,0.000000,0.000000,0.000000,0.000000,0.000000,0.000000,0.000000,0.000000,1648010933.192897,0.000000
100.000000,1626.514092,-13991.655587,11107.006503,46105.412675,-14874.415383,24498.540103,10664.486666,16030.626420,-0.078000,0.958000,0.220000,192.000000,0.000000,0.000000,0.000000,0.000000,0.000000,0.000000,0.000000,0.000000,0.000000,1648010933.200949,0.000000
101.000000,1627.542273,-13988.749860,11109.174622,46101.568175,-14874.884769,24501.781106,10672.175666,16069.607862,-0.078000,0.958000,0.220000,192.000000,0.000000,0.000000,0.000000,0.000000,0.000000,0.000000,0.000000,0.000000,0.000000,1648010933.200967,0.000000
102.000000,1632.638470,-13980.993805,11113.242640,46103.021038,-14871.420249,24504.709185,10671.303948,16070.524284,-0.078000,0.958000,0.220000,192.000000,0.000000,0.000000,0.000000,0.000000,0.000000,0.000000,0.000000,0.000000,0.000000,1648010933.207411,0.000000
103.000000,1640.640395,-13974.802372,11118.942335,46108.050180,-14865.541740,24504.865647,10672.466239,16049.737161,-0.078000,0.958000,0.220000,192.000000,0.000000,0.000000,0.000000,0.000000,0.000000,0.000000,0.000000,0.000000,0.000000,1648010933.207428,0.000000
104.000000,1629.531578,-13991.387366,11100.792718,46100.830567,-14880.360947,24485.062001,10650.025088,16023.473862,-0.078000,0.960000,0.216000,192.000000,253.000000,144.000000,30.000000,0.000000,6.000000,192.000000,0.000000,0.000000,0.000000,1648010933.215471,0.000000
105.000000,1616.589918,-13999.545753,11090.041529,46092.113387,-14891.156839,24478.982327,10646.448808,16028.748873,-0.078000,0.960000,0.216000,192.000000,0.000000,0.000000,0.000000,0.000000,0.000000,0.000000,0.000000,0.000000,0.000000,1648010933.215487,0.000000
106.000000,1610.577298,-13996.640026,11088.700424,46093.789767,-14894.397842,24481.597481,10648.169893,16044.171577,-0.078000,0.960000,0.216000,192.000000,0.000000,0.000000,0.000000,0.000000,0.000000,0.000000,0.000000,0.000000,0.000000,1648010933.223319,0.000000
107.000000,1608.118607,-14004.709006,11087.158154,46092.180442,-14898.510563,24478.669402,10637.552814,16061.494179,-0.078000,0.960000,0.216000,192.000000,0.000000,0.000000,0.000000,0.000000,0.000000,0.000000,0.000000,0.000000,0.000000,1648010933.223355,0.000000
108.000000,1635.767714,-13976.098773,11112.929715,46107.401980,-14873.677775,24501.401127,10669.314643,16074.726412,-0.078000,0.960000,0.216000,192.000000,0.000000,0.000000,0.000000,0.000000,0.000000,0.000000,0.000000,0.000000,0.000000,1648010933.230643,0.000000
109.000000,1633.733706,-13975.830552,11113.443805,46107.759608,-14872.739002,24493.555664,10669.538161,16044.171577,-0.078000,0.960000,0.216000,192.000000,0.000000,0.000000,0.000000,0.000000,0.000000,0.000000,0.000000,0.000000,0.000000,1648010933.237219,0.000000
110.000000,1627.855197,-13984.659491,11109.509898,46102.149320,-14878.170476,24492.303967,10673.382661,16051.815874,-0.078000,0.960000,0.216000,192.000000,0.000000,0.000000,0.000000,0.000000,0.000000,0.000000,0.000000,0.000000,0.000000,1648010933.237235,0.000000
111.000000,1621.686115,-13993.868410,11106.157137,46097.678971,-14884.004281,24489.018260,10667.012413,16069.697269,-0.078000,0.960000,0.216000,192.000000,0.000000,0.000000,0.000000,0.000000,0.000000,0.000000,0.000000,0.000000,0.000000,1648010933.245073,0.000000
112.000000,1633.778409,-13982.603131,11119.165852,46106.709076,-14871.509656,24502.228141,10679.305873,16084.695290,-0.078000,0.960000,0.216000,192.000000,0.000000,0.000000,0.000000,0.000000,0.000000,0.000000,0.000000,0.000000,0.000000,1648010933.245090,0.000000
113.000000,1630.626813,-13986.313520,11117.176547,46102.261079,-14871.867284,24499.411821,10676.668367,16077.498028,-0.078000,0.960000,0.216000,192.000000,0.000000,0.000000,0.000000,0.000000,0.000000,0.000000,0.000000,0.000000,0.000000,1648010933.253221,0.000000
114.000000,1644.931930,-13967.649814,11126.787797,46104.943288,-14863.731249,24506.854952,10677.562437,16078.861484,-0.076000,0.952000,0.214000,192.000000,253.000000,160.000000,29.000000,192.000000,6.000000,176.000000,0.000000,0.000000,0.000000,1648010933.253238,0.000000
115.000000,1663.036843,-13951.467151,11144.020992,46121.215358,-14848.956746,24522.456470,10700.294161,16092.004310,-0.076000,0.952000,0.214000,192.000000,0.000000,0.000000,0.000000,0.000000,0.000000,0.000000,0.000000,0.000000,0.000000,1648010933.260386,0.000000
116.000000,1659.192343,-13954.752857,11144.266861,46121.662393,-14843.905251,24520.914199,10699.958885,16090.193819,-0.076000,0.952000,0.214000,192.000000,0.000000,0.000000,0.000000,0.000000,0.000000,0.000000,0.000000,0.000000,0.000000,1648010933.260402,0.000000
117.000000,1653.537351,-13962.732430,11139.885919,46118.846073,-14847.883862,24515.661540,10696.382606,16088.718604,-0.076000,0.952000,0.214000,192.000000,0.000000,0.000000,0.000000,0.000000,0.000000,0.000000,0.000000,0.000000,0.000000,1648010933.267801,0.000000
118.000000,1650.989252,-13967.403944,11135.817902,46120.745971,-14853.248281,24512.800516,10698.193097,16083.778868,-0.076000,0.952000,0.214000,192.000000,0.000000,0.000000,0.000000,0.000000,0.000000,0.000000,0.000000,0.000000,0.000000,1648010933.267819,0.000000
119.000000,1656.510133,-13959.469075,11141.383486,46123.316422,-14851.057810,24520.936551,10698.483670,16089.545618,-0.076000,0.952000,0.214000,192.000000,0.000000,0.000000,0.000000,0.000000,0.000000,0.000000,0.000000,0.000000,0.000000,1648010933.277273,0.000000
120.000000,1662.858029,-13950.304860,11147.329050,46128.479675,-14843.368810,24529.027883,10701.188231,16094.284188,-0.076000,0.952000,0.214000,192.000000,0.000000,0.000000,0.000000,0.000000,0.000000,0.000000,0.000000,0.000000,0.000000,1648010933.277290,0.000000
121.000000,1656.487782,-13958.373840,11144.758599,46132.570044,-14843.167644,24524.132851,10695.913219,16089.769136,-0.076000,0.952000,0.214000,192.000000,0.000000,0.000000,0.000000,0.000000,0.000000,0.000000,0.000000,0.000000,0.000000,1648010933.283512,0.000000
122.000000,1653.805572,-13959.513779,11147.284346,46135.095791,-14839.792531,24522.031787,10692.538106,16084.561179,-0.076000,0.952000,0.214000,192.000000,0.000000,0.000000,0.000000,0.000000,0.000000,0.000000,0.000000,0.000000,0.000000,1648010933.283529,0.000000
123.000000,1643.546122,-13967.605110,11137.740152,46134.358184,-14847.749752,24505.647958,10680.892847,16073.228845,-0.076000,0.952000,0.214000,192.000000,0.000000,0.000000,0.000000,0.000000,0.000000,0.000000,0.000000,0.000000,0.000000,1648010933.289676,0.000000
124.000000,1628.615156,-13982.781945,11125.267878,46120.053067,-14864.647670,24489.733516,10661.133905,16051.279432,-0.072000,0.948000,0.210000,192.000000,253.000000,192.000000,29.000000,160.000000,6.000000,144.000000,0.000000,0.000000,0.000000,1648010933.297513,0.000000
125.000000,1646.831828,-13972.298976,11139.394181,46123.070553,-14854.499978,24500.462353,10670.499286,16048.261946,-0.072000,0.948000,0.210000,192.000000,0.000000,0.000000,0.000000,0.000000,0.000000,0.000000,0.000000,0.000000,0.000000,1648010933.297530,0.000000
126.000000,1654.900808,-13964.609976,11149.944204,46130.156056,-14845.089894,24506.698490,10677.562437,16051.927632,-0.072000,0.948000,0.210000,192.000000,0.000000,0.000000,0.000000,0.000000,0.000000,0.000000,0.000000,0.000000,0.000000,1648010933.305461,0.000000
127.000000,1642.160313,-13962.508912,11143.842178,46126.311556,-14850.320202,24500.596464,10669.247588,16065.718659,-0.072000,0.948000,0.210000,192.000000,0.000000,0.000000,0.000000,0.000000,0.000000,0.000000,0.000000,0.000000,0.000000,1648010933.305477,0.000000
128.000000,1641.623872,-13961.436029,11141.405838,46124.299899,-14854.544682,24500.283539,10667.682966,16068.400868,-0.072000,0.948000,0.210000,192.000000,0.000000,0.000000,0.000000,0.000000,0.000000,0.000000,0.000000,0.000000,0.000000,1648010933.312619,0.000000
129.000000,1655.392546,-13955.468113,11153.609890,46132.212416,-14841.647725,24510.610045,10677.361271,16064.019926,-0.072000,0.948000,0.210000,192.000000,0.000000,0.000000,0.000000,0.000000,0.000000,0.000000,0.000000,0.000000,0.000000,1648010933.312655,0.000000
130.000000,1642.227369,-13963.648851,11146.904367,46123.405829,-14847.950917,24503.993929,10686.547838,16068.199702,-0.072000,0.948000,0.210000,192.000000,0.000000,0.000000,0.000000,0.000000,0.000000,0.000000,0.000000,0.000000,0.000000,1648010933.320123,0.000000
131.000000,1629.643336,-13975.987014,11136.980192,46114.085151,-14857.696278,24492.974519,10676.467201,16059.884853,-0.072000,0.948000,0.210000,192.000000,0.000000,0.000000,0.000000,0.000000,0.000000,0.000000,0.000000,0.000000,0.000000,1648010933.320139,0.000000
132.000000,1618.534519,-13989.152192,11126.161948,46109.033657,-14871.107324,24475.316641,10652.506131,16036.437873,-0.072000,0.948000,0.210000,192.000000,0.000000,0.000000,0.000000,0.000000,0.000000,0.000000,0.000000,0.000000,0.000000,1648010933.328050,0.000000
133.000000,1625.351802,-13982.178448,11130.900518,46108.899547,-14867.240473,24481.843350,10655.411858,16023.943248,-0.072000,0.948000,0.210000,192.000000,0.000000,0.000000,0.000000,0.000000,0.000000,0.000000,0.000000,0.000000,0.000000,1648010933.328066,0.000000
134.000000,1661.136944,-13949.455494,11163.735230,46129.574910,-14834.115187,24521.964731,10695.622646,16074.793467,-0.070000,0.958000,0.210000,192.000000,253.000000,208.000000,29.000000,240.000000,6.000000,144.000000,0.000000,0.000000,0.000000,1648010933.336160,0.000000
135.000000,1646.317738,-13965.034660,11151.709992,46125.082210,-14846.855682,24513.068737,10691.532277,16090.842019,-0.070000,0.958000,0.210000,192.000000,0.000000,0.000000,0.000000,0.000000,0.000000,0.000000,0.000000,0.000000,0.000000,1648010933.336176,0.000000
136.000000,1657.962997,-13947.175616,11161.053021,46128.434971,-14840.485435,24522.635284,10695.220315,16091.713737,-0.070000,0.958000,0.210000,192.000000,0.000000,0.000000,0.000000,0.000000,0.000000,0.000000,0.000000,0.000000,0.000000,1648010933.344145,0.000000
137.000000,1663.059194,-13939.486616,11167.132696,46136.325137,-14833.824615,24525.965694,10691.867553,16081.543694,-0.070000,0.958000,0.210000,192.000000,0.000000,0.000000,0.000000,0.000000,0.000000,0.000000,0.000000,0.000000,0.000000,1648010933.344161,0.000000
138.000000,1647.748250,-13958.284433,11154.794533,46132.279471,-14843.100589,24515.728595,10689.632379,16085.008214,-0.070000,0.958000,0.210000,192.000000,0.000000,0.000000,0.000000,0.000000,0.000000,0.000000,0.000000,0.000000,0.000000,1648010933.350171,0.000000
139.000000,1621.127322,-13989.554523,11125.938431,46107.267869,-14870.950862,24484.771429,10659.234006,16045.847958,-0.070000,0.958000,0.210000,192.000000,0.000000,0.000000,0.000000,0.000000,0.000000,0.000000,0.000000,0.000000,0.000000,1648010933.357567,0.000000
140.000000,1628.861025,-13981.507895,11129.559413,46100.875270,-14869.252130,24495.030879,10663.614948,16050.363010,-0.070000,0.958000,0.210000,192.000000,0.000000,0.000000,0.000000,0.000000,0.000000,0.000000,0.000000,0.000000,0.000000,1648010933.357582,0.000000
141.000000,1632.571415,-13977.663395,11132.420436,46101.702285,-14861.920758,24501.222313,10669.940492,16078.548560,-0.070000,0.958000,0.210000,192.000000,0.000000,0.000000,0.000000,0.000000,0.000000,0.000000,0.000000,0.000000,0.000000,1648010933.365683,0.000000
142.000000,1637.958185,-13972.768363,11135.549681,46104.920936,-14857.428057,24503.904522,10679.082355,16080.314348,-0.070000,0.958000,0.210000,192.000000,0.000000,0.000000,0.000000,0.000000,0.000000,0.000000,0.000000,0.000000,0.000000,1648010933.365699,0.000000
143.000000,1622.379020,-13984.972416,11127.570108,46097.768378,-14866.011127,24494.047403,10680.758736,16069.004365,-0.070000,0.958000,0.210000,192.000000,0.000000,0.000000,0.000000,0.000000,0.000000,0.000000,0.000000,0.000000,0.000000,1648010933.372345,0.000000
144.000000,1607.269240,-14003.792584,11112.192108,46086.413692,-14883.780764,24481.172798,10670.789858,16047.099656,-0.070000,0.958000,0.210000,192.000000,0.000000,0.000000,0.000000,0.000000,0.000000,0.000000,0.000000,0.000000,0.000000,1648010933.372361,0.000000
145.000000,1600.250793,-14006.675959,11103.944314,46084.625552,-14891.536819,24477.752981,10664.397259,16041.377609,-0.078000,0.962000,0.208000,192.000000,253.000000,144.000000,30.000000,16.000000,6.000000,128.000000,0.000000,0.000000,0.000000,1648010933.380333,0.000000
146.000000,1612.365438,-13986.849962,11114.471986,46092.403959,-14881.366775,24488.526522,10669.918140,16049.088961,-0.078000,0.962000,0.208000,192.000000,0.000000,0.000000,0.000000,0.000000,0.000000,0.000000,0.000000,0.000000,0.000000,1648010933.380350,0.000000
147.000000,1603.827072,-14001.646817,11106.961799,46083.463262,-14886.865304,24478.378830,10655.277748,16041.131740,-0.078000,0.962000,0.208000,192.000000,0.000000,0.000000,0.000000,0.000000,0.000000,0.000000,0.000000,0.000000,0.000000,1648010933.388299,0.000000
148.000000,1625.374153,-13982.379613,11126.094893,46098.953020,-14864.178284,24502.496362,10679.797611,16062.276490,-0.078000,0.962000,0.208000,192.000000,0.000000,0.000000,0.000000,0.000000,0.000000,0.000000,0.000000,0.000000,0.000000,1648010933.388315,0.000000
149.000000,1627.363459,-13976.858732,11127.346590,46103.646887,-14863.708897,24501.646996,10679.238818,16057.515568,-0.078000,0.962000,0.208000,192.000000,0.000000,0.000000,0.000000,0.000000,0.000000,0.000000,0.000000,0.000000,0.000000,1648010933.395499,0.000000
150.000000,1623.921290,-13982.960759,11121.088102,46101.456416,-14872.627243,24493.689775,10670.029899,16047.747856,-0.078000,0.962000,0.208000,192.000000,0.000000,0.000000,0.000000,0.000000,0.000000,0.000000,0.000000,0.000000,0.000000,1648010933.395534,0.000000
151.000000,1599.602592,-14008.285285,11102.156174,46089.453529,-14893.459069,24475.741324,10652.036745,16050.608879,-0.078000,0.962000,0.208000,192.000000,0.000000,0.000000,0.000000,0.000000,0.000000,0.000000,0.000000,0.000000,0.000000,1648010933.402959,0.000000
152.000000,1602.620077,-14005.245448,11109.889878,46088.984142,-14885.323034,24485.866664,10661.424477,16064.891644,-0.078000,0.962000,0.208000,192.000000,0.000000,0.000000,0.000000,0.000000,0.000000,0.000000,0.000000,0.000000,0.000000,1648010933.402976,0.000000
153.000000,1611.963107,-13996.930599,11117.243602,46089.453529,-14874.214217,24490.113496,10660.508056,16061.628289,-0.078000,0.962000,0.208000,192.000000,0.000000,0.000000,0.000000,0.000000,0.000000,0.000000,0.000000,0.000000,0.000000,1648010933.409963,0.000000
154.000000,1619.205072,-13992.281436,11118.607058,46088.492404,-14872.716650,24488.303004,10657.781143,16052.732295,-0.078000,0.962000,0.208000,192.000000,0.000000,0.000000,0.000000,0.000000,0.000000,0.000000,0.000000,0.000000,0.000000,1648010933.409979,0.000000
155.000000,1632.280842,-13978.780982,11128.218308,46094.437968,-14862.658365,24498.897731,10676.646015,16062.276490,-0.076000,0.964000,0.208000,192.000000,253.000000,160.000000,30.000000,32.000000,6.000000,128.000000,0.000000,0.000000,0.000000,1648010933.418146,0.000000
156.000000,1623.586014,-13982.089041,11122.004524,46091.845166,-14865.273519,24489.577054,10668.130001,16063.662298,-0.076000,0.964000,0.208000,192.000000,0.000000,0.000000,0.000000,0.000000,0.000000,0.000000,0.000000,0.000000,0.000000,1648010933.424428,0.000000
157.000000,1616.165235,-13988.951026,11117.310657,46088.246535,-14869.319185,24484.994946,10663.905521,16046.853786,-0.076000,0.964000,0.208000,192.000000,0.000000,0.000000,0.000000,0.000000,0.000000,0.000000,0.000000,0.000000,0.000000,1648010933.424444,0.000000
158.000000,1613.013639,-13993.533134,11116.438939,46090.772282,-14870.503827,24487.811266,10674.187323,16056.397981,-0.076000,0.964000,0.208000,192.000000,0.000000,0.000000,0.000000,0.000000,0.000000,0.000000,0.000000,0.000000,0.000000,1648010933.432593,0.000000
