%OpenBCI Raw EEG Data
%Number of channels = 8
%Sample Rate = 256 Hz
%Board = OpenBCI_GUI$BoardCytonSerial
%Channels = Fp1, Fp2, F3, F4, Fz, Pz, O1, O2
%Data recorded at AIMS Lab (http://aimsl.uiu.ac.bd) by Rana Depto (mail@ranadepto.com)
%Brainwaves were obtained via the Ultracortex Mark IV Headset using the OpenBCI Cyton Board
%Recording Application = ConcentrateToday (https://concentrate.today)
%Data type = RAW data with noise
%Day No = 6
%Subject ID = 3
%Session ID = 7
%Record starting timestamp (UTC+6) = 2022-03-14T15:20:31.748003
%Record ending timestamp (UTC+6)   = 2022-03-14T15:20:52.613982
%Recorded durations = ~20 seconds
Sample Index, EXG Channel 0, EXG Channel 1, EXG Channel 2, EXG Channel 3, EXG Channel 4, EXG Channel 5, EXG Channel 6, EXG Channel 7, Accel Channel 0, Accel Channel 1, Accel Channel 2, Other, Other, Other, Other, Other, Other, Other, Analog Channel 0, Analog Channel 1, Analog Channel 2, Timestamp, Timestamp (Formatted)
218.000000,-8681.462250,-10602.706445,-11130.229965,5723.968831,-26987.049220,2606.526328,13476.403174,-2686.187945,-0.010000,0.982000,0.136000,192.000000,0.000000,0.000000,0.000000,0.000000,0.000000,0.000000,0.000000,0.000000,0.000000,1647249631.747712,0.000000
219.000000,-8684.211514,-10600.426567,-11130.632297,5725.824025,-26987.518607,2605.676962,13477.118430,-2673.268637,-0.010000,0.982000,0.136000,192.000000,0.000000,0.000000,0.000000,0.000000,0.000000,0.000000,0.000000,0.000000,0.000000,1647249631.755771,0.000000
220.000000,-8690.179430,-10598.616075,-11136.510806,5724.169996,-26991.653680,2605.073465,13490.976511,-2664.462050,-0.010000,0.982000,0.136000,192.000000,0.000000,0.000000,0.000000,0.000000,0.000000,0.000000,0.000000,0.000000,0.000000,1647249631.755777,0.000000
221.000000,-8693.129861,-10598.861945,-11143.328088,5722.784188,-26998.359203,2597.473871,13482.661662,-2673.134526,-0.010000,0.982000,0.136000,192.000000,0.000000,0.000000,0.000000,0.000000,0.000000,0.000000,0.000000,0.000000,0.000000,1647249631.763721,0.000000
222.000000,-8688.279532,-10600.515974,-11142.523425,5722.583022,-26997.867465,2598.725569,13483.153401,-2674.699148,-0.010000,0.982000,0.136000,192.000000,0.000000,0.000000,0.000000,0.000000,0.000000,0.000000,0.000000,0.000000,0.000000,1647249631.763725,0.000000
223.000000,-8682.602189,-10599.532497,-11140.914099,5726.427522,-26994.224130,2598.636162,13478.794811,-2683.684550,-0.012000,0.972000,0.134000,192.000000,255.000000,160.000000,30.000000,96.000000,4.000000,48.000000,0.000000,0.000000,0.000000,1647249631.770624,0.000000
224.000000,-8674.287340,-10592.424642,-11133.247451,5737.335174,-26983.160017,2609.432055,13484.539209,-2671.122869,-0.012000,0.972000,0.134000,192.000000,0.000000,0.000000,0.000000,0.000000,0.000000,0.000000,0.000000,0.000000,0.000000,1647249631.770629,0.000000
225.000000,-8676.343700,-10590.211819,-11134.342686,5739.279776,-26982.265947,2616.584613,13488.897799,-2656.974215,-0.012000,0.972000,0.134000,192.000000,0.000000,0.000000,0.000000,0.000000,0.000000,0.000000,0.000000,0.000000,0.000000,1647249631.778166,0.000000
226.000000,-8684.166811,-10597.118508,-11141.539948,5732.261328,-26989.038526,2612.449540,13500.297189,-2654.962558,-0.012000,0.972000,0.134000,192.000000,0.000000,0.000000,0.000000,0.000000,0.000000,0.000000,0.000000,0.000000,0.000000,1647249631.778170,0.000000
227.000000,-8675.315520,-10591.128241,-11135.706143,5736.351697,-26985.752819,2613.947107,13489.143668,-2659.142334,-0.012000,0.972000,0.134000,192.000000,0.000000,0.000000,0.000000,0.000000,0.000000,0.000000,0.000000,0.000000,0.000000,1647249631.786293,0.000000
228.000000,-8665.816029,-10582.098136,-11122.160986,5744.040697,-26975.515720,2621.814921,13474.458572,-2653.576750,-0.012000,0.972000,0.134000,192.000000,0.000000,0.000000,0.000000,0.000000,0.000000,0.000000,0.000000,0.000000,0.000000,1647249631.786298,0.000000
229.000000,-8675.717852,-10591.061186,-11129.514710,5735.323517,-26982.288299,2618.439808,13514.334084,-2665.266712,-0.012000,0.972000,0.134000,192.000000,0.000000,0.000000,0.000000,0.000000,0.000000,0.000000,0.000000,0.000000,0.000000,1647249631.794181,0.000000
230.000000,-8693.196916,-10612.585916,-11151.352364,5712.591793,-27001.957834,2602.279496,13496.944427,-2670.474669,-0.012000,0.972000,0.134000,192.000000,0.000000,0.000000,0.000000,0.000000,0.000000,0.000000,0.000000,0.000000,0.000000,1647249631.794186,0.000000
231.000000,-8697.309637,-10615.826919,-11156.828541,5709.216679,-27006.137610,2599.686694,13482.885180,-2679.124794,-0.012000,0.972000,0.134000,192.000000,0.000000,0.000000,0.000000,0.000000,0.000000,0.000000,0.000000,0.000000,0.000000,1647249631.800251,0.000000
232.000000,-8694.180393,-10611.289514,-11153.788704,5716.056313,-27000.236750,2610.259069,13498.866677,-2667.278369,-0.012000,0.972000,0.134000,192.000000,0.000000,0.000000,0.000000,0.000000,0.000000,0.000000,0.000000,0.000000,0.000000,1647249631.800256,0.000000
233.000000,-8683.116279,-10597.163212,-11146.658498,5730.652002,-26988.278566,2622.507825,13502.889991,-2664.193829,-0.014000,0.974000,0.136000,192.000000,255.000000,144.000000,30.000000,112.000000,4.000000,64.000000,0.000000,0.000000,0.000000,1647249631.807924,0.000000
234.000000,-8683.138631,-10596.894991,-11143.663364,5732.328383,-26986.401020,2628.252224,13497.033834,-2647.094744,-0.014000,0.974000,0.136000,192.000000,0.000000,0.000000,0.000000,0.000000,0.000000,0.000000,0.000000,0.000000,0.000000,1647249631.815936,0.000000
235.000000,-8685.820840,-10601.298285,-11144.490378,5724.080589,-26993.151247,2622.038439,13502.331198,-2649.106401,-0.014000,0.974000,0.136000,192.000000,0.000000,0.000000,0.000000,0.000000,0.000000,0.000000,0.000000,0.000000,0.000000,1647249631.815947,0.000000
236.000000,-8683.742128,-10603.555811,-11142.434018,5724.728790,-26993.464171,2618.193939,13492.094099,-2660.416384,-0.014000,0.974000,0.136000,192.000000,0.000000,0.000000,0.000000,0.000000,0.000000,0.000000,0.000000,0.000000,0.000000,1647249631.823100,0.000000
237.000000,-8671.962759,-10593.363415,-11130.297021,5736.865787,-26981.349526,2627.380505,13495.849192,-2655.431945,-0.014000,0.974000,0.136000,192.000000,0.000000,0.000000,0.000000,0.000000,0.000000,0.000000,0.000000,0.000000,0.000000,1647249631.823104,0.000000
238.000000,-8673.661491,-10593.318712,-11128.844157,5735.323517,-26981.885967,2625.413552,13499.917209,-2659.879942,-0.014000,0.974000,0.136000,192.000000,0.000000,0.000000,0.000000,0.000000,0.000000,0.000000,0.000000,0.000000,0.000000,1647249631.830572,0.000000
239.000000,-8676.723680,-10589.362453,-11127.503053,5736.530511,-26979.427276,2624.586537,13502.957046,-2664.573808,-0.014000,0.974000,0.136000,192.000000,0.000000,0.000000,0.000000,0.000000,0.000000,0.000000,0.000000,0.000000,0.000000,1647249631.830576,0.000000
240.000000,-8674.689671,-10584.668587,-11124.954954,5742.677241,-26975.739238,2629.280404,13512.210669,-2659.857590,-0.014000,0.974000,0.136000,192.000000,0.000000,0.000000,0.000000,0.000000,0.000000,0.000000,0.000000,0.000000,0.000000,1647249631.838552,0.000000
241.000000,-8671.739241,-10584.266255,-11124.686733,5744.577139,-26976.745066,2628.520444,13497.011482,-2664.238532,-0.014000,0.974000,0.136000,192.000000,0.000000,0.000000,0.000000,0.000000,0.000000,0.000000,0.000000,0.000000,0.000000,1647249631.838555,0.000000
242.000000,-8675.628445,-10590.122412,-11128.039495,5742.788999,-26979.181406,2630.643860,13492.049395,-2648.189980,-0.014000,0.974000,0.136000,192.000000,0.000000,0.000000,0.000000,0.000000,0.000000,0.000000,0.000000,0.000000,0.000000,1647249631.846584,0.000000
243.000000,-8680.836401,-10595.151555,-11133.895652,5736.351697,-26984.210549,2625.748828,13487.064956,-2661.891599,-0.008000,0.976000,0.140000,192.000000,255.000000,192.000000,30.000000,128.000000,4.000000,96.000000,0.000000,0.000000,0.000000,1647249631.846588,0.000000
244.000000,-8689.598285,-10606.841517,-11144.892710,5726.293412,-26995.587587,2610.259069,13463.930901,-2693.251096,-0.008000,0.976000,0.140000,192.000000,0.000000,0.000000,0.000000,0.000000,0.000000,0.000000,0.000000,0.000000,0.000000,1647249631.853055,0.000000
245.000000,-8680.903456,-10598.705482,-11139.572995,5730.786113,-26990.983127,2609.767331,13455.616052,-2669.670006,-0.008000,0.976000,0.140000,192.000000,0.000000,0.000000,0.000000,0.000000,0.000000,0.000000,0.000000,0.000000,0.000000,1647249631.853059,0.000000
246.000000,-8674.466154,-10590.502392,-11139.550643,5732.395438,-26991.765439,2603.710008,13471.128162,-2669.155916,-0.008000,0.976000,0.140000,192.000000,0.000000,0.000000,0.000000,0.000000,0.000000,0.000000,0.000000,0.000000,0.000000,1647249631.861181,0.000000
247.000000,-8676.053128,-10584.735642,-11136.846082,5739.413886,-26989.932595,2606.056941,13465.204950,-2673.402747,-0.008000,0.976000,0.140000,192.000000,0.000000,0.000000,0.000000,0.000000,0.000000,0.000000,0.000000,0.000000,0.000000,1647249631.861185,0.000000
248.000000,-8689.955913,-10598.571372,-11135.616736,5742.252558,-26989.150284,2618.171587,13489.903628,-2653.487343,-0.008000,0.976000,0.140000,192.000000,0.000000,0.000000,0.000000,0.000000,0.000000,0.000000,0.000000,0.000000,0.000000,1647249631.868053,0.000000
249.000000,-8687.296055,-10598.951352,-11135.840253,5743.459552,-26989.284395,2614.572956,13486.349700,-2659.589369,-0.008000,0.976000,0.140000,192.000000,0.000000,0.000000,0.000000,0.000000,0.000000,0.000000,0.000000,0.000000,0.000000,1647249631.876243,0.000000
250.000000,-8676.075480,-10589.787136,-11129.313544,5748.399287,-26983.942328,2614.774122,13492.138802,-2654.895503,-0.008000,0.976000,0.140000,192.000000,0.000000,0.000000,0.000000,0.000000,0.000000,0.000000,0.000000,0.000000,0.000000,1647249631.876248,0.000000
251.000000,-8678.645930,-10590.703558,-11131.034628,5749.405116,-26982.355354,2612.158968,13494.552790,-2665.937265,-0.008000,0.976000,0.140000,192.000000,0.000000,0.000000,0.000000,0.000000,0.000000,0.000000,0.000000,0.000000,0.000000,1647249631.882881,0.000000
252.000000,-8674.130878,-10583.886276,-11129.961745,5754.031927,-26977.594433,2612.695409,13483.265160,-2668.775936,-0.008000,0.976000,0.140000,192.000000,0.000000,0.000000,0.000000,0.000000,0.000000,0.000000,0.000000,0.000000,0.000000,1647249631.882885,0.000000
253.000000,-8669.079384,-10577.158401,-11124.954954,5758.859904,-26971.268889,2617.054000,13469.362374,-2670.832297,-0.014000,0.980000,0.130000,192.000000,255.000000,144.000000,30.000000,160.000000,4.000000,16.000000,0.000000,0.000000,0.000000,1647249631.890916,0.000000
254.000000,-8674.622616,-10580.511162,-11130.922870,5754.791886,-26976.476845,2613.164796,13475.039718,-2683.461032,-0.014000,0.980000,0.130000,192.000000,0.000000,0.000000,0.000000,0.000000,0.000000,0.000000,0.000000,0.000000,0.000000,1647249631.890920,0.000000
255.000000,-8660.228093,-10568.910607,-11124.932602,5761.318596,-26970.777150,2619.132712,13475.106773,-2682.097576,-0.014000,0.980000,0.130000,192.000000,0.000000,0.000000,0.000000,0.000000,0.000000,0.000000,0.000000,0.000000,0.000000,1647249631.898855,0.000000
0.000000,-8654.751915,-10567.323633,-11122.429207,5763.218494,-26967.580851,2630.420343,13484.718023,-2652.257997,-0.014000,0.980000,0.130000,192.000000,0.000000,0.000000,0.000000,0.000000,0.000000,0.000000,0.000000,0.000000,0.000000,1647249631.898859,0.000000
1.000000,-8665.436049,-10579.259465,-11128.598288,5756.781191,-26974.688706,2630.599157,13495.491564,-2651.721555,-0.014000,0.980000,0.130000,192.000000,0.000000,0.000000,0.000000,0.000000,0.000000,0.000000,0.000000,0.000000,0.000000,1647249631.905838,0.000000
2.000000,-8662.686785,-10574.364433,-11123.993829,5763.084383,-26971.648869,2634.220139,13508.634389,-2645.172494,-0.014000,0.980000,0.130000,192.000000,0.000000,0.000000,0.000000,0.000000,0.000000,0.000000,0.000000,0.000000,0.000000,1647249631.905843,0.000000
3.000000,-8661.122162,-10573.246845,-11119.702294,5767.174753,-26969.480749,2638.712840,13517.463329,-2634.421305,-0.014000,0.980000,0.130000,192.000000,0.000000,0.000000,0.000000,0.000000,0.000000,0.000000,0.000000,0.000000,0.000000,1647249631.913428,0.000000
4.000000,-8674.063823,-10589.384805,-11132.487492,5752.534360,-26984.143494,2622.999564,13516.926887,-2651.408631,-0.014000,0.980000,0.130000,192.000000,0.000000,0.000000,0.000000,0.000000,0.000000,0.000000,0.000000,0.000000,0.000000,1647249631.913432,0.000000
5.000000,-8669.012328,-10583.707462,-11130.632297,5756.311805,-26982.109485,2618.260994,13496.452689,-2671.860477,-0.014000,0.980000,0.130000,192.000000,0.000000,0.000000,0.000000,0.000000,0.000000,0.000000,0.000000,0.000000,0.000000,1647249631.921357,0.000000
6.000000,-8670.420488,-10584.176848,-11129.917041,5754.478962,-26982.780037,2615.958764,13496.452689,-2668.932398,-0.014000,0.980000,0.130000,192.000000,0.000000,0.000000,0.000000,0.000000,0.000000,0.000000,0.000000,0.000000,0.000000,1647249631.921360,0.000000
7.000000,-8665.726622,-10574.722061,-11124.284401,5760.871561,-26976.700363,2620.496168,13488.339006,-2665.154954,-0.018000,0.984000,0.124000,192.000000,255.000000,112.000000,30.000000,192.000000,3.000000,224.000000,0.000000,0.000000,0.000000,1647249631.928557,0.000000
8.000000,-8670.331081,-10578.655968,-11124.664381,5756.758840,-26980.120180,2618.752732,13499.671340,-2668.463012,-0.018000,0.984000,0.124000,192.000000,0.000000,0.000000,0.000000,0.000000,0.000000,0.000000,0.000000,0.000000,0.000000,1647249631.935151,0.000000
9.000000,-8666.710099,-10574.207970,-11121.758654,5763.509067,-26975.985107,2617.724552,13490.037738,-2676.308474,-0.018000,0.984000,0.124000,192.000000,0.000000,0.000000,0.000000,0.000000,0.000000,0.000000,0.000000,0.000000,0.000000,1647249631.935156,0.000000
10.000000,-8676.701328,-10581.785212,-11131.235794,5754.143686,-26985.462247,2607.420398,13474.078593,-2693.832242,-0.018000,0.984000,0.124000,192.000000,0.000000,0.000000,0.000000,0.000000,0.000000,0.000000,0.000000,0.000000,0.000000,1647249631.943159,0.000000
11.000000,-8676.880142,-10583.707462,-11133.828596,5752.064973,-26990.379630,2601.720703,13455.414886,-2699.174309,-0.018000,0.984000,0.124000,192.000000,0.000000,0.000000,0.000000,0.000000,0.000000,0.000000,0.000000,0.000000,0.000000,1647249631.943162,0.000000
12.000000,-8668.386479,-10578.879485,-11126.050189,5760.960968,-26983.942328,2612.114264,13460.265214,-2675.749680,-0.018000,0.984000,0.124000,192.000000,0.000000,0.000000,0.000000,0.000000,0.000000,0.000000,0.000000,0.000000,0.000000,1647249631.951190,0.000000
13.000000,-8680.501125,-10587.239037,-11135.147349,5751.863808,-26994.514703,2603.195918,13476.514933,-2705.164576,-0.018000,0.984000,0.124000,192.000000,0.000000,0.000000,0.000000,0.000000,0.000000,0.000000,0.000000,0.000000,0.000000,1647249631.951194,0.000000
14.000000,-8683.563314,-10591.105889,-11139.997678,5747.818142,-26998.068630,2592.042398,13447.480017,-2720.117893,-0.018000,0.984000,0.124000,192.000000,0.000000,0.000000,0.000000,0.000000,0.000000,0.000000,0.000000,0.000000,0.000000,1647249631.958139,0.000000
15.000000,-8683.809183,-10596.447956,-11142.501073,5743.303090,-26999.365032,2593.092929,13442.964964,-2703.041160,-0.018000,0.984000,0.124000,192.000000,0.000000,0.000000,0.000000,0.000000,0.000000,0.000000,0.000000,0.000000,0.000000,1647249631.958143,0.000000
16.000000,-8683.920942,-10596.313846,-11139.863567,5743.481903,-26997.398078,2597.809148,13464.780267,-2691.194736,-0.018000,0.984000,0.124000,192.000000,0.000000,0.000000,0.000000,0.000000,0.000000,0.000000,0.000000,0.000000,0.000000,1647249631.965755,0.000000
17.000000,-8667.403003,-10579.840610,-11124.887899,5760.960968,-26980.120180,2610.795511,13477.565465,-2676.353178,-0.018000,0.984000,0.124000,192.000000,0.000000,0.000000,0.000000,0.000000,0.000000,0.000000,0.000000,0.000000,0.000000,1647249631.965759,0.000000
18.000000,-8662.575026,-10574.856171,-11123.725608,5767.264160,-26975.091037,2613.880052,13461.651023,-2681.315265,-0.020000,0.982000,0.124000,192.000000,255.000000,96.000000,30.000000,176.000000,3.000000,224.000000,0.000000,0.000000,0.000000,1647249631.973707,0.000000
19.000000,-8667.782982,-10581.248770,-11130.811111,5767.778250,-26977.482674,2610.951973,13454.833741,-2690.725349,-0.020000,0.982000,0.124000,192.000000,0.000000,0.000000,0.000000,0.000000,0.000000,0.000000,0.000000,0.000000,0.000000,1647249631.973711,0.000000
20.000000,-8661.077459,-10577.583084,-11122.965649,5775.087270,-26971.872386,2619.579747,13491.915285,-2669.178268,-0.020000,0.982000,0.124000,192.000000,0.000000,0.000000,0.000000,0.000000,0.000000,0.000000,0.000000,0.000000,0.000000,1647249631.981838,0.000000
21.000000,-8655.355412,-10572.576293,-11115.343704,5778.730604,-26965.457435,2625.637069,13506.287456,-2660.997529,-0.020000,0.982000,0.124000,192.000000,0.000000,0.000000,0.000000,0.000000,0.000000,0.000000,0.000000,0.000000,0.000000,1647249631.981842,0.000000
22.000000,-8655.735392,-10568.374165,-11113.667323,5782.061014,-26963.199909,2629.615680,13497.324407,-2658.203561,-0.020000,0.982000,0.124000,192.000000,0.000000,0.000000,0.000000,0.000000,0.000000,0.000000,0.000000,0.000000,0.000000,1647249631.987960,0.000000
23.000000,-8664.854904,-10577.426622,-11122.943297,5773.299131,-26973.772284,2624.005392,13493.144631,-2658.628244,-0.020000,0.982000,0.124000,192.000000,0.000000,0.000000,0.000000,0.000000,0.000000,0.000000,0.000000,0.000000,0.000000,1647249631.995281,0.000000
24.000000,-8665.994843,-10577.940712,-11127.123073,5771.086308,-26978.935537,2619.758561,13499.313712,-2664.417346,-0.020000,0.982000,0.124000,192.000000,0.000000,0.000000,0.000000,0.000000,0.000000,0.000000,0.000000,0.000000,0.000000,1647249631.995285,0.000000
25.000000,-8674.220285,-10589.585971,-11135.415570,5757.317633,-26989.306747,2612.449540,13495.849192,-2674.229762,-0.020000,0.982000,0.124000,192.000000,0.000000,0.000000,0.000000,0.000000,0.000000,0.000000,0.000000,0.000000,0.000000,1647249632.003503,0.000000
26.000000,-8683.675073,-10597.364378,-11141.227024,5751.841456,-26994.090020,2608.090950,13496.005654,-2677.157840,-0.020000,0.982000,0.124000,192.000000,0.000000,0.000000,0.000000,0.000000,0.000000,0.000000,0.000000,0.000000,0.000000,1647249632.003531,0.000000
27.000000,-8687.743090,-10595.933866,-11142.992812,5754.702479,-26993.240654,2609.230889,13494.731604,-2676.375529,-0.020000,0.982000,0.124000,192.000000,0.000000,0.000000,0.000000,0.000000,0.000000,0.000000,0.000000,0.000000,0.000000,1647249632.011337,0.000000
28.000000,-8678.489468,-10587.619017,-11133.493320,5764.984282,-26982.444761,2621.166721,13511.495413,-2663.299759,-0.016000,0.982000,0.120000,192.000000,255.000000,128.000000,30.000000,176.000000,3.000000,192.000000,0.000000,0.000000,0.000000,1647249632.011341,0.000000
29.000000,-8673.929712,-10583.729814,-11129.648820,5769.454631,-26979.159055,2625.301793,13517.798605,-2656.191904,-0.016000,0.982000,0.120000,192.000000,0.000000,0.000000,0.000000,0.000000,0.000000,0.000000,0.000000,0.000000,0.000000,1647249632.017995,0.000000
30.000000,-8670.442840,-10582.299302,-11128.687695,5769.499334,-26979.091999,2625.368848,13509.103776,-2652.950901,-0.016000,0.982000,0.120000,192.000000,0.000000,0.000000,0.000000,0.000000,0.000000,0.000000,0.000000,0.000000,0.000000,1647249632.017999,0.000000
31.000000,-8664.586683,-10575.884351,-11124.709085,5772.583875,-26975.649831,2625.905290,13483.309863,-2665.914913,-0.016000,0.982000,0.120000,192.000000,0.000000,0.000000,0.000000,0.000000,0.000000,0.000000,0.000000,0.000000,0.000000,1647249632.026061,0.000000
32.000000,-8677.908323,-10591.418814,-11134.543852,5762.346776,-26986.825703,2620.876148,13485.656796,-2656.750698,-0.016000,0.982000,0.120000,192.000000,0.000000,0.000000,0.000000,0.000000,0.000000,0.000000,0.000000,0.000000,0.000000,1647249632.026065,0.000000
33.000000,-8692.504012,-10605.723930,-11147.306698,5748.645156,-27001.331985,2607.867433,13503.091157,-2679.013035,-0.016000,0.982000,0.120000,192.000000,0.000000,0.000000,0.000000,0.000000,0.000000,0.000000,0.000000,0.000000,0.000000,1647249632.033920,0.000000
34.000000,-8686.536096,-10599.443090,-11144.780951,5751.170904,-26995.967566,2610.035552,13501.794756,-2668.150087,-0.016000,0.982000,0.120000,192.000000,0.000000,0.000000,0.000000,0.000000,0.000000,0.000000,0.000000,0.000000,0.000000,1647249632.033924,0.000000
35.000000,-8682.021044,-10592.201125,-11144.020992,5759.485753,-26989.530264,2617.411627,13493.256389,-2658.941169,-0.016000,0.982000,0.120000,192.000000,0.000000,0.000000,0.000000,0.000000,0.000000,0.000000,0.000000,0.000000,0.000000,1647249632.041135,0.000000
36.000000,-8674.846134,-10581.181715,-11140.377657,5773.142668,-26980.969546,2623.893633,13497.167945,-2657.421250,-0.016000,0.982000,0.120000,192.000000,0.000000,0.000000,0.000000,0.000000,0.000000,0.000000,0.000000,0.000000,0.000000,1647249632.041139,0.000000
37.000000,-8662.239750,-10567.122467,-11130.565242,5787.894820,-26966.999706,2635.181264,13497.682035,-2655.476648,-0.016000,0.982000,0.120000,192.000000,0.000000,0.000000,0.000000,0.000000,0.000000,0.000000,0.000000,0.000000,0.000000,1647249632.047603,0.000000
38.000000,-8678.288302,-10583.439241,-11141.919928,5780.116413,-26977.013287,2634.734229,13508.187355,-2641.059773,-0.020000,0.980000,0.118000,192.000000,255.000000,96.000000,30.000000,160.000000,3.000000,176.000000,0.000000,0.000000,0.000000,1647249632.047607,0.000000
39.000000,-8684.971474,-10589.004825,-11152.626413,5772.516820,-26986.199854,2621.904328,13507.069767,-2666.987797,-0.020000,0.980000,0.118000,192.000000,0.000000,0.000000,0.000000,0.000000,0.000000,0.000000,0.000000,0.000000,0.000000,1647249632.055786,0.000000
40.000000,-8673.214456,-10579.684148,-11137.963669,5781.971607,-26977.125046,2628.095761,13511.048378,-2658.069451,-0.020000,0.980000,0.118000,192.000000,0.000000,0.000000,0.000000,0.000000,0.000000,0.000000,0.000000,0.000000,0.000000,1647249632.063707,0.000000
41.000000,-8679.875276,-10586.389671,-11139.595346,5777.300093,-26981.595395,2625.882939,13523.364189,-2665.691395,-0.020000,0.980000,0.118000,192.000000,0.000000,0.000000,0.000000,0.000000,0.000000,0.000000,0.000000,0.000000,0.000000,1647249632.063711,0.000000
42.000000,-8685.753785,-10591.038834,-11142.501073,5775.288436,-26985.171674,2622.373715,13497.771442,-2673.961541,-0.020000,0.980000,0.118000,192.000000,0.000000,0.000000,0.000000,0.000000,0.000000,0.000000,0.000000,0.000000,0.000000,1647249632.070134,0.000000
43.000000,-8674.309692,-10576.107869,-11128.195957,5787.894820,-26971.648869,2638.042288,13515.742244,-2650.760430,-0.020000,0.980000,0.118000,192.000000,0.000000,0.000000,0.000000,0.000000,0.000000,0.000000,0.000000,0.000000,0.000000,1647249632.070143,0.000000
44.000000,-8665.078421,-10563.792057,-11121.378675,5796.142613,-26965.032752,2642.155009,13512.613000,-2647.027689,-0.020000,0.980000,0.118000,192.000000,0.000000,0.000000,0.000000,0.000000,0.000000,0.000000,0.000000,0.000000,0.000000,1647249632.078258,0.000000
45.000000,-8664.407869,-10563.792057,-11122.943297,5799.405968,-26964.831586,2640.813904,13508.544982,-2648.905235,-0.020000,0.980000,0.118000,192.000000,0.000000,0.000000,0.000000,0.000000,0.000000,0.000000,0.000000,0.000000,0.000000,1647249632.078262,0.000000
46.000000,-8666.084250,-10566.340156,-11124.373808,5800.031817,-26964.764531,2639.808075,13519.273820,-2657.622416,-0.020000,0.980000,0.118000,192.000000,0.000000,0.000000,0.000000,0.000000,0.000000,0.000000,0.000000,0.000000,0.000000,1647249632.086265,0.000000
47.000000,-8667.648872,-10571.324595,-11130.520538,5794.510936,-26968.854900,2632.007317,13517.306866,-2661.958654,-0.020000,0.980000,0.118000,192.000000,0.000000,0.000000,0.000000,0.000000,0.000000,0.000000,0.000000,0.000000,0.000000,1647249632.086269,0.000000
48.000000,-8670.219322,-10574.342081,-11132.778064,5789.951180,-26971.380648,2630.263881,13517.351570,-2650.335747,-0.020000,0.980000,0.124000,192.000000,255.000000,96.000000,30.000000,160.000000,3.000000,224.000000,0.000000,0.000000,0.000000,1647249632.093335,0.000000
49.000000,-8673.639139,-10577.784250,-11131.347553,5785.503183,-26972.498235,2622.329011,13515.697541,-2661.735137,-0.020000,0.980000,0.124000,192.000000,0.000000,0.000000,0.000000,0.000000,0.000000,0.000000,0.000000,0.000000,0.000000,1647249632.093339,0.000000
50.000000,-8670.107564,-10572.330424,-11128.799454,5788.431262,-26968.541976,2619.289174,13507.963837,-2665.847858,-0.020000,0.980000,0.124000,192.000000,0.000000,0.000000,0.000000,0.000000,0.000000,0.000000,0.000000,0.000000,0.000000,1647249632.100878,0.000000
51.000000,-8664.787849,-10568.597683,-11124.016181,5789.973532,-26964.898642,2623.871282,13506.421567,-2637.863474,-0.020000,0.980000,0.124000,192.000000,0.000000,0.000000,0.000000,0.000000,0.000000,0.000000,0.000000,0.000000,0.000000,1647249632.100882,0.000000
52.000000,-8662.619729,-10566.027232,-11123.949125,5791.024064,-26965.368028,2626.933471,13502.755881,-2636.455314,-0.020000,0.980000,0.124000,192.000000,0.000000,0.000000,0.000000,0.000000,0.000000,0.000000,0.000000,0.000000,0.000000,1647249632.108874,0.000000
53.000000,-8661.569197,-10568.038889,-11122.093930,5794.063901,-26962.685819,2632.879035,13505.818070,-2639.338689,-0.020000,0.980000,0.124000,192.000000,0.000000,0.000000,0.000000,0.000000,0.000000,0.000000,0.000000,0.000000,0.000000,1647249632.108877,0.000000
54.000000,-8667.090078,-10574.900874,-11125.178471,5791.962837,-26968.877252,2630.308584,13525.085273,-2635.293023,-0.020000,0.980000,0.124000,192.000000,0.000000,0.000000,0.000000,0.000000,0.000000,0.000000,0.000000,0.000000,0.000000,1647249632.115222,0.000000
55.000000,-8663.670261,-10573.179790,-11128.061846,5784.966741,-26975.493369,2620.406761,13523.654762,-2646.133619,-0.020000,0.980000,0.124000,192.000000,0.000000,0.000000,0.000000,0.000000,0.000000,0.000000,0.000000,0.000000,0.000000,1647249632.123233,0.000000
56.000000,-8672.834477,-10588.647197,-11139.595346,5767.733546,-26988.971470,2605.252278,13504.007578,-2655.186076,-0.020000,0.980000,0.124000,192.000000,0.000000,0.000000,0.000000,0.000000,0.000000,0.000000,0.000000,0.000000,0.000000,1647249632.123237,0.000000
57.000000,-8666.352471,-10580.242941,-11133.605079,5772.963854,-26981.774209,2608.873261,13500.252485,-2648.346442,-0.020000,0.980000,0.124000,192.000000,0.000000,0.000000,0.000000,0.000000,0.000000,0.000000,0.000000,0.000000,0.000000,1647249632.131265,0.000000
58.000000,-8661.099811,-10571.615168,-11128.419474,5779.959950,-26972.073552,2612.360133,13483.511029,-2660.014052,-0.020000,0.980000,0.126000,192.000000,255.000000,96.000000,30.000000,160.000000,3.000000,240.000000,0.000000,0.000000,0.000000,1647249632.131270,0.000000
59.000000,-8649.186331,-10560.528703,-11117.333009,5790.599381,-26959.690685,2631.962613,13508.008541,-2625.145331,-0.020000,0.980000,0.126000,192.000000,0.000000,0.000000,0.000000,0.000000,0.000000,0.000000,0.000000,0.000000,0.000000,1647249632.137862,0.000000
60.000000,-8656.428296,-10569.938787,-11122.160986,5779.468212,-26967.334982,2630.487398,13525.956991,-2625.011221,-0.020000,0.980000,0.126000,192.000000,0.000000,0.000000,0.000000,0.000000,0.000000,0.000000,0.000000,0.000000,0.000000,1647249632.137866,0.000000
61.000000,-8667.157133,-10583.081613,-11129.067675,5768.538209,-26977.013287,2620.987907,13550.320393,-2641.126828,-0.020000,0.980000,0.126000,192.000000,0.000000,0.000000,0.000000,0.000000,0.000000,0.000000,0.000000,0.000000,0.000000,1647249632.145827,0.000000
62.000000,-8676.209590,-10590.144764,-11134.677963,5765.900703,-26980.477808,2613.388313,13539.211576,-2647.877055,-0.020000,0.980000,0.126000,192.000000,0.000000,0.000000,0.000000,0.000000,0.000000,0.000000,0.000000,0.000000,0.000000,1647249632.145832,0.000000
63.000000,-8688.190125,-10598.705482,-11146.010297,5754.031927,-26990.156113,2603.106511,13524.057093,-2662.562151,-0.020000,0.980000,0.126000,192.000000,0.000000,0.000000,0.000000,0.000000,0.000000,0.000000,0.000000,0.000000,0.000000,1647249632.153862,0.000000
64.000000,-8679.495296,-10589.876543,-11141.472893,5761.117430,-26981.796561,2602.547717,13506.510974,-2658.270616,-0.020000,0.980000,0.126000,192.000000,0.000000,0.000000,0.000000,0.000000,0.000000,0.000000,0.000000,0.000000,0.000000,1647249632.153866,0.000000
65.000000,-8671.158096,-10580.131183,-11130.431131,5771.689805,-26968.296107,2611.555470,13520.659628,-2653.979081,-0.020000,0.980000,0.126000,192.000000,0.000000,0.000000,0.000000,0.000000,0.000000,0.000000,0.000000,0.000000,0.000000,1647249632.160933,0.000000
66.000000,-8661.882122,-10571.749279,-11122.965649,5774.886104,-26961.814101,2622.641936,13518.200936,-2641.976195,-0.020000,0.980000,0.126000,192.000000,0.000000,0.000000,0.000000,0.000000,0.000000,0.000000,0.000000,0.000000,0.000000,1647249632.160937,0.000000
67.000000,-8667.626520,-10576.666662,-11128.352419,5771.354529,-26964.250441,2625.681773,13517.552736,-2643.227892,-0.020000,0.980000,0.126000,192.000000,0.000000,0.000000,0.000000,0.000000,0.000000,0.000000,0.000000,0.000000,0.000000,1647249632.168487,0.000000
68.000000,-8678.780041,-10585.696767,-11140.601175,5758.435221,-26975.180444,2615.735247,13509.327294,-2646.692413,-0.022000,0.984000,0.130000,192.000000,255.000000,80.000000,30.000000,192.000000,4.000000,16.000000,0.000000,0.000000,0.000000,1647249632.168490,0.000000
69.000000,-8673.929712,-10582.768689,-11139.125960,5755.753011,-26976.409790,2615.422322,13508.634389,-2646.938282,-0.022000,0.984000,0.130000,192.000000,0.000000,0.000000,0.000000,0.000000,0.000000,0.000000,0.000000,0.000000,0.000000,1647249632.175481,0.000000
70.000000,-8670.889875,-10584.467421,-11134.230928,5750.790924,-26978.868482,2614.349438,13496.743261,-2652.235645,-0.022000,0.984000,0.130000,192.000000,0.000000,0.000000,0.000000,0.000000,0.000000,0.000000,0.000000,0.000000,0.000000,1647249632.183438,0.000000
71.000000,-8659.378726,-10570.899912,-11120.797529,5768.560561,-26964.563366,2630.375639,13513.574125,-2634.309546,-0.022000,0.984000,0.130000,192.000000,0.000000,0.000000,0.000000,0.000000,0.000000,0.000000,0.000000,0.000000,0.000000,1647249632.183442,0.000000
72.000000,-8661.211569,-10573.827991,-11122.228041,5770.125183,-26963.155206,2636.008279,13522.984209,-2622.507825,-0.022000,0.984000,0.130000,192.000000,0.000000,0.000000,0.000000,0.000000,0.000000,0.000000,0.000000,0.000000,0.000000,1647249632.190610,0.000000
73.000000,-8672.387442,-10584.154497,-11131.436960,5759.619863,-26972.051200,2623.692468,13512.702407,-2635.158913,-0.022000,0.984000,0.130000,192.000000,0.000000,0.000000,0.000000,0.000000,0.000000,0.000000,0.000000,0.000000,0.000000,1647249632.190614,0.000000
74.000000,-8666.263064,-10574.766764,-11122.362151,5763.218494,-26964.518662,2625.659421,13515.988113,-2631.470875,-0.022000,0.984000,0.130000,192.000000,0.000000,0.000000,0.000000,0.000000,0.000000,0.000000,0.000000,0.000000,0.000000,1647249632.198190,0.000000
75.000000,-8669.727584,-10582.187543,-11121.088102,5756.714136,-26967.156168,2623.424247,13510.199012,-2629.302756,-0.022000,0.984000,0.130000,192.000000,0.000000,0.000000,0.000000,0.000000,0.000000,0.000000,0.000000,0.000000,0.000000,1647249632.198194,0.000000
76.000000,-8674.846134,-10587.887238,-11124.843195,5751.617938,-26973.168787,2619.311526,13504.879296,-2638.936357,-0.022000,0.984000,0.130000,192.000000,0.000000,0.000000,0.000000,0.000000,0.000000,0.000000,0.000000,0.000000,0.000000,1647249632.206023,0.000000
77.000000,-8677.304825,-10589.340101,-11129.917041,5744.375973,-26979.829607,2611.935450,13489.724814,-2651.721555,-0.022000,0.984000,0.130000,192.000000,0.000000,0.000000,0.000000,0.000000,0.000000,0.000000,0.000000,0.000000,0.000000,1647249632.206028,0.000000
78.000000,-8674.287340,-10593.050491,-11132.107512,5735.032944,-26985.194026,2605.632258,13511.227192,-2647.094744,-0.030000,0.982000,0.138000,192.000000,255.000000,16.000000,30.000000,176.000000,4.000000,80.000000,0.000000,0.000000,0.000000,1647249632.214245,0.000000
79.000000,-8660.719831,-10576.621959,-11116.684808,5746.812313,-26971.067723,2618.059828,13523.051265,-2644.367831,-0.030000,0.982000,0.138000,192.000000,0.000000,0.000000,0.000000,0.000000,0.000000,0.000000,0.000000,0.000000,0.000000,1647249632.214271,0.000000
80.000000,-8674.108526,-10587.239037,-11121.825710,5744.308918,-26974.778113,2619.423284,13514.579954,-2659.969349,-0.030000,0.982000,0.138000,192.000000,0.000000,0.000000,0.000000,0.000000,0.000000,0.000000,0.000000,0.000000,0.000000,1647249632.220765,0.000000
81.000000,-8675.360224,-10585.696767,-11123.435035,5747.572273,-26974.979278,2623.424247,13532.148425,-2633.974270,-0.030000,0.982000,0.138000,192.000000,0.000000,0.000000,0.000000,0.000000,0.000000,0.000000,0.000000,0.000000,0.000000,1647249632.220769,0.000000
82.000000,-8666.888913,-10577.672491,-11119.948163,5752.333194,-26971.023020,2618.238642,13506.689788,-2639.539854,-0.030000,0.982000,0.138000,192.000000,0.000000,0.000000,0.000000,0.000000,0.000000,0.000000,0.000000,0.000000,0.000000,1647249632.228785,0.000000
83.000000,-8672.275683,-10587.887238,-11122.920945,5743.414848,-26976.409790,2611.220194,13498.084366,-2643.362003,-0.030000,0.982000,0.138000,192.000000,0.000000,0.000000,0.000000,0.000000,0.000000,0.000000,0.000000,0.000000,0.000000,1647249632.228789,0.000000
84.000000,-8681.641064,-10593.989264,-11130.453483,5732.060162,-26984.098790,2602.994752,13508.723796,-2674.922666,-0.030000,0.982000,0.138000,192.000000,0.000000,0.000000,0.000000,0.000000,0.000000,0.000000,0.000000,0.000000,0.000000,1647249632.236061,0.000000
85.000000,-8677.483639,-10589.965950,-11128.575936,5734.876482,-26980.701325,2609.968497,13518.446805,-2671.793422,-0.030000,0.982000,0.138000,192.000000,0.000000,0.000000,0.000000,0.000000,0.000000,0.000000,0.000000,0.000000,0.000000,1647249632.242971,0.000000
86.000000,-8674.577913,-10590.681206,-11124.642029,5741.336136,-26975.225148,2623.178378,13537.959878,-2616.741075,-0.030000,0.982000,0.138000,192.000000,0.000000,0.000000,0.000000,0.000000,0.000000,0.000000,0.000000,0.000000,0.000000,1647249632.242992,0.000000
87.000000,-8667.917093,-10584.981511,-11122.026875,5748.511046,-26969.368991,2632.029668,13542.117303,-2607.934488,-0.030000,0.982000,0.138000,192.000000,0.000000,0.000000,0.000000,0.000000,0.000000,0.000000,0.000000,0.000000,0.000000,1647249632.251243,0.000000
88.000000,-8670.107564,-10582.276950,-11126.676038,5751.215607,-26972.766456,2628.766314,13528.594497,-2625.994697,-0.036000,0.976000,0.132000,192.000000,254.000000,224.000000,30.000000,128.000000,4.000000,32.000000,0.000000,0.000000,0.000000,1647249632.251259,0.000000
89.000000,-8675.270817,-10587.574314,-11128.911213,5748.488694,-26975.448665,2623.446598,13514.579954,-2635.963575,-0.036000,0.976000,0.132000,192.000000,0.000000,0.000000,0.000000,0.000000,0.000000,0.000000,0.000000,0.000000,0.000000,1647249632.258718,0.000000
90.000000,-8673.929712,-10589.496564,-11130.498186,5747.862845,-26975.448665,2620.473816,13522.939506,-2641.395049,-0.036000,0.976000,0.132000,192.000000,0.000000,0.000000,0.000000,0.000000,0.000000,0.000000,0.000000,0.000000,0.000000,1647249632.258735,0.000000
91.000000,-8669.861695,-10585.227380,-11129.470006,5748.734563,-26971.604165,2619.602098,13524.280611,-2642.914968,-0.036000,0.976000,0.132000,192.000000,0.000000,0.000000,0.000000,0.000000,0.000000,0.000000,0.000000,0.000000,0.000000,1647249632.266856,0.000000
92.000000,-8666.508933,-10581.919322,-11128.240660,5746.611148,-26970.844206,2617.679848,13522.380712,-2653.755564,-0.036000,0.976000,0.132000,192.000000,0.000000,0.000000,0.000000,0.000000,0.000000,0.000000,0.000000,0.000000,0.000000,1647249632.266872,0.000000
93.000000,-8665.637215,-10578.767726,-11122.138634,5752.959043,-26964.831586,2625.055924,13528.862718,-2638.824599,-0.036000,0.976000,0.132000,192.000000,0.000000,0.000000,0.000000,0.000000,0.000000,0.000000,0.000000,0.000000,0.000000,1647249632.273400,0.000000
94.000000,-8679.428241,-10591.821145,-11137.851910,5740.218549,-26977.862653,2611.890747,13514.267029,-2653.174419,-0.036000,0.976000,0.132000,192.000000,0.000000,0.000000,0.000000,0.000000,0.000000,0.000000,0.000000,0.000000,0.000000,1647249632.273417,0.000000
95.000000,-8667.760631,-10583.908627,-11129.201785,5747.885197,-26971.939441,2619.847968,13515.809299,-2650.291044,-0.036000,0.976000,0.132000,192.000000,0.000000,0.000000,0.000000,0.000000,0.000000,0.000000,0.000000,0.000000,0.000000,1647249632.281036,0.000000
96.000000,-8658.372898,-10573.269197,-11119.389369,5759.552808,-26966.016229,2627.134636,13520.167890,-2638.221102,-0.036000,0.976000,0.132000,192.000000,0.000000,0.000000,0.000000,0.000000,0.000000,0.000000,0.000000,0.000000,0.000000,1647249632.281044,0.000000
97.000000,-8648.985165,-10559.880502,-11109.331084,5771.689805,-26956.382627,2635.673003,13527.678076,-2626.486436,-0.036000,0.976000,0.132000,192.000000,0.000000,0.000000,0.000000,0.000000,0.000000,0.000000,0.000000,0.000000,0.000000,1647249632.289082,0.000000
98.000000,-8652.628500,-10562.450953,-11114.896669,5770.527514,-26959.467168,2634.778933,13530.114416,-2628.431037,-0.038000,0.976000,0.132000,192.000000,254.000000,208.000000,30.000000,128.000000,4.000000,32.000000,0.000000,0.000000,0.000000,1647249632.289090,0.000000
99.000000,-8652.025002,-10563.523837,-11115.321352,5770.281645,-26958.483691,2636.209445,13535.076503,-2634.242491,-0.038000,0.976000,0.132000,192.000000,0.000000,0.000000,0.000000,0.000000,0.000000,0.000000,0.000000,0.000000,0.000000,1647249632.296577,0.000000
100.000000,-8671.046337,-10582.835744,-11137.047248,5748.220473,-26979.695497,2614.550604,13518.312695,-2662.249227,-0.038000,0.976000,0.132000,192.000000,0.000000,0.000000,0.000000,0.000000,0.000000,0.000000,0.000000,0.000000,0.000000,1647249632.296593,0.000000
101.000000,-8658.216436,-10568.374165,-11129.738227,5762.279721,-26969.480749,2621.770218,13503.001750,-2663.746794,-0.038000,0.976000,0.132000,192.000000,0.000000,0.000000,0.000000,0.000000,0.000000,0.000000,0.000000,0.000000,0.000000,1647249632.303192,0.000000
102.000000,-8657.143552,-10571.101078,-11130.095855,5762.592645,-26967.893775,2629.190997,13507.092119,-2654.649634,-0.038000,0.976000,0.132000,192.000000,0.000000,0.000000,0.000000,0.000000,0.000000,0.000000,0.000000,0.000000,0.000000,1647249632.311003,0.000000
103.000000,-8666.553636,-10583.148668,-11136.957841,5750.321537,-26976.186273,2625.637069,13510.958971,-2663.947959,-0.038000,0.976000,0.132000,192.000000,0.000000,0.000000,0.000000,0.000000,0.000000,0.000000,0.000000,0.000000,0.000000,1647249632.311020,0.000000
104.000000,-8662.552674,-10577.247808,-11130.051152,5752.713174,-26973.235842,2625.167683,13494.217514,-2666.518410,-0.038000,0.976000,0.132000,192.000000,0.000000,0.000000,0.000000,0.000000,0.000000,0.000000,0.000000,0.000000,0.000000,1647249632.319168,0.000000
105.000000,-8659.557540,-10572.755107,-11129.470006,5754.523665,-26973.816988,2620.429113,13474.324462,-2674.408576,-0.038000,0.976000,0.132000,192.000000,0.000000,0.000000,0.000000,0.000000,0.000000,0.000000,0.000000,0.000000,0.000000,1647249632.319185,0.000000
106.000000,-8648.605186,-10566.831895,-11115.164890,5764.850171,-26961.523528,2637.483494,13522.626582,-2640.746849,-0.038000,0.976000,0.132000,192.000000,0.000000,0.000000,0.000000,0.000000,0.000000,0.000000,0.000000,0.000000,0.000000,1647249632.326284,0.000000
107.000000,-8647.554654,-10564.574369,-11108.705236,5770.236942,-26956.047351,2641.775029,13535.657649,-2632.186131,-0.038000,0.976000,0.132000,192.000000,0.000000,0.000000,0.000000,0.000000,0.000000,0.000000,0.000000,0.000000,0.000000,1647249632.326319,0.000000
108.000000,-8655.847151,-10573.157438,-11119.679942,5765.476020,-26962.127025,2634.018974,13544.263070,-2643.026727,-0.038000,0.976000,0.132000,192.000000,0.000000,0.000000,0.000000,0.000000,0.000000,0.000000,0.000000,0.000000,0.000000,1647249632.333654,0.000000
109.000000,-8668.766459,-10587.730776,-11137.047248,5748.935729,-26976.968584,2619.602098,13528.907422,-2658.427079,-0.032000,0.974000,0.130000,192.000000,255.000000,0.000000,30.000000,112.000000,4.000000,16.000000,0.000000,0.000000,0.000000,1647249632.333671,0.000000
110.000000,-8673.840305,-10595.129203,-11145.965594,5741.269081,-26984.679936,2611.108436,13505.281628,-2668.530067,-0.032000,0.974000,0.130000,192.000000,0.000000,0.000000,0.000000,0.000000,0.000000,0.000000,0.000000,0.000000,0.000000,1647249632.341571,0.000000
111.000000,-8668.587645,-10585.093270,-11140.645878,5752.020270,-26978.667316,2621.144369,13515.183451,-2651.430983,-0.032000,0.974000,0.130000,192.000000,0.000000,0.000000,0.000000,0.000000,0.000000,0.000000,0.000000,0.000000,0.000000,1647249632.341588,0.000000
112.000000,-8671.873352,-10584.378014,-11142.076390,5752.266139,-26979.248462,2624.810055,13528.415683,-2654.292006,-0.032000,0.974000,0.130000,192.000000,0.000000,0.000000,0.000000,0.000000,0.000000,0.000000,0.000000,0.000000,0.000000,1647249632.348762,0.000000
113.000000,-8671.627482,-10582.679282,-11139.528291,5754.546017,-26976.678011,2621.949032,13513.395311,-2671.100518,-0.032000,0.974000,0.130000,192.000000,0.000000,0.000000,0.000000,0.000000,0.000000,0.000000,0.000000,0.000000,0.000000,1647249632.348779,0.000000
114.000000,-8657.568235,-10568.977662,-11121.401026,5769.454631,-26962.127025,2628.654555,13507.405044,-2670.340558,-0.032000,0.974000,0.130000,192.000000,0.000000,0.000000,0.000000,0.000000,0.000000,0.000000,0.000000,0.000000,0.000000,1647249632.356230,0.000000
115.000000,-8653.254348,-10568.262406,-11116.662457,5774.528477,-26956.963772,2639.048116,13535.054151,-2619.959726,-0.032000,0.974000,0.130000,192.000000,0.000000,0.000000,0.000000,0.000000,0.000000,0.000000,0.000000,0.000000,0.000000,1647249632.356246,0.000000
116.000000,-8652.606148,-10567.390688,-11115.701332,5774.349663,-26957.857842,2634.868340,13528.370980,-2615.981116,-0.032000,0.974000,0.130000,192.000000,0.000000,0.000000,0.000000,0.000000,0.000000,0.000000,0.000000,0.000000,0.000000,1647249632.363348,0.000000
117.000000,-8662.038584,-10578.879485,-11127.033666,5763.039680,-26967.424389,2626.866415,13522.045436,-2649.933416,-0.032000,0.974000,0.130000,192.000000,0.000000,0.000000,0.000000,0.000000,0.000000,0.000000,0.000000,0.000000,0.000000,1647249632.371481,0.000000
118.000000,-8659.825761,-10578.812430,-11126.787797,5766.750069,-26963.937517,2626.307622,13522.380712,-2659.119983,-0.032000,0.974000,0.130000,192.000000,0.000000,0.000000,0.000000,0.000000,0.000000,0.000000,0.000000,0.000000,0.000000,1647249632.371498,0.000000
119.000000,-8648.828703,-10565.691956,-11117.176547,5779.892895,-26953.007514,2633.102552,13523.453596,-2640.121000,-0.034000,0.972000,0.128000,192.000000,254.000000,240.000000,30.000000,96.000000,4.000000,0.000000,0.000000,0.000000,0.000000,1647249632.378474,0.000000
120.000000,-8637.295203,-10554.471380,-11102.983189,5795.270895,-26938.858859,2646.401840,13531.187300,-2624.340668,-0.034000,0.972000,0.128000,192.000000,0.000000,0.000000,0.000000,0.000000,0.000000,0.000000,0.000000,0.000000,0.000000,1647249632.378492,0.000000
121.000000,-8649.499255,-10570.832857,-11112.773253,5780.474041,-26952.649886,2633.661346,13523.878279,-2640.433924,-0.034000,0.972000,0.128000,192.000000,0.000000,0.000000,0.000000,0.000000,0.000000,0.000000,0.000000,0.000000,0.000000,1647249632.385946,0.000000
122.000000,-8656.875331,-10581.628750,-11123.278573,5769.924017,-26963.781054,2621.658459,13502.554715,-2660.304625,-0.034000,0.972000,0.128000,192.000000,0.000000,0.000000,0.000000,0.000000,0.000000,0.000000,0.000000,0.000000,0.000000,1647249632.385963,0.000000
123.000000,-8661.032755,-10585.093270,-11127.637163,5767.733546,-26966.530319,2620.853796,13493.725776,-2666.250189,-0.034000,0.972000,0.128000,192.000000,0.000000,0.000000,0.000000,0.000000,0.000000,0.000000,0.000000,0.000000,0.000000,1647249632.394052,0.000000
124.000000,-8646.392363,-10567.547151,-11111.968590,5783.759747,-26951.509947,2632.007317,13508.008541,-2655.476648,-0.034000,0.972000,0.128000,192.000000,0.000000,0.000000,0.000000,0.000000,0.000000,0.000000,0.000000,0.000000,0.000000,1647249632.394069,0.000000
125.000000,-8646.012383,-10563.814409,-11112.326218,5786.240791,-26951.197022,2630.263881,13517.262163,-2652.973253,-0.034000,0.972000,0.128000,192.000000,0.000000,0.000000,0.000000,0.000000,0.000000,0.000000,0.000000,0.000000,0.000000,1647249632.402140,0.000000
126.000000,-8633.517758,-10549.598700,-11102.245581,5798.735416,-26938.255362,2638.422267,13527.119282,-2644.278424,-0.034000,0.972000,0.128000,192.000000,0.000000,0.000000,0.000000,0.000000,0.000000,0.000000,0.000000,0.000000,0.000000,1647249632.402157,0.000000
127.000000,-8635.104732,-10550.470418,-11100.703311,5797.148442,-26937.920086,2636.589424,13530.986134,-2640.880959,-0.034000,0.972000,0.128000,192.000000,0.000000,0.000000,0.000000,0.000000,0.000000,0.000000,0.000000,0.000000,0.000000,1647249632.408424,0.000000
128.000000,-8629.695610,-10547.497636,-11091.025006,5798.243677,-26933.963827,2637.304680,13527.633372,-2646.267730,-0.034000,0.972000,0.128000,192.000000,0.000000,0.000000,0.000000,0.000000,0.000000,0.000000,0.000000,0.000000,0.000000,1647249632.408442,0.000000
129.000000,-8640.022116,-10562.853284,-11099.161041,5787.671302,-26943.329208,2630.822674,13521.665456,-2650.402802,-0.040000,0.980000,0.126000,192.000000,254.000000,192.000000,30.000000,160.000000,3.000000,240.000000,0.000000,0.000000,0.000000,1647249632.416546,0.000000
130.000000,-8655.288357,-10578.365395,-11116.282477,5770.214590,-26958.863671,2613.410665,13503.605247,-2668.820640,-0.040000,0.980000,0.126000,192.000000,0.000000,0.000000,0.000000,0.000000,0.000000,0.000000,0.000000,0.000000,0.000000,1647249632.416562,0.000000
131.000000,-8661.412735,-10582.142840,-11126.720742,5765.721889,-26966.932650,2603.397084,13468.065973,-2683.483384,-0.040000,0.980000,0.126000,192.000000,0.000000,0.000000,0.000000,0.000000,0.000000,0.000000,0.000000,0.000000,0.000000,1647249632.423644,0.000000
132.000000,-8658.886988,-10580.712328,-11119.791701,5775.199029,-26961.814101,2610.549642,13466.657813,-2681.963465,-0.040000,0.980000,0.126000,192.000000,0.000000,0.000000,0.000000,0.000000,0.000000,0.000000,0.000000,0.000000,0.000000,1647249632.431801,0.000000
133.000000,-8649.543959,-10572.017499,-11110.582782,5784.430299,-26954.326267,2621.501997,13507.516802,-2668.842991,-0.040000,0.980000,0.126000,192.000000,0.000000,0.000000,0.000000,0.000000,0.000000,0.000000,0.000000,0.000000,0.000000,1647249632.431819,0.000000
134.000000,-8647.442895,-10566.429563,-11110.202802,5787.045453,-26955.175633,2620.362058,13516.457500,-2651.900369,-0.040000,0.980000,0.126000,192.000000,0.000000,0.000000,0.000000,0.000000,0.000000,0.000000,0.000000,0.000000,0.000000,1647249632.438278,0.000000
135.000000,-8639.150398,-10553.063220,-11102.379692,5797.841346,-26945.832604,2624.944165,13511.383654,-2657.242436,-0.040000,0.980000,0.126000,192.000000,0.000000,0.000000,0.000000,0.000000,0.000000,0.000000,0.000000,0.000000,0.000000,1647249632.438294,0.000000
136.000000,-8640.647965,-10558.494694,-11099.161041,5796.343779,-26947.866612,2629.861549,13528.013352,-2653.509695,-0.040000,0.980000,0.126000,192.000000,0.000000,0.000000,0.000000,0.000000,0.000000,0.000000,0.000000,0.000000,0.000000,1647249632.446308,0.000000
137.000000,-8642.123180,-10562.294491,-11104.570163,5795.807337,-26953.722769,2632.677869,13533.355419,-2639.897482,-0.040000,0.980000,0.126000,192.000000,0.000000,0.000000,0.000000,0.000000,0.000000,0.000000,0.000000,0.000000,0.000000,1647249632.446325,0.000000
138.000000,-8645.632404,-10567.435392,-11111.387445,5790.957009,-26960.070665,2625.614718,13510.422529,-2653.196770,-0.040000,0.980000,0.126000,192.000000,0.000000,0.000000,0.000000,0.000000,0.000000,0.000000,0.000000,0.000000,0.000000,1647249632.454343,0.000000
139.000000,-8660.920997,-10582.142840,-11126.541928,5777.680073,-26973.548767,2617.255165,13506.287456,-2677.180192,-0.034000,0.970000,0.118000,192.000000,254.000000,240.000000,30.000000,80.000000,3.000000,176.000000,0.000000,0.000000,0.000000,1647249632.454360,0.000000
140.000000,-8668.833514,-10590.636503,-11137.561338,5763.911398,-26985.171674,2606.012238,13476.470229,-2684.176288,-0.034000,0.970000,0.118000,192.000000,0.000000,0.000000,0.000000,0.000000,0.000000,0.000000,0.000000,0.000000,0.000000,1647249632.461361,0.000000
141.000000,-8659.825761,-10577.538380,-11129.984096,5775.824878,-26975.538072,2614.952936,13481.052337,-2679.236553,-0.034000,0.970000,0.118000,192.000000,0.000000,0.000000,0.000000,0.000000,0.000000,0.000000,0.000000,0.000000,0.000000,1647249632.461377,0.000000
142.000000,-8653.857846,-10571.346947,-11122.697428,5785.436128,-26966.195043,2622.127846,13501.325369,-2665.736099,-0.034000,0.970000,0.118000,192.000000,0.000000,0.000000,0.000000,0.000000,0.000000,0.000000,0.000000,0.000000,0.000000,1647249632.468906,0.000000
143.000000,-8642.659622,-10559.589930,-11110.336913,5796.835518,-26954.706246,2627.738133,13505.438090,-2665.222009,-0.034000,0.970000,0.118000,192.000000,0.000000,0.000000,0.000000,0.000000,0.000000,0.000000,0.000000,0.000000,0.000000,1647249632.468923,0.000000
144.000000,-8639.686840,-10557.980604,-11101.865602,5799.070692,-26947.799557,2634.287195,13515.854003,-2660.170515,-0.034000,0.970000,0.118000,192.000000,0.000000,0.000000,0.000000,0.000000,0.000000,0.000000,0.000000,0.000000,0.000000,1647249632.477016,0.000000
145.000000,-8632.847206,-10553.018517,-11099.406910,5802.222288,-26943.820947,2637.528197,13513.484718,-2661.958654,-0.034000,0.970000,0.118000,192.000000,0.000000,0.000000,0.000000,0.000000,0.000000,0.000000,0.000000,0.000000,0.000000,1647249632.477033,0.000000
146.000000,-8623.973563,-10542.557900,-11093.975436,5813.532271,-26935.237877,2646.200674,13506.533325,-2650.961596,-0.034000,0.970000,0.118000,192.000000,0.000000,0.000000,0.000000,0.000000,0.000000,0.000000,0.000000,0.000000,0.000000,1647249632.484154,0.000000
147.000000,-8625.806406,-10541.127389,-11094.534230,5816.974439,-26934.343807,2649.598139,13520.279648,-2648.994642,-0.034000,0.970000,0.118000,192.000000,0.000000,0.000000,0.000000,0.000000,0.000000,0.000000,0.000000,0.000000,0.000000,1647249632.490486,0.000000
148.000000,-8636.065857,-10552.169150,-11107.095910,5803.205765,-26946.078473,2639.986889,13530.114416,-2661.288102,-0.034000,0.970000,0.118000,192.000000,0.000000,0.000000,0.000000,0.000000,0.000000,0.000000,0.000000,0.000000,0.000000,1647249632.490502,0.000000
149.000000,-8644.470113,-10563.255616,-11115.053131,5791.202878,-26956.583793,2634.264843,13522.827747,-2650.335747,-0.036000,0.970000,0.114000,192.000000,254.000000,224.000000,30.000000,80.000000,3.000000,144.000000,0.000000,0.000000,0.000000,1647249632.498583,0.000000
150.000000,-8649.432200,-10571.391651,-11120.819881,5780.652855,-26962.372895,2626.352325,13515.049340,-2666.361948,-0.036000,0.970000,0.114000,192.000000,0.000000,0.000000,0.000000,0.000000,0.000000,0.000000,0.000000,0.000000,0.000000,1647249632.498618,0.000000
151.000000,-8646.906453,-10568.038889,-11116.796567,5787.023102,-26958.126063,2623.603061,13511.450709,-2681.359968,-0.036000,0.970000,0.114000,192.000000,0.000000,0.000000,0.000000,0.000000,0.000000,0.000000,0.000000,0.000000,0.000000,1647249632.506426,0.000000
152.000000,-8639.977412,-10559.388764,-11105.553640,5799.249506,-26947.665447,2633.169607,13528.862718,-2656.437773,-0.036000,0.970000,0.114000,192.000000,0.000000,0.000000,0.000000,0.000000,0.000000,0.000000,0.000000,0.000000,0.000000,1647249632.506443,0.000000
153.000000,-8633.405999,-10554.001993,-11102.916134,5800.747073,-26943.776243,2629.928604,13517.910363,-2654.113192,-0.036000,0.970000,0.114000,192.000000,0.000000,0.000000,0.000000,0.000000,0.000000,0.000000,0.000000,0.000000,0.000000,1647249632.513639,0.000000
154.000000,-8636.714058,-10555.991299,-11105.106605,5794.265067,-26945.653790,2623.088971,13484.807430,-2663.098593,-0.036000,0.970000,0.114000,192.000000,0.000000,0.000000,0.000000,0.000000,0.000000,0.000000,0.000000,0.000000,0.000000,1647249632.513656,0.000000
155.000000,-8633.607165,-10557.220645,-11102.312637,5803.608096,-26941.921048,2625.458255,13484.874485,-2671.033462,-0.036000,0.970000,0.114000,192.000000,0.000000,0.000000,0.000000,0.000000,0.000000,0.000000,0.000000,0.000000,0.000000,1647249632.520972,0.000000
156.000000,-8629.829720,-10555.633671,-11099.406910,5805.887974,-26941.786938,2632.230834,13516.457500,-2662.003358,-0.036000,0.970000,0.114000,192.000000,0.000000,0.000000,0.000000,0.000000,0.000000,0.000000,0.000000,0.000000,0.000000,1647249632.520984,0.000000
157.000000,-8634.903566,-10560.618110,-11102.737320,5806.089140,-26943.239801,2635.561244,13532.394294,-2655.342538,-0.036000,0.970000,0.114000,192.000000,0.000000,0.000000,0.000000,0.000000,0.000000,0.000000,0.000000,0.000000,0.000000,1647249632.529180,0.000000
158.000000,-8640.603261,-10565.401383,-11112.326218,5803.719855,-26947.911316,2627.425209,13522.827747,-2666.339596,-0.036000,0.970000,0.114000,192.000000,0.000000,0.000000,0.000000,0.000000,0.000000,0.000000,0.000000,0.000000,0.000000,1647249632.529197,0.000000
159.000000,-8638.658659,-10565.513142,-11113.980247,5803.697503,-26947.397226,2625.972346,13525.331143,-2660.326977,-0.032000,0.974000,0.110000,192.000000,255.000000,0.000000,30.000000,112.000000,3.000000,112.000000,0.000000,0.000000,0.000000,1647249632.537226,0.000000
160.000000,-8618.206813,-10544.144874,-11099.809241,5825.333992,-26922.720900,2637.639956,13524.101797,-2645.574825,-0.032000,0.974000,0.110000,192.000000,0.000000,0.000000,0.000000,0.000000,0.000000,0.000000,0.000000,0.000000,0.000000,1647249632.537242,0.000000
161.000000,-8619.369104,-10550.358659,-11100.613904,5822.897652,-26919.234028,2631.493226,13520.793738,-2652.012128,-0.032000,0.974000,0.110000,192.000000,0.000000,0.000000,0.000000,0.000000,0.000000,0.000000,0.000000,0.000000,0.000000,1647249632.543374,0.000000
162.000000,-8630.053238,-10564.529665,-11108.347608,5810.313619,-26927.012435,2618.082180,13517.306866,-2670.675834,-0.032000,0.974000,0.110000,192.000000,0.000000,0.000000,0.000000,0.000000,0.000000,0.000000,0.000000,0.000000,0.000000,1647249632.543390,0.000000
163.000000,-8643.799561,-10576.107869,-11119.031742,5794.779157,-26935.953133,2603.933526,13495.245695,-2674.430928,-0.032000,0.974000,0.110000,192.000000,0.000000,0.000000,0.000000,0.000000,0.000000,0.000000,0.000000,0.000000,0.000000,1647249632.550846,0.000000
164.000000,-8643.553691,-10573.671529,-11113.421454,5796.187317,-26933.606199,2600.379598,13476.805505,-2689.965390,-0.032000,0.974000,0.110000,192.000000,0.000000,0.000000,0.000000,0.000000,0.000000,0.000000,0.000000,0.000000,0.000000,1647249632.558779,0.000000
165.000000,-8635.060028,-10564.954348,-11106.648875,5805.016256,-26924.374929,2613.947107,13508.924962,-2660.103459,-0.032000,0.974000,0.110000,192.000000,0.000000,0.000000,0.000000,0.000000,0.000000,0.000000,0.000000,0.000000,0.000000,1647249632.558795,0.000000
166.000000,-8630.723790,-10563.345023,-11101.440919,5807.050265,-26919.368138,2619.825616,13516.971590,-2655.208427,-0.032000,0.974000,0.110000,192.000000,0.000000,0.000000,0.000000,0.000000,0.000000,0.000000,0.000000,0.000000,0.000000,1647249632.566887,0.000000
167.000000,-8636.289374,-10571.793982,-11106.291247,5802.937544,-26922.832659,2613.120093,13506.019235,-2669.401785,-0.032000,0.974000,0.110000,192.000000,0.000000,0.000000,0.000000,0.000000,0.000000,0.000000,0.000000,0.000000,0.000000,1647249632.566904,0.000000
168.000000,-8644.738334,-10579.639444,-11110.985113,5795.002674,-26930.208734,2602.882994,13499.224305,-2690.323018,-0.032000,0.974000,0.110000,192.000000,0.000000,0.000000,0.000000,0.000000,0.000000,0.000000,0.000000,0.000000,0.000000,1647249632.573432,0.000000
169.000000,-8632.042543,-10564.753183,-11100.792718,5807.787872,-26921.268037,2612.382485,13497.972607,-2669.178268,-0.036000,0.984000,0.102000,192.000000,254.000000,224.000000,30.000000,192.000000,3.000000,48.000000,0.000000,0.000000,0.000000,1647249632.573448,0.000000
170.000000,-8616.038694,-10544.480150,-11086.398195,5828.239718,-26905.040670,2633.527235,13514.356436,-2648.435849,-0.036000,0.984000,0.102000,192.000000,0.000000,0.000000,0.000000,0.000000,0.000000,0.000000,0.000000,0.000000,0.000000,1647249632.581486,0.000000
171.000000,-8610.808386,-10533.728961,-11082.866619,5842.455428,-26897.441077,2648.838180,13527.074579,-2637.930529,-0.036000,0.984000,0.102000,192.000000,0.000000,0.000000,0.000000,0.000000,0.000000,0.000000,0.000000,0.000000,0.000000,1647249632.581523,0.000000
172.000000,-8607.343865,-10530.420903,-11078.910360,5848.065716,-26895.362365,2656.705994,13528.594497,-2635.628299,-0.036000,0.984000,0.102000,192.000000,0.000000,0.000000,0.000000,0.000000,0.000000,0.000000,0.000000,0.000000,0.000000,1647249632.589406,0.000000
173.000000,-8620.397284,-10544.681316,-11088.678073,5836.062829,-26906.515885,2646.066564,13518.580916,-2650.603968,-0.036000,0.984000,0.102000,192.000000,0.000000,0.000000,0.000000,0.000000,0.000000,0.000000,0.000000,0.000000,0.000000,1647249632.589423,0.000000
174.000000,-8631.170825,-10553.733772,-11099.585724,5823.925832,-26916.395356,2633.951918,13497.927904,-2668.284198,-0.036000,0.984000,0.102000,192.000000,0.000000,0.000000,0.000000,0.000000,0.000000,0.000000,0.000000,0.000000,0.000000,1647249632.596176,0.000000
175.000000,-8637.630479,-10561.959214,-11104.748977,5819.567242,-26921.379795,2627.246395,13488.294302,-2671.346387,-0.036000,0.984000,0.102000,192.000000,0.000000,0.000000,0.000000,0.000000,0.000000,0.000000,0.000000,0.000000,0.000000,1647249632.596193,0.000000
176.000000,-8636.691706,-10562.987395,-11107.721759,5819.075503,-26922.497382,2621.926680,13486.707328,-2682.924590,-0.036000,0.984000,0.102000,192.000000,0.000000,0.000000,0.000000,0.000000,0.000000,0.000000,0.000000,0.000000,0.000000,1647249632.604153,0.000000
177.000000,-8637.585776,-10564.149685,-11104.525459,5815.543928,-26923.190287,2621.144369,13479.331252,-2691.798233,-0.036000,0.984000,0.102000,192.000000,0.000000,0.000000,0.000000,0.000000,0.000000,0.000000,0.000000,0.000000,0.000000,1647249632.604169,0.000000
178.000000,-8652.449686,-10582.008729,-11116.036608,5796.232020,-26935.595505,2603.419435,13457.180674,-2710.752512,-0.036000,0.984000,0.102000,192.000000,0.000000,0.000000,0.000000,0.000000,0.000000,0.000000,0.000000,0.000000,0.000000,1647249632.610986,0.000000
179.000000,-8654.550750,-10585.920285,-11117.891803,5791.381692,-26935.506098,2599.664342,13451.816255,-2721.816626,-0.036000,0.986000,0.102000,192.000000,254.000000,224.000000,30.000000,208.000000,3.000000,48.000000,0.000000,0.000000,0.000000,1647249632.618996,0.000000
180.000000,-8648.225206,-10579.393575,-11114.092006,5799.853003,-26929.202906,2608.180357,13459.929938,-2718.061533,-0.036000,0.986000,0.102000,192.000000,0.000000,0.000000,0.000000,0.000000,0.000000,0.000000,0.000000,0.000000,0.000000,1647249632.619013,0.000000
181.000000,-8641.989069,-10574.967930,-11107.520593,5808.525480,-26924.263170,2619.915023,13489.970683,-2679.661236,-0.036000,0.986000,0.102000,192.000000,0.000000,0.000000,0.000000,0.000000,0.000000,0.000000,0.000000,0.000000,0.000000,1647249632.625674,0.000000
182.000000,-8627.885118,-10556.863017,-11096.121203,5826.384524,-26911.701490,2636.276500,13506.667436,-2659.365852,-0.036000,0.986000,0.102000,192.000000,0.000000,0.000000,0.000000,0.000000,0.000000,0.000000,0.000000,0.000000,0.000000,1647249632.625691,0.000000
183.000000,-8631.215528,-10557.891197,-11096.501183,5827.993849,-26913.601388,2644.121962,13529.041532,-2647.877055,-0.036000,0.986000,0.102000,192.000000,0.000000,0.000000,0.000000,0.000000,0.000000,0.000000,0.000000,0.000000,0.000000,1647249632.633797,0.000000
184.000000,-8655.444819,-10586.881410,-11116.662457,5805.172718,-26937.093072,2626.240567,13521.710160,-2671.569904,-0.036000,0.986000,0.102000,192.000000,0.000000,0.000000,0.000000,0.000000,0.000000,0.000000,0.000000,0.000000,0.000000,1647249632.633813,0.000000
185.000000,-8649.096924,-10580.868790,-11112.013294,5810.760654,-26933.092109,2621.278479,13504.342855,-2682.969294,-0.036000,0.986000,0.102000,192.000000,0.000000,0.000000,0.000000,0.000000,0.000000,0.000000,0.000000,0.000000,0.000000,1647249632.641474,0.000000
186.000000,-8642.659622,-10574.297377,-11110.135747,5818.628468,-26926.163069,2623.223081,13481.968758,-2679.504774,-0.036000,0.986000,0.102000,192.000000,0.000000,0.000000,0.000000,0.000000,0.000000,0.000000,0.000000,0.000000,0.000000,1647249632.641491,0.000000
187.000000,-8647.487598,-10580.242941,-11114.829614,5815.543928,-26927.414766,2622.731343,13492.943465,-2677.671931,-0.036000,0.986000,0.102000,192.000000,0.000000,0.000000,0.000000,0.000000,0.000000,0.000000,0.000000,0.000000,0.000000,1647249632.648715,0.000000
188.000000,-8639.217453,-10570.743450,-11104.212535,5821.131864,-26917.244723,2630.710915,13526.493433,-2681.471727,-0.036000,0.986000,0.102000,192.000000,0.000000,0.000000,0.000000,0.000000,0.000000,0.000000,0.000000,0.000000,0.000000,1647249632.648732,0.000000
189.000000,-8644.313651,-10575.213799,-11103.541983,5816.683867,-26919.278731,2631.336764,13531.813148,-2668.842991,-0.034000,0.982000,0.100000,192.000000,254.000000,240.000000,30.000000,176.000000,3.000000,32.000000,0.000000,0.000000,0.000000,1647249632.656336,0.000000
190.000000,-8643.933671,-10570.072898,-11102.692616,5820.885995,-26916.462411,2635.583596,13524.191204,-2639.942186,-0.034000,0.982000,0.100000,192.000000,0.000000,0.000000,0.000000,0.000000,0.000000,0.000000,0.000000,0.000000,0.000000,1647249632.656352,0.000000
191.000000,-8622.207775,-10545.463627,-11084.788869,5845.763486,-26896.524655,2648.525256,13516.345741,-2638.936357,-0.034000,0.982000,0.100000,192.000000,0.000000,0.000000,0.000000,0.000000,0.000000,0.000000,0.000000,0.000000,0.000000,1647249632.664329,0.000000
192.000000,-8616.061046,-10538.735752,-11080.810258,5851.641995,-26891.137885,2652.503866,13511.987151,-2648.033517,-0.034000,0.982000,0.100000,192.000000,0.000000,0.000000,0.000000,0.000000,0.000000,0.000000,0.000000,0.000000,0.000000,1647249632.664346,0.000000
193.000000,-8623.772397,-10551.029211,-11084.721814,5845.495265,-26895.340013,2646.558302,13520.637276,-2652.347404,-0.034000,0.982000,0.100000,192.000000,0.000000,0.000000,0.000000,0.000000,0.000000,0.000000,0.000000,0.000000,0.000000,1647249632.671369,0.000000
194.000000,-8622.788921,-10551.945633,-11076.786944,5850.457352,-26890.176760,2642.400878,13514.356436,-2655.811924,-0.034000,0.982000,0.100000,192.000000,0.000000,0.000000,0.000000,0.000000,0.000000,0.000000,0.000000,0.000000,0.000000,1647249632.678534,0.000000
195.000000,-8609.221412,-10539.115732,-11062.638290,5863.823696,-26873.100027,2650.648671,13498.754918,-2651.520389,-0.034000,0.982000,0.100000,192.000000,0.000000,0.000000,0.000000,0.000000,0.000000,0.000000,0.000000,0.000000,0.000000,1647249632.678550,0.000000
196.000000,-8606.963886,-10536.165301,-11058.503218,5868.517562,-26866.215690,2659.499962,13507.963837,-2648.592311,-0.034000,0.982000,0.100000,192.000000,0.000000,0.000000,0.000000,0.000000,0.000000,0.000000,0.000000,0.000000,0.000000,1647249632.686160,0.000000
197.000000,-8623.973563,-10555.432505,-11073.590645,5854.771239,-26881.973670,2654.001433,13521.553698,-2647.474724,-0.034000,0.982000,0.100000,192.000000,0.000000,0.000000,0.000000,0.000000,0.000000,0.000000,0.000000,0.000000,0.000000,1647249632.686176,0.000000
198.000000,-8623.012438,-10547.609395,-11073.992976,5858.258111,-26882.018373,2653.442640,13499.201953,-2646.021860,-0.034000,0.982000,0.100000,192.000000,0.000000,0.000000,0.000000,0.000000,0.000000,0.000000,0.000000,0.000000,0.000000,1647249632.694154,0.000000
199.000000,-8626.722828,-10553.912586,-11077.882180,5852.826637,-26889.707373,2653.286177,13501.213610,-2642.155009,-0.030000,0.978000,0.092000,192.000000,255.000000,16.000000,30.000000,144.000000,2.000000,224.000000,0.000000,0.000000,0.000000,1647249632.694171,0.000000
200.000000,-8627.549842,-10559.277005,-11084.431241,5850.211483,-26897.552836,2649.821657,13525.956991,-2645.954805,-0.030000,0.978000,0.092000,192.000000,0.000000,0.000000,0.000000,0.000000,0.000000,0.000000,0.000000,0.000000,0.000000,1647249632.701135,0.000000
201.000000,-8623.481825,-10555.141932,-11087.940465,5851.843161,-26900.235045,2643.049078,13515.228154,-2663.411518,-0.030000,0.978000,0.092000,192.000000,0.000000,0.000000,0.000000,0.000000,0.000000,0.000000,0.000000,0.000000,0.000000,1647249632.701151,0.000000
202.000000,-8632.199005,-10564.864941,-11099.451613,5838.812094,-26913.087298,2636.477665,13509.796680,-2659.298797,-0.030000,0.978000,0.092000,192.000000,0.000000,0.000000,0.000000,0.000000,0.000000,0.000000,0.000000,0.000000,0.000000,1647249632.708677,0.000000
203.000000,-8649.655718,-10577.940712,-11115.678980,5823.657611,-26928.018263,2623.826578,13495.580971,-2661.578675,-0.030000,0.978000,0.092000,192.000000,0.000000,0.000000,0.000000,0.000000,0.000000,0.000000,0.000000,0.000000,0.000000,1647249632.708694,0.000000
204.000000,-8654.438991,-10582.187543,-11118.472948,5819.455483,-26929.381720,2618.663325,13494.798660,-2667.770108,-0.030000,0.978000,0.092000,192.000000,0.000000,0.000000,0.000000,0.000000,0.000000,0.000000,0.000000,0.000000,0.000000,1647249632.716579,0.000000
205.000000,-8654.751915,-10583.103965,-11114.315523,5820.349553,-26925.850144,2617.255165,13491.490601,-2671.838125,-0.030000,0.978000,0.092000,192.000000,0.000000,0.000000,0.000000,0.000000,0.000000,0.000000,0.000000,0.000000,0.000000,1647249632.716596,0.000000
206.000000,-8652.136761,-10579.550037,-11105.106605,5826.876262,-26916.104784,2622.239604,13488.562523,-2670.742890,-0.030000,0.978000,0.092000,192.000000,0.000000,0.000000,0.000000,0.000000,0.000000,0.000000,0.000000,0.000000,0.000000,1647249632.724726,0.000000
207.000000,-8654.327232,-10584.355662,-11105.196012,5821.690657,-26919.591656,2623.111322,13500.341892,-2670.675834,-0.030000,0.978000,0.092000,192.000000,0.000000,0.000000,0.000000,0.000000,0.000000,0.000000,0.000000,0.000000,0.000000,1647249632.724742,0.000000
208.000000,-8650.885064,-10580.399404,-11104.816032,5821.578899,-26919.122269,2623.737171,13504.186392,-2674.810907,-0.030000,0.978000,0.092000,192.000000,0.000000,0.000000,0.000000,0.000000,0.000000,0.000000,0.000000,0.000000,0.000000,1647249632.730652,0.000000
209.000000,-8651.779133,-10583.260427,-11104.726625,5816.236832,-26920.172801,2622.887805,13503.940523,-2672.978064,-0.030000,0.978000,0.092000,192.000000,0.000000,0.000000,0.000000,0.000000,0.000000,0.000000,0.000000,0.000000,0.000000,1647249632.737918,0.000000
210.000000,-8635.060028,-10563.121505,-11090.421509,5830.899576,-26904.213655,2638.802247,13516.301038,-2663.567980,-0.032000,0.984000,0.098000,192.000000,255.000000,0.000000,30.000000,192.000000,3.000000,16.000000,0.000000,0.000000,0.000000,1647249632.737926,0.000000
211.000000,-8620.263174,-10548.391706,-11077.278683,5845.383506,-26890.646147,2653.822619,13531.746093,-2644.166666,-0.032000,0.984000,0.098000,192.000000,0.000000,0.000000,0.000000,0.000000,0.000000,0.000000,0.000000,0.000000,0.000000,1647249632.746287,0.000000
212.000000,-8627.840415,-10553.800828,-11082.620750,5843.103629,-26891.026126,2651.833314,13529.242698,-2643.920796,-0.032000,0.984000,0.098000,192.000000,0.000000,0.000000,0.000000,0.000000,0.000000,0.000000,0.000000,0.000000,0.000000,1647249632.746303,0.000000
213.000000,-8632.333116,-10552.571482,-11087.336968,5842.477780,-26890.467333,2649.464029,13527.901593,-2644.524293,-0.032000,0.984000,0.098000,192.000000,0.000000,0.000000,0.000000,0.000000,0.000000,0.000000,0.000000,0.000000,0.000000,1647249632.754239,0.000000
214.000000,-8623.392418,-10545.933014,-11077.792773,5848.557454,-26882.711277,2651.274520,13524.906459,-2644.568997,-0.032000,0.984000,0.098000,192.000000,0.000000,0.000000,0.000000,0.000000,0.000000,0.000000,0.000000,0.000000,0.000000,1647249632.754274,0.000000
215.000000,-8618.273868,-10539.674525,-11071.131953,5854.301853,-26876.743362,2651.542741,13505.885125,-2650.179285,-0.032000,0.984000,0.098000,192.000000,0.000000,0.000000,0.000000,0.000000,0.000000,0.000000,0.000000,0.000000,0.000000,1647249632.760891,0.000000
216.000000,-8645.163017,-10568.172999,-11095.651817,5829.245547,-26903.341937,2630.889729,13486.796735,-2678.543649,-0.032000,0.984000,0.098000,192.000000,0.000000,0.000000,0.000000,0.000000,0.000000,0.000000,0.000000,0.000000,0.000000,1647249632.760907,0.000000
217.000000,-8638.323383,-10563.680299,-11091.382634,5832.195977,-26901.844371,2639.830427,13505.549849,-2647.899407,-0.032000,0.984000,0.098000,192.000000,0.000000,0.000000,0.000000,0.000000,0.000000,0.000000,0.000000,0.000000,0.000000,1647249632.768757,0.000000
218.000000,-8619.927897,-10541.172092,-11072.338947,5856.246454,-26880.230234,2665.758451,13522.827747,-2619.222119,-0.032000,0.984000,0.098000,192.000000,0.000000,0.000000,0.000000,0.000000,0.000000,0.000000,0.000000,0.000000,0.000000,1647249632.768774,0.000000
219.000000,-8634.233014,-10556.594796,-11088.052224,5838.566224,-26896.994042,2648.301738,13506.466270,-2648.324090,-0.032000,0.984000,0.098000,192.000000,0.000000,0.000000,0.000000,0.000000,0.000000,0.000000,0.000000,0.000000,0.000000,1647249632.776871,0.000000
220.000000,-8631.684915,-10552.213854,-11089.013349,5838.610928,-26898.536312,2648.704070,13505.460442,-2649.240512,-0.036000,0.990000,0.100000,192.000000,254.000000,224.000000,30.000000,240.000000,3.000000,32.000000,0.000000,0.000000,0.000000,1647249632.776888,0.000000
221.000000,-8630.433217,-10549.933976,-11085.481773,5843.081277,-26894.535350,2655.700166,13513.395311,-2638.422267,-0.036000,0.990000,0.100000,192.000000,0.000000,0.000000,0.000000,0.000000,0.000000,0.000000,0.000000,0.000000,0.000000,1647249632.784148,0.000000
222.000000,-8624.800578,-10542.647307,-11079.335043,5850.971443,-26887.651013,2656.147201,13504.745186,-2638.981061,-0.036000,0.990000,0.100000,192.000000,0.000000,0.000000,0.000000,0.000000,0.000000,0.000000,0.000000,0.000000,0.000000,1647249632.784165,0.000000
223.000000,-8635.171787,-10554.337270,-11083.872447,5845.607024,-26890.757905,2653.822619,13526.851061,-2639.428096,-0.036000,0.990000,0.100000,192.000000,0.000000,0.000000,0.000000,0.000000,0.000000,0.000000,0.000000,0.000000,0.000000,1647249632.790621,0.000000
224.000000,-8645.475941,-10565.155514,-11091.494392,5832.598309,-26897.329318,2647.206503,13532.617811,-2633.214311,-0.036000,0.990000,0.100000,192.000000,0.000000,0.000000,0.000000,0.000000,0.000000,0.000000,0.000000,0.000000,0.000000,1647249632.790637,0.000000
225.000000,-8643.441933,-10565.535494,-11086.934636,5831.793646,-26890.802609,2648.480552,13513.082387,-2631.470875,-0.036000,0.990000,0.100000,192.000000,0.000000,0.000000,0.000000,0.000000,0.000000,0.000000,0.000000,0.000000,0.000000,1647249632.798603,0.000000
226.000000,-8642.346697,-10564.373203,-11084.990035,5838.588576,-26885.259376,2645.463067,13500.811279,-2641.305642,-0.036000,0.990000,0.100000,192.000000,0.000000,0.000000,0.000000,0.000000,0.000000,0.000000,0.000000,0.000000,0.000000,1647249632.806508,0.000000
227.000000,-8635.328249,-10556.863017,-11078.485677,5848.132771,-26875.424609,2652.392108,13531.924907,-2629.638032,-0.036000,0.990000,0.100000,192.000000,0.000000,0.000000,0.000000,0.000000,0.000000,0.000000,0.000000,0.000000,0.000000,1647249632.806525,0.000000
228.000000,-8637.138741,-10555.231339,-11082.576046,5846.232873,-26878.844426,2646.670061,13524.906459,-2631.537930,-0.036000,0.990000,0.100000,192.000000,0.000000,0.000000,0.000000,0.000000,0.000000,0.000000,0.000000,0.000000,0.000000,1647249632.813753,0.000000
229.000000,-8644.134837,-10559.791095,-11089.035700,5840.309660,-26884.812341,2637.528197,13512.367131,-2644.859570,-0.036000,0.990000,0.100000,192.000000,0.000000,0.000000,0.000000,0.000000,0.000000,0.000000,0.000000,0.000000,0.000000,1647249632.813770,0.000000
230.000000,-8626.789883,-10540.479188,-11069.120296,5861.946149,-26862.974687,2654.850799,13517.262163,-2642.132657,-0.034000,0.986000,0.108000,192.000000,254.000000,240.000000,30.000000,208.000000,3.000000,96.000000,0.000000,0.000000,0.000000,1647249632.821009,0.000000
231.000000,-8620.643153,-10532.790188,-11063.241787,5873.725518,-26853.005809,2667.859515,13526.225212,-2617.679848,-0.034000,0.986000,0.108000,192.000000,0.000000,0.000000,0.000000,0.000000,0.000000,0.000000,0.000000,0.000000,0.000000,1647249632.821025,0.000000
232.000000,-8615.569307,-10528.521005,-11055.821008,5875.804231,-26847.440225,2680.085919,13544.687753,-2603.799415,-0.034000,0.986000,0.108000,192.000000,0.000000,0.000000,0.000000,0.000000,0.000000,0.000000,0.000000,0.000000,0.000000,1647249632.829191,0.000000
233.000000,-8628.823892,-10546.245938,-11067.287453,5855.106515,-26864.494606,2667.323073,13511.763634,-2645.194846,-0.034000,0.986000,0.108000,192.000000,0.000000,0.000000,0.000000,0.000000,0.000000,0.000000,0.000000,0.000000,0.000000,1647249632.829207,0.000000
234.000000,-8646.459418,-10567.591854,-11085.861753,5832.173625,-26885.169969,2657.130677,13493.546962,-2640.836256,-0.034000,0.986000,0.108000,192.000000,0.000000,0.000000,0.000000,0.000000,0.000000,0.000000,0.000000,0.000000,0.000000,1647249632.836283,0.000000
235.000000,-8643.397229,-10565.647252,-11085.191200,5838.946204,-26882.912443,2668.373605,13531.343762,-2597.540927,-0.034000,0.986000,0.108000,192.000000,0.000000,0.000000,0.000000,0.000000,0.000000,0.000000,0.000000,0.000000,0.000000,1647249632.836317,0.000000
236.000000,-8636.624651,-10560.685165,-11085.772346,5844.958823,-26881.705449,2668.530067,13528.661553,-2610.259069,-0.034000,0.986000,0.108000,192.000000,0.000000,0.000000,0.000000,0.000000,0.000000,0.000000,0.000000,0.000000,0.000000,1647249632.843931,0.000000
237.000000,-8639.753895,-10563.009746,-11094.422471,5840.309660,-26889.014469,2661.288102,13526.001695,-2626.866415,-0.034000,0.986000,0.108000,192.000000,0.000000,0.000000,0.000000,0.000000,0.000000,0.000000,0.000000,0.000000,0.000000,1647249632.843949,0.000000
238.000000,-8650.370973,-10572.710404,-11105.955971,5829.558471,-26897.955167,2652.168590,13510.020198,-2627.402857,-0.034000,0.986000,0.108000,192.000000,0.000000,0.000000,0.000000,0.000000,0.000000,0.000000,0.000000,0.000000,0.000000,1647249632.851571,0.000000
239.000000,-8648.694593,-10567.725965,-11101.396215,5835.213463,-26891.339051,2657.354195,13517.172756,-2622.284308,-0.034000,0.986000,0.108000,192.000000,0.000000,0.000000,0.000000,0.000000,0.000000,0.000000,0.000000,0.000000,0.000000,1647249632.851582,0.000000
240.000000,-8633.987145,-10552.482075,-11085.615884,5849.764448,-26876.542196,2669.088861,13528.259221,-2610.192014,-0.038000,0.968000,0.108000,192.000000,254.000000,208.000000,30.000000,64.000000,3.000000,96.000000,0.000000,0.000000,0.000000,1647249632.858723,0.000000
241.000000,-8635.417656,-10556.728906,-11082.061956,5847.842198,-26876.229271,2673.559210,13552.980250,-2602.793587,-0.038000,0.968000,0.108000,192.000000,0.000000,0.000000,0.000000,0.000000,0.000000,0.000000,0.000000,0.000000,0.000000,1647249632.865777,0.000000
242.000000,-8630.992011,-10552.750296,-11077.345738,5848.602158,-26872.809455,2676.688454,13561.764486,-2598.122072,-0.038000,0.968000,0.108000,192.000000,0.000000,0.000000,0.000000,0.000000,0.000000,0.000000,0.000000,0.000000,0.000000,1647249632.865793,0.000000
243.000000,-8639.172749,-10558.271177,-11084.766517,5839.929681,-26881.996022,2663.836201,13550.566262,-2612.069561,-0.038000,0.968000,0.108000,192.000000,0.000000,0.000000,0.000000,0.000000,0.000000,0.000000,0.000000,0.000000,0.000000,1647249632.873467,0.000000
244.000000,-8636.959927,-10557.779438,-11082.419584,5840.935509,-26880.006716,2660.170515,13538.876300,-2620.831444,-0.038000,0.968000,0.108000,192.000000,0.000000,0.000000,0.000000,0.000000,0.000000,0.000000,0.000000,0.000000,0.000000,1647249632.873483,0.000000
245.000000,-8640.044467,-10565.133162,-11085.101793,5830.407838,-26885.125266,2651.252169,13522.648933,-2624.295965,-0.038000,0.968000,0.108000,192.000000,0.000000,0.000000,0.000000,0.000000,0.000000,0.000000,0.000000,0.000000,0.000000,1647249632.881571,0.000000
246.000000,-8660.406907,-10585.450898,-11105.419529,5806.446768,-26905.018318,2627.224043,13486.774383,-2652.190942,-0.038000,0.968000,0.108000,192.000000,0.000000,0.000000,0.000000,0.000000,0.000000,0.000000,0.000000,0.000000,0.000000,1647249632.881588,0.000000
247.000000,-8654.394287,-10578.946540,-11101.396215,5812.817015,-26899.765658,2629.414514,13481.007633,-2642.512636,-0.038000,0.968000,0.108000,192.000000,0.000000,0.000000,0.000000,0.000000,0.000000,0.000000,0.000000,0.000000,0.000000,1647249632.889461,0.000000
248.000000,-8642.570215,-10563.121505,-11088.186334,5829.647878,-26884.968804,2649.329919,13520.883145,-2619.624450,-0.038000,0.968000,0.108000,192.000000,0.000000,0.000000,0.000000,0.000000,0.000000,0.000000,0.000000,0.000000,0.000000,1647249632.889477,0.000000
249.000000,-8636.043505,-10554.650194,-11079.916189,5836.442809,-26875.826940,2656.303663,13536.194090,-2615.064694,-0.038000,0.968000,0.108000,192.000000,0.000000,0.000000,0.000000,0.000000,0.000000,0.000000,0.000000,0.000000,0.000000,1647249632.896185,0.000000
250.000000,-8645.632404,-10563.501485,-11086.465250,5832.330088,-26881.034896,2649.642843,13523.855927,-2620.719686,-0.036000,0.974000,0.124000,192.000000,254.000000,224.000000,30.000000,112.000000,3.000000,224.000000,0.000000,0.000000,0.000000,1647249632.896201,0.000000
251.000000,-8647.040563,-10565.557845,-11089.572142,5827.971498,-26885.952280,2647.541779,13522.604230,-2618.238642,-0.036000,0.974000,0.124000,192.000000,0.000000,0.000000,0.000000,0.000000,0.000000,0.000000,0.000000,0.000000,0.000000,1647249632.904161,0.000000
252.000000,-8653.164941,-10572.084555,-11098.199916,5819.053151,-26895.876455,2640.679793,13499.671340,-2627.425209,-0.036000,0.974000,0.124000,192.000000,0.000000,0.000000,0.000000,0.000000,0.000000,0.000000,0.000000,0.000000,0.000000,1647249632.904177,0.000000
253.000000,-8640.558558,-10561.020441,-11087.113450,5826.272765,-26887.740420,2653.129715,13492.339968,-2626.441732,-0.036000,0.974000,0.124000,192.000000,0.000000,0.000000,0.000000,0.000000,0.000000,0.000000,0.000000,0.000000,0.000000,1647249632.912161,0.000000
254.000000,-8636.468188,-10560.260482,-11080.787907,5826.786855,-26886.399315,2665.177305,13521.486643,-2629.235700,-0.036000,0.974000,0.124000,192.000000,0.000000,0.000000,0.000000,0.000000,0.000000,0.000000,0.000000,0.000000,0.000000,1647249632.912179,0.000000
255.000000,-8648.538130,-10570.318767,-11090.466212,5814.471044,-26915.791859,2664.126773,13532.461349,-2609.566165,-0.036000,0.974000,0.124000,192.000000,0.000000,0.000000,0.000000,0.000000,0.000000,0.000000,0.000000,0.000000,0.000000,1647249632.919172,0.000000
0.000000,-8655.243654,-10576.130220,-11101.239753,5809.754826,-26940.423482,2656.996567,13499.716043,-2626.754657,-0.036000,0.974000,0.124000,192.000000,0.000000,0.000000,0.000000,0.000000,0.000000,0.000000,0.000000,0.000000,0.000000,1647249632.925694,0.000000
1.000000,-8648.359316,-10567.770668,-11092.947256,5816.192128,-26935.014359,2668.351253,13523.319486,-2622.530177,-0.036000,0.974000,0.124000,192.000000,0.000000,0.000000,0.000000,0.000000,0.000000,0.000000,0.000000,0.000000,0.000000,1647249632.925729,0.000000
2.000000,-8641.229110,-10557.354755,-11081.883142,5825.512806,-26924.419632,2678.722463,13532.126073,-2621.256128,-0.036000,0.974000,0.124000,192.000000,0.000000,0.000000,0.000000,0.000000,0.000000,0.000000,0.000000,0.000000,0.000000,1647249632.933791,0.000000
3.000000,-8633.428351,-10549.978679,-11076.094040,5833.514730,-26914.361347,2678.141317,13510.511936,-2629.190997,-0.036000,0.974000,0.124000,192.000000,0.000000,0.000000,0.000000,0.000000,0.000000,0.000000,0.000000,0.000000,0.000000,1647249632.933807,0.000000
4.000000,-8621.850147,-10542.446142,-11066.773363,5842.835408,-26903.632510,2681.181154,13517.351570,-2601.228964,-0.044000,0.968000,0.126000,192.000000,254.000000,160.000000,30.000000,64.000000,3.000000,240.000000,0.000000,0.000000,0.000000,1647249632.941647,0.000000
5.000000,-8628.578023,-10553.331441,-11075.334081,5833.157102,-26912.662615,2670.161744,13536.864643,-2607.867433,-0.044000,0.968000,0.126000,192.000000,0.000000,0.000000,0.000000,0.000000,0.000000,0.000000,0.000000,0.000000,0.000000,1647249632.941663,0.000000
6.000000,-8623.258307,-10545.821255,-11075.088212,5839.102666,-26910.919179,2662.740965,13534.517710,-2618.730380,-0.044000,0.968000,0.126000,192.000000,0.000000,0.000000,0.000000,0.000000,0.000000,0.000000,0.000000,0.000000,0.000000,1647249632.948388,0.000000
7.000000,-8631.506101,-10557.175941,-11083.939503,5827.412704,-26921.692720,2654.292006,13536.104683,-2616.584613,-0.044000,0.968000,0.126000,192.000000,0.000000,0.000000,0.000000,0.000000,0.000000,0.000000,0.000000,0.000000,0.000000,1647249632.948404,0.000000
8.000000,-8640.469151,-10566.854246,-11093.975436,5814.716913,-26935.394339,2641.216235,13519.631448,-2630.621508,-0.044000,0.968000,0.126000,192.000000,0.000000,0.000000,0.000000,0.000000,0.000000,0.000000,0.000000,0.000000,0.000000,1647249632.956109,0.000000
9.000000,-8637.809293,-10561.288662,-11093.863677,5820.550718,-26933.561496,2644.032555,13501.079500,-2624.653593,-0.044000,0.968000,0.126000,192.000000,0.000000,0.000000,0.000000,0.000000,0.000000,0.000000,0.000000,0.000000,0.000000,1647249632.956126,0.000000
10.000000,-8639.329212,-10561.623938,-11097.462308,5816.885032,-26938.590638,2642.378526,13509.036721,-2636.969404,-0.044000,0.968000,0.126000,192.000000,0.000000,0.000000,0.000000,0.000000,0.000000,0.000000,0.000000,0.000000,0.000000,1647249632.964419,0.000000
11.000000,-8638.613956,-10559.880502,-11092.232000,5820.707181,-26935.975484,2647.541779,13520.346704,-2626.911119,-0.044000,0.968000,0.126000,192.000000,0.000000,0.000000,0.000000,0.000000,0.000000,0.000000,0.000000,0.000000,0.000000,1647249632.964436,0.000000
12.000000,-8643.218415,-10563.836761,-11094.355416,5826.026896,-26933.695606,2645.016032,13510.333122,-2632.409648,-0.044000,0.968000,0.126000,192.000000,0.000000,0.000000,0.000000,0.000000,0.000000,0.000000,0.000000,0.000000,0.000000,1647249632.971226,0.000000
13.000000,-8635.507063,-10557.131238,-11089.236866,5833.313564,-26926.677159,2648.212331,13509.640218,-2634.778933,-0.044000,0.968000,0.126000,192.000000,0.000000,0.000000,0.000000,0.000000,0.000000,0.000000,0.000000,0.000000,0.000000,1647249632.971244,0.000000
14.000000,-8625.359371,-10547.207063,-11078.664491,5840.823751,-26917.647054,2662.271579,13525.062922,-2615.869357,-0.044000,0.980000,0.116000,192.000000,254.000000,160.000000,30.000000,160.000000,3.000000,160.000000,0.000000,0.000000,0.000000,1647249632.977859,0.000000
15.000000,-8626.722828,-10549.352831,-11078.731546,5837.582748,-26918.027034,2664.283236,13530.941430,-2596.579802,-0.044000,0.980000,0.116000,192.000000,0.000000,0.000000,0.000000,0.000000,0.000000,0.000000,0.000000,0.000000,0.000000,1647249632.985982,0.000000
16.000000,-8628.220395,-10553.577310,-11084.654759,5829.402009,-26924.553743,2655.454297,13513.238849,-2608.761502,-0.044000,0.980000,0.116000,192.000000,0.000000,0.000000,0.000000,0.000000,0.000000,0.000000,0.000000,0.000000,0.000000,1647249632.985999,0.000000
17.000000,-8641.564386,-10567.569502,-11093.483698,5819.947221,-26935.975484,2641.283291,13487.132011,-2651.252169,-0.044000,0.980000,0.116000,192.000000,0.000000,0.000000,0.000000,0.000000,0.000000,0.000000,0.000000,0.000000,0.000000,1647249632.994160,0.000000
18.000000,-8642.726677,-10563.792057,-11091.561448,5826.608041,-26933.740310,2646.982985,13490.708290,-2638.422267,-0.044000,0.980000,0.116000,192.000000,0.000000,0.000000,0.000000,0.000000,0.000000,0.000000,0.000000,0.000000,0.000000,1647249632.994176,0.000000
19.000000,-8638.591604,-10555.924243,-11090.712081,5831.324259,-26932.086281,2657.242436,13513.104738,-2623.111322,-0.044000,0.980000,0.116000,192.000000,0.000000,0.000000,0.000000,0.000000,0.000000,0.000000,0.000000,0.000000,0.000000,1647249633.001157,0.000000
20.000000,-8639.843302,-10556.661851,-11090.980302,5828.463236,-26935.282580,2655.387241,13513.171794,-2636.879997,-0.044000,0.980000,0.116000,192.000000,0.000000,0.000000,0.000000,0.000000,0.000000,0.000000,0.000000,0.000000,0.000000,1647249633.001175,0.000000
21.000000,-8645.297127,-10564.552017,-11090.399157,5827.837387,-26935.886077,2652.369756,13526.784006,-2643.831389,-0.044000,0.980000,0.116000,192.000000,0.000000,0.000000,0.000000,0.000000,0.000000,0.000000,0.000000,0.000000,0.000000,1647249633.008492,0.000000
22.000000,-8660.429258,-10580.801735,-11102.111471,5814.761617,-26952.091092,2641.618567,13516.636314,-2647.921759,-0.044000,0.980000,0.116000,192.000000,0.000000,0.000000,0.000000,0.000000,0.000000,0.000000,0.000000,0.000000,0.000000,1647249633.008513,0.000000
23.000000,-8658.819933,-10576.554904,-11101.463270,5818.516710,-26951.487595,2642.892616,13500.923038,-2643.585520,-0.044000,0.980000,0.116000,192.000000,0.000000,0.000000,0.000000,0.000000,0.000000,0.000000,0.000000,0.000000,0.000000,1647249633.016574,0.000000
24.000000,-8655.020136,-10571.726927,-11103.698445,5821.131864,-26948.291296,2649.888712,13498.017311,-2631.470875,-0.034000,0.980000,0.120000,192.000000,254.000000,240.000000,30.000000,160.000000,3.000000,192.000000,0.000000,0.000000,0.000000,1647249633.016591,0.000000
25.000000,-8641.765552,-10560.014613,-11092.075538,5827.837387,-26937.808327,2661.712785,13512.031855,-2635.851817,-0.034000,0.980000,0.120000,192.000000,0.000000,0.000000,0.000000,0.000000,0.000000,0.000000,0.000000,0.000000,0.000000,1647249633.024597,0.000000
26.000000,-8637.965755,-10557.399459,-11087.806354,5829.625527,-26934.321455,2666.831334,13509.707273,-2620.451465,-0.034000,0.980000,0.120000,192.000000,0.000000,0.000000,0.000000,0.000000,0.000000,0.000000,0.000000,0.000000,0.000000,1647249633.024608,0.000000
27.000000,-8640.558558,-10563.412078,-11088.052224,5825.021067,-26938.300066,2659.879942,13495.536267,-2631.202654,-0.034000,0.980000,0.120000,192.000000,0.000000,0.000000,0.000000,0.000000,0.000000,0.000000,0.000000,0.000000,0.000000,1647249633.031400,0.000000
28.000000,-8634.680049,-10553.756124,-11081.257293,5839.817922,-26929.001740,2670.541724,13533.578936,-2616.294040,-0.034000,0.980000,0.120000,192.000000,0.000000,0.000000,0.000000,0.000000,0.000000,0.000000,0.000000,0.000000,0.000000,1647249633.031417,0.000000
29.000000,-8632.109598,-10552.504427,-11079.357395,5843.148332,-26928.442946,2671.145221,13530.047361,-2615.176453,-0.034000,0.980000,0.120000,192.000000,0.000000,0.000000,0.000000,0.000000,0.000000,0.000000,0.000000,0.000000,0.000000,1647249633.038399,0.000000
30.000000,-8634.009496,-10554.001993,-11080.832610,5843.036573,-26929.515830,2670.631131,13525.107625,-2624.877110,-0.034000,0.980000,0.120000,192.000000,0.000000,0.000000,0.000000,0.000000,0.000000,0.000000,0.000000,0.000000,0.000000,1647249633.038416,0.000000
31.000000,-8639.709191,-10559.969909,-11087.448727,5836.018126,-26937.450700,2660.952826,13511.517765,-2627.112285,-0.034000,0.980000,0.120000,192.000000,0.000000,0.000000,0.000000,0.000000,0.000000,0.000000,0.000000,0.000000,0.000000,1647249633.046374,0.000000
32.000000,-8644.514816,-10568.195351,-11090.756785,5829.089085,-26940.803461,2655.789573,13529.197994,-2620.630279,-0.034000,0.980000,0.120000,192.000000,0.000000,0.000000,0.000000,0.000000,0.000000,0.000000,0.000000,0.000000,0.000000,1647249633.054327,0.000000
33.000000,-8646.973508,-10571.503409,-11100.345683,5823.322335,-26946.458453,2644.859570,13526.426378,-2638.399916,-0.034000,0.980000,0.120000,192.000000,0.000000,0.000000,0.000000,0.000000,0.000000,0.000000,0.000000,0.000000,0.000000,1647249633.054344,0.000000
34.000000,-8648.091095,-10573.559770,-11101.060939,5821.064808,-26947.240764,2643.831389,13523.185375,-2639.763372,-0.036000,0.980000,0.126000,192.000000,254.000000,224.000000,30.000000,160.000000,3.000000,240.000000,0.000000,0.000000,0.000000,1647249633.061014,0.000000
35.000000,-8640.089171,-10559.053488,-11094.489526,5830.877224,-26939.015322,2650.469858,13514.781119,-2626.128808,-0.036000,0.980000,0.126000,192.000000,0.000000,0.000000,0.000000,0.000000,0.000000,0.000000,0.000000,0.000000,0.000000,1647249633.061031,0.000000
36.000000,-8632.444874,-10545.910662,-11090.108584,5837.627451,-26936.578981,2651.967424,13526.582840,-2628.386334,-0.036000,0.980000,0.126000,192.000000,0.000000,0.000000,0.000000,0.000000,0.000000,0.000000,0.000000,0.000000,0.000000,1647249633.068871,0.000000
37.000000,-8640.558558,-10562.562712,-11096.836459,5826.719800,-26946.771377,2640.053945,13517.418625,-2653.286177,-0.036000,0.980000,0.126000,192.000000,0.000000,0.000000,0.000000,0.000000,0.000000,0.000000,0.000000,0.000000,0.000000,1647249633.068888,0.000000
38.000000,-8643.486636,-10572.710404,-11091.695558,5826.943317,-26941.764586,2644.300776,13519.184413,-2647.608834,-0.036000,0.980000,0.126000,192.000000,0.000000,0.000000,0.000000,0.000000,0.000000,0.000000,0.000000,0.000000,0.000000,1647249633.076977,0.000000
39.000000,-8641.363220,-10570.855209,-11083.872447,5830.966631,-26933.248572,2655.096669,13520.391407,-2619.333877,-0.036000,0.980000,0.126000,192.000000,0.000000,0.000000,0.000000,0.000000,0.000000,0.000000,0.000000,0.000000,0.000000,1647249633.076994,0.000000
40.000000,-8647.532302,-10577.739546,-11092.634331,5817.510881,-26942.256325,2642.669099,13500.096023,-2639.495151,-0.036000,0.980000,0.126000,192.000000,0.000000,0.000000,0.000000,0.000000,0.000000,0.000000,0.000000,0.000000,0.000000,1647249633.083587,0.000000
41.000000,-8647.577005,-10580.287645,-11100.859773,5804.949201,-26949.811214,2632.990793,13482.795773,-2654.381413,-0.036000,0.980000,0.126000,192.000000,0.000000,0.000000,0.000000,0.000000,0.000000,0.000000,0.000000,0.000000,0.000000,1647249633.083603,0.000000
42.000000,-8637.138741,-10571.123430,-11091.360282,5813.822843,-26940.512888,2647.742945,13529.242698,-2638.377564,-0.036000,0.980000,0.126000,192.000000,0.000000,0.000000,0.000000,0.000000,0.000000,0.000000,0.000000,0.000000,0.000000,1647249633.091513,0.000000
43.000000,-8628.488616,-10559.120543,-11079.402099,5834.878187,-26928.174726,2667.300721,13559.462256,-2610.124959,-0.036000,0.980000,0.126000,192.000000,0.000000,0.000000,0.000000,0.000000,0.000000,0.000000,0.000000,0.000000,0.000000,1647249633.091548,0.000000
44.000000,-8641.206758,-10568.910607,-11086.174677,5831.190149,-26934.254400,2666.630169,13546.967631,-2620.250299,-0.036000,0.980000,0.126000,192.000000,0.000000,0.000000,0.000000,0.000000,0.000000,0.000000,0.000000,0.000000,0.000000,1647249633.099571,0.000000
45.000000,-8662.575026,-10589.585971,-11104.525459,5813.241698,-26953.990990,2648.882884,13513.663532,-2640.098648,-0.040000,0.974000,0.128000,192.000000,254.000000,192.000000,30.000000,112.000000,4.000000,0.000000,0.000000,0.000000,0.000000,1647249633.099588,0.000000
46.000000,-8662.016232,-10586.903761,-11102.804375,5814.269878,-26954.281563,2645.530122,13499.045491,-2648.435849,-0.040000,0.974000,0.128000,192.000000,0.000000,0.000000,0.000000,0.000000,0.000000,0.000000,0.000000,0.000000,0.000000,1647249633.106555,0.000000
47.000000,-8660.451610,-10582.589875,-11097.216439,5820.304849,-26948.425406,2655.007262,13493.099927,-2635.673003,-0.040000,0.974000,0.128000,192.000000,0.000000,0.000000,0.000000,0.000000,0.000000,0.000000,0.000000,0.000000,0.000000,1647249633.113319,0.000000
48.000000,-8664.452572,-10589.563619,-11104.771329,5812.749960,-26956.114406,2648.301738,13494.932770,-2648.212331,-0.040000,0.974000,0.128000,192.000000,0.000000,0.000000,0.000000,0.000000,0.000000,0.000000,0.000000,0.000000,0.000000,1647249633.113336,0.000000
49.000000,-8655.914206,-10581.382880,-11102.133823,5818.136730,-26951.599354,2652.906198,13499.090195,-2647.050041,-0.040000,0.974000,0.128000,192.000000,0.000000,0.000000,0.000000,0.000000,0.000000,0.000000,0.000000,0.000000,0.000000,1647249633.121226,0.000000
50.000000,-8652.695555,-10576.823125,-11099.563372,5822.472968,-26948.581868,2659.365852,13501.884163,-2622.127846,-0.040000,0.974000,0.128000,192.000000,0.000000,0.000000,0.000000,0.000000,0.000000,0.000000,0.000000,0.000000,0.000000,1647249633.121242,0.000000
51.000000,-8629.382685,-10553.622014,-11074.440011,5843.327146,-26924.821964,2675.593218,13519.340875,-2608.046247,-0.040000,0.974000,0.128000,192.000000,0.000000,0.000000,0.000000,0.000000,0.000000,0.000000,0.000000,0.000000,0.000000,1647249633.129343,0.000000
52.000000,-8635.216491,-10560.483999,-11076.921055,5840.309660,-26923.994949,2673.782727,13538.697486,-2602.860642,-0.040000,0.974000,0.128000,192.000000,0.000000,0.000000,0.000000,0.000000,0.000000,0.000000,0.000000,0.000000,0.000000,1647249633.129359,0.000000
53.000000,-8645.922976,-10571.056374,-11089.505087,5826.898614,-26936.958961,2655.700166,13525.733474,-2627.939299,-0.040000,0.974000,0.128000,192.000000,0.000000,0.000000,0.000000,0.000000,0.000000,0.000000,0.000000,0.000000,0.000000,1647249633.136341,0.000000
54.000000,-8653.522569,-10579.460630,-11100.770366,5818.896689,-26948.917144,2646.357137,13518.536212,-2642.467933,-0.040000,0.974000,0.128000,192.000000,0.000000,0.000000,0.000000,0.000000,0.000000,0.000000,0.000000,0.000000,0.000000,1647249633.136357,0.000000
55.000000,-8651.555616,-10576.264331,-11098.669302,5824.618736,-26946.972543,2645.619529,13506.958009,-2648.771125,-0.032000,0.976000,0.130000,192.000000,255.000000,0.000000,30.000000,128.000000,4.000000,16.000000,0.000000,0.000000,0.000000,1647249633.143872,0.000000
56.000000,-8648.538130,-10570.497581,-11100.904477,5830.474893,-26943.329208,2648.860532,13503.605247,-2644.591349,-0.032000,0.976000,0.130000,192.000000,0.000000,0.000000,0.000000,0.000000,0.000000,0.000000,0.000000,0.000000,0.000000,1647249633.143889,0.000000
57.000000,-8658.864636,-10577.650139,-11107.230020,5822.025934,-26951.264078,2642.937320,13504.409910,-2642.669099,-0.032000,0.976000,0.130000,192.000000,0.000000,0.000000,0.000000,0.000000,0.000000,0.000000,0.000000,0.000000,0.000000,1647249633.151805,0.000000
58.000000,-8648.091095,-10568.262406,-11096.501183,5830.810169,-26942.055159,2650.223988,13509.237887,-2636.343555,-0.032000,0.976000,0.130000,192.000000,0.000000,0.000000,0.000000,0.000000,0.000000,0.000000,0.000000,0.000000,0.000000,1647249633.151821,0.000000
59.000000,-8647.867578,-10568.798848,-11094.601285,5832.643012,-26938.411825,2653.241474,13516.859831,-2644.814866,-0.032000,0.976000,0.130000,192.000000,0.000000,0.000000,0.000000,0.000000,0.000000,0.000000,0.000000,0.000000,0.000000,1647249633.159730,0.000000
60.000000,-8656.025965,-10574.766764,-11095.718872,5830.899576,-26940.803461,2651.274520,13515.652837,-2628.051058,-0.032000,0.976000,0.130000,192.000000,0.000000,0.000000,0.000000,0.000000,0.000000,0.000000,0.000000,0.000000,0.000000,1647249633.159746,0.000000
61.000000,-8651.890892,-10570.519933,-11094.221305,5832.553605,-26939.484708,2646.692413,13506.130994,-2625.927642,-0.032000,0.976000,0.130000,192.000000,0.000000,0.000000,0.000000,0.000000,0.000000,0.000000,0.000000,0.000000,0.000000,1647249633.166099,0.000000
62.000000,-8656.204779,-10578.119526,-11100.412738,5824.596384,-26946.391397,2641.305642,13494.262218,-2642.199712,-0.032000,0.976000,0.130000,192.000000,0.000000,0.000000,0.000000,0.000000,0.000000,0.000000,0.000000,0.000000,0.000000,1647249633.173420,0.000000
63.000000,-8658.663471,-10582.209895,-11101.910305,5820.349553,-26949.744159,2641.462104,13501.861811,-2649.441677,-0.032000,0.976000,0.130000,192.000000,0.000000,0.000000,0.000000,0.000000,0.000000,0.000000,0.000000,0.000000,0.000000,1647249633.173437,0.000000
64.000000,-8653.746087,-10576.823125,-11094.422471,5826.339820,-26944.089168,2646.513599,13511.987151,-2653.017956,-0.032000,0.976000,0.130000,192.000000,0.000000,0.000000,0.000000,0.000000,0.000000,0.000000,0.000000,0.000000,0.000000,1647249633.181607,0.000000
65.000000,-8652.673203,-10575.861999,-11095.450651,5828.038553,-26941.049330,2644.904273,13509.640218,-2654.426116,-0.030000,0.972000,0.126000,192.000000,255.000000,16.000000,30.000000,96.000000,3.000000,240.000000,0.000000,0.000000,0.000000,1647249633.181642,0.000000
66.000000,-8654.930729,-10578.521857,-11098.848116,5820.617774,-26942.815118,2642.020898,13503.828764,-2642.177360,-0.030000,0.972000,0.126000,192.000000,0.000000,0.000000,0.000000,0.000000,0.000000,0.000000,0.000000,0.000000,0.000000,1647249633.189867,0.000000
67.000000,-8648.202854,-10573.358604,-11094.109546,5828.619698,-26939.752929,2642.423230,13492.161154,-2649.665195,-0.030000,0.972000,0.126000,192.000000,0.000000,0.000000,0.000000,0.000000,0.000000,0.000000,0.000000,0.000000,0.000000,1647249633.189883,0.000000
68.000000,-8645.967680,-10569.782325,-11090.577971,5831.994812,-26937.070720,2647.988814,13502.130032,-2642.534988,-0.030000,0.972000,0.126000,192.000000,0.000000,0.000000,0.000000,0.000000,0.000000,0.000000,0.000000,0.000000,0.000000,1647249633.196165,0.000000
69.000000,-8646.459418,-10570.296415,-11089.885067,5834.542910,-26937.383644,2654.403765,13520.749035,-2632.946090,-0.030000,0.972000,0.126000,192.000000,0.000000,0.000000,0.000000,0.000000,0.000000,0.000000,0.000000,0.000000,0.000000,1647249633.196181,0.000000
70.000000,-8641.899662,-10564.641424,-11088.990997,5838.074486,-26936.176650,2656.080145,13520.078483,-2642.087953,-0.030000,0.972000,0.126000,192.000000,0.000000,0.000000,0.000000,0.000000,0.000000,0.000000,0.000000,0.000000,0.000000,1647249633.204169,0.000000
71.000000,-8648.560482,-10569.782325,-11093.997788,5832.866530,-26941.138737,2658.717651,13524.235907,-2629.168645,-0.030000,0.972000,0.126000,192.000000,0.000000,0.000000,0.000000,0.000000,0.000000,0.000000,0.000000,0.000000,0.000000,1647249633.204185,0.000000
72.000000,-8643.665450,-10562.450953,-11091.136764,5843.304794,-26935.841374,2660.774012,13501.012445,-2640.612738,-0.030000,0.972000,0.126000,192.000000,0.000000,0.000000,0.000000,0.000000,0.000000,0.000000,0.000000,0.000000,0.000000,1647249633.212219,0.000000
73.000000,-8641.117351,-10560.148723,-11088.521610,5848.758620,-26932.667426,2665.847858,13504.119337,-2635.203616,-0.030000,0.972000,0.126000,192.000000,0.000000,0.000000,0.000000,0.000000,0.000000,0.000000,0.000000,0.000000,0.000000,1647249633.212236,0.000000
74.000000,-8647.867578,-10562.070973,-11094.042491,5846.724611,-26935.953133,2663.053890,13529.555622,-2616.741075,-0.030000,0.972000,0.126000,192.000000,0.000000,0.000000,0.000000,0.000000,0.000000,0.000000,0.000000,0.000000,0.000000,1647249633.219208,0.000000
75.000000,-8645.185369,-10560.238130,-11090.823840,5849.451524,-26931.862763,2660.282273,13526.336971,-2614.684715,-0.038000,0.974000,0.126000,192.000000,254.000000,208.000000,30.000000,112.000000,3.000000,240.000000,0.000000,0.000000,0.000000,1647249633.219225,0.000000
76.000000,-8642.346697,-10558.405287,-11085.168849,5851.887864,-26925.425461,2662.606855,13540.709143,-2613.209500,-0.038000,0.974000,0.126000,192.000000,0.000000,0.000000,0.000000,0.000000,0.000000,0.000000,0.000000,0.000000,0.000000,1647249633.225689,0.000000
77.000000,-8645.073610,-10561.847456,-11088.275741,5845.495265,-26928.018263,2659.790535,13553.986079,-2620.786741,-0.038000,0.974000,0.126000,192.000000,0.000000,0.000000,0.000000,0.000000,0.000000,0.000000,0.000000,0.000000,0.000000,1647249633.233653,0.000000
78.000000,-8651.354450,-10569.000014,-11091.337930,5838.633280,-26934.142641,2650.358099,13534.897689,-2634.823636,-0.038000,0.974000,0.126000,192.000000,0.000000,0.000000,0.000000,0.000000,0.000000,0.000000,0.000000,0.000000,0.000000,1647249633.233670,0.000000
79.000000,-8668.028852,-10584.355662,-11105.665398,5824.663439,-26953.655714,2629.660383,13506.980360,-2660.952826,-0.038000,0.974000,0.126000,192.000000,0.000000,0.000000,0.000000,0.000000,0.000000,0.000000,0.000000,0.000000,0.000000,1647249633.241587,0.000000
80.000000,-8665.324290,-10581.516991,-11104.257238,5826.071599,-26953.543956,2631.090895,13500.431299,-2681.605838,-0.038000,0.974000,0.126000,192.000000,0.000000,0.000000,0.000000,0.000000,0.000000,0.000000,0.000000,0.000000,0.000000,1647249633.241604,0.000000
81.000000,-8649.163979,-10565.781363,-11092.299055,5841.494303,-26939.931743,2657.085974,13528.750959,-2619.646802,-0.038000,0.974000,0.126000,192.000000,0.000000,0.000000,0.000000,0.000000,0.000000,0.000000,0.000000,0.000000,0.000000,1647249633.248226,0.000000
82.000000,-8655.511875,-10571.279892,-11100.926828,5839.661460,-26946.503156,2654.627282,13526.493433,-2606.280459,-0.038000,0.974000,0.126000,192.000000,0.000000,0.000000,0.000000,0.000000,0.000000,0.000000,0.000000,0.000000,0.000000,1647249633.248243,0.000000
83.000000,-8654.059011,-10571.548113,-11099.608076,5838.946204,-26946.011418,2650.916892,13503.672302,-2622.552529,-0.038000,0.974000,0.126000,192.000000,0.000000,0.000000,0.000000,0.000000,0.000000,0.000000,0.000000,0.000000,0.000000,1647249633.256392,0.000000
84.000000,-8646.973508,-10566.273101,-11095.517706,5844.064754,-26943.508022,2647.877055,13509.304942,-2631.493226,-0.038000,0.974000,0.126000,192.000000,0.000000,0.000000,0.000000,0.000000,0.000000,0.000000,0.000000,0.000000,0.000000,1647249633.256409,0.000000
85.000000,-8640.692668,-10561.735697,-11093.103718,5849.183303,-26941.764586,2642.602043,13506.890953,-2638.981061,-0.036000,0.972000,0.122000,192.000000,254.000000,224.000000,30.000000,96.000000,3.000000,208.000000,0.000000,0.000000,0.000000,1647249633.264414,0.000000
86.000000,-8651.153284,-10572.978624,-11101.306808,5839.840274,-26952.627534,2632.320241,13497.167945,-2649.844009,-0.036000,0.972000,0.122000,192.000000,0.000000,0.000000,0.000000,0.000000,0.000000,0.000000,0.000000,0.000000,0.000000,1647249633.264449,0.000000
87.000000,-8655.355412,-10578.924188,-11108.459366,5832.084219,-26959.266002,2628.520444,13489.903628,-2661.802192,-0.036000,0.972000,0.122000,192.000000,0.000000,0.000000,0.000000,0.000000,0.000000,0.000000,0.000000,0.000000,0.000000,1647249633.271473,0.000000
88.000000,-8660.451610,-10582.187543,-11114.673151,5821.869471,-26966.306802,2618.417456,13471.374031,-2672.687491,-0.036000,0.972000,0.122000,192.000000,0.000000,0.000000,0.000000,0.000000,0.000000,0.000000,0.000000,0.000000,0.000000,1647249633.271490,0.000000
89.000000,-8653.455514,-10569.849380,-11102.603209,5832.777123,-26953.163976,2628.609851,13463.528569,-2666.317244,-0.036000,0.972000,0.122000,192.000000,0.000000,0.000000,0.000000,0.000000,0.000000,0.000000,0.000000,0.000000,0.000000,1647249633.279040,0.000000
90.000000,-8650.594491,-10565.021403,-11093.394291,5844.668251,-26939.752929,2648.301738,13484.226285,-2644.904273,-0.036000,0.972000,0.122000,192.000000,0.000000,0.000000,0.000000,0.000000,0.000000,0.000000,0.000000,0.000000,0.000000,1647249633.279056,0.000000
91.000000,-8651.600319,-10564.596720,-11095.070671,5847.059887,-26937.338941,2653.241474,13503.426433,-2644.300776,-0.036000,0.972000,0.122000,192.000000,0.000000,0.000000,0.000000,0.000000,0.000000,0.000000,0.000000,0.000000,0.000000,1647249633.286067,0.000000
92.000000,-8651.063877,-10562.987395,-11096.277666,5846.277576,-26938.747101,2653.241474,13503.046453,-2642.222064,-0.036000,0.972000,0.122000,192.000000,0.000000,0.000000,0.000000,0.000000,0.000000,0.000000,0.000000,0.000000,0.000000,1647249633.286098,0.000000
93.000000,-8657.702346,-10572.039851,-11103.810204,5841.918986,-26948.537165,2643.965500,13487.221418,-2642.289119,-0.036000,0.972000,0.122000,192.000000,0.000000,0.000000,0.000000,0.000000,0.000000,0.000000,0.000000,0.000000,0.000000,1647249633.294088,0.000000
94.000000,-8665.927788,-10583.930979,-11114.561393,5831.972460,-26962.596412,2634.063677,13504.611075,-2648.301738,-0.036000,0.972000,0.122000,192.000000,0.000000,0.000000,0.000000,0.000000,0.000000,0.000000,0.000000,0.000000,0.000000,1647249633.301152,0.000000
95.000000,-8661.703308,-10576.286683,-11110.202802,5840.689640,-26957.790787,2635.874168,13508.232058,-2647.228855,-0.038000,0.974000,0.126000,192.000000,254.000000,208.000000,30.000000,112.000000,3.000000,240.000000,0.000000,0.000000,0.000000,1647249633.301169,0.000000
96.000000,-8650.326270,-10561.847456,-11101.083291,5851.641995,-26944.513851,2651.386279,13513.395311,-2629.906253,-0.038000,0.974000,0.126000,192.000000,0.000000,0.000000,0.000000,0.000000,0.000000,0.000000,0.000000,0.000000,0.000000,1647249633.308699,0.000000
97.000000,-8653.522569,-10565.759011,-11103.989017,5849.183303,-26947.061950,2650.447506,13521.732512,-2634.845988,-0.038000,0.974000,0.126000,192.000000,0.000000,0.000000,0.000000,0.000000,0.000000,0.000000,0.000000,0.000000,0.000000,1647249633.308715,0.000000
98.000000,-8651.600319,-10565.937825,-11101.463270,5849.697393,-26944.849127,2649.128753,13511.271895,-2639.204578,-0.038000,0.974000,0.126000,192.000000,0.000000,0.000000,0.000000,0.000000,0.000000,0.000000,0.000000,0.000000,0.000000,1647249633.316683,0.000000
99.000000,-8657.769401,-10572.486886,-11110.381616,5839.795570,-26952.493424,2639.271634,13496.743261,-2646.714764,-0.038000,0.974000,0.126000,192.000000,0.000000,0.000000,0.000000,0.000000,0.000000,0.000000,0.000000,0.000000,0.000000,1647249633.316700,0.000000
100.000000,-8657.255311,-10570.788154,-11115.276648,5841.561358,-26953.990990,2635.896520,13491.781174,-2645.887750,-0.038000,0.974000,0.126000,192.000000,0.000000,0.000000,0.000000,0.000000,0.000000,0.000000,0.000000,0.000000,0.000000,1647249633.323718,0.000000
101.000000,-8664.765497,-10580.801735,-11118.137672,5835.034649,-26962.439950,2632.521407,13511.651875,-2639.651613,-0.038000,0.974000,0.126000,192.000000,0.000000,0.000000,0.000000,0.000000,0.000000,0.000000,0.000000,0.000000,0.000000,1647249633.323734,0.000000
102.000000,-8658.641119,-10576.219627,-11110.023988,5842.947166,-26957.388456,2639.584558,13524.727645,-2634.980099,-0.038000,0.974000,0.126000,192.000000,0.000000,0.000000,0.000000,0.000000,0.000000,0.000000,0.000000,0.000000,0.000000,1647249633.331332,0.000000
103.000000,-8644.783037,-10562.182732,-11099.451613,5859.330995,-26944.804423,2652.056831,13525.554660,-2621.345534,-0.038000,0.974000,0.126000,192.000000,0.000000,0.000000,0.000000,0.000000,0.000000,0.000000,0.000000,0.000000,0.000000,1647249633.331350,0.000000
104.000000,-8642.726677,-10559.500523,-11098.646951,5860.113306,-26941.518717,2658.404727,13549.828655,-2618.551566,-0.038000,0.974000,0.126000,192.000000,0.000000,0.000000,0.000000,0.000000,0.000000,0.000000,0.000000,0.000000,0.000000,1647249633.339354,0.000000
105.000000,-8641.989069,-10557.801790,-11096.143555,5861.029728,-26938.925915,2659.187038,13547.191149,-2618.171587,-0.040000,0.972000,0.122000,192.000000,254.000000,192.000000,30.000000,96.000000,3.000000,208.000000,0.000000,0.000000,0.000000,1647249633.339371,0.000000
106.000000,-8642.994898,-10562.227435,-11099.406910,5858.124001,-26942.032807,2656.571884,13533.176605,-2620.630279,-0.040000,0.972000,0.122000,192.000000,0.000000,0.000000,0.000000,0.000000,0.000000,0.000000,0.000000,0.000000,0.000000,1647249633.347235,0.000000
107.000000,-8646.012383,-10566.094287,-11102.290285,5858.034594,-26945.385569,2655.811924,13536.864643,-2618.395104,-0.040000,0.972000,0.122000,192.000000,0.000000,0.000000,0.000000,0.000000,0.000000,0.000000,0.000000,0.000000,0.000000,1647249633.347270,0.000000
108.000000,-8644.023078,-10566.027232,-11102.223230,5854.793591,-26947.352522,2652.079183,13537.624602,-2627.536968,-0.040000,0.972000,0.122000,192.000000,0.000000,0.000000,0.000000,0.000000,0.000000,0.000000,0.000000,0.000000,0.000000,1647249633.353337,0.000000
109.000000,-8650.750953,-10569.223531,-11111.409797,5847.752791,-26952.985162,2643.093782,13516.256334,-2643.563168,-0.040000,0.972000,0.122000,192.000000,0.000000,0.000000,0.000000,0.000000,0.000000,0.000000,0.000000,0.000000,0.000000,1647249633.360921,0.000000
110.000000,-8657.456476,-10570.855209,-11111.096872,5844.869416,-26954.929764,2640.433924,13514.401140,-2637.215273,-0.040000,0.972000,0.122000,192.000000,0.000000,0.000000,0.000000,0.000000,0.000000,0.000000,0.000000,0.000000,0.000000,1647249633.360937,0.000000
111.000000,-8652.874369,-10565.155514,-11109.018160,5851.284367,-26949.922973,2644.680756,13509.081424,-2638.668136,-0.040000,0.972000,0.122000,192.000000,0.000000,0.000000,0.000000,0.000000,0.000000,0.000000,0.000000,0.000000,0.000000,1647249633.368933,0.000000
112.000000,-8651.265043,-10564.306148,-11107.408834,5856.358213,-26947.777205,2650.916892,13497.905552,-2639.226930,-0.040000,0.972000,0.122000,192.000000,0.000000,0.000000,0.000000,0.000000,0.000000,0.000000,0.000000,0.000000,0.000000,1647249633.368950,0.000000
113.000000,-8649.387497,-10561.869807,-11105.665398,5860.046251,-26945.296162,2657.085974,13531.813148,-2629.436866,-0.040000,0.972000,0.122000,192.000000,0.000000,0.000000,0.000000,0.000000,0.000000,0.000000,0.000000,0.000000,0.000000,1647249633.376988,0.000000
114.000000,-8635.574119,-10553.733772,-11097.954046,5867.467030,-26935.237877,2663.456221,13535.523538,-2626.128808,-0.040000,0.972000,0.122000,192.000000,0.000000,0.000000,0.000000,0.000000,0.000000,0.000000,0.000000,0.000000,0.000000,1647249633.377004,0.000000
115.000000,-8635.685877,-10551.364488,-11095.495355,5868.919893,-26930.856935,2660.058756,13530.606154,-2631.001488,-0.038000,0.974000,0.122000,192.000000,254.000000,208.000000,30.000000,112.000000,3.000000,208.000000,0.000000,0.000000,0.000000,1647249633.383573,0.000000
116.000000,-8637.853996,-10552.012688,-11096.009445,5869.657501,-26932.019226,2656.795401,13530.092064,-2633.907215,-0.038000,0.974000,0.122000,192.000000,0.000000,0.000000,0.000000,0.000000,0.000000,0.000000,0.000000,0.000000,0.000000,1647249633.383589,0.000000
117.000000,-8641.139703,-10555.700726,-11100.748015,5864.762469,-26938.814156,2649.665195,13506.309808,-2645.284253,-0.038000,0.974000,0.122000,192.000000,0.000000,0.000000,0.000000,0.000000,0.000000,0.000000,0.000000,0.000000,0.000000,1647249633.391615,0.000000
118.000000,-8653.880197,-10566.586026,-11112.952067,5852.558416,-26950.079435,2642.892616,13494.530439,-2643.697279,-0.038000,0.974000,0.122000,192.000000,0.000000,0.000000,0.000000,0.000000,0.000000,0.000000,0.000000,0.000000,0.000000,1647249633.391632,0.000000
119.000000,-8657.232959,-10570.966967,-11114.762558,5850.747925,-26952.649886,2646.424192,13517.575087,-2628.498093,-0.038000,0.974000,0.122000,192.000000,0.000000,0.000000,0.000000,0.000000,0.000000,0.000000,0.000000,0.000000,0.000000,1647249633.399464,0.000000
120.000000,-8663.893779,-10577.381918,-11119.858756,5841.963690,-26960.115368,2635.069506,13499.850154,-2646.200674,-0.038000,0.974000,0.122000,192.000000,0.000000,0.000000,0.000000,0.000000,0.000000,0.000000,0.000000,0.000000,0.000000,1647249633.399480,0.000000
121.000000,-8651.153284,-10566.317805,-11107.632352,5851.194960,-26951.644057,2647.072392,13507.114471,-2635.985927,-0.038000,0.974000,0.122000,192.000000,0.000000,0.000000,0.000000,0.000000,0.000000,0.000000,0.000000,0.000000,0.000000,1647249633.406557,0.000000
122.000000,-8654.729564,-10568.485924,-11107.162965,5856.805248,-26950.705284,2649.888712,13523.632410,-2635.963575,-0.038000,0.974000,0.122000,192.000000,0.000000,0.000000,0.000000,0.000000,0.000000,0.000000,0.000000,0.000000,0.000000,1647249633.406574,0.000000
123.000000,-8655.266005,-10568.687090,-11106.425358,5855.933530,-26948.403054,2652.548570,13542.094951,-2614.416494,-0.038000,0.974000,0.122000,192.000000,0.000000,0.000000,0.000000,0.000000,0.000000,0.000000,0.000000,0.000000,0.000000,1647249633.413286,0.000000
124.000000,-8647.487598,-10563.792057,-11101.127994,5858.347518,-26942.591601,2653.174419,13546.252375,-2604.939354,-0.038000,0.974000,0.122000,192.000000,0.000000,0.000000,0.000000,0.000000,0.000000,0.000000,0.000000,0.000000,0.000000,1647249633.421298,0.000000
125.000000,-8645.900625,-10566.563674,-11101.597381,5854.614777,-26941.518717,2647.541779,13530.315582,-2624.564186,-0.040000,0.976000,0.120000,192.000000,254.000000,192.000000,30.000000,128.000000,3.000000,192.000000,0.000000,0.000000,0.000000,1647249633.421314,0.000000
126.000000,-8640.893834,-10556.751258,-11093.193125,5860.090954,-26933.852069,2656.482477,13523.878279,-2612.516595,-0.040000,0.976000,0.120000,192.000000,0.000000,0.000000,0.000000,0.000000,0.000000,0.000000,0.000000,0.000000,0.000000,1647249633.429230,0.000000
127.000000,-8643.397229,-10563.590892,-11094.422471,5855.754716,-26934.567324,2662.070413,13528.080407,-2595.059883,-0.040000,0.976000,0.120000,192.000000,0.000000,0.000000,0.000000,0.000000,0.000000,0.000000,0.000000,0.000000,0.000000,1647249633.429247,0.000000
128.000000,-8655.020136,-10580.086479,-11106.403006,5842.500131,-26945.743197,2655.811924,13544.330125,-2605.140520,-0.040000,0.976000,0.120000,192.000000,0.000000,0.000000,0.000000,0.000000,0.000000,0.000000,0.000000,0.000000,0.000000,1647249633.435936,0.000000
129.000000,-8672.007462,-10597.677302,-11116.729512,5832.263032,-26956.874365,2650.492209,13537.423436,-2605.878127,-0.040000,0.976000,0.120000,192.000000,0.000000,0.000000,0.000000,0.000000,0.000000,0.000000,0.000000,0.000000,0.000000,1647249633.435971,0.000000
130.000000,-8680.679939,-10607.489718,-11121.155157,5827.144483,-26960.160072,2651.207465,13537.848119,-2603.508842,-0.040000,0.976000,0.120000,192.000000,0.000000,0.000000,0.000000,0.000000,0.000000,0.000000,0.000000,0.000000,0.000000,1647249633.443869,0.000000
131.000000,-8675.069651,-10603.466404,-11114.181413,5833.425323,-26953.029865,2656.169552,13530.047361,-2608.917965,-0.040000,0.976000,0.120000,192.000000,0.000000,0.000000,0.000000,0.000000,0.000000,0.000000,0.000000,0.000000,0.000000,1647249633.443886,0.000000
132.000000,-8691.408776,-10620.029047,-11114.539041,5833.939413,-26951.912278,2660.595198,13523.095968,-2611.600174,-0.040000,0.976000,0.120000,192.000000,0.000000,0.000000,0.000000,0.000000,0.000000,0.000000,0.000000,0.000000,0.000000,1647249633.451797,0.000000
133.000000,-8712.195899,-10642.470198,-11125.089064,5827.099779,-26958.796615,2658.628244,13532.461349,-2607.018066,-0.040000,0.976000,0.120000,192.000000,0.000000,0.000000,0.000000,0.000000,0.000000,0.000000,0.000000,0.000000,0.000000,1647249633.451815,0.000000
134.000000,-8727.484492,-10662.184437,-11131.302849,5817.265012,-26963.177557,2655.811924,13533.645992,-2605.788720,-0.040000,0.976000,0.120000,192.000000,0.000000,0.000000,0.000000,0.000000,0.000000,0.000000,0.000000,0.000000,0.000000,1647249633.458816,0.000000
135.000000,-8740.716724,-10682.502172,-11129.268840,5813.308753,-26961.657639,2657.890637,13542.765503,-2600.111377,-0.046000,0.976000,0.114000,192.000000,254.000000,144.000000,30.000000,128.000000,3.000000,144.000000,0.000000,0.000000,0.000000,1647249633.458832,0.000000
136.000000,-8757.569940,-10702.015245,-11132.398085,5805.418587,-26965.300973,2660.014052,13557.204730,-2591.550659,-0.046000,0.976000,0.114000,192.000000,0.000000,0.000000,0.000000,0.000000,0.000000,0.000000,0.000000,0.000000,0.000000,1647249633.466492,0.000000
137.000000,-8784.123812,-10728.636173,-11147.977251,5788.051282,-26982.735334,2646.625357,13529.823843,-2611.890747,-0.046000,0.976000,0.114000,192.000000,0.000000,0.000000,0.000000,0.000000,0.000000,0.000000,0.000000,0.000000,0.000000,1647249633.466508,0.000000
138.000000,-8808.084882,-10751.837284,-11159.667213,5776.763651,-26993.687689,2640.523331,13507.919134,-2615.891709,-0.046000,0.976000,0.114000,192.000000,0.000000,0.000000,0.000000,0.000000,0.000000,0.000000,0.000000,0.000000,0.000000,1647249633.473519,0.000000
139.000000,-8809.425987,-10750.451475,-11149.407762,5790.286456,-26980.142531,2656.974215,13531.656686,-2600.603116,-0.046000,0.976000,0.114000,192.000000,0.000000,0.000000,0.000000,0.000000,0.000000,0.000000,0.000000,0.000000,0.000000,1647249633.481508,0.000000
140.000000,-8818.366685,-10761.850865,-11152.134675,5786.419605,-26983.182369,2653.174419,13529.332105,-2614.640011,-0.046000,0.976000,0.114000,192.000000,0.000000,0.000000,0.000000,0.000000,0.000000,0.000000,0.000000,0.000000,0.000000,1647249633.481525,0.000000
141.000000,-8827.530900,-10775.127801,-11157.454390,5780.451689,-26988.725601,2649.955767,13502.599418,-2608.694447,-0.046000,0.976000,0.114000,192.000000,0.000000,0.000000,0.000000,0.000000,0.000000,0.000000,0.000000,0.000000,0.000000,1647249633.488525,0.000000
142.000000,-8835.778694,-10786.303674,-11167.423268,5768.202933,-26998.113334,2643.093782,13505.236924,-2608.537985,-0.046000,0.976000,0.114000,192.000000,0.000000,0.000000,0.000000,0.000000,0.000000,0.000000,0.000000,0.000000,0.000000,1647249633.488541,0.000000
143.000000,-8834.437589,-10788.136517,-11168.540855,5762.056203,-27000.035584,2645.060735,13543.391352,-2608.314467,-0.046000,0.976000,0.114000,192.000000,0.000000,0.000000,0.000000,0.000000,0.000000,0.000000,0.000000,0.000000,0.000000,1647249633.496011,0.000000
144.000000,-8835.935156,-10787.242447,-11174.776992,5756.177694,-27004.774154,2633.996622,13523.252430,-2622.507825,-0.046000,0.976000,0.114000,192.000000,0.000000,0.000000,0.000000,0.000000,0.000000,0.000000,0.000000,0.000000,0.000000,1647249633.496027,0.000000
145.000000,-8825.072208,-10773.406717,-11163.846989,5764.380785,-26995.475828,2641.059773,13511.361302,-2611.220194,-0.046000,0.976000,0.114000,192.000000,0.000000,0.000000,0.000000,0.000000,0.000000,0.000000,0.000000,0.000000,0.000000,1647249633.504045,0.000000
146.000000,-8805.223859,-10753.737182,-11147.083181,5777.545962,-26981.260119,2660.215218,13546.565300,-2572.708139,-0.044000,0.976000,0.128000,192.000000,254.000000,160.000000,30.000000,128.000000,4.000000,0.000000,0.000000,0.000000,0.000000,1647249633.504062,0.000000
147.000000,-8809.783615,-10757.291109,-11151.933509,5773.947331,-26985.462247,2658.471782,13545.604175,-2579.257200,-0.044000,0.976000,0.128000,192.000000,0.000000,0.000000,0.000000,0.000000,0.000000,0.000000,0.000000,0.000000,0.000000,1647249633.512198,0.000000
148.000000,-8804.977990,-10753.357202,-11152.760524,5776.651892,-26983.897624,2655.074317,13528.460387,-2597.518575,-0.044000,0.976000,0.128000,192.000000,0.000000,0.000000,0.000000,0.000000,0.000000,0.000000,0.000000,0.000000,0.000000,1647249633.512214,0.000000
149.000000,-8795.456147,-10740.728467,-11150.592405,5783.580933,-26978.712020,2654.694337,13535.389428,-2601.877165,-0.044000,0.976000,0.128000,192.000000,0.000000,0.000000,0.000000,0.000000,0.000000,0.000000,0.000000,0.000000,0.000000,1647249633.518815,0.000000
150.000000,-8781.374548,-10726.982144,-11139.170663,5793.952142,-26968.385514,2662.360986,13537.021105,-2587.750863,-0.044000,0.976000,0.128000,192.000000,0.000000,0.000000,0.000000,0.000000,0.000000,0.000000,0.000000,0.000000,0.000000,1647249633.518849,0.000000
151.000000,-8766.957672,-10713.012303,-11134.543852,5800.143576,-26963.445778,2665.534933,13543.346649,-2588.287304,-0.044000,0.976000,0.128000,192.000000,0.000000,0.000000,0.000000,0.000000,0.000000,0.000000,0.000000,0.000000,0.000000,1647249633.526737,0.000000
152.000000,-8756.653518,-10703.244591,-11130.855814,5805.664457,-26959.243650,2666.563114,13545.425361,-2600.893688,-0.044000,0.976000,0.128000,192.000000,0.000000,0.000000,0.000000,0.000000,0.000000,0.000000,0.000000,0.000000,0.000000,1647249633.526753,0.000000
153.000000,-8766.287120,-10714.733388,-11143.708067,5795.114433,-26972.051200,2652.570921,13515.831651,-2621.077314,-0.044000,0.976000,0.128000,192.000000,0.000000,0.000000,0.000000,0.000000,0.000000,0.000000,0.000000,0.000000,0.000000,1647249633.533753,0.000000
154.000000,-8759.134562,-10707.580830,-11146.949070,5793.907439,-26973.101732,2653.844971,13526.158157,-2613.120093,-0.044000,0.976000,0.128000,192.000000,0.000000,0.000000,0.000000,0.000000,0.000000,0.000000,0.000000,0.000000,0.000000,1647249633.533769,0.000000
155.000000,-8755.267710,-10703.624571,-11144.222158,5792.588686,-26970.821854,2657.711823,13533.377771,-2606.951011,-0.044000,0.976000,0.128000,192.000000,0.000000,0.000000,0.000000,0.000000,0.000000,0.000000,0.000000,0.000000,0.000000,1647249633.541673,0.000000
156.000000,-8757.324071,-10702.685798,-11148.871320,5786.687826,-26976.074514,2653.688509,13526.918116,-2615.332915,-0.034000,0.982000,0.126000,192.000000,254.000000,240.000000,30.000000,176.000000,3.000000,240.000000,0.000000,0.000000,0.000000,1647249633.548528,0.000000
157.000000,-8732.513634,-10677.137754,-11129.782931,5805.329180,-26958.483691,2669.178268,13532.863680,-2604.782892,-0.034000,0.982000,0.126000,192.000000,0.000000,0.000000,0.000000,0.000000,0.000000,0.000000,0.000000,0.000000,0.000000,1647249633.548544,0.000000
