%OpenBCI Raw EEG Data
%Number of channels = 8
%Sample Rate = 256 Hz
%Board = OpenBCI_GUI$BoardCytonSerial
%Channels = Fp1, Fp2, F3, F4, Fz, Pz, O1, O2
%Data recorded at AIMS Lab (http://aimsl.uiu.ac.bd) by Rana Depto (mail@ranadepto.com)
%Brainwaves were obtained via the Ultracortex Mark IV Headset using the OpenBCI Cyton Board
%Recording Application = ConcentrateToday (https://concentrate.today)
%Data type = RAW data with noise
%Day No = 6
%Subject ID = 1
%Session ID = 7
%Record starting timestamp (UTC+6) = 2022-03-13T13:40:01.400463
%Record ending timestamp (UTC+6)   = 2022-03-13T13:40:22.256581
%Recorded durations = ~20 seconds
Sample Index, EXG Channel 0, EXG Channel 1, EXG Channel 2, EXG Channel 3, EXG Channel 4, EXG Channel 5, EXG Channel 6, EXG Channel 7, Accel Channel 0, Accel Channel 1, Accel Channel 2, Other, Other, Other, Other, Other, Other, Other, Analog Channel 0, Analog Channel 1, Analog Channel 2, Timestamp, Timestamp (Formatted)
219.000000,20536.760454,15306.094623,14972.852465,14551.633841,3181.212030,15984.917102,20410.830726,16007.291199,-0.182000,0.952000,0.200000,192.000000,0.000000,0.000000,0.000000,0.000000,0.000000,0.000000,0.000000,0.000000,0.000000,1647157201.400360,0.000000
220.000000,20538.392131,15309.559144,14969.030317,14551.164454,3180.563829,15980.402050,20404.013443,15992.986082,-0.182000,0.952000,0.200000,192.000000,0.000000,0.000000,0.000000,0.000000,0.000000,0.000000,0.000000,0.000000,0.000000,1647157201.400371,0.000000
221.000000,20525.808099,15295.723414,14955.194587,14532.791320,3170.349082,15966.722782,20397.285568,15966.901596,-0.182000,0.952000,0.200000,192.000000,0.000000,0.000000,0.000000,0.000000,0.000000,0.000000,0.000000,0.000000,0.000000,1647157201.408112,0.000000
222.000000,20518.052044,15283.429954,14949.092561,14517.592134,3158.949692,15962.788875,20400.459516,15953.199977,-0.182000,0.952000,0.200000,192.000000,0.000000,0.000000,0.000000,0.000000,0.000000,0.000000,0.000000,0.000000,0.000000,1647157201.408118,0.000000
223.000000,20518.946113,15286.648606,14941.649430,14521.794262,3152.624148,15965.448733,20405.488659,15983.732460,-0.192000,0.958000,0.200000,192.000000,250.000000,0.000000,29.000000,240.000000,6.000000,64.000000,0.000000,0.000000,0.000000,1647157201.414751,0.000000
224.000000,20524.109366,15290.403699,14948.198491,14521.168413,3151.350099,15971.081373,20402.404118,16004.027844,-0.192000,0.958000,0.200000,192.000000,0.000000,0.000000,0.000000,0.000000,0.000000,0.000000,0.000000,0.000000,0.000000,1647157201.414756,0.000000
225.000000,20517.202677,15288.615559,14951.148921,14520.453157,3151.931244,15965.426381,20384.790943,15979.373870,-0.192000,0.958000,0.200000,192.000000,0.000000,0.000000,0.000000,0.000000,0.000000,0.000000,0.000000,0.000000,0.000000,1647157201.422716,0.000000
226.000000,20524.958733,15298.673844,14957.452113,14530.064408,3161.564846,15969.583806,20383.874522,15972.645995,-0.192000,0.958000,0.200000,192.000000,0.000000,0.000000,0.000000,0.000000,0.000000,0.000000,0.000000,0.000000,0.000000,1647157201.422721,0.000000
227.000000,20516.755643,15287.117992,14949.159616,14521.906021,3155.284006,15964.040573,20382.511065,15956.686849,-0.192000,0.958000,0.200000,192.000000,0.000000,0.000000,0.000000,0.000000,0.000000,0.000000,0.000000,0.000000,0.000000,1647157201.430639,0.000000
228.000000,20508.709015,15274.690422,14940.710657,14509.947838,3144.689279,15952.417666,20366.753085,15940.928869,-0.192000,0.958000,0.200000,192.000000,0.000000,0.000000,0.000000,0.000000,0.000000,0.000000,0.000000,0.000000,0.000000,1647157201.430643,0.000000
229.000000,20522.410634,15290.291940,14947.818511,14523.291829,3153.004128,15964.934643,20375.425562,15956.418628,-0.192000,0.958000,0.200000,192.000000,0.000000,0.000000,0.000000,0.000000,0.000000,0.000000,0.000000,0.000000,0.000000,1647157201.437270,0.000000
230.000000,20532.491271,15302.473641,14960.603709,14535.540585,3166.325768,15979.575036,20386.109696,15985.878227,-0.192000,0.958000,0.200000,192.000000,0.000000,0.000000,0.000000,0.000000,0.000000,0.000000,0.000000,0.000000,0.000000,1647157201.437276,0.000000
231.000000,20533.787672,15304.485298,14970.147904,14540.547376,3173.143050,15988.739251,20393.374013,15987.733422,-0.192000,0.958000,0.200000,192.000000,0.000000,0.000000,0.000000,0.000000,0.000000,0.000000,0.000000,0.000000,0.000000,1647157201.444302,0.000000
232.000000,20516.241552,15286.156867,14949.718410,14518.642666,3153.629977,15970.299062,20383.807466,15969.136771,-0.192000,0.958000,0.200000,192.000000,0.000000,0.000000,0.000000,0.000000,0.000000,0.000000,0.000000,0.000000,0.000000,1647157201.444307,0.000000
233.000000,20508.664311,15284.368728,14935.882680,14505.633951,3139.101343,15955.882186,20372.005745,15952.082390,-0.188000,0.968000,0.200000,192.000000,250.000000,32.000000,30.000000,64.000000,6.000000,64.000000,0.000000,0.000000,0.000000,1647157201.452334,0.000000
234.000000,20515.503945,15287.900303,14937.603764,14517.860355,3144.778686,15954.094047,20365.032001,15936.570279,-0.188000,0.968000,0.200000,192.000000,0.000000,0.000000,0.000000,0.000000,0.000000,0.000000,0.000000,0.000000,0.000000,1647157201.460390,0.000000
235.000000,20515.414538,15272.455248,14941.135340,14507.332683,3142.565863,15954.697544,20366.864844,15931.787006,-0.188000,0.968000,0.200000,192.000000,0.000000,0.000000,0.000000,0.000000,0.000000,0.000000,0.000000,0.000000,0.000000,1647157201.460395,0.000000
236.000000,20513.224067,15271.896454,14946.343296,14507.355035,3146.924454,15964.241739,20375.112638,15964.331146,-0.188000,0.968000,0.200000,192.000000,0.000000,0.000000,0.000000,0.000000,0.000000,0.000000,0.000000,0.000000,0.000000,1647157201.466862,0.000000
237.000000,20518.677893,15280.859504,14950.768942,14518.508556,3153.697032,15970.947262,20376.677260,15964.979346,-0.188000,0.968000,0.200000,192.000000,0.000000,0.000000,0.000000,0.000000,0.000000,0.000000,0.000000,0.000000,0.000000,1647157201.466867,0.000000
238.000000,20524.914029,15284.815763,14957.899148,14529.036227,3159.888465,15981.609044,20390.423583,15970.589634,-0.188000,0.968000,0.200000,192.000000,0.000000,0.000000,0.000000,0.000000,0.000000,0.000000,0.000000,0.000000,0.000000,1647157201.474840,0.000000
239.000000,20523.908201,15285.262798,14958.547349,14524.252954,3159.664948,15979.977367,20386.713193,15967.952128,-0.188000,0.968000,0.200000,192.000000,0.000000,0.000000,0.000000,0.000000,0.000000,0.000000,0.000000,0.000000,0.000000,1647157201.474845,0.000000
240.000000,20519.549611,15283.429954,14952.735895,14521.123710,3156.356890,15977.541027,20376.476094,15963.280614,-0.188000,0.968000,0.200000,192.000000,0.000000,0.000000,0.000000,0.000000,0.000000,0.000000,0.000000,0.000000,0.000000,1647157201.482907,0.000000
241.000000,20517.828526,15285.039280,14952.065343,14522.442463,3156.133372,15983.821867,20398.246693,15964.152332,-0.188000,0.968000,0.200000,192.000000,0.000000,0.000000,0.000000,0.000000,0.000000,0.000000,0.000000,0.000000,0.000000,1647157201.482911,0.000000
242.000000,20525.897506,15292.258894,14959.933157,14527.940992,3163.464745,15990.505039,20400.280702,15972.467181,-0.188000,0.968000,0.200000,192.000000,0.000000,0.000000,0.000000,0.000000,0.000000,0.000000,0.000000,0.000000,0.000000,1647157201.490115,0.000000
243.000000,20533.273582,15299.880838,14958.703811,14535.808806,3166.303416,15996.629417,20393.038737,15981.519637,-0.194000,0.956000,0.204000,192.000000,249.000000,240.000000,29.000000,224.000000,6.000000,96.000000,0.000000,0.000000,0.000000,1647157201.490119,0.000000
244.000000,20524.802271,15289.420222,14949.919575,14523.045960,3159.441431,15983.710108,20372.765705,15950.830692,-0.194000,0.956000,0.204000,192.000000,0.000000,0.000000,0.000000,0.000000,0.000000,0.000000,0.000000,0.000000,0.000000,1647157201.497554,0.000000
245.000000,20522.589448,15284.547542,14958.770866,14520.006123,3158.726175,15989.700376,20383.807466,15955.301041,-0.194000,0.956000,0.204000,192.000000,0.000000,0.000000,0.000000,0.000000,0.000000,0.000000,0.000000,0.000000,0.000000,1647157201.497557,0.000000
246.000000,20520.846012,15282.468829,14957.072134,14519.089701,3157.541532,15997.881114,20390.602397,15967.080410,-0.194000,0.956000,0.204000,192.000000,0.000000,0.000000,0.000000,0.000000,0.000000,0.000000,0.000000,0.000000,0.000000,1647157201.505605,0.000000
247.000000,20511.502983,15280.725393,14952.378267,14514.954628,3156.155724,15997.389376,20381.125257,15960.374887,-0.194000,0.956000,0.204000,192.000000,0.000000,0.000000,0.000000,0.000000,0.000000,0.000000,0.000000,0.000000,0.000000,1647157201.505609,0.000000
248.000000,20525.226954,15295.321083,14966.906901,14526.532832,3165.342291,16007.470013,20377.392516,15963.794704,-0.194000,0.956000,0.204000,192.000000,0.000000,0.000000,0.000000,0.000000,0.000000,0.000000,0.000000,0.000000,0.000000,1647157201.512641,0.000000
249.000000,20522.008302,15292.102431,14966.459866,14521.682503,3164.962311,16001.949132,20370.686992,15950.093085,-0.194000,0.956000,0.204000,192.000000,0.000000,0.000000,0.000000,0.000000,0.000000,0.000000,0.000000,0.000000,0.000000,1647157201.519755,0.000000
250.000000,20523.997608,15294.337606,14966.459866,14527.583364,3170.952579,15999.892771,20378.063068,15921.840480,-0.194000,0.956000,0.204000,192.000000,0.000000,0.000000,0.000000,0.000000,0.000000,0.000000,0.000000,0.000000,0.000000,1647157201.519758,0.000000
251.000000,20532.781843,15306.720472,14973.008927,14537.641649,3178.954503,16015.270771,20402.694691,15968.421515,-0.194000,0.956000,0.204000,192.000000,0.000000,0.000000,0.000000,0.000000,0.000000,0.000000,0.000000,0.000000,0.000000,1647157201.527230,0.000000
252.000000,20518.074395,15293.085908,14955.239291,14520.855489,3165.632864,16000.339806,20389.753031,15984.425364,-0.194000,0.956000,0.204000,192.000000,0.000000,0.000000,0.000000,0.000000,0.000000,0.000000,0.000000,0.000000,0.000000,1647157201.527234,0.000000
253.000000,20523.885849,15297.600960,14964.962299,14526.689294,3174.461803,16004.720748,20385.841475,15974.814114,-0.194000,0.956000,0.204000,192.000000,0.000000,0.000000,0.000000,0.000000,0.000000,0.000000,0.000000,0.000000,0.000000,1647157201.535234,0.000000
254.000000,20521.583619,15295.321083,14957.854445,14521.458986,3170.058509,15998.886943,20384.857998,15968.957957,-0.186000,0.946000,0.204000,192.000000,250.000000,48.000000,29.000000,144.000000,6.000000,96.000000,0.000000,0.000000,0.000000,1647157201.535238,0.000000
255.000000,20522.008302,15287.542675,14955.976898,14517.212155,3168.806811,15988.560437,20366.954251,15943.476968,-0.186000,0.946000,0.204000,192.000000,0.000000,0.000000,0.000000,0.000000,0.000000,0.000000,0.000000,0.000000,0.000000,1647157201.542354,0.000000
0.000000,20516.487422,15284.435783,14951.394791,14514.462890,3166.571637,15980.357347,20351.799768,15919.247677,-0.186000,0.946000,0.204000,192.000000,0.000000,0.000000,0.000000,0.000000,0.000000,0.000000,0.000000,0.000000,0.000000,1647157201.542357,0.000000
1.000000,20522.343579,15288.101469,14949.383134,14517.770948,3165.677567,15995.377719,20379.784152,15963.168855,-0.186000,0.946000,0.204000,192.000000,0.000000,0.000000,0.000000,0.000000,0.000000,0.000000,0.000000,0.000000,0.000000,1647157201.549899,0.000000
2.000000,20525.428119,15295.499896,14953.987593,14521.123710,3171.220800,16008.677007,20406.449784,15995.377719,-0.186000,0.946000,0.204000,192.000000,0.000000,0.000000,0.000000,0.000000,0.000000,0.000000,0.000000,0.000000,0.000000,1647157201.549903,0.000000
3.000000,20526.165727,15294.829344,14963.308270,14524.588230,3174.707672,16002.731443,20389.551865,15980.133829,-0.186000,0.946000,0.204000,192.000000,0.000000,0.000000,0.000000,0.000000,0.000000,0.000000,0.000000,0.000000,0.000000,1647157201.557805,0.000000
4.000000,20521.449509,15287.207399,14950.791293,14516.496899,3167.108079,15993.030786,20389.574217,15975.998756,-0.186000,0.946000,0.204000,192.000000,0.000000,0.000000,0.000000,0.000000,0.000000,0.000000,0.000000,0.000000,0.000000,1647157201.557808,0.000000
5.000000,20510.966541,15289.688443,14942.968183,14517.100396,3166.616340,15990.750908,20383.405135,15964.420553,-0.186000,0.946000,0.204000,192.000000,0.000000,0.000000,0.000000,0.000000,0.000000,0.000000,0.000000,0.000000,0.000000,1647157201.565852,0.000000
6.000000,20519.862535,15301.490164,14960.961337,14528.008047,3180.340312,15999.937475,20391.921150,15960.844274,-0.186000,0.946000,0.204000,192.000000,0.000000,0.000000,0.000000,0.000000,0.000000,0.000000,0.000000,0.000000,0.000000,1647157201.565855,0.000000
7.000000,20521.985951,15296.013987,14959.329660,14520.721378,3174.975893,15990.817963,20373.860940,15943.365210,-0.186000,0.946000,0.204000,192.000000,0.000000,0.000000,0.000000,0.000000,0.000000,0.000000,0.000000,0.000000,0.000000,1647157201.572006,0.000000
8.000000,20523.215297,15293.085908,14964.247044,14518.866184,3176.272294,15995.198905,20384.992109,15962.252434,-0.186000,0.930000,0.208000,192.000000,250.000000,48.000000,29.000000,16.000000,6.000000,128.000000,0.000000,0.000000,0.000000,1647157201.579478,0.000000
9.000000,20525.741044,15297.399795,14965.968128,14521.570745,3178.999207,15996.092975,20386.936711,15974.858817,-0.186000,0.930000,0.208000,192.000000,0.000000,0.000000,0.000000,0.000000,0.000000,0.000000,0.000000,0.000000,0.000000,1647157201.579482,0.000000
10.000000,20505.669177,15274.153981,14941.850596,14496.805012,3158.077974,15971.416649,20365.635498,15948.774332,-0.186000,0.930000,0.208000,192.000000,0.000000,0.000000,0.000000,0.000000,0.000000,0.000000,0.000000,0.000000,0.000000,1647157201.587428,0.000000
11.000000,20503.456355,15275.204513,14934.340410,14499.487221,3154.881675,15962.699468,20354.549033,15926.355532,-0.186000,0.930000,0.208000,192.000000,0.000000,0.000000,0.000000,0.000000,0.000000,0.000000,0.000000,0.000000,0.000000,1647157201.587432,0.000000
12.000000,20528.423253,15296.148097,14960.626061,14515.871050,3171.444317,15981.743155,20378.241882,15954.786951,-0.186000,0.930000,0.208000,192.000000,0.000000,0.000000,0.000000,0.000000,0.000000,0.000000,0.000000,0.000000,0.000000,1647157201.595478,0.000000
13.000000,20525.182250,15291.700100,14953.607613,14513.546468,3171.958407,15979.686794,20365.479036,15965.135809,-0.186000,0.930000,0.208000,192.000000,0.000000,0.000000,0.000000,0.000000,0.000000,0.000000,0.000000,0.000000,0.000000,1647157201.595482,0.000000
14.000000,20510.854782,15284.659300,14951.931232,14510.752500,3167.800983,15978.435097,20378.733620,15963.951166,-0.186000,0.930000,0.208000,192.000000,0.000000,0.000000,0.000000,0.000000,0.000000,0.000000,0.000000,0.000000,0.000000,1647157201.602080,0.000000
15.000000,20518.856706,15291.074251,14959.709640,14517.234506,3171.131393,15984.335957,20387.115525,15980.893788,-0.186000,0.930000,0.208000,192.000000,0.000000,0.000000,0.000000,0.000000,0.000000,0.000000,0.000000,0.000000,0.000000,1647157201.602084,0.000000
16.000000,20514.386358,15288.436745,14944.398695,14515.312256,3168.650349,15975.439963,20371.692821,15959.570224,-0.186000,0.930000,0.208000,192.000000,0.000000,0.000000,0.000000,0.000000,0.000000,0.000000,0.000000,0.000000,0.000000,1647157201.610116,0.000000
17.000000,20506.295026,15275.137457,14935.994439,14499.643683,3156.379242,15961.403067,20350.033981,15936.480872,-0.186000,0.930000,0.208000,192.000000,0.000000,0.000000,0.000000,0.000000,0.000000,0.000000,0.000000,0.000000,0.000000,1647157201.610119,0.000000
18.000000,20514.743986,15282.379422,14950.701886,14513.613524,3162.503619,15975.104687,20376.721963,15976.602254,-0.188000,0.908000,0.196000,192.000000,250.000000,32.000000,28.000000,96.000000,6.000000,32.000000,0.000000,0.000000,0.000000,1647157201.618194,0.000000
19.000000,20522.209468,15296.863353,14953.518206,14521.861317,3169.790288,15979.105649,20384.701536,15985.207675,-0.188000,0.908000,0.196000,192.000000,0.000000,0.000000,0.000000,0.000000,0.000000,0.000000,0.000000,0.000000,0.000000,1647157201.618197,0.000000
20.000000,20521.605971,15295.388138,14948.399657,14513.010027,3166.616340,15968.622681,20372.296318,15970.276710,-0.188000,0.908000,0.196000,192.000000,0.000000,0.000000,0.000000,0.000000,0.000000,0.000000,0.000000,0.000000,0.000000,1647157201.625183,0.000000
21.000000,20506.920875,15268.901321,14934.519224,14488.825439,3148.712593,15944.281631,20358.259423,15948.953146,-0.188000,0.908000,0.196000,192.000000,0.000000,0.000000,0.000000,0.000000,0.000000,0.000000,0.000000,0.000000,0.000000,1647157201.625187,0.000000
22.000000,20518.834355,15287.453268,14945.225709,14508.003236,3157.832105,15947.232061,20356.337173,15948.148483,-0.188000,0.908000,0.196000,192.000000,0.000000,0.000000,0.000000,0.000000,0.000000,0.000000,0.000000,0.000000,0.000000,1647157201.632463,0.000000
23.000000,20529.138509,15301.445460,14951.998288,14521.593096,3170.214971,15960.129018,20383.919225,15986.548780,-0.188000,0.908000,0.196000,192.000000,0.000000,0.000000,0.000000,0.000000,0.000000,0.000000,0.000000,0.000000,0.000000,1647157201.639623,0.000000
24.000000,20522.008302,15294.181144,14939.391904,14512.272419,3162.145992,15955.882186,20395.497429,16012.834431,-0.188000,0.908000,0.196000,192.000000,0.000000,0.000000,0.000000,0.000000,0.000000,0.000000,0.000000,0.000000,0.000000,1647157201.639627,0.000000
25.000000,20532.044236,15301.870144,14952.020639,14519.134405,3171.913704,15947.500282,20377.168998,15976.959881,-0.188000,0.908000,0.196000,192.000000,0.000000,0.000000,0.000000,0.000000,0.000000,0.000000,0.000000,0.000000,0.000000,1647157201.647080,0.000000
26.000000,20514.386358,15279.317233,14938.833110,14496.536791,3160.089631,15927.227250,20364.584966,15979.932663,-0.188000,0.908000,0.196000,192.000000,0.000000,0.000000,0.000000,0.000000,0.000000,0.000000,0.000000,0.000000,0.000000,1647157201.647083,0.000000
27.000000,20506.809116,15271.382364,14922.493985,14486.858486,3148.332614,15913.950314,20356.985373,15972.266015,-0.188000,0.908000,0.196000,192.000000,0.000000,0.000000,0.000000,0.000000,0.000000,0.000000,0.000000,0.000000,0.000000,1647157201.655082,0.000000
28.000000,20513.268770,15281.194780,14923.768034,14496.290922,3150.903064,15927.987209,20352.112693,15955.323393,-0.190000,0.930000,0.176000,192.000000,250.000000,16.000000,29.000000,16.000000,5.000000,128.000000,0.000000,0.000000,0.000000,1647157201.655086,0.000000
29.000000,20524.914029,15299.187934,14948.690229,14516.988637,3168.896218,15955.591614,20348.759931,15975.037631,-0.190000,0.930000,0.176000,192.000000,0.000000,0.000000,0.000000,0.000000,0.000000,0.000000,0.000000,0.000000,0.000000,1647157201.663028,0.000000
30.000000,20533.139471,15307.279266,14954.792256,14525.750521,3176.093480,15966.253396,20358.549995,15994.841277,-0.190000,0.930000,0.176000,192.000000,0.000000,0.000000,0.000000,0.000000,0.000000,0.000000,0.000000,0.000000,0.000000,1647157201.663031,0.000000
31.000000,20531.418387,15299.903190,14949.070209,14511.043073,3169.387957,15959.726686,20369.614109,15995.444774,-0.190000,0.930000,0.176000,192.000000,0.000000,0.000000,0.000000,0.000000,0.000000,0.000000,0.000000,0.000000,0.000000,1647157201.669831,0.000000
32.000000,20519.415500,15283.921693,14937.067322,14497.117936,3154.859323,15941.062980,20355.152530,15974.031803,-0.190000,0.930000,0.176000,192.000000,0.000000,0.000000,0.000000,0.000000,0.000000,0.000000,0.000000,0.000000,0.000000,1647157201.669835,0.000000
33.000000,20528.132680,15289.800202,14945.069247,14507.533849,3164.314111,15940.772407,20342.635553,15957.111532,-0.190000,0.930000,0.176000,192.000000,0.000000,0.000000,0.000000,0.000000,0.000000,0.000000,0.000000,0.000000,0.000000,1647157201.677712,0.000000
34.000000,20527.484480,15290.828382,14942.655258,14502.012968,3162.324806,15930.468253,20326.587001,15932.122282,-0.190000,0.930000,0.176000,192.000000,0.000000,0.000000,0.000000,0.000000,0.000000,0.000000,0.000000,0.000000,0.000000,1647157201.677716,0.000000
35.000000,20507.971407,15270.041260,14931.837014,14485.673843,3146.678584,15920.745244,20308.325625,15949.266070,-0.190000,0.930000,0.176000,192.000000,0.000000,0.000000,0.000000,0.000000,0.000000,0.000000,0.000000,0.000000,0.000000,1647157201.685701,0.000000
36.000000,20518.342616,15281.485353,14936.441474,14495.687425,3155.284006,15936.167948,20335.348885,15982.994852,-0.190000,0.930000,0.176000,192.000000,0.000000,0.000000,0.000000,0.000000,0.000000,0.000000,0.000000,0.000000,0.000000,1647157201.685705,0.000000
37.000000,20525.137547,15287.341510,14939.883642,14504.963399,3164.470573,15945.421570,20352.246803,15990.236818,-0.190000,0.930000,0.176000,192.000000,0.000000,0.000000,0.000000,0.000000,0.000000,0.000000,0.000000,0.000000,0.000000,1647157201.692840,0.000000
38.000000,20521.449509,15283.921693,14934.899203,14499.643683,3160.380204,15936.436169,20333.739559,15962.185378,-0.184000,0.950000,0.168000,192.000000,250.000000,64.000000,29.000000,176.000000,5.000000,64.000000,0.000000,0.000000,0.000000,1647157201.692844,0.000000
39.000000,20529.317323,15291.610693,14934.362761,14504.918695,3160.670776,15933.597497,20324.038902,15944.929832,-0.184000,0.950000,0.168000,192.000000,0.000000,0.000000,0.000000,0.000000,0.000000,0.000000,0.000000,0.000000,0.000000,1647157201.699272,0.000000
40.000000,20523.483518,15276.769135,14929.803005,14497.833192,3156.759221,15937.754922,20333.091358,15973.808285,-0.184000,0.950000,0.168000,192.000000,0.000000,0.000000,0.000000,0.000000,0.000000,0.000000,0.000000,0.000000,0.000000,1647157201.707326,0.000000
41.000000,20524.489346,15276.366803,14938.251965,14503.063500,3162.123640,15949.981326,20345.988315,15993.433117,-0.184000,0.950000,0.168000,192.000000,0.000000,0.000000,0.000000,0.000000,0.000000,0.000000,0.000000,0.000000,0.000000,1647157201.707330,0.000000
42.000000,20528.870288,15283.273492,14946.119779,14507.913829,3165.476402,15955.256338,20347.552937,15986.034690,-0.184000,0.950000,0.168000,192.000000,0.000000,0.000000,0.000000,0.000000,0.000000,0.000000,0.000000,0.000000,0.000000,1647157201.715380,0.000000
43.000000,20529.920820,15289.017891,14944.689267,14509.701968,3163.978835,15953.065867,20335.684161,15974.188265,-0.184000,0.950000,0.168000,192.000000,0.000000,0.000000,0.000000,0.000000,0.000000,0.000000,0.000000,0.000000,0.000000,1647157201.715384,0.000000
44.000000,20526.702169,15283.385251,14935.457997,14506.304503,3159.419079,15945.712143,20329.403320,15962.677117,-0.184000,0.950000,0.168000,192.000000,0.000000,0.000000,0.000000,0.000000,0.000000,0.000000,0.000000,0.000000,0.000000,1647157201.722019,0.000000
45.000000,20514.453413,15270.778867,14923.946848,14495.933294,3150.120753,15941.219442,20325.581172,15956.932718,-0.184000,0.950000,0.168000,192.000000,0.000000,0.000000,0.000000,0.000000,0.000000,0.000000,0.000000,0.000000,0.000000,1647157201.722023,0.000000
46.000000,20512.933494,15271.739992,14937.492006,14498.906076,3150.321919,15947.992021,20324.821213,15961.470123,-0.184000,0.950000,0.168000,192.000000,0.000000,0.000000,0.000000,0.000000,0.000000,0.000000,0.000000,0.000000,0.000000,1647157201.729966,0.000000
47.000000,20510.541858,15268.878969,14936.083846,14496.425032,3144.801038,15946.159178,20319.255628,15952.909404,-0.184000,0.950000,0.168000,192.000000,0.000000,0.000000,0.000000,0.000000,0.000000,0.000000,0.000000,0.000000,0.000000,1647157201.729971,0.000000
48.000000,20519.370797,15271.225902,14930.026523,14494.413375,3140.375392,15947.589689,20325.625876,15953.870529,-0.184000,0.964000,0.166000,192.000000,250.000000,64.000000,30.000000,32.000000,5.000000,48.000000,0.000000,0.000000,0.000000,1647157201.738023,0.000000
49.000000,20526.143375,15283.228789,14946.276241,14503.979922,3152.244169,15961.291309,20331.727902,15961.403067,-0.184000,0.964000,0.166000,192.000000,0.000000,0.000000,0.000000,0.000000,0.000000,0.000000,0.000000,0.000000,0.000000,1647157201.738028,0.000000
50.000000,20512.061776,15274.623367,14938.944869,14495.642721,3146.253901,15957.133884,20324.307123,15951.344782,-0.184000,0.964000,0.166000,192.000000,0.000000,0.000000,0.000000,0.000000,0.000000,0.000000,0.000000,0.000000,0.000000,1647157201.745152,0.000000
51.000000,20512.441756,15276.500914,14938.699000,14501.834154,3146.298605,15960.106666,20323.658922,15958.273823,-0.184000,0.964000,0.166000,192.000000,0.000000,0.000000,0.000000,0.000000,0.000000,0.000000,0.000000,0.000000,0.000000,1647157201.745156,0.000000
52.000000,20517.202677,15280.859504,14944.108122,14509.657265,3148.891407,15967.616852,20334.857146,15968.466219,-0.184000,0.964000,0.166000,192.000000,0.000000,0.000000,0.000000,0.000000,0.000000,0.000000,0.000000,0.000000,0.000000,1647157201.752631,0.000000
53.000000,20510.318340,15269.773039,14936.530881,14498.459041,3144.733983,15955.569262,20320.999065,15947.947317,-0.184000,0.964000,0.166000,192.000000,0.000000,0.000000,0.000000,0.000000,0.000000,0.000000,0.000000,0.000000,0.000000,1647157201.752635,0.000000
54.000000,20517.381491,15274.578664,14937.849633,14501.767099,3152.311224,15965.694602,20324.284771,15970.857855,-0.184000,0.964000,0.166000,192.000000,0.000000,0.000000,0.000000,0.000000,0.000000,0.000000,0.000000,0.000000,0.000000,1647157201.759640,0.000000
55.000000,20518.387320,15279.227827,14933.736912,14501.990617,3149.226683,15964.912291,20326.944629,15969.829675,-0.184000,0.964000,0.166000,192.000000,0.000000,0.000000,0.000000,0.000000,0.000000,0.000000,0.000000,0.000000,0.000000,1647157201.767703,0.000000
56.000000,20508.753718,15282.178257,14937.626116,14502.012968,3147.974986,15971.148428,20345.518928,15970.969614,-0.184000,0.964000,0.166000,192.000000,0.000000,0.000000,0.000000,0.000000,0.000000,0.000000,0.000000,0.000000,0.000000,1647157201.767707,0.000000
57.000000,20515.012206,15287.497972,14949.494892,14517.882707,3158.949692,15984.917102,20352.671486,15982.883094,-0.184000,0.964000,0.166000,192.000000,0.000000,0.000000,0.000000,0.000000,0.000000,0.000000,0.000000,0.000000,0.000000,1647157201.774914,0.000000
58.000000,20501.869381,15262.911053,14933.692209,14496.022701,3142.275291,15969.784971,20331.124405,15969.673213,-0.182000,0.974000,0.178000,192.000000,250.000000,80.000000,30.000000,112.000000,5.000000,144.000000,0.000000,0.000000,0.000000,1647157201.774918,0.000000
59.000000,20507.926703,15268.364879,14939.034276,14500.269532,3142.364698,15974.903521,20325.938800,15961.447771,-0.182000,0.974000,0.178000,192.000000,0.000000,0.000000,0.000000,0.000000,0.000000,0.000000,0.000000,0.000000,0.000000,1647157201.782322,0.000000
60.000000,20519.549611,15283.139382,14952.221805,14516.295733,3157.787401,15991.063832,20339.036922,15974.590597,-0.182000,0.974000,0.178000,192.000000,0.000000,0.000000,0.000000,0.000000,0.000000,0.000000,0.000000,0.000000,0.000000,1647157201.782326,0.000000
61.000000,20506.004453,15266.710850,14939.213090,14498.660207,3144.108134,15980.290291,20323.390701,15951.076561,-0.182000,0.974000,0.178000,192.000000,0.000000,0.000000,0.000000,0.000000,0.000000,0.000000,0.000000,0.000000,0.000000,1647157201.790273,0.000000
62.000000,20517.873230,15283.094678,14951.305384,14514.529945,3157.943864,15995.891809,20327.078739,15964.800532,-0.182000,0.974000,0.178000,192.000000,0.000000,0.000000,0.000000,0.000000,0.000000,0.000000,0.000000,0.000000,0.000000,1647157201.790277,0.000000
63.000000,20511.771203,15278.445515,14947.617346,14509.433747,3153.339404,15990.974425,20318.428614,15950.338954,-0.182000,0.974000,0.178000,192.000000,0.000000,0.000000,0.000000,0.000000,0.000000,0.000000,0.000000,0.000000,0.000000,1647157201.798257,0.000000
64.000000,20502.204657,15264.140399,14939.660125,14498.593151,3144.175189,15991.868495,20334.968905,15967.929777,-0.182000,0.974000,0.178000,192.000000,0.000000,0.000000,0.000000,0.000000,0.000000,0.000000,0.000000,0.000000,0.000000,1647157201.798260,0.000000
65.000000,20509.916009,15271.337661,14946.544462,14506.326855,3151.238340,15999.065757,20339.305143,15979.329166,-0.182000,0.974000,0.178000,192.000000,0.000000,0.000000,0.000000,0.000000,0.000000,0.000000,0.000000,0.000000,0.000000,1647157201.804939,0.000000
66.000000,20517.537954,15282.669995,14950.925404,14513.658227,3160.179038,16000.183344,20334.454815,15964.308794,-0.182000,0.974000,0.178000,192.000000,0.000000,0.000000,0.000000,0.000000,0.000000,0.000000,0.000000,0.000000,0.000000,1647157201.804944,0.000000
67.000000,20512.329997,15279.272530,14945.918613,14509.143175,3157.496829,15999.132812,20344.580155,15964.867588,-0.182000,0.974000,0.178000,192.000000,0.000000,0.000000,0.000000,0.000000,0.000000,0.000000,0.000000,0.000000,0.000000,1647157201.812880,0.000000
68.000000,20512.799384,15278.043184,14950.031334,14510.484279,3159.307320,16005.368949,20353.297335,15986.615835,-0.180000,0.978000,0.192000,192.000000,250.000000,96.000000,30.000000,144.000000,6.000000,0.000000,0.000000,0.000000,0.000000,1647157201.812884,0.000000
69.000000,20507.457317,15275.673899,14944.666915,14504.471660,3155.172247,15996.741175,20339.439254,15969.025012,-0.180000,0.978000,0.192000,192.000000,0.000000,0.000000,0.000000,0.000000,0.000000,0.000000,0.000000,0.000000,0.000000,1647157201.819981,0.000000
70.000000,20511.592390,15281.910036,14949.316078,14511.065425,3156.379242,16001.747966,20335.594754,15992.471992,-0.180000,0.978000,0.192000,192.000000,0.000000,0.000000,0.000000,0.000000,0.000000,0.000000,0.000000,0.000000,0.000000,1647157201.827178,0.000000
71.000000,20501.020014,15270.018908,14943.437570,14502.348244,3149.561959,15994.416594,20341.003876,15974.590597,-0.180000,0.978000,0.192000,192.000000,0.000000,0.000000,0.000000,0.000000,0.000000,0.000000,0.000000,0.000000,0.000000,1647157201.827183,0.000000
72.000000,20497.846067,15263.559254,14945.717447,14499.263704,3151.908893,15993.857800,20343.082588,15965.314623,-0.180000,0.978000,0.192000,192.000000,0.000000,0.000000,0.000000,0.000000,0.000000,0.000000,0.000000,0.000000,0.000000,1647157201.834564,0.000000
73.000000,20502.383471,15270.085963,14950.880700,14505.611599,3154.747564,16000.250399,20350.838643,15978.658614,-0.180000,0.978000,0.192000,192.000000,0.000000,0.000000,0.000000,0.000000,0.000000,0.000000,0.000000,0.000000,0.000000,1647157201.834568,0.000000
74.000000,20502.852857,15273.706946,14951.998288,14509.746672,3157.049794,16002.507925,20351.665658,15974.210617,-0.180000,0.978000,0.192000,192.000000,0.000000,0.000000,0.000000,0.000000,0.000000,0.000000,0.000000,0.000000,0.000000,1647157201.842532,0.000000
75.000000,20504.395128,15274.712774,14950.165445,14503.801108,3152.177114,15998.015225,20340.892117,15961.380716,-0.180000,0.978000,0.192000,192.000000,0.000000,0.000000,0.000000,0.000000,0.000000,0.000000,0.000000,0.000000,0.000000,1647157201.842536,0.000000
76.000000,20500.818849,15269.817742,14949.092561,14498.168468,3145.918625,15994.148373,20329.671541,15949.824864,-0.180000,0.978000,0.192000,192.000000,0.000000,0.000000,0.000000,0.000000,0.000000,0.000000,0.000000,0.000000,0.000000,1647157201.850534,0.000000
77.000000,20494.023918,15271.404716,14950.031334,14508.070291,3147.527951,16003.267885,20343.999010,15968.510922,-0.180000,0.978000,0.192000,192.000000,0.000000,0.000000,0.000000,0.000000,0.000000,0.000000,0.000000,0.000000,0.000000,1647157201.850538,0.000000
78.000000,20502.092898,15285.374556,14966.415163,14522.889498,3161.117811,16016.947152,20357.320649,15986.168800,-0.178000,0.950000,0.196000,192.000000,250.000000,112.000000,29.000000,176.000000,6.000000,32.000000,0.000000,0.000000,0.000000,1647157201.857159,0.000000
79.000000,20497.019052,15282.379422,14963.889416,14518.933239,3165.297588,16018.176498,20356.136007,15986.995815,-0.178000,0.950000,0.196000,192.000000,0.000000,0.000000,0.000000,0.000000,0.000000,0.000000,0.000000,0.000000,0.000000,1647157201.857163,0.000000
80.000000,20489.598273,15272.187027,14952.646488,14504.583419,3156.647462,16007.268847,20351.330382,15976.378736,-0.178000,0.950000,0.196000,192.000000,0.000000,0.000000,0.000000,0.000000,0.000000,0.000000,0.000000,0.000000,0.000000,1647157201.865184,0.000000
81.000000,20488.346575,15273.148152,14947.192663,14499.531925,3154.009957,16006.888867,20351.442141,15969.963785,-0.178000,0.950000,0.196000,192.000000,0.000000,0.000000,0.000000,0.000000,0.000000,0.000000,0.000000,0.000000,0.000000,1647157201.865188,0.000000
82.000000,20490.872322,15287.386213,14947.349125,14500.560105,3156.267483,16008.520545,20346.144777,15966.387506,-0.178000,0.950000,0.196000,192.000000,0.000000,0.000000,0.000000,0.000000,0.000000,0.000000,0.000000,0.000000,0.000000,1647157201.873208,0.000000
83.000000,20495.409727,15289.979016,14948.153788,14511.043073,3156.423945,16004.005492,20339.796882,15954.988117,-0.178000,0.950000,0.196000,192.000000,0.000000,0.000000,0.000000,0.000000,0.000000,0.000000,0.000000,0.000000,0.000000,1647157201.873212,0.000000
84.000000,20501.578808,15283.184085,14955.999250,14516.452195,3167.845686,16009.928704,20347.240013,15974.747059,-0.178000,0.950000,0.196000,192.000000,0.000000,0.000000,0.000000,0.000000,0.000000,0.000000,0.000000,0.000000,0.000000,1647157201.880521,0.000000
85.000000,20496.728479,15270.667108,14950.388962,14504.181088,3163.867076,15999.959826,20344.066065,15970.790800,-0.178000,0.950000,0.196000,192.000000,0.000000,0.000000,0.000000,0.000000,0.000000,0.000000,0.000000,0.000000,0.000000,1647157201.887281,0.000000
86.000000,20493.174552,15268.119010,14941.045933,14496.872067,3156.468648,15987.152277,20333.314876,15967.885073,-0.178000,0.950000,0.196000,192.000000,0.000000,0.000000,0.000000,0.000000,0.000000,0.000000,0.000000,0.000000,0.000000,1647157201.887298,0.000000
87.000000,20497.846067,15280.300710,14942.901128,14502.169431,3158.994396,15985.632358,20336.980562,15970.187303,-0.178000,0.950000,0.196000,192.000000,0.000000,0.000000,0.000000,0.000000,0.000000,0.000000,0.000000,0.000000,0.000000,1647157201.895275,0.000000
88.000000,20508.954884,15289.800202,14957.072134,14509.254934,3169.879695,15991.712033,20353.096170,15977.697489,-0.176000,0.934000,0.198000,192.000000,250.000000,128.000000,29.000000,48.000000,6.000000,48.000000,0.000000,0.000000,0.000000,1647157201.895291,0.000000
89.000000,20496.192038,15275.472733,14943.705790,14492.960512,3158.726175,15975.752887,20343.194347,15971.103724,-0.176000,0.934000,0.198000,192.000000,0.000000,0.000000,0.000000,0.000000,0.000000,0.000000,0.000000,0.000000,0.000000,1647157201.903293,0.000000
90.000000,20500.595331,15280.345414,14944.890433,14495.598018,3160.827239,15975.149390,20343.127292,15970.589634,-0.176000,0.934000,0.198000,192.000000,0.000000,0.000000,0.000000,0.000000,0.000000,0.000000,0.000000,0.000000,0.000000,1647157201.903309,0.000000
91.000000,20504.573942,15284.949873,14947.460884,14499.174297,3164.649387,15975.819942,20342.456739,15974.121210,-0.176000,0.934000,0.198000,192.000000,0.000000,0.000000,0.000000,0.000000,0.000000,0.000000,0.000000,0.000000,0.000000,1647157201.910362,0.000000
92.000000,20504.551590,15282.781754,14947.662049,14499.755442,3166.415175,15972.377774,20333.471338,15976.356384,-0.176000,0.934000,0.198000,192.000000,0.000000,0.000000,0.000000,0.000000,0.000000,0.000000,0.000000,0.000000,0.000000,1647157201.910379,0.000000
93.000000,20500.125945,15272.879931,14943.884604,14491.217076,3161.631901,15962.632413,20333.672504,15962.900634,-0.176000,0.934000,0.198000,192.000000,0.000000,0.000000,0.000000,0.000000,0.000000,0.000000,0.000000,0.000000,0.000000,1647157201.917828,0.000000
94.000000,20508.507849,15282.133553,14950.701886,14499.688387,3169.700881,15972.713050,20351.777417,15994.237780,-0.176000,0.934000,0.198000,192.000000,0.000000,0.000000,0.000000,0.000000,0.000000,0.000000,0.000000,0.000000,0.000000,1647157201.917845,0.000000
95.000000,20510.050119,15286.089812,14946.678572,14504.538715,3172.740718,15966.141637,20353.163225,15989.096879,-0.176000,0.934000,0.198000,192.000000,0.000000,0.000000,0.000000,0.000000,0.000000,0.000000,0.000000,0.000000,0.000000,1647157201.925926,0.000000
96.000000,20508.284331,15281.597111,14942.342334,14496.447384,3167.979797,15951.747114,20333.471338,15958.720858,-0.176000,0.934000,0.198000,192.000000,0.000000,0.000000,0.000000,0.000000,0.000000,0.000000,0.000000,0.000000,0.000000,1647157201.925942,0.000000
97.000000,20510.899485,15282.424126,14945.359820,14499.509573,3171.779593,15959.257300,20346.234184,15989.789783,-0.176000,0.934000,0.198000,192.000000,0.000000,0.000000,0.000000,0.000000,0.000000,0.000000,0.000000,0.000000,0.000000,1647157201.933943,0.000000
98.000000,20519.080224,15285.441611,14947.818511,14505.186916,3174.819431,15961.023088,20353.118521,16010.129870,-0.176000,0.934000,0.198000,192.000000,0.000000,0.000000,0.000000,0.000000,0.000000,0.000000,0.000000,0.000000,0.000000,1647157201.933961,0.000000
99.000000,20519.795480,15287.766193,14943.392866,14501.141250,3174.752375,15950.517768,20344.960135,15994.036614,-0.176000,0.938000,0.196000,192.000000,250.000000,128.000000,29.000000,80.000000,6.000000,32.000000,0.000000,0.000000,0.000000,1647157201.940032,0.000000
100.000000,20509.871305,15282.133553,14939.011924,14503.175259,3176.473460,15954.317564,20361.723943,16004.318417,-0.176000,0.938000,0.196000,192.000000,0.000000,0.000000,0.000000,0.000000,0.000000,0.000000,0.000000,0.000000,0.000000,1647157201.940048,0.000000
101.000000,20510.720672,15277.640853,14935.614459,14501.387119,3170.483192,15949.176663,20354.124350,15999.892771,-0.176000,0.938000,0.196000,192.000000,0.000000,0.000000,0.000000,0.000000,0.000000,0.000000,0.000000,0.000000,0.000000,1647157201.947436,0.000000
102.000000,20505.088032,15271.024736,14926.383189,14489.920675,3157.765050,15940.683000,20340.065103,15982.570169,-0.176000,0.938000,0.196000,192.000000,0.000000,0.000000,0.000000,0.000000,0.000000,0.000000,0.000000,0.000000,0.000000,1647157201.955605,0.000000
103.000000,20491.542875,15263.045164,14920.102348,14482.388137,3151.439506,15940.101855,20335.147719,15978.837428,-0.176000,0.938000,0.196000,192.000000,0.000000,0.000000,0.000000,0.000000,0.000000,0.000000,0.000000,0.000000,0.000000,1647157201.955621,0.000000
104.000000,20508.887828,15280.993614,14934.876851,14498.928428,3167.130431,15950.942451,20334.365408,15979.619739,-0.176000,0.938000,0.196000,192.000000,0.000000,0.000000,0.000000,0.000000,0.000000,0.000000,0.000000,0.000000,0.000000,1647157201.962627,0.000000
105.000000,20522.120061,15291.007196,14951.663012,14512.562992,3184.654198,15968.376812,20357.186539,15991.175591,-0.176000,0.938000,0.196000,192.000000,0.000000,0.000000,0.000000,0.000000,0.000000,0.000000,0.000000,0.000000,0.000000,1647157201.962643,0.000000
106.000000,20518.320265,15291.789507,14950.031334,14508.740843,3183.447204,15968.399163,20357.946498,16009.571077,-0.176000,0.938000,0.196000,192.000000,0.000000,0.000000,0.000000,0.000000,0.000000,0.000000,0.000000,0.000000,0.000000,1647157201.970140,0.000000
107.000000,20506.116212,15280.747745,14934.251003,14494.659244,3171.801945,15951.724762,20342.233222,16001.323283,-0.176000,0.938000,0.196000,192.000000,0.000000,0.000000,0.000000,0.000000,0.000000,0.000000,0.000000,0.000000,0.000000,1647157201.970157,0.000000
108.000000,20506.742061,15273.930463,14934.742741,14493.273436,3169.432660,15952.730590,20352.023286,16002.552629,-0.176000,0.938000,0.196000,192.000000,0.000000,0.000000,0.000000,0.000000,0.000000,0.000000,0.000000,0.000000,0.000000,1647157201.978191,0.000000
109.000000,20512.978198,15274.086925,14940.665953,14497.766137,3174.014768,15952.752942,20350.056332,15988.783954,-0.180000,0.946000,0.184000,192.000000,250.000000,96.000000,29.000000,144.000000,5.000000,192.000000,0.000000,0.000000,0.000000,1647157201.978208,0.000000
110.000000,20516.755643,15279.943082,14941.940003,14500.917733,3181.279085,15957.603271,20357.410056,15990.348576,-0.180000,0.946000,0.184000,192.000000,0.000000,0.000000,0.000000,0.000000,0.000000,0.000000,0.000000,0.000000,0.000000,1647157201.986129,0.000000
111.000000,20513.224067,15278.512571,14932.976953,14497.162640,3177.032253,15948.170835,20345.116597,15977.384565,-0.180000,0.946000,0.184000,192.000000,0.000000,0.000000,0.000000,0.000000,0.000000,0.000000,0.000000,0.000000,0.000000,1647157201.986146,0.000000
112.000000,20511.257113,15281.932388,14932.261697,14496.961474,3173.344216,15947.589689,20343.574326,15994.617760,-0.180000,0.946000,0.184000,192.000000,0.000000,0.000000,0.000000,0.000000,0.000000,0.000000,0.000000,0.000000,0.000000,1647157201.992734,0.000000
113.000000,20515.548648,15283.876989,14939.302497,14503.577590,3178.842745,15958.050306,20345.273059,15998.574018,-0.180000,0.946000,0.184000,192.000000,0.000000,0.000000,0.000000,0.000000,0.000000,0.000000,0.000000,0.000000,0.000000,1647157201.992750,0.000000
114.000000,20504.730404,15265.928539,14927.634886,14490.323006,3167.331596,15948.394352,20342.814367,15972.176608,-0.180000,0.946000,0.184000,192.000000,0.000000,0.000000,0.000000,0.000000,0.000000,0.000000,0.000000,0.000000,0.000000,1647157202.000796,0.000000
115.000000,20507.189096,15268.767210,14930.920593,14491.977035,3168.382128,15953.401143,20351.151568,15981.631396,-0.180000,0.946000,0.184000,192.000000,0.000000,0.000000,0.000000,0.000000,0.000000,0.000000,0.000000,0.000000,0.000000,1647157202.000814,0.000000
116.000000,20514.811041,15280.457172,14941.180043,14500.336587,3172.360739,15964.644070,20357.968850,16003.469050,-0.180000,0.946000,0.184000,192.000000,0.000000,0.000000,0.000000,0.000000,0.000000,0.000000,0.000000,0.000000,0.000000,1647157202.007769,0.000000
117.000000,20513.715805,15282.401774,14938.609593,14492.938160,3170.080861,15962.744172,20362.394495,15994.640111,-0.180000,0.946000,0.184000,192.000000,0.000000,0.000000,0.000000,0.000000,0.000000,0.000000,0.000000,0.000000,0.000000,1647157202.015783,0.000000
118.000000,20494.001567,15253.791541,14919.789424,14468.932387,3150.657195,15943.074637,20341.249745,15977.876303,-0.180000,0.946000,0.184000,192.000000,0.000000,0.000000,0.000000,0.000000,0.000000,0.000000,0.000000,0.000000,0.000000,1647157202.015799,0.000000
119.000000,20492.973386,15248.382419,14920.012941,14473.179218,3149.673718,15939.341896,20330.207983,15963.347669,-0.182000,0.952000,0.172000,192.000000,250.000000,80.000000,29.000000,192.000000,5.000000,96.000000,0.000000,0.000000,0.000000,1647157202.022429,0.000000
120.000000,20496.259093,15254.909129,14924.259773,14482.499895,3156.200428,15937.218480,20314.025320,15944.192224,-0.182000,0.952000,0.172000,192.000000,0.000000,0.000000,0.000000,0.000000,0.000000,0.000000,0.000000,0.000000,0.000000,1647157202.022445,0.000000
121.000000,20499.053061,15257.099599,14928.707770,14483.885704,3159.284968,15949.333125,20343.708437,15979.329166,-0.182000,0.952000,0.172000,192.000000,0.000000,0.000000,0.000000,0.000000,0.000000,0.000000,0.000000,0.000000,0.000000,1647157202.030283,0.000000
122.000000,20507.993759,15264.319213,14934.496872,14495.374500,3166.616340,15960.419591,20348.938745,16002.083242,-0.182000,0.952000,0.172000,192.000000,0.000000,0.000000,0.000000,0.000000,0.000000,0.000000,0.000000,0.000000,0.000000,1647157202.030301,0.000000
123.000000,20519.616666,15278.177295,14935.301535,14507.824422,3175.937018,15975.574073,20367.445990,16017.997684,-0.182000,0.952000,0.172000,192.000000,0.000000,0.000000,0.000000,0.000000,0.000000,0.000000,0.000000,0.000000,0.000000,1647157202.038382,0.000000
124.000000,20510.944189,15275.070402,14936.709694,14499.375462,3174.774727,15971.774277,20366.887196,16012.655617,-0.182000,0.952000,0.172000,192.000000,0.000000,0.000000,0.000000,0.000000,0.000000,0.000000,0.000000,0.000000,0.000000,1647157202.038397,0.000000
125.000000,20508.798421,15273.148152,14941.336506,14494.547486,3171.511373,15961.693640,20353.565556,15988.158105,-0.182000,0.952000,0.172000,192.000000,0.000000,0.000000,0.000000,0.000000,0.000000,0.000000,0.000000,0.000000,0.000000,1647157202.045489,0.000000
126.000000,20505.020977,15274.556312,14937.246136,14494.927465,3167.488059,15956.329221,20345.317763,15971.193131,-0.182000,0.952000,0.172000,192.000000,0.000000,0.000000,0.000000,0.000000,0.000000,0.000000,0.000000,0.000000,0.000000,1647157202.045505,0.000000
127.000000,20498.762488,15267.359050,14934.541575,14486.880837,3161.944826,15958.720858,20351.129216,16000.295103,-0.182000,0.952000,0.172000,192.000000,0.000000,0.000000,0.000000,0.000000,0.000000,0.000000,0.000000,0.000000,0.000000,1647157202.052824,0.000000
128.000000,20500.550628,15264.162751,14936.620287,14484.444497,3157.832105,15955.323393,20343.306106,15984.872399,-0.182000,0.952000,0.172000,192.000000,0.000000,0.000000,0.000000,0.000000,0.000000,0.000000,0.000000,0.000000,0.000000,1647157202.052839,0.000000
129.000000,20495.297968,15260.497065,14931.144110,14482.052861,3156.938035,15956.172759,20339.282792,15978.032765,-0.184000,0.964000,0.174000,192.000000,250.000000,64.000000,30.000000,32.000000,5.000000,112.000000,0.000000,0.000000,0.000000,1647157202.061052,0.000000
130.000000,20494.292139,15252.808065,14925.623229,14481.784640,3153.764087,15957.357402,20342.970829,15977.764544,-0.184000,0.964000,0.174000,192.000000,0.000000,0.000000,0.000000,0.000000,0.000000,0.000000,0.000000,0.000000,0.000000,1647157202.061068,0.000000
131.000000,20494.269788,15246.527224,14919.767072,14478.945968,3148.712593,15957.089181,20341.115635,15977.809248,-0.184000,0.964000,0.174000,192.000000,0.000000,0.000000,0.000000,0.000000,0.000000,0.000000,0.000000,0.000000,0.000000,1647157202.068064,0.000000
132.000000,20502.092898,15260.340602,14937.089674,14490.166544,3160.000224,15969.069716,20344.736617,15982.570169,-0.184000,0.964000,0.174000,192.000000,0.000000,0.000000,0.000000,0.000000,0.000000,0.000000,0.000000,0.000000,0.000000,1647157202.075213,0.000000
133.000000,20498.427212,15260.832341,14939.928346,14490.591227,3159.150858,15974.300024,20354.012591,15992.382585,-0.184000,0.964000,0.174000,192.000000,0.000000,0.000000,0.000000,0.000000,0.000000,0.000000,0.000000,0.000000,0.000000,1647157202.075229,0.000000
134.000000,20502.450526,15262.106390,14937.000267,14484.556256,3154.904026,15978.457448,20357.007725,16000.049233,-0.184000,0.964000,0.174000,192.000000,0.000000,0.000000,0.000000,0.000000,0.000000,0.000000,0.000000,0.000000,0.000000,1647157202.082718,0.000000
135.000000,20495.789706,15259.513588,14931.993476,14482.142267,3150.903064,15969.404992,20337.606411,15966.722782,-0.184000,0.964000,0.174000,192.000000,0.000000,0.000000,0.000000,0.000000,0.000000,0.000000,0.000000,0.000000,0.000000,1647157202.082733,0.000000
136.000000,20485.954939,15250.215262,14930.540613,14484.220980,3150.232512,15966.007527,20333.180765,15955.859835,-0.184000,0.964000,0.174000,192.000000,0.000000,0.000000,0.000000,0.000000,0.000000,0.000000,0.000000,0.000000,0.000000,1647157202.090527,0.000000
137.000000,20494.292139,15261.458190,14938.475482,14492.714643,3160.491962,15983.643053,20354.258460,15998.641074,-0.184000,0.964000,0.174000,192.000000,0.000000,0.000000,0.000000,0.000000,0.000000,0.000000,0.000000,0.000000,0.000000,1647157202.090543,0.000000
138.000000,20494.582712,15262.084039,14935.636811,14487.998425,3163.643558,15986.101745,20361.433370,15991.019129,-0.184000,0.964000,0.174000,192.000000,0.000000,0.000000,0.000000,0.000000,0.000000,0.000000,0.000000,0.000000,0.000000,1647157202.097846,0.000000
139.000000,20498.091936,15261.815818,14938.699000,14488.288997,3164.939960,15983.933626,20349.028152,15971.059021,-0.182000,0.956000,0.178000,192.000000,250.000000,80.000000,29.000000,224.000000,5.000000,144.000000,0.000000,0.000000,0.000000,1647157202.097864,0.000000
140.000000,20499.120116,15264.185102,14935.033314,14488.825439,3165.543457,15983.330129,20348.089379,15968.667384,-0.182000,0.956000,0.178000,192.000000,0.000000,0.000000,0.000000,0.000000,0.000000,0.000000,0.000000,0.000000,0.000000,1647157202.105271,0.000000
141.000000,20495.789706,15251.846940,14926.874927,14474.788544,3155.798096,15980.625568,20353.789074,15987.152277,-0.182000,0.956000,0.178000,192.000000,0.000000,0.000000,0.000000,0.000000,0.000000,0.000000,0.000000,0.000000,0.000000,1647157202.105287,0.000000
142.000000,20485.418497,15251.779884,14927.701941,14466.585453,3152.110058,15972.645995,20339.215736,15955.882186,-0.182000,0.956000,0.178000,192.000000,0.000000,0.000000,0.000000,0.000000,0.000000,0.000000,0.000000,0.000000,0.000000,1647157202.113159,0.000000
143.000000,20474.823770,15242.056875,14918.224802,14467.457171,3146.097439,15976.669309,20341.115635,15981.676100,-0.182000,0.956000,0.178000,192.000000,0.000000,0.000000,0.000000,0.000000,0.000000,0.000000,0.000000,0.000000,0.000000,1647157202.113176,0.000000
144.000000,20480.702279,15247.421294,14918.761244,14483.036337,3152.981776,15982.950149,20345.250707,15989.856838,-0.182000,0.956000,0.178000,192.000000,0.000000,0.000000,0.000000,0.000000,0.000000,0.000000,0.000000,0.000000,0.000000,1647157202.121323,0.000000
145.000000,20482.244549,15256.004364,14935.905032,14487.819611,3161.497791,15986.839352,20356.091303,15982.816038,-0.182000,0.956000,0.178000,192.000000,0.000000,0.000000,0.000000,0.000000,0.000000,0.000000,0.000000,0.000000,0.000000,1647157202.121340,0.000000
146.000000,20484.971462,15256.026716,14933.736912,14481.225846,3158.949692,15984.537123,20354.079646,15980.446754,-0.182000,0.956000,0.178000,192.000000,0.000000,0.000000,0.000000,0.000000,0.000000,0.000000,0.000000,0.000000,0.000000,1647157202.127618,0.000000
147.000000,20494.761526,15253.076285,14933.580450,14471.569892,3156.423945,15985.207675,20352.917356,15982.190190,-0.182000,0.956000,0.178000,192.000000,0.000000,0.000000,0.000000,0.000000,0.000000,0.000000,0.000000,0.000000,0.000000,1647157202.134920,0.000000
148.000000,20503.501058,15265.593262,14937.357895,14483.863352,3163.755317,15991.957902,20356.203062,15982.816038,-0.182000,0.956000,0.178000,192.000000,0.000000,0.000000,0.000000,0.000000,0.000000,0.000000,0.000000,0.000000,0.000000,1647157202.134936,0.000000
149.000000,20495.186209,15263.827475,14940.509491,14492.848753,3169.186791,15992.092012,20350.346905,15978.233931,-0.186000,0.952000,0.186000,192.000000,250.000000,48.000000,29.000000,192.000000,5.000000,208.000000,0.000000,0.000000,0.000000,1647157202.142967,0.000000
150.000000,20489.978253,15259.848864,14944.286936,14487.909018,3167.264541,15990.505039,20340.489786,15968.689736,-0.186000,0.952000,0.186000,192.000000,0.000000,0.000000,0.000000,0.000000,0.000000,0.000000,0.000000,0.000000,0.000000,1647157202.142984,0.000000
151.000000,20489.642976,15256.741972,14941.537671,14483.013986,3162.928303,15990.840315,20350.950402,15972.757753,-0.186000,0.952000,0.186000,192.000000,0.000000,0.000000,0.000000,0.000000,0.000000,0.000000,0.000000,0.000000,0.000000,1647157202.150941,0.000000
152.000000,20491.609930,15263.201626,14938.855462,14482.589302,3163.732965,15992.539047,20358.393533,15979.507980,-0.186000,0.952000,0.186000,192.000000,0.000000,0.000000,0.000000,0.000000,0.000000,0.000000,0.000000,0.000000,0.000000,1647157202.150957,0.000000
153.000000,20496.683776,15274.533960,14939.771883,14483.461020,3167.890390,15994.640111,20355.756027,15978.703317,-0.186000,0.952000,0.186000,192.000000,0.000000,0.000000,0.000000,0.000000,0.000000,0.000000,0.000000,0.000000,0.000000,1647157202.157583,0.000000
154.000000,20482.825694,15256.697268,14924.975029,14469.357070,3155.507523,15976.669309,20343.999010,15956.128056,-0.186000,0.952000,0.186000,192.000000,0.000000,0.000000,0.000000,0.000000,0.000000,0.000000,0.000000,0.000000,0.000000,1647157202.157599,0.000000
155.000000,20479.405878,15246.259003,14921.130529,14465.289052,3154.121715,15978.010413,20344.736617,15961.581881,-0.186000,0.952000,0.186000,192.000000,0.000000,0.000000,0.000000,0.000000,0.000000,0.000000,0.000000,0.000000,0.000000,1647157202.165612,0.000000
156.000000,20485.351442,15254.864425,14930.808834,14476.733145,3162.503619,15985.498248,20345.027190,15958.944375,-0.186000,0.952000,0.186000,192.000000,0.000000,0.000000,0.000000,0.000000,0.000000,0.000000,0.000000,0.000000,0.000000,1647157202.165628,0.000000
157.000000,20488.927721,15262.754591,14928.819529,14481.047032,3165.990492,15980.111477,20339.483957,15938.447826,-0.186000,0.952000,0.186000,192.000000,0.000000,0.000000,0.000000,0.000000,0.000000,0.000000,0.000000,0.000000,0.000000,1647157202.173621,0.000000
158.000000,20485.373793,15259.915919,14922.493985,14484.936236,3162.861247,15983.911274,20343.015533,15953.535253,-0.186000,0.952000,0.186000,192.000000,0.000000,0.000000,0.000000,0.000000,0.000000,0.000000,0.000000,0.000000,0.000000,1647157202.173637,0.000000
159.000000,20477.908311,15257.479579,14932.306401,14476.353166,3161.520143,15992.293178,20352.023286,15984.827695,-0.184000,0.946000,0.192000,192.000000,250.000000,64.000000,29.000000,144.000000,6.000000,0.000000,0.000000,0.000000,0.000000,1647157202.180178,0.000000
160.000000,20489.151238,15270.130667,14938.117854,14476.800201,3171.734890,16004.564286,20368.787094,15999.758661,-0.184000,0.946000,0.192000,192.000000,0.000000,0.000000,0.000000,0.000000,0.000000,0.000000,0.000000,0.000000,0.000000,1647157202.180194,0.000000
161.000000,20494.493305,15265.012117,14941.269450,14493.564009,3178.060434,16008.609952,20368.474170,15993.813097,-0.184000,0.946000,0.192000,192.000000,0.000000,0.000000,0.000000,0.000000,0.000000,0.000000,0.000000,0.000000,0.000000,1647157202.187225,0.000000
162.000000,20488.570093,15252.673954,14932.842843,14486.120878,3170.237323,15994.058966,20341.048579,15970.857855,-0.184000,0.946000,0.192000,192.000000,0.000000,0.000000,0.000000,0.000000,0.000000,0.000000,0.000000,0.000000,0.000000,1647157202.187241,0.000000
163.000000,20481.998680,15248.382419,14931.993476,14480.108259,3165.364643,15987.845181,20342.143815,15954.563433,-0.184000,0.946000,0.192000,192.000000,0.000000,0.000000,0.000000,0.000000,0.000000,0.000000,0.000000,0.000000,0.000000,1647157202.194991,0.000000
164.000000,20494.627415,15268.677803,14950.768942,14497.229695,3178.999207,16006.374777,20367.401286,15970.522579,-0.184000,0.946000,0.192000,192.000000,0.000000,0.000000,0.000000,0.000000,0.000000,0.000000,0.000000,0.000000,0.000000,1647157202.203221,0.000000
165.000000,20494.225084,15267.202588,14946.879738,14491.731166,3181.167326,16009.459318,20371.916338,15973.808285,-0.184000,0.946000,0.192000,192.000000,0.000000,0.000000,0.000000,0.000000,0.000000,0.000000,0.000000,0.000000,0.000000,1647157202.203237,0.000000
166.000000,20503.590465,15273.483428,14948.198491,14496.469736,3183.380149,16014.421405,20372.229263,15996.450603,-0.184000,0.946000,0.192000,192.000000,0.000000,0.000000,0.000000,0.000000,0.000000,0.000000,0.000000,0.000000,0.000000,1647157202.209917,0.000000
167.000000,20489.687680,15260.988803,14933.826319,14484.735070,3169.343253,15999.356329,20354.124350,15975.216445,-0.184000,0.946000,0.192000,192.000000,0.000000,0.000000,0.000000,0.000000,0.000000,0.000000,0.000000,0.000000,0.000000,1647157202.209933,0.000000
168.000000,20473.192093,15254.797370,14933.938078,14485.293863,3168.337425,15999.065757,20358.773513,15971.528408,-0.184000,0.946000,0.192000,192.000000,0.000000,0.000000,0.000000,0.000000,0.000000,0.000000,0.000000,0.000000,0.000000,1647157202.217868,0.000000
169.000000,20473.952052,15256.652565,14930.875889,14484.288035,3169.186791,16001.367986,20370.083495,15994.863629,-0.182000,0.944000,0.186000,192.000000,250.000000,80.000000,29.000000,128.000000,5.000000,208.000000,0.000000,0.000000,0.000000,1647157202.217886,0.000000
170.000000,20480.746982,15256.697268,14940.420084,14486.053823,3175.869963,15998.663425,20363.556786,15990.929722,-0.182000,0.944000,0.186000,192.000000,0.000000,0.000000,0.000000,0.000000,0.000000,0.000000,0.000000,0.000000,0.000000,1647157202.225895,0.000000
171.000000,20475.561377,15253.433913,14937.357895,14481.561122,3175.735852,15990.192114,20353.476149,15975.149390,-0.182000,0.944000,0.186000,192.000000,0.000000,0.000000,0.000000,0.000000,0.000000,0.000000,0.000000,0.000000,0.000000,1647157202.225912,0.000000
172.000000,20467.514749,15244.806140,14922.605744,14470.005270,3164.492925,15978.837428,20358.661754,15960.531349,-0.182000,0.944000,0.186000,192.000000,0.000000,0.000000,0.000000,0.000000,0.000000,0.000000,0.000000,0.000000,0.000000,1647157202.232992,0.000000
173.000000,20478.087125,15251.198739,14927.031389,14476.509628,3168.538590,15977.250454,20356.605393,15953.736419,-0.182000,0.944000,0.186000,192.000000,0.000000,0.000000,0.000000,0.000000,0.000000,0.000000,0.000000,0.000000,0.000000,1647157202.233009,0.000000
174.000000,20485.329090,15258.731277,14933.692209,14483.617483,3176.071128,15982.145486,20359.041734,15973.495361,-0.182000,0.944000,0.186000,192.000000,0.000000,0.000000,0.000000,0.000000,0.000000,0.000000,0.000000,0.000000,0.000000,1647157202.240541,0.000000
175.000000,20490.648805,15266.107353,14939.749532,14489.741861,3180.764995,15985.520600,20362.282737,15972.914216,-0.182000,0.944000,0.186000,192.000000,0.000000,0.000000,0.000000,0.000000,0.000000,0.000000,0.000000,0.000000,0.000000,1647157202.240556,0.000000
176.000000,20496.326148,15273.259911,14948.600823,14500.023663,3186.151765,15998.663425,20380.521760,15990.728556,-0.182000,0.944000,0.186000,192.000000,0.000000,0.000000,0.000000,0.000000,0.000000,0.000000,0.000000,0.000000,0.000000,1647157202.248522,0.000000
177.000000,20484.345613,15263.425143,14932.485215,14486.456154,3174.752375,15985.610007,20367.423638,15979.731498,-0.182000,0.944000,0.186000,192.000000,0.000000,0.000000,0.000000,0.000000,0.000000,0.000000,0.000000,0.000000,0.000000,1647157202.248539,0.000000
178.000000,20491.229950,15275.271568,14926.137319,14488.378404,3174.327692,15982.748983,20365.814312,15968.555626,-0.182000,0.944000,0.186000,192.000000,0.000000,0.000000,0.000000,0.000000,0.000000,0.000000,0.000000,0.000000,0.000000,1647157202.255566,0.000000
179.000000,20477.841255,15252.271623,14920.705845,14475.526151,3163.509448,15967.438038,20354.481978,15962.453599,-0.172000,0.950000,0.192000,192.000000,250.000000,160.000000,29.000000,176.000000,6.000000,0.000000,0.000000,0.000000,0.000000,1647157202.262877,0.000000
180.000000,20491.140543,15265.481504,14936.106197,14487.819611,3171.801945,15970.187303,20355.599565,15981.452582,-0.172000,0.950000,0.192000,192.000000,0.000000,0.000000,0.000000,0.000000,0.000000,0.000000,0.000000,0.000000,0.000000,1647157202.262894,0.000000
181.000000,20494.225084,15265.637966,14932.507567,14487.104355,3171.824297,15966.320451,20352.157396,15974.411783,-0.172000,0.950000,0.192000,192.000000,0.000000,0.000000,0.000000,0.000000,0.000000,0.000000,0.000000,0.000000,0.000000,1647157202.270138,0.000000
182.000000,20481.328128,15244.068532,14925.869098,14479.102430,3163.688262,15969.740268,20359.913452,15972.757753,-0.172000,0.950000,0.192000,192.000000,0.000000,0.000000,0.000000,0.000000,0.000000,0.000000,0.000000,0.000000,0.000000,1647157202.270154,0.000000
183.000000,20474.220273,15236.044256,14923.321000,14475.973186,3161.944826,15966.856893,20344.580155,15964.331146,-0.172000,0.950000,0.192000,192.000000,0.000000,0.000000,0.000000,0.000000,0.000000,0.000000,0.000000,0.000000,0.000000,1647157202.278181,0.000000
184.000000,20476.991889,15240.045218,14927.724293,14480.778811,3166.795154,15971.282538,20351.106864,15957.491512,-0.172000,0.950000,0.192000,192.000000,0.000000,0.000000,0.000000,0.000000,0.000000,0.000000,0.000000,0.000000,0.000000,1647157202.278198,0.000000
185.000000,20478.131828,15243.733256,14930.227689,14479.750631,3170.885524,15978.993890,20365.970774,15973.450658,-0.172000,0.950000,0.192000,192.000000,0.000000,0.000000,0.000000,0.000000,0.000000,0.000000,0.000000,0.000000,0.000000,1647157202.286188,0.000000
186.000000,20476.522502,15238.324134,14924.326828,14470.809933,3163.598855,15970.969614,20351.933879,15966.812189,-0.172000,0.950000,0.192000,192.000000,0.000000,0.000000,0.000000,0.000000,0.000000,0.000000,0.000000,0.000000,0.000000,1647157202.286204,0.000000
187.000000,20468.565281,15232.110349,14915.341427,14461.936290,3153.205294,15967.259224,20353.990239,15959.927852,-0.172000,0.950000,0.192000,192.000000,0.000000,0.000000,0.000000,0.000000,0.000000,0.000000,0.000000,0.000000,0.000000,1647157202.292722,0.000000
188.000000,20473.437962,15240.402846,14918.493023,14466.898378,3157.541532,15971.930739,20359.488769,15966.208692,-0.172000,0.950000,0.192000,192.000000,0.000000,0.000000,0.000000,0.000000,0.000000,0.000000,0.000000,0.000000,0.000000,1647157202.292739,0.000000
189.000000,20483.451543,15251.511663,14923.231593,14471.234616,3166.526933,15973.517713,20357.901795,15969.449695,-0.174000,0.944000,0.186000,192.000000,250.000000,144.000000,29.000000,128.000000,5.000000,208.000000,0.000000,0.000000,0.000000,1647157202.300600,0.000000
190.000000,20479.160008,15247.734219,14921.242287,14467.211302,3164.716442,15971.461352,20355.331344,15967.773314,-0.174000,0.944000,0.186000,192.000000,0.000000,0.000000,0.000000,0.000000,0.000000,0.000000,0.000000,0.000000,0.000000,1647157202.300616,0.000000
191.000000,20473.840293,15241.341620,14919.185927,14469.267663,3161.944826,15968.399163,20356.091303,15963.504131,-0.174000,0.944000,0.186000,192.000000,0.000000,0.000000,0.000000,0.000000,0.000000,0.000000,0.000000,0.000000,0.000000,1647157202.308743,0.000000
192.000000,20473.996755,15239.329963,14920.214107,14469.804105,3162.570675,15964.711125,20351.129216,15947.567337,-0.174000,0.944000,0.186000,192.000000,0.000000,0.000000,0.000000,0.000000,0.000000,0.000000,0.000000,0.000000,0.000000,1647157202.308759,0.000000
193.000000,20478.265939,15242.123931,14919.498851,14466.920730,3164.090593,15959.480817,20341.003876,15944.147521,-0.174000,0.944000,0.186000,192.000000,0.000000,0.000000,0.000000,0.000000,0.000000,0.000000,0.000000,0.000000,0.000000,1647157202.314907,0.000000
194.000000,20462.642069,15230.769245,14907.361854,14456.191892,3155.529875,15954.809303,20337.919335,15965.024050,-0.174000,0.944000,0.186000,192.000000,0.000000,0.000000,0.000000,0.000000,0.000000,0.000000,0.000000,0.000000,0.000000,1647157202.322416,0.000000
195.000000,20469.481703,15239.888756,14915.833165,14462.249215,3161.564846,15969.114419,20363.780303,15980.692623,-0.174000,0.944000,0.186000,192.000000,0.000000,0.000000,0.000000,0.000000,0.000000,0.000000,0.000000,0.000000,0.000000,1647157202.322432,0.000000
196.000000,20469.191130,15238.100617,14910.558153,14456.840093,3155.798096,15966.812189,20364.204987,15975.194094,-0.174000,0.944000,0.186000,192.000000,0.000000,0.000000,0.000000,0.000000,0.000000,0.000000,0.000000,0.000000,0.000000,1647157202.330436,0.000000
197.000000,20475.896654,15244.180291,14916.995456,14463.210340,3160.536666,15967.974480,20361.165149,15967.370983,-0.174000,0.944000,0.186000,192.000000,0.000000,0.000000,0.000000,0.000000,0.000000,0.000000,0.000000,0.000000,0.000000,1647157202.330452,0.000000
198.000000,20470.241662,15235.060779,14908.345331,14464.193817,3160.603721,15958.430285,20347.262364,15954.138750,-0.174000,0.944000,0.186000,192.000000,0.000000,0.000000,0.000000,0.000000,0.000000,0.000000,0.000000,0.000000,0.000000,1647157202.338493,0.000000
199.000000,20467.738267,15230.165747,14915.609648,14459.298785,3159.463782,15960.553701,20348.044675,15967.505094,-0.174000,0.944000,0.186000,192.000000,0.000000,0.000000,0.000000,0.000000,0.000000,0.000000,0.000000,0.000000,0.000000,1647157202.338509,0.000000
200.000000,20470.062848,15237.050085,14915.520241,14461.310442,3159.933169,15960.419591,20344.289582,15960.821922,-0.184000,0.950000,0.182000,192.000000,250.000000,64.000000,29.000000,176.000000,5.000000,176.000000,0.000000,0.000000,0.000000,1647157202.345013,0.000000
201.000000,20483.004508,15252.964527,14916.794290,14467.546578,3162.637730,15962.744172,20344.066065,15951.791817,-0.184000,0.950000,0.182000,192.000000,0.000000,0.000000,0.000000,0.000000,0.000000,0.000000,0.000000,0.000000,0.000000,1647157202.345030,0.000000
202.000000,20475.293157,15241.341620,14918.291857,14462.830360,3164.358814,15962.811227,20338.858108,15963.973518,-0.184000,0.950000,0.182000,192.000000,0.000000,0.000000,0.000000,0.000000,0.000000,0.000000,0.000000,0.000000,0.000000,1647157202.352833,0.000000
203.000000,20468.922909,15234.457282,14918.940058,14460.192854,3165.275236,15970.723745,20364.204987,15985.632358,-0.184000,0.950000,0.182000,192.000000,0.000000,0.000000,0.000000,0.000000,0.000000,0.000000,0.000000,0.000000,0.000000,1647157202.352849,0.000000
204.000000,20464.564319,15229.785768,14909.529973,14456.594224,3158.435602,15962.922986,20363.757952,15967.147466,-0.184000,0.950000,0.182000,192.000000,0.000000,0.000000,0.000000,0.000000,0.000000,0.000000,0.000000,0.000000,0.000000,1647157202.360962,0.000000
205.000000,20465.547796,15227.617649,14904.612589,14457.622404,3155.306358,15954.362268,20337.047617,15944.169872,-0.184000,0.950000,0.182000,192.000000,0.000000,0.000000,0.000000,0.000000,0.000000,0.000000,0.000000,0.000000,0.000000,1647157202.360974,0.000000
206.000000,20470.576938,15231.529204,14914.804985,14460.885759,3156.356890,15960.397239,20337.986390,15963.459428,-0.184000,0.950000,0.182000,192.000000,0.000000,0.000000,0.000000,0.000000,0.000000,0.000000,0.000000,0.000000,0.000000,1647157202.368208,0.000000
207.000000,20474.399087,15241.676896,14918.604781,14465.132590,3163.218875,15970.813152,20357.924146,15992.471992,-0.184000,0.950000,0.182000,192.000000,0.000000,0.000000,0.000000,0.000000,0.000000,0.000000,0.000000,0.000000,0.000000,1647157202.368224,0.000000
208.000000,20473.169741,15240.000515,14910.669912,14456.571872,3160.916646,15963.168855,20348.223489,15960.397239,-0.184000,0.950000,0.182000,192.000000,0.000000,0.000000,0.000000,0.000000,0.000000,0.000000,0.000000,0.000000,0.000000,1647157202.374687,0.000000
209.000000,20467.492398,15227.260021,14902.042139,14452.548558,3158.927340,15962.811227,20344.803672,15951.858872,-0.184000,0.950000,0.182000,192.000000,0.000000,0.000000,0.000000,0.000000,0.000000,0.000000,0.000000,0.000000,0.000000,1647157202.382804,0.000000
210.000000,20463.022049,15226.835338,14906.132508,14464.238520,3161.296625,15969.561454,20349.005800,15981.854913,-0.190000,0.950000,0.184000,192.000000,250.000000,16.000000,29.000000,176.000000,5.000000,192.000000,0.000000,0.000000,0.000000,1647157202.382820,0.000000
211.000000,20460.250433,15222.722617,14909.194697,14461.355145,3160.402556,15964.912291,20344.311934,15970.679041,-0.190000,0.950000,0.184000,192.000000,0.000000,0.000000,0.000000,0.000000,0.000000,0.000000,0.000000,0.000000,0.000000,1647157202.391284,0.000000
212.000000,20461.435075,15221.493271,14907.563020,14449.240500,3155.574579,15962.185378,20340.780358,15965.135809,-0.190000,0.950000,0.184000,192.000000,0.000000,0.000000,0.000000,0.000000,0.000000,0.000000,0.000000,0.000000,0.000000,1647157202.391299,0.000000
213.000000,20467.470046,15229.785768,14900.969255,14452.928537,3157.273311,15960.956032,20340.713303,15963.593538,-0.190000,0.950000,0.184000,192.000000,0.000000,0.000000,0.000000,0.000000,0.000000,0.000000,0.000000,0.000000,0.000000,1647157202.397497,0.000000
214.000000,20468.699392,15233.674971,14905.461956,14455.744857,3158.815582,15961.581881,20345.407170,15958.296175,-0.190000,0.950000,0.184000,192.000000,0.000000,0.000000,0.000000,0.000000,0.000000,0.000000,0.000000,0.000000,0.000000,1647157202.397514,0.000000
215.000000,20460.585709,15232.982067,14906.221915,14446.915918,3158.033271,15968.801495,20354.571385,15982.771335,-0.190000,0.950000,0.184000,192.000000,0.000000,0.000000,0.000000,0.000000,0.000000,0.000000,0.000000,0.000000,0.000000,1647157202.405036,0.000000
216.000000,20456.808264,15234.345524,14902.220953,14456.661279,3160.380204,15963.861759,20343.574326,15971.707221,-0.190000,0.950000,0.184000,192.000000,0.000000,0.000000,0.000000,0.000000,0.000000,0.000000,0.000000,0.000000,0.000000,1647157202.405047,0.000000
217.000000,20460.473950,15233.362047,14905.350197,14461.668070,3162.570675,15961.961861,20338.947515,15965.314623,-0.190000,0.950000,0.184000,192.000000,0.000000,0.000000,0.000000,0.000000,0.000000,0.000000,0.000000,0.000000,0.000000,1647157202.413140,0.000000
218.000000,20462.105627,15230.679838,14913.732101,14458.605881,3165.699919,15967.706259,20348.312896,15974.054155,-0.190000,0.950000,0.184000,192.000000,0.000000,0.000000,0.000000,0.000000,0.000000,0.000000,0.000000,0.000000,0.000000,1647157202.413156,0.000000
219.000000,20464.541967,15230.165747,14914.425005,14460.326965,3166.616340,15973.204788,20353.587908,15981.586693,-0.190000,0.950000,0.184000,192.000000,0.000000,0.000000,0.000000,0.000000,0.000000,0.000000,0.000000,0.000000,0.000000,1647157202.420238,0.000000
220.000000,20467.738267,15235.194890,14916.324904,14463.277395,3170.282027,15977.339861,20354.146702,15984.693585,-0.196000,0.948000,0.180000,192.000000,249.000000,224.000000,29.000000,160.000000,5.000000,160.000000,0.000000,0.000000,0.000000,1647157202.420255,0.000000
221.000000,20468.252357,15238.145320,14913.150956,14463.746782,3169.879695,15972.914216,20343.239050,15977.496323,-0.196000,0.948000,0.180000,192.000000,0.000000,0.000000,0.000000,0.000000,0.000000,0.000000,0.000000,0.000000,0.000000,1647157202.427894,0.000000
222.000000,20459.021087,15229.383436,14900.924552,14450.156921,3158.703823,15957.938547,20332.912544,15950.584823,-0.196000,0.948000,0.180000,192.000000,0.000000,0.000000,0.000000,0.000000,0.000000,0.000000,0.000000,0.000000,0.000000,1647157202.427910,0.000000
223.000000,20456.897671,15229.919878,14903.942037,14445.910090,3160.894294,15965.202864,20355.599565,15985.051213,-0.196000,0.948000,0.180000,192.000000,0.000000,0.000000,0.000000,0.000000,0.000000,0.000000,0.000000,0.000000,0.000000,1647157202.434668,0.000000
224.000000,20458.082313,15229.092864,14901.326883,14452.705020,3163.017710,15964.867588,20349.497539,15986.481725,-0.196000,0.948000,0.180000,192.000000,0.000000,0.000000,0.000000,0.000000,0.000000,0.000000,0.000000,0.000000,0.000000,1647157202.434677,0.000000
225.000000,20458.708162,15224.108425,14897.057700,14443.898433,3158.770878,15960.844274,20343.104940,15981.206713,-0.196000,0.948000,0.180000,192.000000,0.000000,0.000000,0.000000,0.000000,0.000000,0.000000,0.000000,0.000000,0.000000,1647157202.442756,0.000000
226.000000,20459.244604,15226.187137,14902.645636,14455.454285,3164.358814,15971.729573,20355.666620,16001.300931,-0.196000,0.948000,0.180000,192.000000,0.000000,0.000000,0.000000,0.000000,0.000000,0.000000,0.000000,0.000000,0.000000,1647157202.450136,0.000000
227.000000,20463.670249,15231.149224,14901.081014,14464.506741,3166.035195,15971.863684,20345.541280,15989.230989,-0.196000,0.948000,0.180000,192.000000,0.000000,0.000000,0.000000,0.000000,0.000000,0.000000,0.000000,0.000000,0.000000,1647157202.450152,0.000000
228.000000,20451.913232,15221.448567,14886.284159,14449.575776,3151.551265,15956.530387,20329.157451,15976.602254,-0.196000,0.948000,0.180000,192.000000,0.000000,0.000000,0.000000,0.000000,0.000000,0.000000,0.000000,0.000000,0.000000,1647157202.457631,0.000000
229.000000,20455.042476,15225.315419,14903.137374,14454.739029,3161.520143,15964.487608,20342.903774,15973.987099,-0.196000,0.948000,0.180000,192.000000,0.000000,0.000000,0.000000,0.000000,0.000000,0.000000,0.000000,0.000000,0.000000,1647157202.457647,0.000000
230.000000,20446.302944,15214.117195,14900.142241,14445.284241,3158.703823,15964.085277,20350.212795,15969.807323,-0.202000,0.942000,0.182000,192.000000,249.000000,176.000000,29.000000,112.000000,5.000000,176.000000,0.000000,0.000000,0.000000,1647157202.465404,0.000000
231.000000,20451.399142,15223.706093,14902.913857,14454.381401,3160.961349,15975.104687,20358.728809,15991.019129,-0.202000,0.942000,0.182000,192.000000,0.000000,0.000000,0.000000,0.000000,0.000000,0.000000,0.000000,0.000000,0.000000,1647157202.465420,0.000000
232.000000,20454.886014,15231.640963,14902.176249,14455.923671,3160.894294,15973.361251,20352.984411,15972.735402,-0.202000,0.942000,0.182000,192.000000,0.000000,0.000000,0.000000,0.000000,0.000000,0.000000,0.000000,0.000000,0.000000,1647157202.473591,0.000000
233.000000,20453.299040,15231.573907,14896.744775,14453.889662,3160.514314,15972.198960,20341.160338,15988.247512,-0.202000,0.942000,0.182000,192.000000,0.000000,0.000000,0.000000,0.000000,0.000000,0.000000,0.000000,0.000000,0.000000,1647157202.473607,0.000000
234.000000,20438.099854,15214.430119,14884.943054,14438.578718,3148.556131,15969.226178,20341.003876,15997.322321,-0.202000,0.942000,0.182000,192.000000,0.000000,0.000000,0.000000,0.000000,0.000000,0.000000,0.000000,0.000000,0.000000,1647157202.480184,0.000000
235.000000,20436.624639,15213.916029,14886.440621,14438.645773,3145.851570,15971.461352,20346.278888,15986.995815,-0.202000,0.942000,0.182000,192.000000,0.000000,0.000000,0.000000,0.000000,0.000000,0.000000,0.000000,0.000000,0.000000,1647157202.480201,0.000000
236.000000,20444.335990,15218.185212,14897.527086,14441.283279,3149.897236,15971.416649,20335.795919,15975.216445,-0.202000,0.942000,0.182000,192.000000,0.000000,0.000000,0.000000,0.000000,0.000000,0.000000,0.000000,0.000000,0.000000,1647157202.488254,0.000000
237.000000,20437.339894,15215.905334,14886.328862,14434.577755,3146.656233,15969.494399,20344.624858,15976.579902,-0.202000,0.942000,0.182000,192.000000,0.000000,0.000000,0.000000,0.000000,0.000000,0.000000,0.000000,0.000000,0.000000,1647157202.488270,0.000000
238.000000,20446.973496,15222.364989,14892.296778,14442.266755,3153.786439,15975.596425,20344.736617,15985.945283,-0.202000,0.942000,0.182000,192.000000,0.000000,0.000000,0.000000,0.000000,0.000000,0.000000,0.000000,0.000000,0.000000,1647157202.496316,0.000000
239.000000,20466.128941,15235.261945,14910.155822,14463.232692,3170.080861,15988.783954,20359.175844,15996.182382,-0.202000,0.942000,0.182000,192.000000,0.000000,0.000000,0.000000,0.000000,0.000000,0.000000,0.000000,0.000000,0.000000,1647157202.496333,0.000000
240.000000,20443.598383,15214.921858,14893.392014,14444.233709,3155.015785,15975.149390,20352.783245,15985.811172,-0.206000,0.944000,0.186000,192.000000,249.000000,144.000000,29.000000,128.000000,5.000000,208.000000,0.000000,0.000000,0.000000,1647157202.503102,0.000000
241.000000,20441.922002,15222.141471,14895.537781,14452.660317,3156.446297,15982.860742,20355.756027,16000.004530,-0.206000,0.944000,0.186000,192.000000,0.000000,0.000000,0.000000,0.000000,0.000000,0.000000,0.000000,0.000000,0.000000,1647157202.509862,0.000000
242.000000,20452.516729,15235.239593,14908.255924,14464.953776,3165.409346,15993.209600,20358.170016,16001.747966,-0.206000,0.944000,0.186000,192.000000,0.000000,0.000000,0.000000,0.000000,0.000000,0.000000,0.000000,0.000000,0.000000,1647157202.509873,0.000000
243.000000,20457.903499,15236.468939,14923.879793,14467.256006,3171.936056,15993.366062,20350.436312,15984.179495,-0.206000,0.944000,0.186000,192.000000,0.000000,0.000000,0.000000,0.000000,0.000000,0.000000,0.000000,0.000000,0.000000,1647157202.517888,0.000000
244.000000,20445.565336,15221.023884,14900.924552,14448.726410,3156.043965,15977.608082,20338.165204,15979.686794,-0.206000,0.944000,0.186000,192.000000,0.000000,0.000000,0.000000,0.000000,0.000000,0.000000,0.000000,0.000000,0.000000,1647157202.517904,0.000000
245.000000,20436.401121,15217.648771,14892.654406,14446.133607,3149.204332,15972.511884,20332.063178,15985.654710,-0.206000,0.944000,0.186000,192.000000,0.000000,0.000000,0.000000,0.000000,0.000000,0.000000,0.000000,0.000000,0.000000,1647157202.525923,0.000000
246.000000,20444.939488,15238.145320,14902.444470,14460.997517,3160.626073,15980.290291,20334.477166,15983.620701,-0.206000,0.944000,0.186000,192.000000,0.000000,0.000000,0.000000,0.000000,0.000000,0.000000,0.000000,0.000000,0.000000,1647157202.525940,0.000000
247.000000,20456.584746,15239.195852,14914.179136,14466.518398,3164.716442,15994.707167,20347.351771,15994.483649,-0.206000,0.944000,0.186000,192.000000,0.000000,0.000000,0.000000,0.000000,0.000000,0.000000,0.000000,0.000000,0.000000,1647157202.532502,0.000000
248.000000,20447.465235,15219.481614,14906.467784,14451.229805,3157.139201,15990.728556,20349.989277,15989.230989,-0.206000,0.944000,0.186000,192.000000,0.000000,0.000000,0.000000,0.000000,0.000000,0.000000,0.000000,0.000000,0.000000,1647157202.532518,0.000000
249.000000,20443.911307,15210.697378,14906.557191,14441.149168,3154.769916,15981.787858,20343.239050,15980.111477,-0.206000,0.944000,0.186000,192.000000,0.000000,0.000000,0.000000,0.000000,0.000000,0.000000,0.000000,0.000000,0.000000,1647157202.540523,0.000000
250.000000,20428.823880,15194.894695,14891.045081,14426.575831,3140.956538,15964.353498,20317.758062,15949.802512,-0.202000,0.934000,0.192000,192.000000,249.000000,176.000000,29.000000,48.000000,6.000000,0.000000,0.000000,0.000000,0.000000,1647157202.540539,0.000000
251.000000,20431.908421,15205.467070,14888.631092,14433.504872,3143.079954,15970.388469,20326.788166,15962.341841,-0.202000,0.934000,0.192000,192.000000,0.000000,0.000000,0.000000,0.000000,0.000000,0.000000,0.000000,0.000000,0.000000,1647157202.548524,0.000000
252.000000,20434.612982,15209.110404,14893.593179,14439.584546,3149.226683,15973.316547,20331.772605,15953.512901,-0.202000,0.934000,0.192000,192.000000,0.000000,0.000000,0.000000,0.000000,0.000000,0.000000,0.000000,0.000000,0.000000,1647157202.548540,0.000000
253.000000,20408.036757,15173.906407,14873.096630,14407.912124,3125.846759,15949.623698,20307.766832,15938.894861,-0.202000,0.934000,0.192000,192.000000,0.000000,0.000000,0.000000,0.000000,0.000000,0.000000,0.000000,0.000000,0.000000,1647157202.555724,0.000000
254.000000,20409.511973,15176.409802,14870.257958,14407.442738,3125.422075,15951.635355,20308.705605,15954.250509,-0.202000,0.934000,0.192000,192.000000,0.000000,0.000000,0.000000,0.000000,0.000000,0.000000,0.000000,0.000000,0.000000,1647157202.555740,0.000000
255.000000,20435.887031,15208.864535,14897.392976,14440.255098,3153.831143,15979.999719,20329.157451,15987.375794,-0.202000,0.934000,0.192000,192.000000,0.000000,0.000000,0.000000,0.000000,0.000000,0.000000,0.000000,0.000000,0.000000,1647157202.562180,0.000000
0.000000,20450.460368,15222.163823,14910.133470,14453.107351,3165.632864,15991.823791,20348.067027,15988.538085,-0.202000,0.934000,0.192000,192.000000,0.000000,0.000000,0.000000,0.000000,0.000000,0.000000,0.000000,0.000000,0.000000,1647157202.570168,0.000000
1.000000,20437.317543,15205.802346,14893.995511,14432.968430,3147.036212,15974.210617,20335.192422,15969.896730,-0.202000,0.934000,0.192000,192.000000,0.000000,0.000000,0.000000,0.000000,0.000000,0.000000,0.000000,0.000000,0.000000,1647157202.570185,0.000000
2.000000,20426.946333,15196.436965,14877.790496,14424.877098,3135.323898,15963.034745,20328.330437,15973.428306,-0.202000,0.934000,0.192000,192.000000,0.000000,0.000000,0.000000,0.000000,0.000000,0.000000,0.000000,0.000000,0.000000,1647157202.578225,0.000000
3.000000,20434.814147,15202.740157,14887.289987,14437.908165,3144.801038,15973.875341,20335.818271,15980.826733,-0.202000,0.934000,0.192000,192.000000,0.000000,0.000000,0.000000,0.000000,0.000000,0.000000,0.000000,0.000000,0.000000,1647157202.578242,0.000000
4.000000,20437.652819,15205.422366,14891.670929,14440.880947,3149.651366,15978.502152,20343.753140,15967.527445,-0.192000,0.942000,0.196000,192.000000,250.000000,0.000000,29.000000,112.000000,6.000000,32.000000,0.000000,0.000000,0.000000,1647157202.585393,0.000000
5.000000,20431.439034,15199.096823,14893.257903,14431.135587,3150.232512,15967.415687,20336.377065,15960.285480,-0.192000,0.942000,0.196000,192.000000,0.000000,0.000000,0.000000,0.000000,0.000000,0.000000,0.000000,0.000000,0.000000,1647157202.585410,0.000000
6.000000,20430.299095,15197.599256,14884.451316,14428.341619,3143.348174,15963.593538,20334.745387,15981.519637,-0.192000,0.942000,0.196000,192.000000,0.000000,0.000000,0.000000,0.000000,0.000000,0.000000,0.000000,0.000000,0.000000,1647157202.592784,0.000000
7.000000,20442.257278,15205.914105,14893.593179,14439.852767,3151.573616,15975.328204,20348.648172,15994.774222,-0.192000,0.942000,0.196000,192.000000,0.000000,0.000000,0.000000,0.000000,0.000000,0.000000,0.000000,0.000000,0.000000,1647157202.592801,0.000000
8.000000,20431.707255,15197.308683,14887.200581,14432.968430,3145.829218,15966.633375,20338.075797,15971.461352,-0.192000,0.942000,0.196000,192.000000,0.000000,0.000000,0.000000,0.000000,0.000000,0.000000,0.000000,0.000000,0.000000,1647157202.600821,0.000000
9.000000,20438.345723,15206.919933,14894.464897,14439.025752,3150.903064,15977.384565,20350.659829,15992.963730,-0.192000,0.942000,0.196000,192.000000,0.000000,0.000000,0.000000,0.000000,0.000000,0.000000,0.000000,0.000000,0.000000,1647157202.600837,0.000000
10.000000,20446.571165,15213.983084,14895.515429,14443.697267,3155.418117,15978.300986,20347.485882,15992.851972,-0.192000,0.942000,0.196000,192.000000,0.000000,0.000000,0.000000,0.000000,0.000000,0.000000,0.000000,0.000000,0.000000,1647157202.608809,0.000000
11.000000,20427.952162,15199.677968,14883.870171,14436.187081,3145.583349,15970.455524,20343.306106,15979.016242,-0.192000,0.942000,0.196000,192.000000,0.000000,0.000000,0.000000,0.000000,0.000000,0.000000,0.000000,0.000000,0.000000,1647157202.608826,0.000000
12.000000,20430.321447,15208.573962,14892.520296,14441.037409,3154.032308,15978.345690,20350.995106,15992.024957,-0.192000,0.942000,0.196000,192.000000,0.000000,0.000000,0.000000,0.000000,0.000000,0.000000,0.000000,0.000000,0.000000,1647157202.615392,0.000000
13.000000,20444.917136,15223.728445,14909.619380,14459.075267,3170.840820,15992.427289,20358.125312,15996.607065,-0.192000,0.942000,0.196000,192.000000,0.000000,0.000000,0.000000,0.000000,0.000000,0.000000,0.000000,0.000000,0.000000,1647157202.615408,0.000000
14.000000,20427.102795,15195.520544,14882.774935,14434.778921,3149.137276,15970.410820,20334.946553,15974.702355,-0.190000,0.940000,0.188000,192.000000,250.000000,16.000000,29.000000,96.000000,5.000000,224.000000,0.000000,0.000000,0.000000,1647157202.622391,0.000000
15.000000,20426.409891,15188.703261,14877.589330,14423.200717,3142.342346,15954.272861,20314.897038,15941.174739,-0.190000,0.940000,0.188000,192.000000,0.000000,0.000000,0.000000,0.000000,0.000000,0.000000,0.000000,0.000000,0.000000,1647157202.630354,0.000000
16.000000,20440.089159,15206.249381,14905.372549,14437.595241,3162.593026,15973.629471,20343.462568,15957.469160,-0.190000,0.940000,0.188000,192.000000,0.000000,0.000000,0.000000,0.000000,0.000000,0.000000,0.000000,0.000000,0.000000,1647157202.630370,0.000000
17.000000,20449.298078,15220.062759,14907.987703,14452.280337,3174.797079,15989.119230,20363.132103,16009.012283,-0.190000,0.940000,0.188000,192.000000,0.000000,0.000000,0.000000,0.000000,0.000000,0.000000,0.000000,0.000000,0.000000,1647157202.637591,0.000000
18.000000,20441.251450,15213.468994,14897.460031,14445.127779,3167.868038,15975.775239,20342.635553,15993.656635,-0.190000,0.940000,0.188000,192.000000,0.000000,0.000000,0.000000,0.000000,0.000000,0.000000,0.000000,0.000000,0.000000,1647157202.637607,0.000000
19.000000,20441.720836,15210.250343,14897.772956,14445.105427,3166.035195,15964.778181,20321.647265,15963.973518,-0.190000,0.940000,0.188000,192.000000,0.000000,0.000000,0.000000,0.000000,0.000000,0.000000,0.000000,0.000000,0.000000,1647157202.645146,0.000000
20.000000,20435.842328,15201.421404,14889.480458,14436.723523,3159.463782,15960.374887,20321.647265,15959.011431,-0.190000,0.940000,0.188000,192.000000,0.000000,0.000000,0.000000,0.000000,0.000000,0.000000,0.000000,0.000000,0.000000,1647157202.645162,0.000000
21.000000,20432.936601,15198.336863,14890.486287,14432.141415,3156.468648,15960.061963,20330.677370,15962.028916,-0.190000,0.940000,0.188000,192.000000,0.000000,0.000000,0.000000,0.000000,0.000000,0.000000,0.000000,0.000000,0.000000,1647157202.653129,0.000000
22.000000,20443.173700,15208.283390,14895.962464,14438.332848,3162.391861,15966.655727,20347.418827,15972.198960,-0.190000,0.940000,0.188000,192.000000,0.000000,0.000000,0.000000,0.000000,0.000000,0.000000,0.000000,0.000000,0.000000,1647157202.653145,0.000000
23.000000,20446.392351,15210.205640,14894.397842,14448.257023,3166.258713,15965.225216,20336.175899,15964.688774,-0.190000,0.940000,0.188000,192.000000,0.000000,0.000000,0.000000,0.000000,0.000000,0.000000,0.000000,0.000000,0.000000,1647157202.661125,0.000000
24.000000,20441.877299,15209.020997,14892.497944,14445.328944,3163.956483,15967.728611,20343.909603,15979.776201,-0.184000,0.942000,0.180000,192.000000,250.000000,64.000000,29.000000,112.000000,5.000000,160.000000,0.000000,0.000000,0.000000,1647157202.661141,0.000000
25.000000,20441.720836,15214.787747,14899.717557,14442.579680,3167.108079,15967.527445,20340.892117,15980.379698,-0.184000,0.942000,0.180000,192.000000,0.000000,0.000000,0.000000,0.000000,0.000000,0.000000,0.000000,0.000000,0.000000,1647157202.667732,0.000000
26.000000,20437.853985,15205.422366,14896.811831,14440.970354,3165.230532,15963.794704,20337.807576,15967.013355,-0.184000,0.942000,0.180000,192.000000,0.000000,0.000000,0.000000,0.000000,0.000000,0.000000,0.000000,0.000000,0.000000,1647157202.667747,0.000000
27.000000,20430.768482,15194.246494,14888.049947,14433.437816,3157.697994,15952.574128,20321.736672,15948.886090,-0.184000,0.942000,0.180000,192.000000,0.000000,0.000000,0.000000,0.000000,0.000000,0.000000,0.000000,0.000000,0.000000,1647157202.675698,0.000000
28.000000,20431.997828,15199.655616,14888.966368,14432.499043,3158.659119,15956.262166,20340.221565,15967.393335,-0.184000,0.942000,0.180000,192.000000,0.000000,0.000000,0.000000,0.000000,0.000000,0.000000,0.000000,0.000000,0.000000,1647157202.675714,0.000000
29.000000,20432.601325,15196.436965,14891.872095,14429.235688,3162.905951,15958.005602,20344.289582,15969.561454,-0.184000,0.942000,0.180000,192.000000,0.000000,0.000000,0.000000,0.000000,0.000000,0.000000,0.000000,0.000000,0.000000,1647157202.682692,0.000000
30.000000,20433.718912,15192.458355,14885.144220,14426.732293,3158.368547,15953.512901,20335.795919,15962.900634,-0.184000,0.942000,0.180000,192.000000,0.000000,0.000000,0.000000,0.000000,0.000000,0.000000,0.000000,0.000000,0.000000,1647157202.682709,0.000000
31.000000,20435.261182,15191.720747,14881.634996,14428.475729,3157.362718,15950.964803,20337.360542,15961.246605,-0.184000,0.942000,0.180000,192.000000,0.000000,0.000000,0.000000,0.000000,0.000000,0.000000,0.000000,0.000000,0.000000,1647157202.690885,0.000000
32.000000,20432.824842,15189.865552,14882.551418,14432.767264,3158.368547,15948.707276,20335.974733,15968.354460,-0.184000,0.942000,0.180000,192.000000,0.000000,0.000000,0.000000,0.000000,0.000000,0.000000,0.000000,0.000000,0.000000,1647157202.697259,0.000000
33.000000,20433.540098,15197.979235,14890.955674,14437.528186,3163.978835,15945.578032,20325.178841,15952.127093,-0.184000,0.942000,0.180000,192.000000,0.000000,0.000000,0.000000,0.000000,0.000000,0.000000,0.000000,0.000000,0.000000,1647157202.697275,0.000000
34.000000,20422.185412,15191.407823,14881.791458,14427.313438,3154.144067,15939.498358,20322.831908,15962.207730,-0.184000,0.942000,0.180000,192.000000,0.000000,0.000000,0.000000,0.000000,0.000000,0.000000,0.000000,0.000000,0.000000,1647157202.705392,0.000000
35.000000,20425.381711,15192.950093,14887.737022,14430.979124,3162.280102,15950.048381,20348.648172,15994.707167,-0.182000,0.946000,0.174000,192.000000,250.000000,80.000000,29.000000,144.000000,5.000000,112.000000,0.000000,0.000000,0.000000,1647157202.705408,0.000000
36.000000,20433.048360,15205.712939,14891.827392,14436.298840,3167.912742,15957.312698,20366.395458,16002.262056,-0.182000,0.946000,0.174000,192.000000,0.000000,0.000000,0.000000,0.000000,0.000000,0.000000,0.000000,0.000000,0.000000,1647157202.713315,0.000000
37.000000,20432.824842,15205.914105,14880.875037,14431.984953,3157.541532,15941.107683,20345.094245,15979.060945,-0.182000,0.946000,0.174000,192.000000,0.000000,0.000000,0.000000,0.000000,0.000000,0.000000,0.000000,0.000000,0.000000,1647157202.713332,0.000000
38.000000,20440.580897,15212.329055,14893.347310,14443.585508,3162.011881,15948.684925,20346.725922,15995.333015,-0.182000,0.946000,0.174000,192.000000,0.000000,0.000000,0.000000,0.000000,0.000000,0.000000,0.000000,0.000000,0.000000,1647157202.720486,0.000000
39.000000,20441.765540,15213.848974,14896.856534,14450.581604,3164.023538,15945.130997,20338.545184,15987.286387,-0.182000,0.946000,0.174000,192.000000,0.000000,0.000000,0.000000,0.000000,0.000000,0.000000,0.000000,0.000000,0.000000,1647157202.720502,0.000000
40.000000,20432.266048,15204.260076,14883.914874,14442.758494,3153.227646,15933.418683,20331.236164,15966.655727,-0.182000,0.946000,0.174000,192.000000,0.000000,0.000000,0.000000,0.000000,0.000000,0.000000,0.000000,0.000000,0.000000,1647157202.728025,0.000000
41.000000,20437.161080,15207.322265,14888.899313,14442.646735,3154.926378,15941.107683,20346.100074,15991.667329,-0.182000,0.946000,0.174000,192.000000,0.000000,0.000000,0.000000,0.000000,0.000000,0.000000,0.000000,0.000000,0.000000,1647157202.728040,0.000000
42.000000,20436.311714,15205.556477,14886.127697,14438.131683,3157.385070,15939.923041,20347.016495,15992.851972,-0.182000,0.946000,0.174000,192.000000,0.000000,0.000000,0.000000,0.000000,0.000000,0.000000,0.000000,0.000000,0.000000,1647157202.735770,0.000000
43.000000,20427.996865,15197.353387,14879.064546,14426.441720,3151.193637,15929.395369,20339.081626,15965.426381,-0.182000,0.946000,0.174000,192.000000,0.000000,0.000000,0.000000,0.000000,0.000000,0.000000,0.000000,0.000000,0.000000,1647157202.735787,0.000000
44.000000,20429.673246,15200.572038,14884.250150,14431.873194,3154.434640,15941.085332,20350.369257,16005.927742,-0.182000,0.946000,0.174000,192.000000,0.000000,0.000000,0.000000,0.000000,0.000000,0.000000,0.000000,0.000000,0.000000,1647157202.743138,0.000000
45.000000,20438.256316,15211.055006,14888.295816,14442.423218,3159.664948,15942.627602,20348.178786,16012.767376,-0.202000,0.940000,0.182000,192.000000,249.000000,176.000000,29.000000,96.000000,5.000000,176.000000,0.000000,0.000000,0.000000,1647157202.743154,0.000000
46.000000,20433.271877,15202.069605,14883.490191,14431.023828,3153.026480,15936.659686,20339.528661,15996.942341,-0.202000,0.940000,0.182000,192.000000,0.000000,0.000000,0.000000,0.000000,0.000000,0.000000,0.000000,0.000000,0.000000,1647157202.749597,0.000000
47.000000,20440.804415,15216.039445,14887.513505,14440.478616,3161.609550,15946.539157,20346.033018,16005.279542,-0.202000,0.940000,0.182000,192.000000,0.000000,0.000000,0.000000,0.000000,0.000000,0.000000,0.000000,0.000000,0.000000,1647157202.757540,0.000000
48.000000,20447.800511,15225.270715,14899.672854,14445.083075,3170.282027,15945.309811,20338.209908,15983.754812,-0.202000,0.940000,0.182000,192.000000,0.000000,0.000000,0.000000,0.000000,0.000000,0.000000,0.000000,0.000000,0.000000,1647157202.757556,0.000000
49.000000,20442.838424,15218.051102,14894.777822,14438.578718,3167.845686,15938.559584,20324.597695,15983.330129,-0.202000,0.940000,0.182000,192.000000,0.000000,0.000000,0.000000,0.000000,0.000000,0.000000,0.000000,0.000000,0.000000,1647157202.765626,0.000000
50.000000,20429.852060,15195.900523,14881.545589,14429.235688,3153.875846,15931.295267,20315.321721,15990.437983,-0.202000,0.940000,0.182000,192.000000,0.000000,0.000000,0.000000,0.000000,0.000000,0.000000,0.000000,0.000000,0.000000,1647157202.765642,0.000000
51.000000,20429.136804,15194.849991,14883.423136,14427.000514,3153.741736,15931.988172,20319.725015,15986.392318,-0.202000,0.940000,0.182000,192.000000,0.000000,0.000000,0.000000,0.000000,0.000000,0.000000,0.000000,0.000000,0.000000,1647157202.772809,0.000000
52.000000,20433.763615,15209.937419,14889.681624,14435.628287,3159.955521,15943.991058,20348.961097,16016.969504,-0.202000,0.940000,0.182000,192.000000,0.000000,0.000000,0.000000,0.000000,0.000000,0.000000,0.000000,0.000000,0.000000,1647157202.772825,0.000000
53.000000,20420.464327,15194.134735,14873.253092,14420.116177,3147.662061,15929.037741,20335.527698,15993.410765,-0.202000,0.940000,0.182000,192.000000,0.000000,0.000000,0.000000,0.000000,0.000000,0.000000,0.000000,0.000000,0.000000,1647157202.780142,0.000000
54.000000,20424.509993,15194.447660,14879.735098,14423.334828,3149.830180,15934.245698,20333.448986,15986.638187,-0.202000,0.940000,0.182000,192.000000,0.000000,0.000000,0.000000,0.000000,0.000000,0.000000,0.000000,0.000000,0.000000,1647157202.780158,0.000000
55.000000,20435.618810,15206.428195,14889.525162,14434.622459,3158.189733,15945.265108,20335.237126,16002.597332,-0.208000,0.934000,0.182000,192.000000,249.000000,128.000000,29.000000,48.000000,5.000000,176.000000,0.000000,0.000000,0.000000,1647157202.788227,0.000000
56.000000,20443.486624,15213.580753,14896.454203,14444.211357,3166.906913,15958.184416,20341.294449,16016.902449,-0.208000,0.934000,0.182000,192.000000,0.000000,0.000000,0.000000,0.000000,0.000000,0.000000,0.000000,0.000000,0.000000,1647157202.788244,0.000000
57.000000,20437.496357,15209.825660,14890.240418,14442.356162,3162.458916,15952.037686,20333.471338,15998.730481,-0.208000,0.934000,0.182000,192.000000,0.000000,0.000000,0.000000,0.000000,0.000000,0.000000,0.000000,0.000000,0.000000,1647157202.796296,0.000000
58.000000,20433.987133,15205.668236,14883.758412,14438.511662,3156.558055,15945.242756,20330.006818,15988.851009,-0.208000,0.934000,0.182000,192.000000,0.000000,0.000000,0.000000,0.000000,0.000000,0.000000,0.000000,0.000000,0.000000,1647157202.796313,0.000000
59.000000,20441.564374,15208.395148,14886.440621,14436.745874,3152.355928,15946.159178,20326.855222,15990.907370,-0.208000,0.934000,0.182000,192.000000,0.000000,0.000000,0.000000,0.000000,0.000000,0.000000,0.000000,0.000000,0.000000,1647157202.802670,0.000000
60.000000,20443.151348,15206.718767,14886.351214,14435.896508,3150.836009,15947.053247,20332.219640,15993.768393,-0.208000,0.934000,0.182000,192.000000,0.000000,0.000000,0.000000,0.000000,0.000000,0.000000,0.000000,0.000000,0.000000,1647157202.802686,0.000000
61.000000,20435.149423,15202.829564,14882.014976,14430.800310,3149.427849,15948.327297,20332.599620,16021.082225,-0.208000,0.934000,0.182000,192.000000,0.000000,0.000000,0.000000,0.000000,0.000000,0.000000,0.000000,0.000000,0.000000,1647157202.809831,0.000000
62.000000,20436.602287,15207.992817,14881.433830,14431.426159,3152.892369,15955.256338,20350.168091,16030.537013,-0.208000,0.934000,0.182000,192.000000,0.000000,0.000000,0.000000,0.000000,0.000000,0.000000,0.000000,0.000000,0.000000,1647157202.817909,0.000000
63.000000,20439.776235,15209.713901,14878.528104,14429.928592,3152.892369,15955.748076,20344.960135,16019.897583,-0.208000,0.934000,0.182000,192.000000,0.000000,0.000000,0.000000,0.000000,0.000000,0.000000,0.000000,0.000000,0.000000,1647157202.817926,0.000000
64.000000,20436.378769,15205.623532,14879.332766,14427.715770,3148.891407,15948.170835,20331.794957,15995.981216,-0.208000,0.934000,0.182000,192.000000,0.000000,0.000000,0.000000,0.000000,0.000000,0.000000,0.000000,0.000000,0.000000,1647157202.825788,0.000000
65.000000,20430.254391,15202.762509,14877.388165,14423.871270,3143.214064,15946.025067,20326.296428,15989.946245,-0.210000,0.932000,0.184000,192.000000,249.000000,112.000000,29.000000,32.000000,5.000000,192.000000,0.000000,0.000000,0.000000,1647157202.825805,0.000000
66.000000,20428.935639,15205.064738,14875.644729,14424.787691,3146.767991,15948.662573,20327.056387,15992.896675,-0.210000,0.932000,0.184000,192.000000,0.000000,0.000000,0.000000,0.000000,0.000000,0.000000,0.000000,0.000000,0.000000,1647157202.832401,0.000000
67.000000,20432.713083,15207.523430,14876.739964,14429.839185,3153.384108,15957.826788,20334.857146,16003.089071,-0.210000,0.932000,0.184000,192.000000,0.000000,0.000000,0.000000,0.000000,0.000000,0.000000,0.000000,0.000000,0.000000,1647157202.832418,0.000000
68.000000,20435.305886,15209.646846,14879.958615,14429.816834,3154.233474,15960.888977,20336.198251,16017.327132,-0.210000,0.932000,0.184000,192.000000,0.000000,0.000000,0.000000,0.000000,0.000000,0.000000,0.000000,0.000000,0.000000,1647157202.840507,0.000000
69.000000,20438.770406,15208.931590,14879.355118,14428.788653,3150.321919,15956.463332,20323.144832,16004.430175,-0.210000,0.932000,0.184000,192.000000,0.000000,0.000000,0.000000,0.000000,0.000000,0.000000,0.000000,0.000000,0.000000,1647157202.840524,0.000000
70.000000,20440.089159,15196.884000,14870.637938,14418.730368,3145.583349,15948.461407,20310.225524,15989.432155,-0.210000,0.932000,0.184000,192.000000,0.000000,0.000000,0.000000,0.000000,0.000000,0.000000,0.000000,0.000000,0.000000,1647157202.848521,0.000000
71.000000,20432.780139,15197.599256,14875.085935,14416.137566,3146.343308,15957.759733,20333.761911,16019.450548,-0.210000,0.932000,0.184000,192.000000,0.000000,0.000000,0.000000,0.000000,0.000000,0.000000,0.000000,0.000000,0.000000,1647157202.848537,0.000000
72.000000,20422.833612,15196.906352,14874.258920,14414.505889,3143.683451,15953.199977,20331.772605,16009.794594,-0.210000,0.932000,0.184000,192.000000,0.000000,0.000000,0.000000,0.000000,0.000000,0.000000,0.000000,0.000000,0.000000,1647157202.855600,0.000000
73.000000,20421.023121,15198.538029,14869.855627,14413.768281,3138.833122,15948.550814,20332.040826,16001.010358,-0.210000,0.932000,0.184000,192.000000,0.000000,0.000000,0.000000,0.000000,0.000000,0.000000,0.000000,0.000000,0.000000,1647157202.855617,0.000000
74.000000,20421.984246,15199.923837,14868.179246,14413.924743,3137.782590,15950.294250,20333.359579,16002.798498,-0.210000,0.932000,0.184000,192.000000,0.000000,0.000000,0.000000,0.000000,0.000000,0.000000,0.000000,0.000000,0.000000,1647157202.862918,0.000000
75.000000,20421.984246,15193.173610,14869.252130,14409.275581,3136.463837,15946.315640,20327.838698,16003.558457,-0.214000,0.938000,0.192000,192.000000,249.000000,80.000000,29.000000,80.000000,6.000000,0.000000,0.000000,0.000000,0.000000,1647157202.862934,0.000000
76.000000,20428.376845,15195.855820,14873.566016,14415.824642,3140.822427,15948.595518,20323.122480,16009.258152,-0.214000,0.938000,0.192000,192.000000,0.000000,0.000000,0.000000,0.000000,0.000000,0.000000,0.000000,0.000000,0.000000,1647157202.870159,0.000000
77.000000,20435.082368,15208.193983,14880.696223,14422.843089,3151.148933,15957.804436,20335.371236,16008.855821,-0.214000,0.938000,0.192000,192.000000,0.000000,0.000000,0.000000,0.000000,0.000000,0.000000,0.000000,0.000000,0.000000,1647157202.878060,0.000000
78.000000,20430.254391,15211.770262,14875.220045,14418.998589,3148.377317,15955.636317,20343.663733,16002.843201,-0.214000,0.938000,0.192000,192.000000,0.000000,0.000000,0.000000,0.000000,0.000000,0.000000,0.000000,0.000000,0.000000,1647157202.878071,0.000000
79.000000,20434.098892,15211.658503,14882.596121,14429.012171,3152.557093,15964.174684,20348.536414,16018.243553,-0.214000,0.938000,0.192000,192.000000,0.000000,0.000000,0.000000,0.000000,0.000000,0.000000,0.000000,0.000000,0.000000,1647157202.884762,0.000000
80.000000,20438.993924,15209.602143,14886.418269,14427.000514,3150.947768,15964.040573,20345.250707,16013.773205,-0.214000,0.938000,0.192000,192.000000,0.000000,0.000000,0.000000,0.000000,0.000000,0.000000,0.000000,0.000000,0.000000,1647157202.884778,0.000000
81.000000,20439.128034,15202.404881,14886.105345,14423.714807,3150.478381,15964.532312,20346.792978,16008.833469,-0.214000,0.938000,0.192000,192.000000,0.000000,0.000000,0.000000,0.000000,0.000000,0.000000,0.000000,0.000000,0.000000,1647157202.892746,0.000000
82.000000,20436.803453,15203.142488,14886.395918,14426.687589,3151.618320,15967.706259,20348.312896,16006.285370,-0.214000,0.938000,0.192000,192.000000,0.000000,0.000000,0.000000,0.000000,0.000000,0.000000,0.000000,0.000000,0.000000,1647157202.892762,0.000000
83.000000,20426.231077,15196.995759,14874.974176,14416.271677,3141.627090,15955.748076,20333.784262,15994.260132,-0.214000,0.938000,0.192000,192.000000,0.000000,0.000000,0.000000,0.000000,0.000000,0.000000,0.000000,0.000000,0.000000,1647157202.900799,0.000000
84.000000,20428.198031,15199.432099,14876.538798,14418.283334,3141.470628,15956.284518,20336.377065,15990.750908,-0.214000,0.938000,0.192000,192.000000,0.000000,0.000000,0.000000,0.000000,0.000000,0.000000,0.000000,0.000000,0.000000,1647157202.900815,0.000000
85.000000,20438.144557,15217.715826,14883.825467,14431.962601,3149.986643,15962.833579,20345.608335,15985.207675,-0.208000,0.934000,0.186000,192.000000,249.000000,128.000000,29.000000,48.000000,5.000000,208.000000,0.000000,0.000000,0.000000,1647157202.907864,0.000000
86.000000,20432.154290,15212.463166,14878.751621,14422.373703,3149.785477,15955.211634,20340.176861,15987.420498,-0.208000,0.934000,0.186000,192.000000,0.000000,0.000000,0.000000,0.000000,0.000000,0.000000,0.000000,0.000000,0.000000,1647157202.907881,0.000000
87.000000,20433.607153,15206.763471,14878.751621,14419.400921,3151.350099,15952.685887,20340.959172,15990.236818,-0.208000,0.934000,0.186000,192.000000,0.000000,0.000000,0.000000,0.000000,0.000000,0.000000,0.000000,0.000000,0.000000,1647157202.915426,0.000000
88.000000,20437.898688,15209.266866,14881.769107,14423.781863,3156.625111,15953.378791,20331.236164,15990.214466,-0.208000,0.934000,0.186000,192.000000,0.000000,0.000000,0.000000,0.000000,0.000000,0.000000,0.000000,0.000000,0.000000,1647157202.915443,0.000000
89.000000,20441.407912,15210.116233,14886.038290,14424.877098,3159.083803,15959.659631,20345.183652,15996.115326,-0.208000,0.934000,0.186000,192.000000,0.000000,0.000000,0.000000,0.000000,0.000000,0.000000,0.000000,0.000000,0.000000,1647157202.923452,0.000000
90.000000,20433.093063,15201.063776,14881.322072,14418.886831,3151.215989,15954.876358,20339.662771,15984.782992,-0.208000,0.934000,0.186000,192.000000,0.000000,0.000000,0.000000,0.000000,0.000000,0.000000,0.000000,0.000000,0.000000,1647157202.923468,0.000000
91.000000,20436.155252,15203.745985,14882.663176,14420.585563,3152.445334,15959.570224,20338.254611,15992.226123,-0.208000,0.934000,0.186000,192.000000,0.000000,0.000000,0.000000,0.000000,0.000000,0.000000,0.000000,0.000000,0.000000,1647157202.930409,0.000000
92.000000,20434.277705,15206.919933,14883.199618,14425.614706,3155.373413,15962.587710,20350.279850,16002.865553,-0.208000,0.934000,0.186000,192.000000,0.000000,0.000000,0.000000,0.000000,0.000000,0.000000,0.000000,0.000000,0.000000,1647157202.930424,0.000000
93.000000,20428.734473,15200.482631,14882.707880,14419.624438,3154.188771,15957.580919,20345.049542,15988.247512,-0.208000,0.934000,0.186000,192.000000,0.000000,0.000000,0.000000,0.000000,0.000000,0.000000,0.000000,0.000000,0.000000,1647157202.937640,0.000000
94.000000,20432.668380,15203.634227,14882.663176,14419.512680,3153.920550,15954.228157,20339.774530,15972.802457,-0.208000,0.934000,0.186000,192.000000,0.000000,0.000000,0.000000,0.000000,0.000000,0.000000,0.000000,0.000000,0.000000,1647157202.945126,0.000000
95.000000,20427.505127,15198.359215,14877.857551,14415.064682,3150.657195,15950.853044,20335.840623,15977.496323,-0.198000,0.936000,0.182000,192.000000,249.000000,208.000000,29.000000,64.000000,5.000000,176.000000,0.000000,0.000000,0.000000,1647157202.945142,0.000000
96.000000,20421.134880,15199.767375,14873.543665,14413.589467,3147.974986,15943.476968,20327.302257,15970.589634,-0.198000,0.936000,0.182000,192.000000,0.000000,0.000000,0.000000,0.000000,0.000000,0.000000,0.000000,0.000000,0.000000,1647157202.952983,0.000000
97.000000,20436.401121,15209.423329,14880.673871,14420.607915,3153.786439,15943.365210,20326.363483,15963.682945,-0.198000,0.936000,0.182000,192.000000,0.000000,0.000000,0.000000,0.000000,0.000000,0.000000,0.000000,0.000000,0.000000,1647157202.952999,0.000000
98.000000,20446.660572,15216.911163,14892.542647,14428.632191,3160.514314,15947.768503,20329.693893,15962.922986,-0.198000,0.936000,0.182000,192.000000,0.000000,0.000000,0.000000,0.000000,0.000000,0.000000,0.000000,0.000000,0.000000,1647157202.961151,0.000000
99.000000,20429.896764,15195.632302,14886.462973,14415.601124,3151.819486,15942.918175,20325.737634,15977.898655,-0.198000,0.936000,0.182000,192.000000,0.000000,0.000000,0.000000,0.000000,0.000000,0.000000,0.000000,0.000000,0.000000,1647157202.961167,0.000000
100.000000,20421.067824,15178.779087,14879.176304,14408.292104,3144.756334,15941.666477,20334.387759,15989.566265,-0.198000,0.936000,0.182000,192.000000,0.000000,0.000000,0.000000,0.000000,0.000000,0.000000,0.000000,0.000000,0.000000,1647157202.967720,0.000000
101.000000,20416.552772,15168.407877,14864.290042,14398.345578,3137.648480,15930.669419,20334.164242,15966.991003,-0.198000,0.936000,0.182000,192.000000,0.000000,0.000000,0.000000,0.000000,0.000000,0.000000,0.000000,0.000000,0.000000,1647157202.967735,0.000000
102.000000,20416.284551,15175.649843,14870.995566,14406.615723,3143.750506,15939.565413,20343.350809,15986.146448,-0.198000,0.936000,0.182000,192.000000,0.000000,0.000000,0.000000,0.000000,0.000000,0.000000,0.000000,0.000000,0.000000,1647157202.975726,0.000000
103.000000,20414.049377,15176.923892,14875.376508,14404.157031,3144.689279,15940.191262,20349.654001,15991.354405,-0.198000,0.936000,0.182000,192.000000,0.000000,0.000000,0.000000,0.000000,0.000000,0.000000,0.000000,0.000000,0.000000,1647157202.975742,0.000000
104.000000,20410.718967,15168.117305,14868.894502,14398.077357,3137.469666,15936.369113,20346.077722,15995.467126,-0.198000,0.936000,0.182000,192.000000,0.000000,0.000000,0.000000,0.000000,0.000000,0.000000,0.000000,0.000000,0.000000,1647157202.983723,0.000000
105.000000,20413.915266,15180.008433,14873.811886,14406.012226,3140.934186,15942.091160,20340.534489,15989.454507,-0.202000,0.936000,0.180000,192.000000,249.000000,176.000000,29.000000,64.000000,5.000000,160.000000,0.000000,0.000000,0.000000,1647157202.983739,0.000000
106.000000,20402.828801,15171.894750,14863.798304,14397.227990,3134.206311,15932.077579,20329.515079,15971.304890,-0.202000,0.936000,0.180000,192.000000,0.000000,0.000000,0.000000,0.000000,0.000000,0.000000,0.000000,0.000000,0.000000,1647157202.990322,0.000000
107.000000,20404.952217,15166.284462,14861.227853,14391.729461,3132.664041,15931.071750,20334.432463,15967.303928,-0.202000,0.936000,0.180000,192.000000,0.000000,0.000000,0.000000,0.000000,0.000000,0.000000,0.000000,0.000000,0.000000,1647157202.990339,0.000000
108.000000,20398.179638,15159.556587,14851.393086,14388.913141,3125.511482,15926.355532,20321.557858,15962.185378,-0.202000,0.936000,0.180000,192.000000,0.000000,0.000000,0.000000,0.000000,0.000000,0.000000,0.000000,0.000000,0.000000,1647157202.997334,0.000000
109.000000,20405.801583,15170.374831,14869.319185,14402.704168,3136.843817,15937.486701,20323.010722,15964.152332,-0.202000,0.936000,0.180000,192.000000,0.000000,0.000000,0.000000,0.000000,0.000000,0.000000,0.000000,0.000000,0.000000,1647157203.005074,0.000000
110.000000,20409.511973,15174.889883,14871.196731,14406.325150,3143.236416,15943.365210,20340.713303,15967.996832,-0.202000,0.936000,0.180000,192.000000,0.000000,0.000000,0.000000,0.000000,0.000000,0.000000,0.000000,0.000000,0.000000,1647157203.005083,0.000000
111.000000,20404.125202,15170.531293,14863.217159,14403.486479,3142.923491,15942.024105,20339.059274,15980.178533,-0.202000,0.936000,0.180000,192.000000,0.000000,0.000000,0.000000,0.000000,0.000000,0.000000,0.000000,0.000000,0.000000,1647157203.013372,0.000000
112.000000,20394.960987,15157.790799,14848.286193,14386.432098,3130.764142,15925.170890,20315.612294,15963.101800,-0.202000,0.936000,0.180000,192.000000,0.000000,0.000000,0.000000,0.000000,0.000000,0.000000,0.000000,0.000000,0.000000,1647157203.013390,0.000000
113.000000,20396.279740,15155.354459,14852.242452,14382.989929,3125.533834,15933.530442,20344.423693,15978.300986,-0.202000,0.936000,0.180000,192.000000,0.000000,0.000000,0.000000,0.000000,0.000000,0.000000,0.000000,0.000000,0.000000,1647157203.019680,0.000000
114.000000,20409.131993,15178.153238,14862.524255,14399.865496,3143.616395,15943.253451,20356.136007,15983.911274,-0.202000,0.936000,0.180000,192.000000,0.000000,0.000000,0.000000,0.000000,0.000000,0.000000,0.000000,0.000000,0.000000,1647157203.019691,0.000000
115.000000,20409.914304,15171.537122,14860.423191,14397.205639,3140.017765,15933.843366,20334.946553,15968.242701,-0.208000,0.944000,0.176000,192.000000,249.000000,128.000000,29.000000,128.000000,5.000000,128.000000,0.000000,0.000000,0.000000,1647157203.028162,0.000000
116.000000,20405.667473,15165.055116,14852.108342,14389.963673,3128.797189,15924.053302,20323.994198,15976.736364,-0.208000,0.944000,0.176000,192.000000,0.000000,0.000000,0.000000,0.000000,0.000000,0.000000,0.000000,0.000000,0.000000,1647157203.028178,0.000000
117.000000,20410.115470,15174.040517,14858.858569,14395.104575,3133.759276,15929.350666,20330.453852,15974.434134,-0.208000,0.944000,0.176000,192.000000,0.000000,0.000000,0.000000,0.000000,0.000000,0.000000,0.000000,0.000000,0.000000,1647157203.035867,0.000000
118.000000,20403.566409,15166.887959,14854.835255,14388.913141,3132.798151,15924.567392,20329.313914,15971.081373,-0.208000,0.944000,0.176000,192.000000,0.000000,0.000000,0.000000,0.000000,0.000000,0.000000,0.000000,0.000000,0.000000,1647157203.035884,0.000000
119.000000,20406.181563,15166.664441,14856.802208,14396.289217,3135.346250,15929.618887,20333.247821,15975.641128,-0.208000,0.944000,0.176000,192.000000,0.000000,0.000000,0.000000,0.000000,0.000000,0.000000,0.000000,0.000000,0.000000,1647157203.043205,0.000000
120.000000,20411.255409,15170.352479,14858.411534,14397.831487,3133.558110,15928.143672,20327.525774,15975.238797,-0.208000,0.944000,0.176000,192.000000,0.000000,0.000000,0.000000,0.000000,0.000000,0.000000,0.000000,0.000000,0.000000,1647157203.043222,0.000000
121.000000,20409.534324,15167.960843,14855.081124,14387.125002,3134.273366,15927.137843,20327.615181,15985.542951,-0.208000,0.944000,0.176000,192.000000,0.000000,0.000000,0.000000,0.000000,0.000000,0.000000,0.000000,0.000000,0.000000,1647157203.050650,0.000000
122.000000,20402.471173,15167.200883,14851.080161,14388.913141,3136.508541,15932.457558,20332.510213,15993.857800,-0.208000,0.944000,0.176000,192.000000,0.000000,0.000000,0.000000,0.000000,0.000000,0.000000,0.000000,0.000000,0.000000,1647157203.050666,0.000000
123.000000,20405.265141,15168.407877,14855.863435,14397.943246,3142.387049,15941.733532,20342.680257,16004.944265,-0.208000,0.944000,0.176000,192.000000,0.000000,0.000000,0.000000,0.000000,0.000000,0.000000,0.000000,0.000000,0.000000,1647157203.057677,0.000000
124.000000,20400.079536,15158.483703,14841.670077,14387.773202,3130.495921,15928.970686,20326.095262,15975.328204,-0.208000,0.944000,0.176000,192.000000,0.000000,0.000000,0.000000,0.000000,0.000000,0.000000,0.000000,0.000000,0.000000,1647157203.065719,0.000000
125.000000,20402.560580,15160.763581,14859.506769,14387.639092,3134.742753,15934.938602,20331.884364,15981.989024,-0.212000,0.942000,0.178000,192.000000,249.000000,96.000000,29.000000,112.000000,5.000000,144.000000,0.000000,0.000000,0.000000,1647157203.065735,0.000000
126.000000,20400.750089,15155.913252,14854.365868,14387.773202,3136.575596,15931.228212,20323.815384,15988.493382,-0.212000,0.942000,0.178000,192.000000,0.000000,0.000000,0.000000,0.000000,0.000000,0.000000,0.000000,0.000000,0.000000,1647157203.072803,0.000000
127.000000,20407.477964,15165.032764,14857.338650,14396.579790,3144.018727,15933.329276,20325.625876,15977.384565,-0.212000,0.942000,0.178000,192.000000,0.000000,0.000000,0.000000,0.000000,0.000000,0.000000,0.000000,0.000000,0.000000,1647157203.072819,0.000000
128.000000,20406.986225,15166.865607,14853.695316,14393.316435,3143.325823,15927.227250,20317.601599,15965.247567,-0.212000,0.942000,0.178000,192.000000,0.000000,0.000000,0.000000,0.000000,0.000000,0.000000,0.000000,0.000000,0.000000,1647157203.080213,0.000000
129.000000,20402.202952,15167.133828,14855.215234,14391.975330,3139.950709,15925.349703,20318.495669,15977.205751,-0.212000,0.942000,0.178000,192.000000,0.000000,0.000000,0.000000,0.000000,0.000000,0.000000,0.000000,0.000000,0.000000,1647157203.080229,0.000000
130.000000,20409.109641,15174.956939,14862.770124,14403.084147,3144.465762,15935.229175,20328.978637,15979.731498,-0.212000,0.942000,0.178000,192.000000,0.000000,0.000000,0.000000,0.000000,0.000000,0.000000,0.000000,0.000000,0.000000,1647157203.088300,0.000000
131.000000,20416.150441,15174.241683,14865.832313,14406.168688,3149.494904,15936.525576,20327.481070,15970.232006,-0.212000,0.942000,0.178000,192.000000,0.000000,0.000000,0.000000,0.000000,0.000000,0.000000,0.000000,0.000000,0.000000,1647157203.088315,0.000000
132.000000,20408.506144,15162.730534,14856.444580,14396.490383,3141.023593,15938.090198,20336.086492,15996.003568,-0.212000,0.942000,0.178000,192.000000,0.000000,0.000000,0.000000,0.000000,0.000000,0.000000,0.000000,0.000000,0.000000,1647157203.095527,0.000000
133.000000,20405.019272,15162.417610,14857.316298,14392.042386,3137.156741,15936.503224,20325.849393,15993.924855,-0.212000,0.942000,0.178000,192.000000,0.000000,0.000000,0.000000,0.000000,0.000000,0.000000,0.000000,0.000000,0.000000,1647157203.095544,0.000000
134.000000,20409.444917,15167.759677,14860.400839,14398.904371,3141.180055,15940.124207,20327.749291,15988.068698,-0.212000,0.942000,0.178000,192.000000,0.000000,0.000000,0.000000,0.000000,0.000000,0.000000,0.000000,0.000000,0.000000,1647157203.102720,0.000000
135.000000,20403.477002,15161.322375,14853.382391,14393.964636,3137.894349,15936.592631,20329.403320,15977.272806,-0.212000,0.942000,0.178000,192.000000,0.000000,0.000000,0.000000,0.000000,0.000000,0.000000,0.000000,0.000000,0.000000,1647157203.102737,0.000000
136.000000,20399.274874,15157.567281,14848.710877,14388.287293,3133.625166,15933.038704,20315.746405,15966.432210,-0.224000,0.940000,0.172000,192.000000,249.000000,0.000000,29.000000,96.000000,5.000000,96.000000,0.000000,0.000000,0.000000,1647157203.110886,0.000000
137.000000,20405.108679,15167.022069,14852.667135,14389.069604,3136.083858,15936.592631,20314.181783,15965.046402,-0.224000,0.940000,0.172000,192.000000,0.000000,0.000000,0.000000,0.000000,0.000000,0.000000,0.000000,0.000000,0.000000,1647157203.110902,0.000000
138.000000,20396.637368,15166.440924,14851.236624,14388.331996,3130.451218,15939.163082,20320.976713,15978.300986,-0.224000,0.940000,0.172000,192.000000,0.000000,0.000000,0.000000,0.000000,0.000000,0.000000,0.000000,0.000000,0.000000,1647157203.117904,0.000000
139.000000,20398.403156,15178.332052,14858.344478,14396.289217,3131.501750,15945.332163,20329.716245,15987.174629,-0.224000,0.940000,0.172000,192.000000,0.000000,0.000000,0.000000,0.000000,0.000000,0.000000,0.000000,0.000000,0.000000,1647157203.125097,0.000000
140.000000,20405.533362,15177.102706,14865.653499,14400.066662,3137.939052,15948.886090,20338.075797,15988.426326,-0.224000,0.940000,0.172000,192.000000,0.000000,0.000000,0.000000,0.000000,0.000000,0.000000,0.000000,0.000000,0.000000,1647157203.125114,0.000000
141.000000,20401.018310,15158.349592,14854.164702,14391.058909,3132.909910,15938.269012,20328.978637,15982.748983,-0.224000,0.940000,0.172000,192.000000,0.000000,0.000000,0.000000,0.000000,0.000000,0.000000,0.000000,0.000000,0.000000,1647157203.132605,0.000000
142.000000,20399.163115,15158.036668,14853.427095,14392.534124,3133.222834,15937.330239,20324.485937,15978.412745,-0.224000,0.940000,0.172000,192.000000,0.000000,0.000000,0.000000,0.000000,0.000000,0.000000,0.000000,0.000000,0.000000,1647157203.132621,0.000000
143.000000,20401.688862,15164.116343,14859.909101,14399.619627,3138.162570,15941.957050,20331.817309,15976.892826,-0.224000,0.940000,0.172000,192.000000,0.000000,0.000000,0.000000,0.000000,0.000000,0.000000,0.000000,0.000000,0.000000,1647157203.140643,0.000000
144.000000,20404.527534,15164.272805,14862.881883,14396.512734,3141.448276,15940.548890,20331.973771,15976.423440,-0.224000,0.940000,0.172000,192.000000,0.000000,0.000000,0.000000,0.000000,0.000000,0.000000,0.000000,0.000000,0.000000,1647157203.140660,0.000000
145.000000,20403.275836,15164.809247,14858.366830,14393.182325,3139.615433,15937.553756,20330.520908,15978.010413,-0.224000,0.940000,0.172000,192.000000,0.000000,0.000000,0.000000,0.000000,0.000000,0.000000,0.000000,0.000000,0.000000,1647157203.148597,0.000000
146.000000,20397.039699,15163.915177,14849.403781,14390.701281,3135.055677,15936.816148,20331.951419,15996.852934,-0.224000,0.944000,0.174000,192.000000,249.000000,0.000000,29.000000,128.000000,5.000000,112.000000,0.000000,0.000000,0.000000,1647157203.148613,0.000000
147.000000,20401.845324,15167.558511,14858.411534,14393.808173,3141.113000,15939.118378,20328.755120,15991.823791,-0.224000,0.944000,0.174000,192.000000,0.000000,0.000000,0.000000,0.000000,0.000000,0.000000,0.000000,0.000000,0.000000,1647157203.155204,0.000000
148.000000,20399.856019,15162.328203,14855.394048,14389.717804,3136.665003,15933.061055,20317.221620,15980.938492,-0.224000,0.944000,0.174000,192.000000,0.000000,0.000000,0.000000,0.000000,0.000000,0.000000,0.000000,0.000000,0.000000,1647157203.155220,0.000000
149.000000,20405.220438,15167.111476,14854.187054,14394.322264,3136.620299,15935.184471,20329.783300,15983.017204,-0.224000,0.944000,0.174000,192.000000,0.000000,0.000000,0.000000,0.000000,0.000000,0.000000,0.000000,0.000000,0.000000,1647157203.163070,0.000000
150.000000,20409.087289,15171.872398,14856.355173,14397.831487,3139.727192,15942.828768,20345.295411,16006.397129,-0.224000,0.944000,0.174000,192.000000,0.000000,0.000000,0.000000,0.000000,0.000000,0.000000,0.000000,0.000000,0.000000,1647157203.163086,0.000000
151.000000,20401.487696,15162.261148,14855.483455,14384.778069,3134.519235,15927.271953,20317.132213,15976.669309,-0.224000,0.944000,0.174000,192.000000,0.000000,0.000000,0.000000,0.000000,0.000000,0.000000,0.000000,0.000000,0.000000,1647157203.170973,0.000000
152.000000,20412.238885,15177.482686,14864.066525,14400.737214,3146.522122,15940.325372,20330.722073,15988.180457,-0.224000,0.944000,0.174000,192.000000,0.000000,0.000000,0.000000,0.000000,0.000000,0.000000,0.000000,0.000000,0.000000,1647157203.170991,0.000000
153.000000,20417.558601,15187.295102,14869.699165,14406.839240,3153.697032,15948.729628,20341.249745,15996.517658,-0.224000,0.944000,0.174000,192.000000,0.000000,0.000000,0.000000,0.000000,0.000000,0.000000,0.000000,0.000000,0.000000,1647157203.178395,0.000000
154.000000,20409.511973,15178.086183,14861.585481,14398.502040,3146.723288,15940.884166,20334.745387,15988.851009,-0.224000,0.944000,0.174000,192.000000,0.000000,0.000000,0.000000,0.000000,0.000000,0.000000,0.000000,0.000000,0.000000,1647157203.178411,0.000000
155.000000,20408.059109,15177.326224,14864.088877,14404.648769,3151.975948,15945.801550,20340.579193,15988.851009,-0.224000,0.944000,0.174000,192.000000,0.000000,0.000000,0.000000,0.000000,0.000000,0.000000,0.000000,0.000000,0.000000,1647157203.184865,0.000000
156.000000,20407.992054,15178.153238,14864.446505,14404.112328,3154.568750,15942.202919,20332.085530,15973.942396,-0.216000,0.944000,0.174000,192.000000,249.000000,64.000000,29.000000,128.000000,5.000000,112.000000,0.000000,0.000000,0.000000,1647157203.192170,0.000000
157.000000,20408.059109,15174.286386,14863.619490,14399.284351,3151.350099,15938.894861,20325.916448,15980.223236,-0.216000,0.944000,0.174000,192.000000,0.000000,0.000000,0.000000,0.000000,0.000000,0.000000,0.000000,0.000000,0.000000,1647157203.192185,0.000000
158.000000,20404.371071,15171.201846,14863.999470,14397.272694,3147.639709,15938.045494,20324.240068,15982.793687,-0.216000,0.944000,0.174000,192.000000,0.000000,0.000000,0.000000,0.000000,0.000000,0.000000,0.000000,0.000000,0.000000,1647157203.200203,0.000000
159.000000,20395.296263,15166.463276,14854.969365,14389.136659,3140.084820,15931.451730,20319.546201,15968.019184,-0.216000,0.944000,0.174000,192.000000,0.000000,0.000000,0.000000,0.000000,0.000000,0.000000,0.000000,0.000000,0.000000,1647157203.200218,0.000000
160.000000,20403.588760,15175.739250,14857.115132,14395.730423,3143.571692,15936.033837,20327.972809,15972.400126,-0.216000,0.944000,0.174000,192.000000,0.000000,0.000000,0.000000,0.000000,0.000000,0.000000,0.000000,0.000000,0.000000,1647157203.208188,0.000000
161.000000,20404.236961,15172.900578,14854.075295,14392.981159,3142.387049,15932.792834,20323.524812,15972.981271,-0.216000,0.944000,0.174000,192.000000,0.000000,0.000000,0.000000,0.000000,0.000000,0.000000,0.000000,0.000000,0.000000,1647157203.208204,0.000000
