%OpenBCI Raw EEG Data
%Number of channels = 8
%Sample Rate = 256 Hz
%Board = OpenBCI_GUI$BoardCytonSerial
%Channels = Fp1, Fp2, F3, F4, Fz, Pz, O1, O2
%Data recorded at AIMS Lab (http://aimsl.uiu.ac.bd) by Rana Depto (mail@ranadepto.com)
%Brainwaves were obtained via the Ultracortex Mark IV Headset using the OpenBCI Cyton Board
%Recording Application = ConcentrateToday (https://concentrate.today)
%Data type = RAW data with noise
%Day No = 6
%Subject ID = 7
%Session ID = 7
%Record starting timestamp (UTC+6) = 2022-03-23T12:56:58.622489
%Record ending timestamp (UTC+6)   = 2022-03-23T12:57:19.477154
%Recorded durations = ~20 seconds
Sample Index, EXG Channel 0, EXG Channel 1, EXG Channel 2, EXG Channel 3, EXG Channel 4, EXG Channel 5, EXG Channel 6, EXG Channel 7, Accel Channel 0, Accel Channel 1, Accel Channel 2, Other, Other, Other, Other, Other, Other, Other, Analog Channel 0, Analog Channel 1, Analog Channel 2, Timestamp, Timestamp (Formatted)
221.000000,-41554.441041,-35594.147217,3616.087570,19979.598520,9562.836237,73651.635486,44399.102855,34922.991386,-0.004000,0.992000,-0.018000,192.000000,0.000000,0.000000,0.000000,0.000000,0.000000,0.000000,0.000000,0.000000,0.000000,1648018618.627029,0.000000
222.000000,-41552.116460,-35591.822635,3613.472416,19980.693755,9561.964519,73650.964934,44401.941526,34908.641566,-0.004000,0.992000,-0.018000,192.000000,0.000000,0.000000,0.000000,0.000000,0.000000,0.000000,0.000000,0.000000,0.000000,1648018618.627038,0.000000
223.000000,-41558.307893,-35599.042249,3605.738712,19975.865778,9552.800304,73645.488756,44422.594538,34927.238217,0.002000,0.986000,-0.010000,192.000000,0.000000,16.000000,30.000000,208.000000,255.000000,176.000000,0.000000,0.000000,0.000000,1648018618.634983,0.000000
224.000000,-41569.014379,-35612.900330,3591.858279,19962.633546,9538.316374,73630.334274,44449.237817,34969.438311,0.002000,0.986000,-0.010000,192.000000,0.000000,0.000000,0.000000,0.000000,0.000000,0.000000,0.000000,0.000000,0.000000,1648018618.634988,0.000000
225.000000,-41562.711187,-35607.781781,3600.955439,19966.813322,9544.664269,73628.456727,44426.059058,34950.573438,0.002000,0.986000,-0.010000,192.000000,0.000000,0.000000,0.000000,0.000000,0.000000,0.000000,0.000000,0.000000,0.000000,1648018618.642979,0.000000
226.000000,-41544.047480,-35593.633126,3622.346058,19985.275863,9564.669080,73640.258448,44363.630636,34854.930324,0.002000,0.986000,-0.010000,192.000000,0.000000,0.000000,0.000000,0.000000,0.000000,0.000000,0.000000,0.000000,0.000000,1648018618.642984,0.000000
227.000000,-41542.929893,-35596.896481,3612.555994,19985.633491,9559.908159,73649.467367,44381.243811,34838.345330,0.002000,0.986000,-0.010000,192.000000,0.000000,0.000000,0.000000,0.000000,0.000000,0.000000,0.000000,0.000000,0.000000,1648018618.650736,0.000000
228.000000,-41549.523658,-35593.297850,3612.667753,19986.259340,9561.584540,73657.424588,44420.448771,34857.500775,0.002000,0.986000,-0.010000,192.000000,0.000000,0.000000,0.000000,0.000000,0.000000,0.000000,0.000000,0.000000,0.000000,1648018618.650741,0.000000
229.000000,-41561.347730,-35600.986850,3608.510328,19981.230197,9557.874150,73650.540251,44441.235893,34876.097426,0.002000,0.986000,-0.010000,192.000000,0.000000,0.000000,0.000000,0.000000,0.000000,0.000000,0.000000,0.000000,0.000000,1648018618.658337,0.000000
230.000000,-41559.850163,-35601.836217,3607.102168,19977.788028,9557.963557,73641.063111,44421.745172,34848.738891,0.002000,0.986000,-0.010000,192.000000,0.000000,0.000000,0.000000,0.000000,0.000000,0.000000,0.000000,0.000000,0.000000,1648018618.658342,0.000000
231.000000,-41558.598466,-35604.183150,3605.738712,19969.808456,9555.884845,73632.636503,44380.707369,34794.871187,0.002000,0.986000,-0.010000,192.000000,0.000000,0.000000,0.000000,0.000000,0.000000,0.000000,0.000000,0.000000,0.000000,1648018618.664535,0.000000
232.000000,-41559.738405,-35605.658365,3601.380122,19968.132075,9549.961632,73642.493623,44387.748168,34783.561204,0.002000,0.986000,-0.010000,192.000000,0.000000,0.000000,0.000000,0.000000,0.000000,0.000000,0.000000,0.000000,0.000000,1648018618.664539,0.000000
233.000000,-41567.963847,-35611.380412,3595.948648,19958.990211,9541.311507,73638.447957,44409.988154,34803.588367,0.004000,0.980000,-0.010000,192.000000,0.000000,32.000000,30.000000,160.000000,255.000000,176.000000,0.000000,0.000000,0.000000,1648018618.671911,0.000000
234.000000,-41567.382701,-35608.877016,3601.625991,19961.627717,9544.887786,73639.654951,44434.150390,34829.963425,0.004000,0.980000,-0.010000,192.000000,0.000000,0.000000,0.000000,0.000000,0.000000,0.000000,0.000000,0.000000,0.000000,1648018618.679924,0.000000
235.000000,-41566.533335,-35608.497037,3603.391779,19963.795836,9546.228891,73636.279838,44406.166006,34803.543663,0.004000,0.980000,-0.010000,192.000000,0.000000,0.000000,0.000000,0.000000,0.000000,0.000000,0.000000,0.000000,0.000000,1648018618.679936,0.000000
236.000000,-41563.694663,-35610.061659,3606.431616,19966.634508,9551.034516,73639.498489,44358.333273,34744.356244,0.004000,0.980000,-0.010000,192.000000,0.000000,0.000000,0.000000,0.000000,0.000000,0.000000,0.000000,0.000000,0.000000,1648018618.687879,0.000000
237.000000,-41560.632474,-35603.065563,3606.006933,19971.976575,9553.940243,73650.786120,44364.368244,34727.637139,0.004000,0.980000,-0.010000,192.000000,0.000000,0.000000,0.000000,0.000000,0.000000,0.000000,0.000000,0.000000,0.000000,1648018618.687884,0.000000
238.000000,-41571.316608,-35608.832313,3592.215907,19961.180682,9542.965536,73648.215669,44394.900727,34746.054977,0.004000,0.980000,-0.010000,192.000000,0.000000,0.000000,0.000000,0.000000,0.000000,0.000000,0.000000,0.000000,0.000000,1648018618.694552,0.000000
239.000000,-41570.936629,-35609.234644,3591.321837,19960.152502,9544.887786,73643.298285,44424.159160,34777.123902,0.004000,0.980000,-0.010000,192.000000,0.000000,0.000000,0.000000,0.000000,0.000000,0.000000,0.000000,0.000000,0.000000,1648018618.694556,0.000000
240.000000,-41563.381739,-35602.551472,3601.067197,19970.255491,9554.968423,73641.867774,44400.019276,34745.764404,0.004000,0.980000,-0.010000,192.000000,0.000000,0.000000,0.000000,0.000000,0.000000,0.000000,0.000000,0.000000,0.000000,1648018618.702527,0.000000
241.000000,-41559.850163,-35604.294909,3608.353866,19971.708354,9560.489304,73640.705483,44352.030081,34688.096903,0.004000,0.980000,-0.010000,192.000000,0.000000,0.000000,0.000000,0.000000,0.000000,0.000000,0.000000,0.000000,0.000000,1648018618.702530,0.000000
242.000000,-41544.695681,-35596.650612,3618.501558,19981.967805,9569.877037,73654.272992,44357.953293,34666.013380,0.004000,0.980000,-0.010000,192.000000,0.000000,0.000000,0.000000,0.000000,0.000000,0.000000,0.000000,0.000000,0.000000,1648018618.710606,0.000000
243.000000,-41544.829791,-35595.622432,3615.796997,19987.064002,9570.122906,73655.256469,44390.877413,34678.709171,0.006000,0.978000,0.002000,192.000000,0.000000,48.000000,30.000000,144.000000,0.000000,16.000000,0.000000,0.000000,0.000000,1648018618.710631,0.000000
244.000000,-41567.405053,-35611.268653,3597.245049,19966.165121,9552.554435,73645.555812,44436.787896,34726.094869,0.006000,0.978000,0.002000,192.000000,0.000000,0.000000,0.000000,0.000000,0.000000,0.000000,0.000000,0.000000,0.000000,1648018618.717767,0.000000
245.000000,-41563.426443,-35608.631147,3599.413168,19964.578147,9553.336746,73637.442128,44421.499303,34716.930654,0.006000,0.978000,0.002000,192.000000,0.000000,0.000000,0.000000,0.000000,0.000000,0.000000,0.000000,0.000000,0.000000,1648018618.717771,0.000000
246.000000,-41554.686910,-35602.126789,3612.533642,19974.256453,9562.769182,73642.426567,44374.225363,34651.440042,0.006000,0.978000,0.002000,192.000000,0.000000,0.000000,0.000000,0.000000,0.000000,0.000000,0.000000,0.000000,0.000000,1648018618.725243,0.000000
247.000000,-41536.671404,-35584.446559,3626.101151,19992.026090,9576.739022,73660.285611,44356.656892,34591.738533,0.006000,0.978000,0.002000,192.000000,0.000000,0.000000,0.000000,0.000000,0.000000,0.000000,0.000000,0.000000,0.000000,1648018618.725261,0.000000
248.000000,-41538.906579,-35587.285231,3616.065218,19990.752040,9570.189961,73670.656821,44398.924041,34601.282728,0.006000,0.978000,0.002000,192.000000,0.000000,0.000000,0.000000,0.000000,0.000000,0.000000,0.000000,0.000000,0.000000,1648018618.732175,0.000000
249.000000,-41544.427460,-35588.693391,3611.997200,19991.221427,9568.245359,73670.522710,44443.627530,34635.838525,0.006000,0.978000,0.002000,192.000000,0.000000,0.000000,0.000000,0.000000,0.000000,0.000000,0.000000,0.000000,0.000000,1648018618.740124,0.000000
250.000000,-41536.850218,-35584.401856,3615.126445,19998.910427,9574.012110,73668.913385,44431.311718,34614.961995,0.006000,0.978000,0.002000,192.000000,0.000000,0.000000,0.000000,0.000000,0.000000,0.000000,0.000000,0.000000,0.000000,1648018618.740127,0.000000
251.000000,-41529.585901,-35581.809054,3621.407285,20006.465317,9582.505772,73664.398332,44386.340009,34552.578277,0.006000,0.978000,0.002000,192.000000,0.000000,0.000000,0.000000,0.000000,0.000000,0.000000,0.000000,0.000000,0.000000,1648018618.747322,0.000000
252.000000,-41531.038765,-35579.104493,3621.876672,20002.553761,9582.304607,73673.026106,44379.187450,34512.568654,0.006000,0.978000,0.002000,192.000000,0.000000,0.000000,0.000000,0.000000,0.000000,0.000000,0.000000,0.000000,0.000000,1648018618.747326,0.000000
253.000000,-41549.657768,-35590.280365,3602.676523,19983.107744,9563.484438,73662.677248,44420.359364,34545.470422,0.006000,0.974000,-0.006000,192.000000,0.000000,48.000000,30.000000,112.000000,255.000000,208.000000,0.000000,0.000000,0.000000,1648018618.754846,0.000000
254.000000,-41555.916256,-35596.427095,3596.686256,19979.375002,9558.902330,73659.056265,44456.792707,34592.230271,0.006000,0.974000,-0.006000,192.000000,0.000000,0.000000,0.000000,0.000000,0.000000,0.000000,0.000000,0.000000,0.000000,1648018618.754851,0.000000
255.000000,-41544.829791,-35590.146254,3608.242107,19987.421630,9570.145258,73664.577146,44433.993928,34564.089425,0.006000,0.974000,-0.006000,192.000000,0.000000,0.000000,0.000000,0.000000,0.000000,0.000000,0.000000,0.000000,0.000000,1648018618.762800,0.000000
0.000000,-41540.225332,-35586.301754,3614.791169,19992.026090,9574.839124,73669.002792,44395.236003,34505.751372,0.006000,0.974000,-0.006000,192.000000,0.000000,0.000000,0.000000,0.000000,0.000000,0.000000,0.000000,0.000000,0.000000,1648018618.762804,0.000000
1.000000,-41537.721936,-35583.440731,3613.807692,19993.367194,9571.598121,73673.562547,44393.358456,34474.928316,0.006000,0.974000,-0.006000,192.000000,0.000000,0.000000,0.000000,0.000000,0.000000,0.000000,0.000000,0.000000,0.000000,1648018618.769901,0.000000
2.000000,-41534.503285,-35585.295926,3603.458834,19988.829790,9562.031574,73674.031934,44424.606195,34488.585232,0.006000,0.974000,-0.006000,192.000000,0.000000,0.000000,0.000000,0.000000,0.000000,0.000000,0.000000,0.000000,0.000000,1648018618.769905,0.000000
3.000000,-41552.809364,-35592.426132,3591.120671,19977.273938,9551.615662,73665.515919,44464.325245,34532.640521,0.006000,0.974000,-0.006000,192.000000,0.000000,0.000000,0.000000,0.000000,0.000000,0.000000,0.000000,0.000000,0.000000,1648018618.777505,0.000000
4.000000,-41559.380777,-35596.449446,3593.489956,19972.960052,9550.743944,73655.479986,44449.081355,34521.956387,0.006000,0.974000,-0.006000,192.000000,0.000000,0.000000,0.000000,0.000000,0.000000,0.000000,0.000000,0.000000,0.000000,1648018618.777510,0.000000
5.000000,-41557.637341,-35599.623394,3594.741654,19968.646165,9552.308566,73646.986323,44412.245680,34484.740732,0.006000,0.974000,-0.006000,192.000000,0.000000,0.000000,0.000000,0.000000,0.000000,0.000000,0.000000,0.000000,0.000000,1648018618.785522,0.000000
6.000000,-41553.234047,-35593.342554,3601.223660,19977.408049,9560.221083,73656.619925,44404.266108,34466.635819,0.006000,0.974000,-0.006000,192.000000,0.000000,0.000000,0.000000,0.000000,0.000000,0.000000,0.000000,0.000000,0.000000,1648018618.785526,0.000000
7.000000,-41546.416765,-35588.983964,3605.582250,19982.414840,9565.473743,73662.096102,44423.265090,34479.555128,0.002000,0.988000,-0.014000,192.000000,0.000000,16.000000,30.000000,224.000000,255.000000,144.000000,0.000000,0.000000,0.000000,1648018618.792564,0.000000
8.000000,-41551.401204,-35594.348382,3600.486052,19976.625738,9561.986871,73661.693771,44463.073547,34533.020500,0.002000,0.988000,-0.014000,192.000000,0.000000,0.000000,0.000000,0.000000,0.000000,0.000000,0.000000,0.000000,0.000000,1648018618.799626,0.000000
9.000000,-41549.970692,-35590.280365,3604.509366,19982.303081,9567.284234,73660.822053,44451.227123,34535.948579,0.002000,0.988000,-0.014000,192.000000,0.000000,0.000000,0.000000,0.000000,0.000000,0.000000,0.000000,0.000000,0.000000,1648018618.799630,0.000000
10.000000,-41541.834657,-35585.586498,3606.319857,19984.024165,9568.379470,73656.284649,44415.084352,34498.665869,0.002000,0.988000,-0.014000,192.000000,0.000000,0.000000,0.000000,0.000000,0.000000,0.000000,0.000000,0.000000,0.000000,1648018618.807068,0.000000
11.000000,-41553.189344,-35598.461103,3591.053616,19977.944491,9552.666194,73648.126262,44404.556680,34480.963287,0.002000,0.988000,-0.014000,192.000000,0.000000,0.000000,0.000000,0.000000,0.000000,0.000000,0.000000,0.000000,0.000000,1648018618.807071,0.000000
12.000000,-41545.232123,-35587.128769,3595.456910,19984.426497,9559.148199,73650.339085,44418.481817,34489.121674,0.002000,0.988000,-0.014000,192.000000,0.000000,0.000000,0.000000,0.000000,0.000000,0.000000,0.000000,0.000000,0.000000,1648018618.815076,0.000000
13.000000,-41545.545047,-35585.586498,3595.211040,19981.699584,9560.064621,73651.434320,44460.391338,34536.932056,0.002000,0.988000,-0.014000,192.000000,0.000000,0.000000,0.000000,0.000000,0.000000,0.000000,0.000000,0.000000,0.000000,1648018618.815079,0.000000
14.000000,-41548.406070,-35595.957708,3600.128424,19975.977537,9562.098630,73650.987285,44449.349576,34534.518067,0.002000,0.988000,-0.014000,192.000000,0.000000,0.000000,0.000000,0.000000,0.000000,0.000000,0.000000,0.000000,0.000000,1648018618.823081,0.000000
15.000000,-41530.412916,-35585.675905,3615.148796,19983.599482,9575.062642,73656.843443,44403.215576,34474.950668,0.002000,0.988000,-0.014000,192.000000,0.000000,0.000000,0.000000,0.000000,0.000000,0.000000,0.000000,0.000000,0.000000,1648018618.823086,0.000000
16.000000,-41532.804553,-35593.744885,3605.872823,19977.340994,9565.406688,73652.306038,44396.465349,34450.989598,0.002000,0.988000,-0.014000,192.000000,0.000000,0.000000,0.000000,0.000000,0.000000,0.000000,0.000000,0.000000,0.000000,1648018618.829777,0.000000
17.000000,-41541.700547,-35591.666173,3605.917526,19976.290462,9565.853723,73653.155405,44421.499303,34458.700950,0.002000,0.988000,-0.014000,192.000000,0.000000,0.000000,0.000000,0.000000,0.000000,0.000000,0.000000,0.000000,0.000000,1648018618.829781,0.000000
18.000000,-41533.631567,-35578.769216,3611.505462,19984.694717,9574.637958,73665.448864,44466.783937,34499.045849,0.002000,0.988000,-0.014000,192.000000,0.000000,0.000000,30.000000,240.000000,255.000000,144.000000,0.000000,0.000000,0.000000,1648018618.837745,0.000000
19.000000,-41543.198114,-35586.324106,3604.576421,19983.420668,9570.838162,73667.259355,44464.168783,34506.801904,0.002000,0.988000,-0.014000,192.000000,0.000000,0.000000,0.000000,0.000000,0.000000,0.000000,0.000000,0.000000,0.000000,1648018618.837749,0.000000
20.000000,-41545.455640,-35589.028667,3604.799939,19982.571302,9570.435830,73656.686980,44423.153332,34468.446311,0.002000,0.988000,-0.014000,192.000000,0.000000,0.000000,0.000000,0.000000,0.000000,0.000000,0.000000,0.000000,0.000000,1648018618.845742,0.000000
21.000000,-41535.866742,-35575.259993,3614.746465,19995.915293,9581.276426,73674.993059,44403.170872,34428.101412,0.002000,0.988000,-0.014000,192.000000,0.000000,0.000000,0.000000,0.000000,0.000000,0.000000,0.000000,0.000000,0.000000,1648018618.845746,0.000000
22.000000,-41542.929893,-35579.775045,3605.783416,19987.645148,9571.754583,73670.612117,44426.059058,34443.546467,0.002000,0.988000,-0.014000,192.000000,0.000000,0.000000,0.000000,0.000000,0.000000,0.000000,0.000000,0.000000,0.000000,1648018618.852925,0.000000
23.000000,-41545.947378,-35585.564147,3602.855337,19982.973633,9566.770144,73674.031934,44466.515716,34486.528872,0.002000,0.988000,-0.014000,192.000000,0.000000,0.000000,0.000000,0.000000,0.000000,0.000000,0.000000,0.000000,0.000000,1648018618.859340,0.000000
24.000000,-41540.426498,-35584.424208,3607.593907,19984.337090,9569.139429,73668.175777,44446.220332,34473.274287,0.002000,0.988000,-0.014000,192.000000,0.000000,0.000000,0.000000,0.000000,0.000000,0.000000,0.000000,0.000000,0.000000,1648018618.859345,0.000000
25.000000,-41541.879361,-35587.531100,3610.119654,19981.252549,9569.184133,73665.493568,44415.330221,34439.031415,0.002000,0.988000,-0.014000,192.000000,0.000000,0.000000,0.000000,0.000000,0.000000,0.000000,0.000000,0.000000,0.000000,1648018618.867495,0.000000
26.000000,-41541.722899,-35588.693391,3608.778549,19980.939624,9566.948958,73662.632544,44404.914308,34416.322043,0.002000,0.988000,-0.014000,192.000000,0.000000,0.000000,0.000000,0.000000,0.000000,0.000000,0.000000,0.000000,0.000000,1648018618.867499,0.000000
27.000000,-41533.385698,-35577.428112,3610.723151,19988.025127,9570.592293,73666.812321,44423.980346,34423.653415,0.002000,0.988000,-0.014000,192.000000,0.000000,0.000000,0.000000,0.000000,0.000000,0.000000,0.000000,0.000000,0.000000,1648018618.875377,0.000000
28.000000,-41534.883265,-35581.049094,3607.996238,19985.432325,9568.960615,73672.400257,44472.774204,34477.096436,0.002000,0.988000,-0.014000,192.000000,0.000000,0.000000,30.000000,208.000000,255.000000,192.000000,0.000000,0.000000,0.000000,1648018618.875381,0.000000
29.000000,-41541.141753,-35593.946051,3603.168261,19973.921177,9562.880941,73663.325448,44459.698434,34477.185843,0.002000,0.988000,-0.014000,192.000000,0.000000,0.000000,0.000000,0.000000,0.000000,0.000000,0.000000,0.000000,0.000000,1648018618.882556,0.000000
30.000000,-41533.408050,-35589.632164,3611.080779,19972.088334,9568.915912,73659.816225,44420.359364,34449.022645,0.002000,0.988000,-0.014000,192.000000,0.000000,0.000000,0.000000,0.000000,0.000000,0.000000,0.000000,0.000000,0.000000,1648018618.882560,0.000000
31.000000,-41532.491628,-35577.606926,3623.620108,19987.846313,9580.605874,73682.324431,44403.930831,34413.304557,0.002000,0.988000,-0.014000,192.000000,0.000000,0.000000,0.000000,0.000000,0.000000,0.000000,0.000000,0.000000,0.000000,1648018618.890111,0.000000
32.000000,-41539.867704,-35582.323144,3621.340230,19990.394412,9577.633092,73686.437152,44430.350593,34426.201514,0.002000,0.988000,-0.014000,192.000000,0.000000,0.000000,0.000000,0.000000,0.000000,0.000000,0.000000,0.000000,0.000000,1648018618.890115,0.000000
33.000000,-41541.879361,-35582.993696,3613.673581,19991.109668,9573.386261,73684.224329,44472.260114,34476.895270,0.002000,0.988000,-0.014000,192.000000,0.000000,0.000000,0.000000,0.000000,0.000000,0.000000,0.000000,0.000000,0.000000,1648018618.898111,0.000000
34.000000,-41541.409974,-35582.881937,3611.036075,19991.534351,9572.045156,73675.730667,44458.580847,34480.203328,0.002000,0.988000,-0.014000,192.000000,0.000000,0.000000,0.000000,0.000000,0.000000,0.000000,0.000000,0.000000,0.000000,1648018618.898137,0.000000
35.000000,-41547.780221,-35585.407684,3606.297506,19984.560607,9564.982005,73671.930870,44435.446791,34463.037188,0.002000,0.988000,-0.014000,192.000000,0.000000,0.000000,0.000000,0.000000,0.000000,0.000000,0.000000,0.000000,0.000000,1648018618.905177,0.000000
36.000000,-41548.204905,-35586.011182,3602.877689,19982.772467,9562.813886,73674.098989,44411.619832,34437.958531,0.002000,0.988000,-0.014000,192.000000,0.000000,0.000000,0.000000,0.000000,0.000000,0.000000,0.000000,0.000000,0.000000,1648018618.905181,0.000000
37.000000,-41543.265169,-35582.680772,3607.549203,19989.187418,9567.172476,73684.492550,44431.803457,34449.693197,0.002000,0.988000,-0.014000,192.000000,0.000000,0.000000,0.000000,0.000000,0.000000,0.000000,0.000000,0.000000,0.000000,1648018618.911656,0.000000
38.000000,-41545.120364,-35585.810016,3604.129386,19983.822999,9561.249263,73682.749114,44476.328132,34502.443314,-0.006000,0.990000,-0.014000,192.000000,255.000000,208.000000,30.000000,240.000000,255.000000,144.000000,0.000000,0.000000,0.000000,1648018618.911659,0.000000
39.000000,-41537.453715,-35581.786702,3618.188634,19991.668462,9572.380432,73681.005678,44453.641111,34498.062372,-0.006000,0.990000,-0.014000,192.000000,0.000000,0.000000,0.000000,0.000000,0.000000,0.000000,0.000000,0.000000,0.000000,1648018618.919679,0.000000
40.000000,-41534.279768,-35581.607888,3623.240128,19993.478953,9577.566037,73679.530463,44420.538178,34464.445348,-0.006000,0.990000,-0.014000,192.000000,0.000000,0.000000,0.000000,0.000000,0.000000,0.000000,0.000000,0.000000,0.000000,1648018618.927708,0.000000
41.000000,-41538.213675,-35584.446559,3619.954422,19989.276825,9574.280330,73680.826864,44403.997887,34439.411395,-0.006000,0.990000,-0.014000,192.000000,0.000000,0.000000,0.000000,0.000000,0.000000,0.000000,0.000000,0.000000,0.000000,1648018618.927714,0.000000
42.000000,-41543.332224,-35583.910118,3617.048695,19986.706374,9571.374604,73684.626661,44423.153332,34452.733034,-0.006000,0.990000,-0.014000,192.000000,0.000000,0.000000,0.000000,0.000000,0.000000,0.000000,0.000000,0.000000,0.000000,1648018618.934774,0.000000
43.000000,-41544.382756,-35584.692429,3613.785340,19987.064002,9568.692394,73689.275824,44472.058949,34495.268404,-0.006000,0.990000,-0.014000,192.000000,0.000000,0.000000,0.000000,0.000000,0.000000,0.000000,0.000000,0.000000,0.000000,1648018618.934784,0.000000
44.000000,-41545.656806,-35594.795417,3607.884480,19980.671403,9563.529141,73685.051344,44471.254286,34504.365564,-0.006000,0.990000,-0.014000,192.000000,0.000000,0.000000,0.000000,0.000000,0.000000,0.000000,0.000000,0.000000,0.000000,1648018618.942200,0.000000
45.000000,-41554.686910,-35600.495112,3601.827157,19976.044592,9559.595234,73675.954184,44447.203809,34490.820407,-0.006000,0.990000,-0.014000,192.000000,0.000000,0.000000,0.000000,0.000000,0.000000,0.000000,0.000000,0.000000,0.000000,1648018618.942204,0.000000
46.000000,-41552.474088,-35589.229833,3609.627916,19991.512000,9569.631168,73686.146580,44427.198997,34462.545450,-0.006000,0.990000,-0.014000,192.000000,0.000000,0.000000,0.000000,0.000000,0.000000,0.000000,0.000000,0.000000,0.000000,1648018618.950301,0.000000
47.000000,-41566.667446,-35598.528158,3597.826195,19986.125229,9558.343537,73682.503245,44454.468126,34500.275195,-0.006000,0.990000,-0.014000,192.000000,0.000000,0.000000,0.000000,0.000000,0.000000,0.000000,0.000000,0.000000,0.000000,1648018618.950305,0.000000
48.000000,-41576.099882,-35605.010164,3588.997255,19983.778296,9549.983984,73674.210748,44503.284336,34573.745379,-0.006000,0.992000,-0.014000,192.000000,255.000000,208.000000,31.000000,0.000000,255.000000,144.000000,0.000000,0.000000,0.000000,1648018618.958347,0.000000
49.000000,-41571.517774,-35605.121923,3593.668770,19979.039726,9552.085048,73661.939640,44489.828585,34590.330373,-0.006000,0.992000,-0.014000,192.000000,0.000000,0.000000,0.000000,0.000000,0.000000,0.000000,0.000000,0.000000,0.000000,1648018618.958351,0.000000
50.000000,-41561.772413,-35595.398914,3606.431616,19984.270034,9562.456258,73666.186472,44447.337919,34562.793024,-0.006000,0.992000,-0.014000,192.000000,0.000000,0.000000,0.000000,0.000000,0.000000,0.000000,0.000000,0.000000,0.000000,1648018618.964840,0.000000
51.000000,-41558.509059,-35592.314374,3611.684276,19985.231159,9566.367813,73672.981402,44413.720895,34520.436468,-0.006000,0.992000,-0.014000,192.000000,0.000000,0.000000,0.000000,0.000000,0.000000,0.000000,0.000000,0.000000,0.000000,1648018618.964844,0.000000
52.000000,-41567.628571,-35596.024763,3602.832985,19981.096087,9557.784743,73673.383733,44443.314605,34546.722120,-0.006000,0.992000,-0.014000,192.000000,0.000000,0.000000,0.000000,0.000000,0.000000,0.000000,0.000000,0.000000,0.000000,1648018618.972930,0.000000
53.000000,-41578.268001,-35603.222025,3592.864107,19973.161217,9548.195845,73670.232137,44500.646830,34634.899752,-0.006000,0.992000,-0.014000,192.000000,0.000000,0.000000,0.000000,0.000000,0.000000,0.000000,0.000000,0.000000,0.000000,1648018618.972933,0.000000
54.000000,-41571.674236,-35600.316298,3602.385950,19975.105819,9555.504865,73673.473140,44481.983123,34648.534316,-0.006000,0.992000,-0.014000,192.000000,0.000000,0.000000,0.000000,0.000000,0.000000,0.000000,0.000000,0.000000,0.000000,1648018618.980046,0.000000
55.000000,-41561.817117,-35592.672001,3612.108959,19980.202017,9562.478609,73679.374001,44450.422460,34623.768583,-0.006000,0.992000,-0.014000,192.000000,0.000000,0.000000,0.000000,0.000000,0.000000,0.000000,0.000000,0.000000,0.000000,1648018618.987949,0.000000
56.000000,-41565.125175,-35592.046153,3611.214889,19980.425534,9561.763354,73681.653879,44421.544006,34591.045629,-0.006000,0.992000,-0.014000,192.000000,0.000000,0.000000,0.000000,0.000000,0.000000,0.000000,0.000000,0.000000,0.000000,1648018618.987953,0.000000
57.000000,-41566.756852,-35592.627298,3608.152700,19980.000851,9558.276481,73687.241815,44440.274768,34608.658804,-0.006000,0.992000,-0.014000,192.000000,0.000000,0.000000,0.000000,0.000000,0.000000,0.000000,0.000000,0.000000,0.000000,1648018618.994606,0.000000
58.000000,-41565.080472,-35597.969365,3605.895174,19983.800648,9558.209426,73688.515864,44483.346579,34662.213583,-0.006000,0.994000,-0.014000,192.000000,255.000000,208.000000,31.000000,16.000000,255.000000,144.000000,0.000000,0.000000,0.000000,1648018618.994609,0.000000
59.000000,-41555.223352,-35597.477626,3611.572517,19991.735517,9565.473743,73688.739382,44477.691588,34669.097921,-0.006000,0.994000,-0.014000,192.000000,0.000000,0.000000,0.000000,0.000000,0.000000,0.000000,0.000000,0.000000,0.000000,1648018619.002586,0.000000
60.000000,-41567.852088,-35595.287156,3613.919451,19991.132020,9567.507752,73691.242777,44452.054137,34642.946380,-0.006000,0.994000,-0.014000,192.000000,0.000000,0.000000,0.000000,0.000000,0.000000,0.000000,0.000000,0.000000,0.000000,1648018619.002612,0.000000
61.000000,-41568.388530,-35590.794455,3618.836834,19996.027052,9571.307548,73695.266091,44427.355460,34605.708373,-0.006000,0.994000,-0.014000,192.000000,0.000000,0.000000,0.000000,0.000000,0.000000,0.000000,0.000000,0.000000,0.000000,1648018619.010608,0.000000
62.000000,-41567.919143,-35594.460141,3612.667753,19988.807438,9563.171513,73691.376888,44445.415669,34611.631586,-0.006000,0.994000,-0.014000,192.000000,0.000000,0.000000,0.000000,0.000000,0.000000,0.000000,0.000000,0.000000,0.000000,1648018619.010611,0.000000
63.000000,-41575.518736,-35599.042249,3607.280982,19981.476066,9556.130714,73690.885149,44498.523414,34675.155243,-0.006000,0.994000,-0.014000,192.000000,0.000000,0.000000,0.000000,0.000000,0.000000,0.000000,0.000000,0.000000,0.000000,1648018619.017726,0.000000
64.000000,-41582.894812,-35603.892577,3604.889346,19973.697659,9550.766295,73674.657783,44482.854841,34683.805368,-0.006000,0.994000,-0.014000,192.000000,0.000000,0.000000,0.000000,0.000000,0.000000,0.000000,0.000000,0.000000,0.000000,1648018619.017732,0.000000
65.000000,-41591.768455,-35603.691411,3605.626953,19974.658784,9550.185150,73678.591690,44445.907408,34652.803499,-0.006000,0.994000,-0.014000,192.000000,0.000000,0.000000,0.000000,0.000000,0.000000,0.000000,0.000000,0.000000,0.000000,1648018619.025180,0.000000
66.000000,-41588.147472,-35595.667135,3609.314991,19981.788991,9553.984946,73688.091181,44425.500265,34631.636397,-0.006000,0.994000,-0.014000,192.000000,0.000000,0.000000,0.000000,0.000000,0.000000,0.000000,0.000000,0.000000,0.000000,1648018619.025184,0.000000
67.000000,-41587.767492,-35596.404743,3604.464663,19982.839523,9549.581653,73684.537254,44445.013338,34651.663560,-0.006000,0.994000,-0.014000,192.000000,0.000000,0.000000,0.000000,0.000000,0.000000,0.000000,0.000000,0.000000,0.000000,1648018619.033234,0.000000
68.000000,-41588.907431,-35596.337688,3602.520061,19981.073735,9548.978156,73684.604309,44486.431120,34704.793656,-0.002000,0.996000,-0.008000,192.000000,255.000000,240.000000,31.000000,32.000000,255.000000,192.000000,0.000000,0.000000,0.000000,1648018619.033238,0.000000
69.000000,-41583.699475,-35587.709914,3617.696895,19986.616968,9562.858589,73692.382716,44477.512774,34714.024927,-0.002000,0.996000,-0.008000,192.000000,0.000000,0.000000,0.000000,0.000000,0.000000,0.000000,0.000000,0.000000,0.000000,1648018619.040307,0.000000
70.000000,-41574.423501,-35577.897498,3634.192483,20001.123250,9577.968368,73696.450734,44444.946282,34682.419560,-0.002000,0.996000,-0.008000,192.000000,0.000000,0.000000,0.000000,0.000000,0.000000,0.000000,0.000000,0.000000,0.000000,1648018619.046731,0.000000
71.000000,-41569.304951,-35572.153100,3641.568558,20009.885133,9586.283217,73711.873437,44428.607157,34643.281656,-0.002000,0.996000,-0.008000,192.000000,0.000000,0.000000,0.000000,0.000000,0.000000,0.000000,0.000000,0.000000,0.000000,1648018619.046735,0.000000
72.000000,-41600.776208,-35599.489284,3614.187671,19984.046517,9558.835275,73696.920120,44454.959864,34666.169842,-0.002000,0.996000,-0.008000,192.000000,0.000000,0.000000,0.000000,0.000000,0.000000,0.000000,0.000000,0.000000,0.000000,1648018619.054830,0.000000
73.000000,-41614.187254,-35611.179246,3601.782453,19971.015450,9544.664269,73685.140751,44495.438873,34716.036584,-0.002000,0.996000,-0.008000,192.000000,0.000000,0.000000,0.000000,0.000000,0.000000,0.000000,0.000000,0.000000,0.000000,1648018619.054834,0.000000
74.000000,-41597.244632,-35597.187054,3610.030247,19975.821075,9551.928586,73687.219463,44500.110388,34735.192029,-0.002000,0.996000,-0.008000,192.000000,0.000000,0.000000,0.000000,0.000000,0.000000,0.000000,0.000000,0.000000,0.000000,1648018619.062755,0.000000
75.000000,-41612.689687,-35598.081124,3607.862128,19969.651993,9548.106438,73681.810341,44464.526411,34714.449610,-0.002000,0.996000,-0.008000,192.000000,0.000000,0.000000,0.000000,0.000000,0.000000,0.000000,0.000000,0.000000,0.000000,1648018619.062759,0.000000
76.000000,-41620.378687,-35609.659327,3616.288735,19970.233139,9553.873188,73696.115458,44434.105686,34678.351543,-0.002000,0.996000,-0.008000,192.000000,0.000000,0.000000,0.000000,0.000000,0.000000,0.000000,0.000000,0.000000,0.000000,1648018619.069858,0.000000
77.000000,-41632.828609,-35622.355118,3606.632782,19963.684078,9545.066600,73702.999795,44472.528335,34712.840284,-0.002000,0.996000,-0.008000,192.000000,0.000000,0.000000,0.000000,0.000000,0.000000,0.000000,0.000000,0.000000,0.000000,1648018619.069862,0.000000
78.000000,-41633.119182,-35620.321109,3600.217831,19959.794874,9538.092856,73694.059097,44510.749818,34760.158927,-0.002000,0.994000,-0.018000,192.000000,255.000000,240.000000,31.000000,16.000000,255.000000,112.000000,0.000000,0.000000,0.000000,1648018619.077478,0.000000
79.000000,-41617.584719,-35601.545644,3616.311087,19973.183569,9553.023821,73694.170856,44502.949059,34764.673980,-0.002000,0.994000,-0.018000,192.000000,0.000000,0.000000,0.000000,0.000000,0.000000,0.000000,0.000000,0.000000,0.000000,1648018619.077483,0.000000
80.000000,-41621.317461,-35604.361964,3616.132273,19969.406124,9552.867359,73689.454638,44459.027882,34722.853866,-0.002000,0.994000,-0.018000,192.000000,0.000000,0.000000,0.000000,0.000000,0.000000,0.000000,0.000000,0.000000,0.000000,1648018619.085353,0.000000
81.000000,-41610.275699,-35588.916908,3632.806675,19984.001813,9570.212313,73702.195132,44419.621756,34664.426406,-0.002000,0.994000,-0.018000,192.000000,0.000000,0.000000,0.000000,0.000000,0.000000,0.000000,0.000000,0.000000,0.000000,1648018619.085357,0.000000
82.000000,-41606.408847,-35582.211385,3639.288680,19992.271959,9576.806078,73712.007548,44442.219370,34668.807348,-0.002000,0.994000,-0.018000,192.000000,0.000000,0.000000,0.000000,0.000000,0.000000,0.000000,0.000000,0.000000,0.000000,1648018619.093508,0.000000
83.000000,-41629.498199,-35603.691411,3614.590003,19970.501360,9551.995641,73691.198074,44491.326152,34707.677031,-0.002000,0.994000,-0.018000,192.000000,0.000000,0.000000,0.000000,0.000000,0.000000,0.000000,0.000000,0.000000,0.000000,1648018619.093511,0.000000
84.000000,-41636.382536,-35608.362926,3611.796035,19963.572319,9548.240548,73679.485760,44500.468016,34731.079308,-0.002000,0.994000,-0.018000,192.000000,0.000000,0.000000,0.000000,0.000000,0.000000,0.000000,0.000000,0.000000,0.000000,1648018619.099631,0.000000
85.000000,-41640.763478,-35609.905196,3612.131311,19962.030049,9547.413534,73683.531425,44478.987989,34719.188180,-0.002000,0.994000,-0.018000,192.000000,0.000000,0.000000,0.000000,0.000000,0.000000,0.000000,0.000000,0.000000,0.000000,1648018619.107107,0.000000
86.000000,-41636.404888,-35596.181225,3626.592890,19979.129133,9559.394069,73696.786010,44456.412727,34690.086209,-0.002000,0.994000,-0.018000,192.000000,0.000000,0.000000,0.000000,0.000000,0.000000,0.000000,0.000000,0.000000,0.000000,1648018619.107117,0.000000
87.000000,-41672.458252,-35596.896481,3628.246919,19984.538255,9558.432944,73708.140696,44486.051141,34713.756706,-0.002000,0.994000,-0.018000,192.000000,0.000000,0.000000,0.000000,0.000000,0.000000,0.000000,0.000000,0.000000,0.000000,1648018619.115150,0.000000
88.000000,-41691.434883,-35596.427095,3620.379105,19969.272014,9550.632185,73702.262187,44519.712868,34753.319294,-0.002000,0.994000,-0.018000,192.000000,0.000000,0.000000,31.000000,32.000000,255.000000,128.000000,0.000000,0.000000,0.000000,1648018619.115154,0.000000
89.000000,-41682.516537,-35594.683658,3624.469474,19967.282709,9553.314394,73701.613987,44520.629289,34765.344532,-0.002000,0.994000,-0.018000,192.000000,0.000000,0.000000,0.000000,0.000000,0.000000,0.000000,0.000000,0.000000,0.000000,1648018619.123378,0.000000
90.000000,-41683.969400,-35589.118074,3631.711439,19978.190360,9561.785705,73704.184437,44496.020019,34745.138555,-0.002000,0.994000,-0.018000,192.000000,0.000000,0.000000,0.000000,0.000000,0.000000,0.000000,0.000000,0.000000,0.000000,1648018619.123389,0.000000
91.000000,-41690.473758,-35590.950917,3633.700744,19980.716107,9565.250226,73707.872475,44466.560419,34704.056049,-0.002000,0.994000,-0.018000,192.000000,0.000000,0.000000,0.000000,0.000000,0.000000,0.000000,0.000000,0.000000,0.000000,1648018619.130187,0.000000
92.000000,-41686.852775,-35586.972307,3635.287718,19983.130095,9567.775973,73710.912312,44480.284390,34697.417581,-0.002000,0.994000,-0.018000,192.000000,0.000000,0.000000,0.000000,0.000000,0.000000,0.000000,0.000000,0.000000,0.000000,1648018619.130203,0.000000
93.000000,-41690.898441,-35589.408647,3631.398515,19981.721935,9564.199694,73713.728632,44526.306632,34732.845096,-0.002000,0.994000,-0.018000,192.000000,0.000000,0.000000,0.000000,0.000000,0.000000,0.000000,0.000000,0.000000,0.000000,1648018619.138190,0.000000
94.000000,-41676.436863,-35576.154062,3642.105000,19990.439116,9576.671967,73721.618798,44524.205568,34729.984072,-0.002000,0.994000,-0.018000,192.000000,0.000000,0.000000,0.000000,0.000000,0.000000,0.000000,0.000000,0.000000,0.000000,1648018619.138206,0.000000
95.000000,-41677.263877,-35571.393141,3644.541340,19997.569322,9580.404708,73729.039577,44505.921841,34708.124066,-0.002000,0.994000,-0.018000,192.000000,0.000000,0.000000,0.000000,0.000000,0.000000,0.000000,0.000000,0.000000,0.000000,1648018619.146098,0.000000
96.000000,-41695.949935,-35585.452388,3636.047678,19990.573226,9570.949921,73718.578961,44472.997722,34662.817080,-0.002000,0.994000,-0.018000,192.000000,0.000000,0.000000,0.000000,0.000000,0.000000,0.000000,0.000000,0.000000,0.000000,1648018619.146114,0.000000
97.000000,-41697.894537,-35585.877071,3633.298413,19987.779258,9566.256054,73716.343786,44496.914088,34677.412769,-0.002000,0.994000,-0.018000,192.000000,0.000000,0.000000,0.000000,0.000000,0.000000,0.000000,0.000000,0.000000,0.000000,1648018619.153268,0.000000
98.000000,-41705.069447,-35588.693391,3624.156549,19979.687927,9556.734211,73713.594522,44535.962586,34717.400040,0.006000,0.986000,-0.010000,192.000000,0.000000,48.000000,30.000000,208.000000,255.000000,176.000000,0.000000,0.000000,0.000000,1648018619.153284,0.000000
99.000000,-41703.750694,-35588.805150,3629.275099,19982.146619,9561.584540,73714.041557,44533.660356,34717.645910,0.006000,0.986000,-0.010000,192.000000,0.000000,0.000000,0.000000,0.000000,0.000000,0.000000,0.000000,0.000000,0.000000,1648018619.159906,0.000000
100.000000,-41694.966459,-35577.428112,3639.378087,19991.266130,9571.396955,73725.396243,44511.018039,34682.531319,0.006000,0.986000,-0.010000,192.000000,0.000000,0.000000,0.000000,0.000000,0.000000,0.000000,0.000000,0.000000,0.000000,1648018619.159922,0.000000
101.000000,-41695.994639,-35575.148234,3640.160399,19992.137848,9572.335729,73726.469127,44473.310646,34621.488705,0.006000,0.986000,-0.010000,192.000000,0.000000,0.000000,0.000000,0.000000,0.000000,0.000000,0.000000,0.000000,0.000000,1648018619.167813,0.000000
102.000000,-41703.929508,-35581.116150,3630.504445,19984.694717,9562.433906,73728.503135,44494.969487,34619.611158,0.006000,0.986000,-0.010000,192.000000,0.000000,0.000000,0.000000,0.000000,0.000000,0.000000,0.000000,0.000000,0.000000,1648018619.175851,0.000000
103.000000,-41712.087895,-35586.860548,3622.748390,19980.961976,9555.706031,73729.084281,44543.249255,34661.386569,0.006000,0.986000,-0.010000,192.000000,0.000000,0.000000,0.000000,0.000000,0.000000,0.000000,0.000000,0.000000,0.000000,1648018619.175867,0.000000
104.000000,-41711.618508,-35596.561205,3615.573480,19976.290462,9549.067563,73722.848144,44559.946008,34690.220319,0.006000,0.986000,-0.010000,192.000000,0.000000,0.000000,0.000000,0.000000,0.000000,0.000000,0.000000,0.000000,0.000000,1648018619.182469,0.000000
105.000000,-41716.424133,-35596.918833,3616.333439,19971.998927,9551.570958,73715.248551,44540.276473,34685.571156,0.006000,0.986000,-0.010000,192.000000,0.000000,0.000000,0.000000,0.000000,0.000000,0.000000,0.000000,0.000000,0.000000,1648018619.182486,0.000000
106.000000,-41707.662250,-35581.876109,3633.164302,19988.807438,9571.240493,73727.542010,44498.590469,34626.428440,0.006000,0.986000,-0.010000,192.000000,0.000000,0.000000,0.000000,0.000000,0.000000,0.000000,0.000000,0.000000,0.000000,1648018619.190065,0.000000
107.000000,-41714.345421,-35587.598155,3627.598718,19988.181590,9566.837200,73731.610028,44517.701211,34627.210751,0.006000,0.986000,-0.010000,192.000000,0.000000,0.000000,0.000000,0.000000,0.000000,0.000000,0.000000,0.000000,0.000000,1648018619.190084,0.000000
108.000000,-41728.717593,-35601.322127,3614.142968,19974.211749,9554.633147,73718.131926,44549.887723,34663.375874,0.010000,0.980000,-0.010000,192.000000,0.000000,80.000000,30.000000,160.000000,255.000000,176.000000,0.000000,0.000000,0.000000,1648018619.198373,0.000000
109.000000,-41726.661232,-35601.344478,3611.863090,19970.635470,9554.253167,73702.776277,44553.866333,34690.667354,0.010000,0.980000,-0.010000,192.000000,0.000000,0.000000,0.000000,0.000000,0.000000,0.000000,0.000000,0.000000,0.000000,1648018619.198385,0.000000
110.000000,-41714.837159,-35586.972307,3627.531663,19983.711241,9569.027671,73710.152353,44517.835321,34660.604258,0.010000,0.980000,-0.010000,192.000000,0.000000,0.000000,0.000000,0.000000,0.000000,0.000000,0.000000,0.000000,0.000000,1648018619.205529,0.000000
111.000000,-41708.153988,-35581.362019,3637.835817,19990.416764,9576.873133,73719.137754,44483.972428,34607.630623,0.010000,0.980000,-0.010000,192.000000,0.000000,0.000000,0.000000,0.000000,0.000000,0.000000,0.000000,0.000000,0.000000,1648018619.205547,0.000000
112.000000,-41704.421247,-35579.886804,3637.746410,19991.221427,9576.448450,73726.938513,44501.295030,34605.238987,0.010000,0.980000,-0.010000,192.000000,0.000000,0.000000,0.000000,0.000000,0.000000,0.000000,0.000000,0.000000,0.000000,1648018619.212995,0.000000
113.000000,-41716.401782,-35591.129731,3620.736733,19978.793857,9560.712822,73721.372929,44542.355185,34650.233048,0.010000,0.980000,-0.010000,192.000000,0.000000,0.000000,0.000000,0.000000,0.000000,0.000000,0.000000,0.000000,0.000000,1648018619.213034,0.000000
114.000000,-41712.825502,-35592.560243,3625.520006,19977.184531,9563.842066,73719.763603,44551.139420,34674.954078,0.010000,0.980000,-0.010000,192.000000,0.000000,0.000000,0.000000,0.000000,0.000000,0.000000,0.000000,0.000000,0.000000,1648018619.221131,0.000000
115.000000,-41702.029610,-35585.295926,3639.109867,19986.885188,9576.090822,73731.408862,44533.660356,34657.027979,0.010000,0.980000,-0.010000,192.000000,0.000000,0.000000,0.000000,0.000000,0.000000,0.000000,0.000000,0.000000,0.000000,1648018619.221147,0.000000
116.000000,-41697.089874,-35574.902365,3646.552997,19994.507133,9583.601008,73740.327208,44501.965583,34615.967824,0.010000,0.980000,-0.010000,192.000000,0.000000,0.000000,0.000000,0.000000,0.000000,0.000000,0.000000,0.000000,0.000000,1648018619.228160,0.000000
117.000000,-41721.676793,-35595.309507,3621.027305,19973.764714,9560.645766,73731.855897,44519.265833,34630.474106,0.010000,0.980000,-0.010000,192.000000,0.000000,0.000000,0.000000,0.000000,0.000000,0.000000,0.000000,0.000000,0.000000,1648018619.235290,0.000000
118.000000,-41712.691392,-35590.950917,3626.078799,19982.593654,9567.172476,73736.929743,44560.504801,34670.371970,0.010000,0.980000,-0.010000,192.000000,0.000000,0.000000,0.000000,0.000000,0.000000,0.000000,0.000000,0.000000,0.000000,1648018619.235306,0.000000
119.000000,-41708.668078,-35587.352286,3629.453913,19987.041651,9571.978101,73738.695531,44571.010121,34686.420523,0.014000,0.986000,-0.020000,192.000000,0.000000,112.000000,30.000000,208.000000,255.000000,96.000000,0.000000,0.000000,0.000000,1648018619.242708,0.000000
120.000000,-41705.047095,-35586.189996,3630.727962,19990.640282,9574.436793,73729.106632,44552.234656,34676.697514,0.014000,0.986000,-0.020000,192.000000,0.000000,0.000000,0.000000,0.000000,0.000000,0.000000,0.000000,0.000000,0.000000,1648018619.242724,0.000000
121.000000,-41694.094741,-35582.881937,3633.656041,19997.099936,9577.588389,73727.899638,44510.503949,34622.628644,0.014000,0.986000,-0.020000,192.000000,0.000000,0.000000,0.000000,0.000000,0.000000,0.000000,0.000000,0.000000,0.000000,1648018619.250749,0.000000
122.000000,-41698.095703,-35579.417417,3632.002012,19994.663596,9577.856610,73737.622647,44531.559292,34627.255455,0.014000,0.986000,-0.020000,192.000000,0.000000,0.000000,0.000000,0.000000,0.000000,0.000000,0.000000,0.000000,0.000000,1648018619.250766,0.000000
123.000000,-41697.671020,-35575.908193,3624.402419,19994.261264,9573.609778,73736.974446,44578.162679,34677.926860,0.014000,0.986000,-0.020000,192.000000,0.000000,0.000000,0.000000,0.000000,0.000000,0.000000,0.000000,0.000000,0.000000,1648018619.258699,0.000000
124.000000,-41714.479532,-35592.604946,3608.331514,19975.329337,9555.951900,73717.707243,44591.886651,34713.622596,0.014000,0.986000,-0.020000,192.000000,0.000000,0.000000,0.000000,0.000000,0.000000,0.000000,0.000000,0.000000,0.000000,1648018619.258716,0.000000
125.000000,-41721.900311,-35597.589385,3611.460759,19973.362383,9554.856665,73713.549818,44556.280322,34691.427313,0.014000,0.986000,-0.020000,192.000000,0.000000,0.000000,0.000000,0.000000,0.000000,0.000000,0.000000,0.000000,0.000000,1648018619.265266,0.000000
126.000000,-41714.948918,-35590.705048,3619.999125,19979.375002,9563.082106,73722.021129,44516.360106,34639.347749,0.014000,0.986000,-0.020000,192.000000,0.000000,0.000000,0.000000,0.000000,0.000000,0.000000,0.000000,0.000000,0.000000,1648018619.265282,0.000000
127.000000,-41710.992659,-35588.559280,3619.932070,19977.899787,9563.998528,73726.245609,44533.772115,34644.242781,0.014000,0.986000,-0.020000,192.000000,0.000000,0.000000,0.000000,0.000000,0.000000,0.000000,0.000000,0.000000,0.000000,1648018619.273180,0.000000
128.000000,-41703.393066,-35581.317315,3622.636631,19986.751078,9570.011147,73734.739272,44564.304598,34667.667409,0.014000,0.986000,-0.020000,192.000000,0.000000,0.000000,0.000000,0.000000,0.000000,0.000000,0.000000,0.000000,0.000000,1648018619.273195,0.000000
129.000000,-41699.950898,-35580.222080,3627.263442,19989.343880,9575.464973,73733.241705,44576.888630,34692.231976,0.012000,0.980000,-0.024000,192.000000,0.000000,96.000000,30.000000,160.000000,255.000000,64.000000,0.000000,0.000000,0.000000,1648018619.281254,0.000000
130.000000,-41696.553433,-35576.534042,3632.270233,19990.953206,9579.711804,73736.035673,44556.436784,34677.301011,0.012000,0.980000,-0.024000,192.000000,0.000000,0.000000,0.000000,0.000000,0.000000,0.000000,0.000000,0.000000,0.000000,1648018619.281270,0.000000
131.000000,-41692.440712,-35573.538908,3636.293547,19991.042613,9583.019863,73735.342769,44510.526301,34621.823981,0.012000,0.980000,-0.024000,192.000000,0.000000,0.000000,0.000000,0.000000,0.000000,0.000000,0.000000,0.000000,0.000000,1648018619.287513,0.000000
132.000000,-41700.017953,-35585.541795,3624.357715,19984.828828,9571.843990,73739.343731,44528.988842,34620.639339,0.012000,0.980000,-0.024000,192.000000,0.000000,0.000000,0.000000,0.000000,0.000000,0.000000,0.000000,0.000000,0.000000,1648018619.294855,0.000000
133.000000,-41706.499959,-35592.068504,3616.244032,19981.029031,9563.707955,73731.207696,44573.066482,34668.181499,0.012000,0.980000,-0.024000,192.000000,0.000000,0.000000,0.000000,0.000000,0.000000,0.000000,0.000000,0.000000,0.000000,1648018619.294872,0.000000
134.000000,-41707.103456,-35587.307583,3621.094360,19981.163142,9566.948958,73729.978350,44584.823499,34698.043430,0.012000,0.980000,-0.024000,192.000000,0.000000,0.000000,0.000000,0.000000,0.000000,0.000000,0.000000,0.000000,0.000000,1648018619.302919,0.000000
135.000000,-41704.510654,-35593.096685,3620.110884,19976.044592,9564.847894,73721.596446,44568.797299,34697.238767,0.012000,0.980000,-0.024000,192.000000,0.000000,0.000000,0.000000,0.000000,0.000000,0.000000,0.000000,0.000000,0.000000,1648018619.302936,0.000000
136.000000,-41693.312430,-35583.776007,3633.566634,19985.544084,9578.705976,73724.077490,44519.154074,34646.232086,0.012000,0.980000,-0.024000,192.000000,0.000000,0.000000,0.000000,0.000000,0.000000,0.000000,0.000000,0.000000,0.000000,1648018619.311010,0.000000
137.000000,-41703.817749,-35580.646763,3635.824160,19991.310834,9581.365833,73735.186307,44531.559292,34638.967769,0.012000,0.980000,-0.024000,192.000000,0.000000,0.000000,0.000000,0.000000,0.000000,0.000000,0.000000,0.000000,0.000000,1648018619.311026,0.000000
138.000000,-41687.568031,-35566.855737,3641.009765,20004.721881,9588.920723,73744.194060,44569.736072,34672.137758,0.012000,0.980000,-0.024000,192.000000,0.000000,0.000000,0.000000,0.000000,0.000000,0.000000,0.000000,0.000000,0.000000,1648018619.317440,0.000000
139.000000,-41680.169604,-35565.067597,3642.127352,20009.527506,9590.753566,73738.382606,44586.008142,34700.122142,0.014000,0.986000,-0.018000,192.000000,0.000000,112.000000,30.000000,208.000000,255.000000,112.000000,0.000000,0.000000,0.000000,1648018619.317458,0.000000
140.000000,-41687.724493,-35568.040379,3639.758067,20000.363290,9587.870191,73736.460356,44562.047072,34679.200909,0.014000,0.986000,-0.018000,192.000000,0.000000,0.000000,0.000000,0.000000,0.000000,0.000000,0.000000,0.000000,0.000000,1648018619.325466,0.000000
141.000000,-41698.721552,-35573.650667,3632.113770,19990.908502,9580.024729,73730.201868,44528.564159,34641.314702,0.014000,0.986000,-0.018000,192.000000,0.000000,0.000000,0.000000,0.000000,0.000000,0.000000,0.000000,0.000000,0.000000,1648018619.325482,0.000000
142.000000,-41702.096665,-35572.086045,3623.955384,19989.746212,9575.219104,73735.789804,44546.959644,34656.402130,0.014000,0.986000,-0.018000,192.000000,0.000000,0.000000,0.000000,0.000000,0.000000,0.000000,0.000000,0.000000,0.000000,1648018619.333521,0.000000
143.000000,-41713.205482,-35585.251222,3617.585137,19981.431363,9568.759450,73740.282505,44588.444482,34699.406886,0.014000,0.986000,-0.018000,192.000000,0.000000,0.000000,0.000000,0.000000,0.000000,0.000000,0.000000,0.000000,0.000000,1648018619.333537,0.000000
144.000000,-41716.401782,-35593.119036,3620.155587,19978.011546,9570.055851,73737.242667,44604.671848,34726.363090,0.014000,0.986000,-0.018000,192.000000,0.000000,0.000000,0.000000,0.000000,0.000000,0.000000,0.000000,0.000000,0.000000,1648018619.340565,0.000000
145.000000,-41700.442636,-35581.496129,3626.615241,19986.393450,9576.493153,73739.500194,44581.001351,34704.681898,0.014000,0.986000,-0.018000,192.000000,0.000000,0.000000,0.000000,0.000000,0.000000,0.000000,0.000000,0.000000,0.000000,1648018619.340582,0.000000
146.000000,-41676.503918,-35561.088987,3646.664756,20004.453660,9595.469784,73749.983162,44533.526246,34640.934723,0.014000,0.986000,-0.018000,192.000000,0.000000,0.000000,0.000000,0.000000,0.000000,0.000000,0.000000,0.000000,0.000000,1648018619.347233,0.000000
147.000000,-41694.117092,-35573.270687,3629.342154,19993.121325,9579.130659,73750.832528,44543.852752,34631.323472,0.014000,0.986000,-0.018000,192.000000,0.000000,0.000000,0.000000,0.000000,0.000000,0.000000,0.000000,0.000000,0.000000,1648018619.355275,0.000000
148.000000,-41703.102494,-35578.970382,3621.183767,19988.002776,9571.978101,73741.668313,44582.454214,34675.356409,0.014000,0.986000,-0.018000,192.000000,0.000000,0.000000,0.000000,0.000000,0.000000,0.000000,0.000000,0.000000,0.000000,1648018619.355292,0.000000
149.000000,-41702.856624,-35580.356190,3622.837797,19988.449811,9572.492191,73735.096900,44592.557203,34697.484636,0.016000,0.994000,-0.016000,192.000000,0.000000,128.000000,31.000000,16.000000,255.000000,128.000000,0.000000,0.000000,0.000000,1648018619.363198,0.000000
150.000000,-41699.213290,-35583.351324,3621.563747,19985.745249,9571.732232,73724.792746,44563.879915,34682.888947,0.016000,0.994000,-0.016000,192.000000,0.000000,0.000000,0.000000,0.000000,0.000000,0.000000,0.000000,0.000000,0.000000,1648018619.363233,0.000000
151.000000,-41703.884805,-35577.472815,3626.548186,19989.522694,9578.281293,73724.680987,44513.722600,34627.858952,0.016000,0.994000,-0.016000,192.000000,0.000000,0.000000,0.000000,0.000000,0.000000,0.000000,0.000000,0.000000,0.000000,1648018619.370282,0.000000
152.000000,-41711.462046,-35581.987868,3616.646363,19982.437191,9568.245359,73729.106632,44526.977185,34630.027071,0.016000,0.994000,-0.016000,192.000000,0.000000,0.000000,0.000000,0.000000,0.000000,0.000000,0.000000,0.000000,0.000000,1648018619.370298,0.000000
153.000000,-41703.080142,-35572.510728,3622.279003,19990.684985,9572.603950,73746.585697,44563.991673,34660.246630,0.016000,0.994000,-0.016000,192.000000,0.000000,0.000000,0.000000,0.000000,0.000000,0.000000,0.000000,0.000000,0.000000,1648018619.377858,0.000000
154.000000,-41712.400819,-35580.758522,3617.607488,19982.884226,9565.205522,73738.024978,44580.755482,34682.218395,0.016000,0.994000,-0.016000,192.000000,0.000000,0.000000,0.000000,0.000000,0.000000,0.000000,0.000000,0.000000,0.000000,1648018619.377873,0.000000
155.000000,-41712.244357,-35582.569013,3620.624974,19982.146619,9566.032537,73727.921990,44543.137496,34644.712167,0.016000,0.994000,-0.016000,192.000000,0.000000,0.000000,0.000000,0.000000,0.000000,0.000000,0.000000,0.000000,0.000000,1648018619.385746,0.000000
156.000000,-41704.711819,-35578.076312,3625.698820,19988.248645,9570.435830,73731.140641,44516.293051,34601.349783,0.016000,0.994000,-0.016000,192.000000,0.000000,0.000000,0.000000,0.000000,0.000000,0.000000,0.000000,0.000000,0.000000,1648018619.385764,0.000000
157.000000,-41710.389162,-35584.848891,3610.410227,19977.564511,9557.874150,73726.558533,44533.973281,34612.436248,0.016000,0.994000,-0.016000,192.000000,0.000000,0.000000,0.000000,0.000000,0.000000,0.000000,0.000000,0.000000,0.000000,1648018619.393729,0.000000
158.000000,-41706.477607,-35575.237641,3611.796035,19982.817171,9560.466952,73731.140641,44549.820667,34626.115516,0.016000,0.994000,-0.016000,192.000000,0.000000,0.000000,0.000000,0.000000,0.000000,0.000000,0.000000,0.000000,0.000000,1648018619.393746,0.000000
159.000000,-41719.061639,-35587.732266,3601.625991,19975.619909,9549.760467,73730.425385,44588.891517,34674.417636,0.016000,0.996000,-0.014000,192.000000,0.000000,128.000000,31.000000,32.000000,255.000000,144.000000,0.000000,0.000000,0.000000,1648018619.400533,0.000000
160.000000,-41715.038325,-35588.939260,3607.795073,19979.643223,9554.856665,73717.550780,44560.817726,34653.898734,0.016000,0.996000,-0.014000,192.000000,0.000000,0.000000,0.000000,0.000000,0.000000,0.000000,0.000000,0.000000,0.000000,1648018619.400549,0.000000
161.000000,-41706.857587,-35579.216251,3621.250823,19989.433287,9567.843028,73732.660560,44512.113275,34579.087446,0.016000,0.996000,-0.014000,192.000000,0.000000,0.000000,0.000000,0.000000,0.000000,0.000000,0.000000,0.000000,0.000000,1648018619.407515,0.000000
162.000000,-41715.887691,-35585.698257,3614.344134,19983.331261,9561.025746,73740.818946,44539.896493,34580.182681,0.016000,0.996000,-0.014000,192.000000,0.000000,0.000000,0.000000,0.000000,0.000000,0.000000,0.000000,0.000000,0.000000,1648018619.407531,0.000000
163.000000,-41717.429962,-35588.179301,3610.544337,19981.632528,9557.516522,73738.248496,44569.669017,34604.568434,0.016000,0.996000,-0.014000,192.000000,0.000000,0.000000,0.000000,0.000000,0.000000,0.000000,0.000000,0.000000,0.000000,1648018619.415474,0.000000
164.000000,-41712.736096,-35592.359077,3607.772721,19979.486761,9554.499037,73734.091071,44594.881784,34640.822964,0.016000,0.996000,-0.014000,192.000000,0.000000,0.000000,0.000000,0.000000,0.000000,0.000000,0.000000,0.000000,0.000000,1648018619.422481,0.000000
165.000000,-41709.629203,-35590.883862,3611.572517,19980.112610,9559.371717,73732.437042,44570.741900,34621.466353,0.016000,0.996000,-0.014000,192.000000,0.000000,0.000000,0.000000,0.000000,0.000000,0.000000,0.000000,0.000000,0.000000,1648018619.422497,0.000000
166.000000,-41705.449427,-35586.704086,3619.596794,19983.465372,9565.339633,73731.945304,44519.489350,34561.384864,0.016000,0.996000,-0.014000,192.000000,0.000000,0.000000,0.000000,0.000000,0.000000,0.000000,0.000000,0.000000,0.000000,1648018619.429988,0.000000
167.000000,-41707.550491,-35585.407684,3623.061314,19989.567398,9568.066545,73748.776167,44533.749763,34547.415024,0.016000,0.996000,-0.014000,192.000000,0.000000,0.000000,0.000000,0.000000,0.000000,0.000000,0.000000,0.000000,0.000000,1648018619.430004,0.000000
168.000000,-41708.958651,-35582.300792,3622.122541,19993.367194,9565.674909,73751.391322,44573.357054,34576.718161,0.016000,0.996000,-0.014000,192.000000,0.000000,0.000000,0.000000,0.000000,0.000000,0.000000,0.000000,0.000000,0.000000,1648018619.438003,0.000000
169.000000,-41706.388200,-35575.997600,3625.832930,19999.156296,9568.558284,73752.128929,44597.608697,34602.154446,0.014000,0.994000,-0.014000,192.000000,0.000000,112.000000,31.000000,16.000000,255.000000,144.000000,0.000000,0.000000,0.000000,1648018619.438019,0.000000
170.000000,-41710.433866,-35583.172510,3620.177939,19990.930854,9562.612720,73745.065778,44569.780775,34576.315829,0.014000,0.994000,-0.014000,192.000000,0.000000,0.000000,0.000000,0.000000,0.000000,0.000000,0.000000,0.000000,0.000000,1648018619.446091,0.000000
171.000000,-41710.210348,-35587.195824,3614.902927,19981.207845,9557.963557,73736.750929,44532.408659,34534.294550,0.014000,0.994000,-0.014000,192.000000,0.000000,0.000000,0.000000,0.000000,0.000000,0.000000,0.000000,0.000000,0.000000,1648018619.446125,0.000000
172.000000,-41705.807055,-35578.679809,3619.887366,19986.549912,9563.842066,73745.669275,44526.776019,34510.780515,0.014000,0.994000,-0.014000,192.000000,0.000000,0.000000,0.000000,0.000000,0.000000,0.000000,0.000000,0.000000,0.000000,1648018619.452798,0.000000
173.000000,-41710.523273,-35579.484472,3619.641497,19991.959034,9566.859551,73752.732426,44562.762328,34529.712442,0.014000,0.994000,-0.014000,192.000000,0.000000,0.000000,0.000000,0.000000,0.000000,0.000000,0.000000,0.000000,0.000000,1648018619.452814,0.000000
174.000000,-41715.664174,-35585.944126,3613.718285,19989.410936,9562.813886,73744.976371,44589.472662,34571.376094,0.014000,0.994000,-0.014000,192.000000,0.000000,0.000000,0.000000,0.000000,0.000000,0.000000,0.000000,0.000000,0.000000,1648018619.460811,0.000000
175.000000,-41711.909081,-35585.072408,3621.720209,19991.377889,9568.558284,73744.305819,44565.891572,34553.517050,0.014000,0.994000,-0.014000,192.000000,0.000000,0.000000,0.000000,0.000000,0.000000,0.000000,0.000000,0.000000,0.000000,1648018619.460828,0.000000
176.000000,-41705.114151,-35579.417417,3628.224567,19998.306930,9573.565075,73745.244592,44525.367859,34490.887462,0.014000,0.994000,-0.014000,192.000000,0.000000,0.000000,0.000000,0.000000,0.000000,0.000000,0.000000,0.000000,0.000000,1648018619.468725,0.000000
177.000000,-41707.841063,-35586.189996,3618.590965,19999.759793,9566.434868,73749.759644,44541.371708,34487.713514,0.014000,0.994000,-0.014000,192.000000,0.000000,0.000000,0.000000,0.000000,0.000000,0.000000,0.000000,0.000000,0.000000,1648018619.468742,0.000000
178.000000,-41712.512578,-35577.472815,3628.649250,20003.447831,9573.565075,73757.582755,44562.471755,34490.485131,0.014000,0.994000,-0.014000,192.000000,0.000000,0.000000,0.000000,0.000000,0.000000,0.000000,0.000000,0.000000,0.000000,1648018619.475904,0.000000
179.000000,-41716.960575,-35576.444635,3628.850416,20000.296235,9574.079165,73766.881080,44590.813767,34509.998204,0.016000,0.990000,-0.010000,192.000000,0.000000,128.000000,30.000000,240.000000,255.000000,176.000000,0.000000,0.000000,0.000000,1648018619.482452,0.000000
180.000000,-41711.842026,-35579.104493,3632.404343,20001.212657,9578.884790,73763.058932,44569.020816,34488.987564,0.016000,0.990000,-0.010000,192.000000,0.000000,0.000000,0.000000,0.000000,0.000000,0.000000,0.000000,0.000000,0.000000,1648018619.482468,0.000000
181.000000,-41712.400819,-35583.127807,3628.112808,19996.384680,9574.168572,73748.195022,44529.569987,34442.227714,0.016000,0.990000,-0.010000,192.000000,0.000000,0.000000,0.000000,0.000000,0.000000,0.000000,0.000000,0.000000,0.000000,1648018619.490460,0.000000
182.000000,-41715.977098,-35590.012144,3622.167244,19990.930854,9565.272577,73739.142566,44528.273586,34431.230656,0.016000,0.990000,-0.010000,192.000000,0.000000,0.000000,0.000000,0.000000,0.000000,0.000000,0.000000,0.000000,0.000000,1648018619.490477,0.000000
183.000000,-41725.163665,-35601.031554,3616.713419,19984.582959,9555.281348,73734.247534,44555.274493,34453.627104,0.016000,0.990000,-0.010000,192.000000,0.000000,0.000000,0.000000,0.000000,0.000000,0.000000,0.000000,0.000000,0.000000,1648018619.498389,0.000000
184.000000,-41718.368735,-35590.168606,3630.482093,19989.321529,9565.339633,73745.982199,44587.796281,34472.626087,0.016000,0.990000,-0.010000,192.000000,0.000000,0.000000,0.000000,0.000000,0.000000,0.000000,0.000000,0.000000,0.000000,1648018619.498404,0.000000
185.000000,-41712.177302,-35581.272612,3636.874692,19994.350671,9570.547589,73747.703284,44569.467851,34445.803993,0.016000,0.990000,-0.010000,192.000000,0.000000,0.000000,0.000000,0.000000,0.000000,0.000000,0.000000,0.000000,0.000000,1648018619.505471,0.000000
186.000000,-41705.918813,-35582.501958,3642.350869,19995.289444,9573.676833,73749.223202,44534.085039,34404.609728,0.016000,0.990000,-0.010000,192.000000,0.000000,0.000000,0.000000,0.000000,0.000000,0.000000,0.000000,0.000000,0.000000,1648018619.505487,0.000000
187.000000,-41698.609793,-35569.895574,3655.493695,20008.856953,9586.640845,73759.348543,44525.859597,34369.450434,0.016000,0.990000,-0.010000,192.000000,0.000000,0.000000,0.000000,0.000000,0.000000,0.000000,0.000000,0.000000,0.000000,1648018619.513092,0.000000
188.000000,-41707.729305,-35573.449501,3646.910625,20006.867648,9579.264769,73758.074493,44559.655435,34388.672935,0.016000,0.990000,-0.010000,192.000000,0.000000,0.000000,0.000000,0.000000,0.000000,0.000000,0.000000,0.000000,0.000000,1648018619.513109,0.000000
189.000000,-41715.597119,-35585.161815,3635.377125,19994.730651,9567.016014,73751.659543,44596.379351,34427.810839,0.010000,0.986000,0.000000,192.000000,0.000000,80.000000,30.000000,208.000000,0.000000,0.000000,0.000000,0.000000,0.000000,1648018619.520839,0.000000
190.000000,-41711.193825,-35587.799321,3633.119599,19989.567398,9564.713784,73745.758682,44575.815746,34418.490162,0.010000,0.986000,0.000000,192.000000,0.000000,0.000000,0.000000,0.000000,0.000000,0.000000,0.000000,0.000000,0.000000,1648018619.520856,0.000000
191.000000,-41708.042229,-35581.719647,3639.623957,19994.685947,9572.179266,73750.720769,44529.882911,34366.500004,0.010000,0.986000,0.000000,192.000000,0.000000,0.000000,0.000000,0.000000,0.000000,0.000000,0.000000,0.000000,0.000000,1648018619.527814,0.000000
192.000000,-41720.335689,-35577.629277,3638.528721,19999.491572,9573.363909,73755.481691,44523.065629,34344.260018,0.010000,0.986000,0.000000,192.000000,0.000000,0.000000,0.000000,0.000000,0.000000,0.000000,0.000000,0.000000,0.000000,1648018619.527826,0.000000
193.000000,-41711.462046,-35564.866431,3639.668660,20010.131003,9577.588389,73760.175557,44544.635063,34350.719673,0.010000,0.986000,0.000000,192.000000,0.000000,0.000000,0.000000,0.000000,0.000000,0.000000,0.000000,0.000000,0.000000,1648018619.534810,0.000000
194.000000,-41711.238529,-35562.675960,3636.807637,20010.287465,9575.442621,73759.147377,44587.840985,34399.312365,0.010000,0.986000,0.000000,192.000000,0.000000,0.000000,0.000000,0.000000,0.000000,0.000000,0.000000,0.000000,0.000000,1648018619.542541,0.000000
195.000000,-41717.228796,-35576.779911,3642.015593,20008.029939,9578.460107,73759.929688,44580.353150,34395.154941,0.010000,0.986000,0.000000,192.000000,0.000000,0.000000,0.000000,0.000000,0.000000,0.000000,0.000000,0.000000,0.000000,1648018619.542555,0.000000
196.000000,-41710.210348,-35583.753655,3648.743468,20005.079508,9582.326958,73749.714941,44539.784734,34348.886829,0.010000,0.986000,0.000000,192.000000,0.000000,0.000000,0.000000,0.000000,0.000000,0.000000,0.000000,0.000000,0.000000,1648018619.550761,0.000000
197.000000,-41699.369752,-35573.069522,3655.113716,20014.735462,9588.116060,73754.475862,44525.256100,34308.385469,0.010000,0.986000,0.000000,192.000000,0.000000,0.000000,0.000000,0.000000,0.000000,0.000000,0.000000,0.000000,0.000000,1648018619.550778,0.000000
198.000000,-41699.727380,-35569.515594,3655.203123,20018.311741,9589.233647,73757.783921,44550.111240,34316.208579,0.010000,0.986000,0.000000,192.000000,0.000000,0.000000,0.000000,0.000000,0.000000,0.000000,0.000000,0.000000,0.000000,1648018619.557721,0.000000
199.000000,-41709.070409,-35579.551527,3640.898006,20002.464354,9574.682662,73753.447682,44592.780720,34357.447548,0.010000,0.986000,-0.002000,192.000000,0.000000,80.000000,30.000000,208.000000,255.000000,240.000000,0.000000,0.000000,0.000000,1648018619.557737,0.000000
200.000000,-41707.394029,-35580.311487,3636.762933,19997.301101,9572.425136,73743.076473,44579.414377,34356.397016,0.010000,0.986000,-0.002000,192.000000,0.000000,0.000000,0.000000,0.000000,0.000000,0.000000,0.000000,0.000000,0.000000,1648018619.565336,0.000000
201.000000,-41701.023781,-35570.163795,3644.183713,20006.398261,9580.672929,73749.781996,44542.645758,34310.128905,0.010000,0.986000,-0.002000,192.000000,0.000000,0.000000,0.000000,0.000000,0.000000,0.000000,0.000000,0.000000,0.000000,1648018619.565353,0.000000
202.000000,-41707.572843,-35571.728417,3644.094306,20008.924008,9577.923665,73756.576926,44540.365880,34288.760637,0.010000,0.986000,-0.002000,192.000000,0.000000,0.000000,0.000000,0.000000,0.000000,0.000000,0.000000,0.000000,0.000000,1648018619.573158,0.000000
203.000000,-41709.517444,-35569.873222,3645.547169,20012.455584,9579.801211,73768.400999,44564.036377,34295.913195,0.010000,0.986000,-0.002000,192.000000,0.000000,0.000000,0.000000,0.000000,0.000000,0.000000,0.000000,0.000000,0.000000,1648018619.573174,0.000000
204.000000,-41731.355099,-35589.654516,3624.201253,19994.663596,9560.824580,73756.129891,44612.047924,34357.380492,0.010000,0.986000,-0.002000,192.000000,0.000000,0.000000,0.000000,0.000000,0.000000,0.000000,0.000000,0.000000,0.000000,1648018619.581257,0.000000
205.000000,-41716.357078,-35582.792530,3634.795980,19998.329282,9571.106383,73750.787824,44589.316200,34343.567114,0.010000,0.986000,-0.002000,192.000000,0.000000,0.000000,0.000000,0.000000,0.000000,0.000000,0.000000,0.000000,0.000000,1648018619.581273,0.000000
206.000000,-41711.842026,-35580.602059,3640.696840,20000.765622,9575.867304,73749.312609,44551.407641,34300.160027,0.010000,0.986000,-0.002000,192.000000,0.000000,0.000000,0.000000,0.000000,0.000000,0.000000,0.000000,0.000000,0.000000,1648018619.588034,0.000000
207.000000,-41720.290985,-35577.383408,3644.921320,20006.800593,9579.644749,73751.413673,44538.510685,34270.253392,0.010000,0.986000,-0.002000,192.000000,0.000000,0.000000,0.000000,0.000000,0.000000,0.000000,0.000000,0.000000,0.000000,1648018619.588051,0.000000
208.000000,-41715.306546,-35571.437844,3644.697803,20010.399224,9582.259903,73754.542918,44564.058729,34281.049285,0.010000,0.986000,-0.002000,192.000000,0.000000,0.000000,0.000000,0.000000,0.000000,0.000000,0.000000,0.000000,0.000000,1648018619.595122,0.000000
209.000000,-41726.102439,-35581.518481,3629.968003,19995.736479,9568.647691,73742.182403,44606.839968,34336.861591,0.010000,0.994000,0.004000,192.000000,0.000000,80.000000,31.000000,16.000000,0.000000,32.000000,0.000000,0.000000,0.000000,1648018619.602986,0.000000
210.000000,-41724.426058,-35578.098664,3636.561768,19997.904598,9574.570903,73743.411749,44595.172357,34335.811059,0.010000,0.994000,0.004000,192.000000,0.000000,0.000000,0.000000,0.000000,0.000000,0.000000,0.000000,0.000000,0.000000,1648018619.603002,0.000000
211.000000,-41711.953784,-35567.503937,3655.627806,20017.238857,9592.541706,73753.917069,44551.497048,34283.910308,0.010000,0.994000,0.004000,192.000000,0.000000,0.000000,0.000000,0.000000,0.000000,0.000000,0.000000,0.000000,0.000000,1648018619.611034,0.000000
212.000000,-41706.321145,-35563.793548,3658.824105,20020.502212,9595.961523,73767.484578,44542.176371,34247.186392,0.010000,0.994000,0.004000,192.000000,0.000000,0.000000,0.000000,0.000000,0.000000,0.000000,0.000000,0.000000,0.000000,1648018619.611050,0.000000
213.000000,-41711.909081,-35569.895574,3648.899931,20009.415747,9585.880886,73764.198871,44578.855584,34276.936564,0.010000,0.994000,0.004000,192.000000,0.000000,0.000000,0.000000,0.000000,0.000000,0.000000,0.000000,0.000000,0.000000,1648018619.617743,0.000000
214.000000,-41709.070409,-35566.811033,3650.956291,20010.086299,9586.417328,73761.717828,44609.321011,34308.452524,0.010000,0.994000,0.004000,192.000000,0.000000,0.000000,0.000000,0.000000,0.000000,0.000000,0.000000,0.000000,0.000000,1648018619.617778,0.000000
215.000000,-41709.159816,-35568.979152,3649.771649,20009.415747,9584.718595,73758.208604,44598.882747,34301.076448,0.010000,0.994000,0.004000,192.000000,0.000000,0.000000,0.000000,0.000000,0.000000,0.000000,0.000000,0.000000,0.000000,1648018619.625585,0.000000
216.000000,-41709.115113,-35568.800338,3652.409154,20006.085337,9585.746775,73753.514737,44573.200592,34272.555622,0.010000,0.994000,0.004000,192.000000,0.000000,0.000000,0.000000,0.000000,0.000000,0.000000,0.000000,0.000000,0.000000,1648018619.625601,0.000000
217.000000,-41704.756523,-35563.301809,3655.985434,20011.606218,9590.083014,73762.298973,44562.874086,34244.191258,0.010000,0.994000,0.004000,192.000000,0.000000,0.000000,0.000000,0.000000,0.000000,0.000000,0.000000,0.000000,0.000000,1648018619.633550,0.000000
218.000000,-41712.847854,-35573.896536,3645.524817,20003.961921,9580.471764,73761.494310,44592.713665,34274.343762,0.010000,0.994000,0.004000,192.000000,0.000000,0.000000,0.000000,0.000000,0.000000,0.000000,0.000000,0.000000,0.000000,1648018619.633566,0.000000
219.000000,-41711.864377,-35573.717722,3645.122486,20002.710224,9579.667101,73758.588583,44625.235453,34321.505943,0.010000,0.994000,0.004000,192.000000,0.000000,0.000000,0.000000,0.000000,0.000000,0.000000,0.000000,0.000000,0.000000,1648018619.640542,0.000000
220.000000,-41711.171473,-35575.304696,3645.010727,20001.883209,9579.063604,73754.185290,44607.734037,34314.442791,0.010000,1.000000,-0.006000,192.000000,0.000000,80.000000,31.000000,64.000000,255.000000,208.000000,0.000000,0.000000,0.000000,1648018619.640559,0.000000
221.000000,-41705.203558,-35579.082141,3644.049602,19996.965825,9579.421232,73751.480729,44573.714682,34279.484663,0.010000,1.000000,-0.006000,192.000000,0.000000,0.000000,0.000000,0.000000,0.000000,0.000000,0.000000,0.000000,0.000000,1648018619.648038,0.000000
222.000000,-41702.811921,-35570.990809,3646.262425,20003.269017,9584.271560,73759.348543,44553.776926,34238.938599,0.010000,1.000000,-0.006000,192.000000,0.000000,0.000000,0.000000,0.000000,0.000000,0.000000,0.000000,0.000000,0.000000,1648018619.648050,0.000000
223.000000,-41720.112171,-35575.617620,3636.405305,20002.419651,9575.889656,73753.805310,44593.808901,34276.198957,0.010000,1.000000,-0.006000,192.000000,0.000000,0.000000,0.000000,0.000000,0.000000,0.000000,0.000000,0.000000,0.000000,1648018619.655286,0.000000
224.000000,-41721.810904,-35578.590402,3634.170131,19998.575151,9571.531066,73750.743121,44626.733020,34316.968538,0.010000,1.000000,-0.006000,192.000000,0.000000,0.000000,0.000000,0.000000,0.000000,0.000000,0.000000,0.000000,0.000000,1648018619.655303,0.000000
225.000000,-41722.123828,-35583.686600,3635.958271,19993.166029,9570.994624,73743.076473,44619.021668,34322.221198,0.010000,1.000000,-0.006000,192.000000,0.000000,0.000000,0.000000,0.000000,0.000000,0.000000,0.000000,0.000000,0.000000,1648018619.663413,0.000000
226.000000,-41702.007258,-35565.335818,3655.650157,20010.510982,9591.558229,73750.519604,44573.357054,34268.644067,0.010000,1.000000,-0.006000,192.000000,0.000000,0.000000,0.000000,0.000000,0.000000,0.000000,0.000000,0.000000,0.000000,1648018619.669891,0.000000
227.000000,-41695.078217,-35556.305713,3658.242960,20018.021168,9595.469784,73761.829586,44558.604903,34227.919188,0.010000,1.000000,-0.006000,192.000000,0.000000,0.000000,0.000000,0.000000,0.000000,0.000000,0.000000,0.000000,0.000000,1648018619.669907,0.000000
228.000000,-41705.583537,-35566.855737,3649.235207,20006.398261,9583.846877,73753.268868,44596.178185,34248.438090,0.010000,1.000000,-0.006000,192.000000,0.000000,0.000000,0.000000,0.000000,0.000000,0.000000,0.000000,0.000000,0.000000,1648018619.677884,0.000000
229.000000,-41707.662250,-35566.855737,3647.156495,20007.806421,9583.243380,73752.240688,44635.047869,34287.844215,0.010000,1.000000,-0.006000,192.000000,0.000000,0.000000,0.000000,0.000000,0.000000,0.000000,0.000000,0.000000,0.000000,1648018619.677899,0.000000
230.000000,-41704.801226,-35565.894612,3649.771649,20008.566381,9585.120927,73747.211545,44616.607680,34274.142596,0.008000,0.996000,-0.006000,192.000000,0.000000,64.000000,31.000000,32.000000,255.000000,208.000000,0.000000,0.000000,0.000000,1648018619.685931,0.000000
231.000000,-41700.062656,-35564.486452,3657.393593,20010.309817,9589.323054,73748.105615,44581.493089,34230.891971,0.008000,0.996000,-0.006000,192.000000,0.000000,0.000000,0.000000,0.000000,0.000000,0.000000,0.000000,0.000000,0.000000,1648018619.685947,0.000000
232.000000,-41704.711819,-35565.536984,3652.431506,20006.197096,9584.405671,73754.051179,44571.188935,34203.309918,0.008000,0.996000,-0.006000,192.000000,0.000000,0.000000,0.000000,0.000000,0.000000,0.000000,0.000000,0.000000,0.000000,1648018619.692770,0.000000
233.000000,-41710.970308,-35571.169623,3640.339212,20000.184476,9575.912008,73748.329133,44600.983811,34228.857962,0.008000,0.996000,-0.006000,192.000000,0.000000,0.000000,0.000000,0.000000,0.000000,0.000000,0.000000,0.000000,0.000000,1648018619.692786,0.000000
234.000000,-41716.893520,-35573.650667,3634.348945,20000.340939,9572.872171,73743.724673,44634.131448,34265.112491,0.008000,0.996000,-0.006000,192.000000,0.000000,0.000000,0.000000,0.000000,0.000000,0.000000,0.000000,0.000000,0.000000,1648018619.700427,0.000000
235.000000,-41715.977098,-35575.751731,3631.666736,19997.636378,9572.156915,73732.705263,44620.765104,34266.855927,0.008000,0.996000,-0.006000,192.000000,0.000000,0.000000,0.000000,0.000000,0.000000,0.000000,0.000000,0.000000,0.000000,1648018619.700462,0.000000
236.000000,-41701.783741,-35561.066635,3647.558826,20010.667445,9589.032482,73736.795632,44587.013970,34232.367186,0.008000,0.996000,-0.006000,192.000000,0.000000,0.000000,0.000000,0.000000,0.000000,0.000000,0.000000,0.000000,0.000000,1648018619.708516,0.000000
237.000000,-41707.617546,-35557.557411,3654.353756,20014.958979,9594.441604,73752.508909,44562.650569,34184.065066,0.008000,0.996000,-0.006000,192.000000,0.000000,0.000000,0.000000,0.000000,0.000000,0.000000,0.000000,0.000000,0.000000,1648018619.708532,0.000000
238.000000,-41712.870206,-35564.061769,3646.217721,20005.392433,9584.271560,73749.357313,44589.986752,34200.605357,0.008000,0.996000,-0.006000,192.000000,0.000000,0.000000,0.000000,0.000000,0.000000,0.000000,0.000000,0.000000,0.000000,1648018619.716534,0.000000
239.000000,-41718.927529,-35565.224059,3643.244939,20003.492535,9580.896447,73747.569173,44631.985680,34247.432261,0.008000,0.996000,-0.006000,192.000000,0.000000,0.000000,0.000000,0.000000,0.000000,0.000000,0.000000,0.000000,0.000000,1648018619.716550,0.000000
240.000000,-41726.258901,-35574.298867,3638.372259,19992.540180,9573.721537,73735.298066,44623.894349,34252.573163,0.006000,0.992000,-0.004000,192.000000,0.000000,48.000000,31.000000,0.000000,255.000000,224.000000,0.000000,0.000000,0.000000,1648018619.722603,0.000000
241.000000,-41724.537817,-35573.427149,3640.450971,19994.060098,9576.336691,73735.365121,44588.310371,34216.899778,0.006000,0.992000,-0.004000,192.000000,0.000000,0.000000,0.000000,0.000000,0.000000,0.000000,0.000000,0.000000,0.000000,1648018619.730061,0.000000
242.000000,-41719.016936,-35564.978190,3646.083611,20002.643168,9582.282255,73740.729539,44562.404700,34172.419807,0.006000,0.992000,-0.004000,192.000000,0.000000,0.000000,0.000000,0.000000,0.000000,0.000000,0.000000,0.000000,0.000000,1648018619.730077,0.000000
243.000000,-41708.668078,-35548.929638,3655.270178,20016.054215,9592.206430,73755.012304,44576.955685,34155.432481,0.006000,0.992000,-0.004000,192.000000,0.000000,0.000000,0.000000,0.000000,0.000000,0.000000,0.000000,0.000000,0.000000,1648018619.738147,0.000000
244.000000,-41726.840046,-35563.882955,3641.322689,20004.565418,9577.677796,73753.805310,44635.740773,34210.998918,0.006000,0.992000,-0.004000,192.000000,0.000000,0.000000,0.000000,0.000000,0.000000,0.000000,0.000000,0.000000,0.000000,1648018619.738163,0.000000
245.000000,-41732.740907,-35568.465062,3644.451933,19999.312758,9579.041252,73749.156147,44623.626128,34202.125275,0.006000,0.992000,-0.004000,192.000000,0.000000,0.000000,0.000000,0.000000,0.000000,0.000000,0.000000,0.000000,0.000000,1648018619.746228,0.000000
246.000000,-41734.104363,-35569.560298,3643.401401,19999.089241,9578.191886,73741.713016,44598.949802,34172.531566,0.006000,0.992000,-0.004000,192.000000,0.000000,0.000000,0.000000,0.000000,0.000000,0.000000,0.000000,0.000000,0.000000,1648018619.746262,0.000000
247.000000,-41725.253072,-35562.877126,3650.509256,20008.186401,9587.534915,73750.430197,44580.911944,34136.142926,0.006000,0.992000,-0.004000,192.000000,0.000000,0.000000,0.000000,0.000000,0.000000,0.000000,0.000000,0.000000,0.000000,1648018619.752677,0.000000
248.000000,-41723.643747,-35559.367902,3654.979605,20014.780166,9592.161726,73759.370894,44603.464854,34143.831926,0.006000,0.992000,-0.004000,192.000000,0.000000,0.000000,0.000000,0.000000,0.000000,0.000000,0.000000,0.000000,0.000000,1648018619.752693,0.000000
249.000000,-41724.202540,-35557.691521,3653.169114,20016.501250,9591.111194,73768.378647,44646.603721,34183.908604,0.006000,0.992000,-0.004000,192.000000,0.000000,0.000000,0.000000,0.000000,0.000000,0.000000,0.000000,0.000000,0.000000,1648018619.760745,0.000000
250.000000,-41733.612625,-35573.695370,3641.725021,20003.805459,9579.220066,73757.001609,44639.987605,34190.010630,0.006000,0.992000,-0.002000,192.000000,0.000000,48.000000,31.000000,0.000000,255.000000,240.000000,0.000000,0.000000,0.000000,1648018619.760761,0.000000
251.000000,-41738.462953,-35578.232775,3640.987413,19999.782145,9578.460107,73751.681894,44605.632973,34160.998066,0.006000,0.992000,-0.002000,192.000000,0.000000,0.000000,0.000000,0.000000,0.000000,0.000000,0.000000,0.000000,0.000000,1648018619.768806,0.000000
252.000000,-41737.770049,-35571.147272,3647.178846,20006.934703,9586.014996,73760.756703,44588.735055,34122.106030,0.006000,0.992000,-0.002000,192.000000,0.000000,0.000000,0.000000,0.000000,0.000000,0.000000,0.000000,0.000000,0.000000,1648018619.768822,0.000000
253.000000,-41737.278311,-35568.353303,3639.847474,20007.381738,9582.014034,73760.711999,44616.518273,34130.532638,0.006000,0.992000,-0.002000,192.000000,0.000000,0.000000,0.000000,0.000000,0.000000,0.000000,0.000000,0.000000,0.000000,1648018619.775438,0.000000
254.000000,-41753.148049,-35586.189996,3619.283869,19991.020261,9563.104458,73752.061874,44662.048776,34183.528624,0.006000,0.992000,-0.002000,192.000000,0.000000,0.000000,0.000000,0.000000,0.000000,0.000000,0.000000,0.000000,0.000000,1648018619.775454,0.000000
255.000000,-41753.751547,-35585.653554,3627.419904,19990.461468,9568.111249,73749.491423,44642.088669,34174.073836,0.006000,0.992000,-0.002000,192.000000,0.000000,0.000000,0.000000,0.000000,0.000000,0.000000,0.000000,0.000000,0.000000,1648018619.782396,0.000000
0.000000,-41748.051852,-35578.836272,3638.998108,19996.563494,9576.671967,73766.344639,44608.270479,34138.221638,0.006000,0.992000,-0.002000,192.000000,0.000000,0.000000,0.000000,0.000000,0.000000,0.000000,0.000000,0.000000,0.000000,1648018619.790299,0.000000
1.000000,-41750.577599,-35581.898461,3637.433486,19994.663596,9572.939226,73772.670182,44590.478491,34109.365536,0.006000,0.992000,-0.002000,192.000000,0.000000,0.000000,0.000000,0.000000,0.000000,0.000000,0.000000,0.000000,0.000000,1648018619.790332,0.000000
2.000000,-41754.153878,-35583.016048,3633.343116,19993.434250,9568.759450,73769.764456,44611.466779,34129.347995,0.006000,0.992000,-0.002000,192.000000,0.000000,0.000000,0.000000,0.000000,0.000000,0.000000,0.000000,0.000000,0.000000,1648018619.798471,0.000000
3.000000,-41770.403596,-35592.560243,3616.758122,19983.487723,9554.186112,73763.617726,44660.171230,34195.531511,0.006000,0.992000,-0.002000,192.000000,0.000000,0.000000,0.000000,0.000000,0.000000,0.000000,0.000000,0.000000,0.000000,1648018619.798488,0.000000
4.000000,-41773.108157,-35603.356135,3613.561823,19975.284633,9550.855702,73747.546822,44649.665910,34207.959081,0.008000,0.986000,0.000000,192.000000,0.000000,64.000000,30.000000,208.000000,0.000000,0.000000,0.000000,0.000000,0.000000,1648018619.804934,0.000000
5.000000,-41755.673797,-35586.569975,3630.660907,19990.975558,9569.184133,73750.609011,44606.482340,34162.607391,0.008000,0.986000,0.000000,192.000000,0.000000,0.000000,0.000000,0.000000,0.000000,0.000000,0.000000,0.000000,0.000000,1648018619.804950,0.000000
6.000000,-41740.116982,-35570.409664,3646.083611,20009.438099,9585.880886,73770.971450,44567.567953,34098.614347,0.008000,0.986000,0.000000,192.000000,0.000000,0.000000,0.000000,0.000000,0.000000,0.000000,0.000000,0.000000,0.000000,1648018619.812997,0.000000
7.000000,-41754.444451,-35585.720609,3629.096285,20002.263189,9571.821639,73781.007383,44603.017819,34120.787277,0.008000,0.986000,0.000000,192.000000,0.000000,0.000000,0.000000,0.000000,0.000000,0.000000,0.000000,0.000000,0.000000,1648018619.813013,0.000000
8.000000,-41756.165535,-35589.721571,3618.434503,19996.027052,9562.657423,73772.401961,44647.073108,34177.739522,0.008000,0.986000,0.000000,192.000000,0.000000,0.000000,0.000000,0.000000,0.000000,0.000000,0.000000,0.000000,0.000000,1648018619.821020,0.000000
9.000000,-41751.471669,-35581.384370,3628.850416,20000.989139,9571.084031,73774.301860,44641.909855,34183.953307,0.008000,0.986000,0.000000,192.000000,0.000000,0.000000,0.000000,0.000000,0.000000,0.000000,0.000000,0.000000,0.000000,1648018619.821036,0.000000
10.000000,-41751.806945,-35583.887766,3636.584119,20006.688834,9576.314339,73774.950060,44607.845796,34146.245914,0.008000,0.986000,0.000000,192.000000,0.000000,0.000000,0.000000,0.000000,0.000000,0.000000,0.000000,0.000000,0.000000,1648018619.828183,0.000000
11.000000,-41750.912875,-35581.451426,3638.036983,20005.906523,9577.342519,73778.012249,44584.667037,34110.863103,0.008000,0.986000,0.000000,192.000000,0.000000,0.000000,0.000000,0.000000,0.000000,0.000000,0.000000,0.000000,0.000000,1648018619.828200,0.000000
12.000000,-41756.903143,-35586.547623,3631.286756,19996.854066,9569.228836,73770.680877,44609.991564,34136.679368,0.008000,0.986000,0.000000,192.000000,0.000000,0.000000,0.000000,0.000000,0.000000,0.000000,0.000000,0.000000,0.000000,1648018619.835745,0.000000
13.000000,-41758.356006,-35585.921775,3630.638555,19996.675253,9569.295891,73775.195929,44641.552227,34167.569478,0.008000,0.986000,0.000000,192.000000,0.000000,0.000000,0.000000,0.000000,0.000000,0.000000,0.000000,0.000000,0.000000,1648018619.835761,0.000000
14.000000,-41759.563000,-35584.737132,3631.644384,20000.564456,9572.156915,73775.352392,44639.518218,34168.083569,0.004000,0.982000,0.002000,192.000000,0.000000,32.000000,30.000000,176.000000,0.000000,16.000000,0.000000,0.000000,0.000000,1648018619.842671,0.000000
15.000000,-41759.630055,-35584.111283,3632.225529,20004.520715,9574.213275,73776.313517,44616.071238,34141.462641,0.004000,0.982000,0.002000,192.000000,0.000000,0.000000,0.000000,0.000000,0.000000,0.000000,0.000000,0.000000,0.000000,1648018619.850793,0.000000
16.000000,-41758.333654,-35582.837234,3630.906776,20002.419651,9572.760412,73782.124970,44601.363790,34112.941815,0.004000,0.982000,0.002000,192.000000,0.000000,0.000000,0.000000,0.000000,0.000000,0.000000,0.000000,0.000000,0.000000,1648018619.850809,0.000000
17.000000,-41758.981855,-35586.704086,3627.464608,20000.899732,9569.988796,73781.834398,44627.448276,34133.706586,0.004000,0.982000,0.002000,192.000000,0.000000,0.000000,0.000000,0.000000,0.000000,0.000000,0.000000,0.000000,0.000000,1648018619.857839,0.000000
18.000000,-41758.043082,-35582.993696,3627.889291,20007.806421,9571.620473,73787.109409,44657.623131,34171.525737,0.004000,0.982000,0.002000,192.000000,0.000000,0.000000,0.000000,0.000000,0.000000,0.000000,0.000000,0.000000,0.000000,1648018619.857855,0.000000
19.000000,-41760.121794,-35579.819748,3621.966079,20000.497401,9566.278406,73773.899528,44645.240265,34184.892080,0.004000,0.982000,0.002000,192.000000,0.000000,0.000000,0.000000,0.000000,0.000000,0.000000,0.000000,0.000000,0.000000,1648018619.865238,0.000000
20.000000,-41758.758337,-35575.148234,3621.899023,19999.424517,9566.770144,73773.273679,44618.731096,34157.354731,0.004000,0.982000,0.002000,192.000000,0.000000,0.000000,0.000000,0.000000,0.000000,0.000000,0.000000,0.000000,0.000000,1648018619.865254,0.000000
21.000000,-41751.963407,-35574.052998,3636.494712,20010.421575,9579.264769,73788.115238,44598.703933,34117.993309,0.004000,0.982000,0.002000,192.000000,0.000000,0.000000,0.000000,0.000000,0.000000,0.000000,0.000000,0.000000,0.000000,1648018619.873047,0.000000
22.000000,-41751.985759,-35579.372713,3642.529683,20012.142660,9581.566999,73790.059839,44614.618375,34117.501571,0.004000,0.982000,0.002000,192.000000,0.000000,0.000000,0.000000,0.000000,0.000000,0.000000,0.000000,0.000000,0.000000,1648018619.873081,0.000000
23.000000,-41750.287026,-35587.508748,3634.483055,20001.346767,9571.866342,73781.610880,44649.643558,34149.777490,0.004000,0.982000,0.002000,192.000000,0.000000,0.000000,0.000000,0.000000,0.000000,0.000000,0.000000,0.000000,0.000000,1648018619.881341,0.000000
24.000000,-41761.149974,-35591.040324,3634.639518,19995.200037,9570.212313,73773.340735,44653.219837,34161.869784,0.002000,0.986000,0.002000,192.000000,0.000000,16.000000,30.000000,208.000000,0.000000,16.000000,0.000000,0.000000,0.000000,1648018619.881357,0.000000
25.000000,-41755.226762,-35583.664248,3643.200236,19999.357462,9577.454278,73766.590508,44624.430790,34135.986464,0.002000,0.986000,0.002000,192.000000,0.000000,0.000000,0.000000,0.000000,0.000000,0.000000,0.000000,0.000000,0.000000,1648018619.888009,0.000000
26.000000,-41743.045061,-35568.755635,3651.291567,20012.567343,9588.540743,73779.688630,44580.353150,34063.186832,0.002000,0.986000,0.002000,192.000000,0.000000,0.000000,0.000000,0.000000,0.000000,0.000000,0.000000,0.000000,0.000000,1648018619.888026,0.000000
27.000000,-41763.139279,-35589.140426,3628.336326,19996.854066,9568.066545,73772.938403,44619.178131,34095.194530,0.002000,0.986000,0.002000,192.000000,0.000000,0.000000,0.000000,0.000000,0.000000,0.000000,0.000000,0.000000,0.000000,1648018619.895931,0.000000
28.000000,-41766.335579,-35592.962574,3620.490863,19992.473125,9563.216217,73766.858729,44662.786384,34146.111804,0.002000,0.986000,0.002000,192.000000,0.000000,0.000000,0.000000,0.000000,0.000000,0.000000,0.000000,0.000000,0.000000,1648018619.895947,0.000000
29.000000,-41772.772881,-35595.756542,3620.692029,19987.354575,9563.775011,73760.533185,44665.200372,34160.752196,0.002000,0.986000,0.002000,192.000000,0.000000,0.000000,0.000000,0.000000,0.000000,0.000000,0.000000,0.000000,0.000000,1648018619.902995,0.000000
30.000000,-41768.906029,-35588.581632,3630.795018,19994.618892,9572.827467,73767.819854,44639.294701,34137.729900,0.002000,0.986000,0.002000,192.000000,0.000000,0.000000,0.000000,0.000000,0.000000,0.000000,0.000000,0.000000,0.000000,1648018619.903012,0.000000
31.000000,-41749.571770,-35573.829481,3645.055431,20008.029939,9586.305569,73778.213415,44604.604793,34085.113893,0.002000,0.986000,0.002000,192.000000,0.000000,0.000000,0.000000,0.000000,0.000000,0.000000,0.000000,0.000000,0.000000,1648018619.910102,0.000000
32.000000,-41755.182058,-35578.724513,3640.227454,19999.066889,9580.807040,73780.627403,44632.075087,34090.143036,0.002000,0.986000,0.002000,192.000000,0.000000,0.000000,0.000000,0.000000,0.000000,0.000000,0.000000,0.000000,0.000000,1648018619.917626,0.000000
33.000000,-41768.011960,-35589.073371,3627.330497,19990.662633,9568.424173,73770.747932,44685.361646,34140.345054,0.002000,0.986000,0.002000,192.000000,0.000000,0.000000,0.000000,0.000000,0.000000,0.000000,0.000000,0.000000,0.000000,1648018619.917643,0.000000
34.000000,-41773.197564,-35597.902310,3621.273174,19982.906578,9561.204560,73755.347580,44696.917498,34167.569478,0.008000,0.990000,0.010000,192.000000,0.000000,64.000000,30.000000,240.000000,0.000000,80.000000,0.000000,0.000000,0.000000,1648018619.925590,0.000000
35.000000,-41760.032387,-35588.492225,3632.739619,19992.383718,9572.335729,73764.891775,44664.194544,34137.461679,0.008000,0.990000,0.010000,192.000000,0.000000,0.000000,0.000000,0.000000,0.000000,0.000000,0.000000,0.000000,0.000000,1648018619.925607,0.000000
36.000000,-41751.851648,-35581.674943,3638.327555,19999.201000,9579.823563,73774.793598,44620.251014,34080.442379,0.008000,0.990000,0.010000,192.000000,0.000000,0.000000,0.000000,0.000000,0.000000,0.000000,0.000000,0.000000,0.000000,1648018619.933724,0.000000
37.000000,-41755.830259,-35582.077275,3633.566634,19997.614026,9576.135525,73773.363086,44632.276253,34074.049780,0.008000,0.990000,0.010000,192.000000,0.000000,0.000000,0.000000,0.000000,0.000000,0.000000,0.000000,0.000000,0.000000,1648018619.933740,0.000000
38.000000,-41761.708768,-35584.558318,3624.022439,19990.707337,9567.530104,73776.425275,44691.106044,34123.313024,0.008000,0.990000,0.010000,192.000000,0.000000,0.000000,0.000000,0.000000,0.000000,0.000000,0.000000,0.000000,0.000000,1648018619.940272,0.000000
39.000000,-41762.871058,-35586.480568,3626.816407,19983.934758,9566.859551,73772.424313,44702.237213,34144.569533,0.008000,0.990000,0.010000,192.000000,0.000000,0.000000,0.000000,0.000000,0.000000,0.000000,0.000000,0.000000,0.000000,1648018619.940288,0.000000
40.000000,-41772.370550,-35591.912042,3626.883462,19982.347784,9564.445563,73763.796540,44671.838840,34126.486972,0.008000,0.990000,0.010000,192.000000,0.000000,0.000000,0.000000,0.000000,0.000000,0.000000,0.000000,0.000000,0.000000,1648018619.948306,0.000000
41.000000,-41772.571715,-35596.404743,3624.424770,19982.772467,9562.992700,73764.288278,44638.870017,34087.997268,0.008000,0.990000,0.010000,192.000000,0.000000,0.000000,0.000000,0.000000,0.000000,0.000000,0.000000,0.000000,0.000000,1648018619.948322,0.000000
42.000000,-41767.497869,-35594.124865,3625.452951,19987.622796,9568.401822,73767.350467,44654.449183,34095.887434,0.008000,0.990000,0.010000,192.000000,0.000000,0.000000,0.000000,0.000000,0.000000,0.000000,0.000000,0.000000,0.000000,1648018619.956112,0.000000
43.000000,-41762.446375,-35588.872205,3627.621070,19995.289444,9572.268673,73774.815950,44683.104120,34114.551141,0.008000,0.990000,0.010000,192.000000,0.000000,0.000000,0.000000,0.000000,0.000000,0.000000,0.000000,0.000000,0.000000,1648018619.956147,0.000000
44.000000,-41772.236439,-35599.623394,3617.406323,19989.008604,9560.086973,73760.533185,44705.142940,34151.900906,0.010000,0.986000,0.012000,192.000000,0.000000,80.000000,30.000000,208.000000,0.000000,96.000000,0.000000,0.000000,0.000000,1648018619.963364,0.000000
45.000000,-41770.470651,-35594.728362,3624.558881,19993.523657,9566.792496,73763.796540,44678.589067,34135.070042,0.010000,0.986000,0.012000,192.000000,0.000000,0.000000,0.000000,0.000000,0.000000,0.000000,0.000000,0.000000,0.000000,1648018619.963381,0.000000
46.000000,-41767.296704,-35593.007278,3626.995221,19993.411898,9569.407650,73766.970487,44639.875846,34083.705733,0.010000,0.986000,0.012000,192.000000,0.000000,0.000000,0.000000,0.000000,0.000000,0.000000,0.000000,0.000000,0.000000,1648018619.969950,0.000000
47.000000,-41768.526050,-35594.124865,3618.993297,19988.539218,9562.389202,73763.505967,44663.881619,34093.518149,0.010000,0.986000,0.012000,192.000000,0.000000,0.000000,0.000000,0.000000,0.000000,0.000000,0.000000,0.000000,0.000000,1648018619.977888,0.000000
48.000000,-41766.268523,-35594.527196,3615.975811,19994.328319,9559.416420,73766.903432,44704.181815,34131.069080,0.010000,0.986000,0.012000,192.000000,0.000000,0.000000,0.000000,0.000000,0.000000,0.000000,0.000000,0.000000,0.000000,1648018619.977904,0.000000
49.000000,-41768.593105,-35598.371696,3618.859186,19988.136886,9559.170551,73758.253307,44704.785312,34141.373234,0.010000,0.986000,0.012000,192.000000,0.000000,0.000000,0.000000,0.000000,0.000000,0.000000,0.000000,0.000000,0.000000,1648018619.985985,0.000000
50.000000,-41768.727215,-35599.042249,3620.714381,19985.275863,9560.489304,73758.543880,44679.147861,34111.466600,0.010000,0.986000,0.012000,192.000000,0.000000,0.000000,0.000000,0.000000,0.000000,0.000000,0.000000,0.000000,0.000000,1648018619.986000,0.000000
51.000000,-41769.911858,-35594.303679,3620.736733,19984.918235,9561.964519,73765.338810,44650.828201,34072.149881,0.010000,0.986000,0.012000,192.000000,0.000000,0.000000,0.000000,0.000000,0.000000,0.000000,0.000000,0.000000,0.000000,1648018619.993030,0.000000
52.000000,-41760.457070,-35589.922737,3622.055485,19990.573226,9565.093763,73774.748895,44665.736814,34070.607611,0.010000,0.986000,0.012000,192.000000,0.000000,0.000000,0.000000,0.000000,0.000000,0.000000,0.000000,0.000000,0.000000,1648018619.993046,0.000000
53.000000,-41770.671817,-35602.126789,3609.516157,19982.593654,9554.543740,73768.602165,44710.864986,34120.004966,0.010000,0.986000,0.012000,192.000000,0.000000,0.000000,0.000000,0.000000,0.000000,0.000000,0.000000,0.000000,0.000000,1648018620.000534,0.000000
54.000000,-41773.354026,-35603.602004,3614.679410,19982.660709,9558.231778,73757.828624,44716.028239,34141.149717,0.004000,0.976000,0.008000,192.000000,0.000000,32.000000,30.000000,128.000000,0.000000,64.000000,0.000000,0.000000,0.000000,1648018620.000552,0.000000
55.000000,-41766.760262,-35595.287156,3624.804750,19992.048441,9566.747793,73766.299935,44691.061341,34110.505475,0.004000,0.976000,0.008000,192.000000,0.000000,0.000000,0.000000,0.000000,0.000000,0.000000,0.000000,0.000000,0.000000,1648018620.008519,0.000000
56.000000,-41758.020730,-35586.793493,3631.756143,19998.977482,9572.559246,73771.194967,44645.955520,34045.707768,0.004000,0.976000,0.008000,192.000000,0.000000,0.000000,0.000000,0.000000,0.000000,0.000000,0.000000,0.000000,0.000000,1648018620.008535,0.000000
57.000000,-41758.467765,-35585.899423,3628.045753,19998.843372,9569.877037,73775.151226,44663.658102,34045.819526,0.004000,0.976000,0.008000,192.000000,0.000000,0.000000,0.000000,0.000000,0.000000,0.000000,0.000000,0.000000,0.000000,1648018620.015501,0.000000
58.000000,-41759.272427,-35584.558318,3625.721172,20000.765622,9571.106383,73774.793598,44702.706600,34083.079884,0.004000,0.976000,0.008000,192.000000,0.000000,0.000000,0.000000,0.000000,0.000000,0.000000,0.000000,0.000000,0.000000,1648018620.015512,0.000000
59.000000,-41756.903143,-35587.821673,3625.609413,19998.083412,9571.821639,73765.182348,44710.909690,34100.514245,0.004000,0.976000,0.008000,192.000000,0.000000,0.000000,0.000000,0.000000,0.000000,0.000000,0.000000,0.000000,0.000000,1648018620.022972,0.000000
60.000000,-41761.060567,-35590.548586,3627.106980,19997.502267,9570.569941,73760.354371,44686.278067,34074.072131,0.004000,0.976000,0.008000,192.000000,0.000000,0.000000,0.000000,0.000000,0.000000,0.000000,0.000000,0.000000,0.000000,1648018620.022989,0.000000
61.000000,-41776.907954,-35604.518426,3617.138102,19982.414840,9557.896502,73743.299990,44660.595913,34037.325864,0.004000,0.976000,0.008000,192.000000,0.000000,0.000000,0.000000,0.000000,0.000000,0.000000,0.000000,0.000000,0.000000,1648018620.030201,0.000000
62.000000,-41769.643637,-35595.197749,3620.177939,19988.226293,9561.830409,73745.333999,44675.817451,34037.907009,0.004000,0.976000,0.008000,192.000000,0.000000,0.000000,0.000000,0.000000,0.000000,0.000000,0.000000,0.000000,0.000000,1648018620.038195,0.000000
63.000000,-41766.067358,-35590.816807,3620.110884,19988.561569,9562.322147,73750.363141,44711.893167,34073.066303,0.004000,0.976000,0.008000,192.000000,0.000000,0.000000,0.000000,0.000000,0.000000,0.000000,0.000000,0.000000,0.000000,1648018620.038211,0.000000
64.000000,-41761.507602,-35590.772103,3624.089494,19985.164104,9561.361022,73751.838356,44723.158446,34096.088600,0.004000,0.976000,0.008000,192.000000,0.000000,0.000000,0.000000,0.000000,0.000000,0.000000,0.000000,0.000000,0.000000,1648018620.045187,0.000000
65.000000,-41755.159706,-35587.128769,3628.515140,19986.572264,9564.467915,73752.844185,44702.170158,34079.436550,-0.004000,0.982000,0.004000,192.000000,255.000000,224.000000,30.000000,176.000000,0.000000,32.000000,0.000000,0.000000,0.000000,1648018620.045222,0.000000
66.000000,-41754.466802,-35585.005353,3630.795018,19991.176723,9566.747793,73755.593450,44666.452070,34034.531895,-0.004000,0.982000,0.004000,192.000000,0.000000,0.000000,0.000000,0.000000,0.000000,0.000000,0.000000,0.000000,0.000000,1648018620.052812,0.000000
67.000000,-41764.458032,-35595.935356,3618.970945,19980.649052,9554.543740,73743.076473,44687.596820,34054.246134,-0.004000,0.982000,0.004000,192.000000,0.000000,0.000000,0.000000,0.000000,0.000000,0.000000,0.000000,0.000000,0.000000,1648018620.052828,0.000000
68.000000,-41760.412366,-35592.716705,3620.289698,19988.740383,9559.930511,73743.054121,44714.731838,34084.689210,-0.004000,0.982000,0.004000,192.000000,0.000000,0.000000,0.000000,0.000000,0.000000,0.000000,0.000000,0.000000,0.000000,1648018620.060797,0.000000
69.000000,-41759.674759,-35593.834292,3612.444235,19990.595578,9556.577749,73728.681949,44726.600614,34119.669690,-0.004000,0.982000,0.004000,192.000000,0.000000,0.000000,0.000000,0.000000,0.000000,0.000000,0.000000,0.000000,0.000000,1648018620.060814,0.000000
70.000000,-41764.681550,-35587.441693,3617.093398,19983.778296,9560.288138,73720.545914,44696.336352,34101.497722,-0.004000,0.982000,0.004000,192.000000,0.000000,0.000000,0.000000,0.000000,0.000000,0.000000,0.000000,0.000000,0.000000,1648018620.068745,0.000000
71.000000,-41753.818602,-35578.568051,3633.588986,19993.501305,9572.782764,73736.907391,44662.093480,34052.346236,-0.004000,0.982000,0.004000,192.000000,0.000000,0.000000,0.000000,0.000000,0.000000,0.000000,0.000000,0.000000,0.000000,1648018620.068761,0.000000
72.000000,-41750.041157,-35576.534042,3635.466532,20000.363290,9574.325034,73751.145452,44679.974875,34061.733968,-0.004000,0.982000,0.004000,192.000000,0.000000,0.000000,0.000000,0.000000,0.000000,0.000000,0.000000,0.000000,0.000000,1648018620.075328,0.000000
73.000000,-41753.595084,-35583.932469,3627.688125,19993.635415,9566.434868,73746.049255,44720.856216,34114.886417,-0.004000,0.982000,0.004000,192.000000,0.000000,0.000000,0.000000,0.000000,0.000000,0.000000,0.000000,0.000000,0.000000,1648018620.075344,0.000000
74.000000,-41758.333654,-35588.313411,3621.943727,19984.515904,9559.639938,73736.236839,44729.506341,34148.503440,-0.004000,0.982000,0.004000,192.000000,0.000000,0.000000,0.000000,0.000000,0.000000,0.000000,0.000000,0.000000,0.000000,1648018620.083452,0.000000
75.000000,-41758.557172,-35589.140426,3620.826140,19984.985290,9559.461124,73736.862688,44705.232347,34132.410184,-0.004000,0.984000,0.002000,192.000000,255.000000,224.000000,30.000000,192.000000,0.000000,16.000000,0.000000,0.000000,0.000000,1648018620.083468,0.000000
76.000000,-41754.377395,-35585.564147,3626.458779,19990.684985,9565.853723,73749.647886,44672.509393,34093.831074,-0.004000,0.984000,0.002000,192.000000,0.000000,0.000000,0.000000,0.000000,0.000000,0.000000,0.000000,0.000000,0.000000,1648018620.090489,0.000000
77.000000,-41757.573695,-35586.234699,3622.211948,19989.187418,9560.042269,73753.492386,44688.647352,34098.770809,-0.004000,0.984000,0.002000,192.000000,0.000000,0.000000,0.000000,0.000000,0.000000,0.000000,0.000000,0.000000,0.000000,1648018620.098425,0.000000
78.000000,-41769.822451,-35599.533987,3609.113825,19980.626700,9546.899443,73740.595429,44721.906748,34147.698778,-0.004000,0.984000,0.002000,192.000000,0.000000,0.000000,0.000000,0.000000,0.000000,0.000000,0.000000,0.000000,0.000000,1648018620.098441,0.000000
79.000000,-41768.704864,-35601.903272,3605.470491,19974.502322,9541.847949,73732.839374,44734.133152,34184.959136,-0.004000,0.984000,0.002000,192.000000,0.000000,0.000000,0.000000,0.000000,0.000000,0.000000,0.000000,0.000000,0.000000,1648018620.104878,0.000000
80.000000,-41761.038215,-35592.292022,3614.142968,19979.598520,9550.609833,73734.225182,44719.582167,34171.883365,-0.004000,0.984000,0.002000,192.000000,0.000000,0.000000,0.000000,0.000000,0.000000,0.000000,0.000000,0.000000,0.000000,1648018620.104894,0.000000
81.000000,-41745.459049,-35579.618583,3629.878596,19993.590712,9566.904255,73743.769377,44674.185774,34110.728992,-0.004000,0.984000,0.002000,192.000000,0.000000,0.000000,0.000000,0.000000,0.000000,0.000000,0.000000,0.000000,0.000000,1648018620.113153,0.000000
82.000000,-41744.699090,-35584.401856,3622.077837,19993.098973,9561.673947,73743.679970,44695.151710,34121.524885,-0.004000,0.984000,0.002000,192.000000,0.000000,0.000000,0.000000,0.000000,0.000000,0.000000,0.000000,0.000000,0.000000,1648018620.113170,0.000000
83.000000,-41750.465840,-35584.379504,3620.937898,19994.283616,9562.925644,73746.831566,44728.902844,34158.449967,-0.004000,0.984000,0.002000,192.000000,0.000000,0.000000,0.000000,0.000000,0.000000,0.000000,0.000000,0.000000,0.000000,1648018620.121036,0.000000
84.000000,-41759.250076,-35585.675905,3621.161416,19990.975558,9562.255092,73744.574040,44743.207961,34185.160301,-0.004000,0.984000,0.002000,192.000000,0.000000,0.000000,0.000000,0.000000,0.000000,0.000000,0.000000,0.000000,0.000000,1648018620.121053,0.000000
85.000000,-41752.745718,-35578.389237,3627.576366,19999.066889,9568.021842,73742.338865,44717.816379,34163.724978,-0.012000,0.984000,-0.004000,192.000000,255.000000,160.000000,30.000000,192.000000,255.000000,224.000000,0.000000,0.000000,0.000000,1648018620.128065,0.000000
86.000000,-41746.755451,-35573.158929,3626.861111,19998.843372,9568.044194,73738.583772,44679.997227,34121.457830,-0.012000,0.984000,-0.004000,192.000000,0.000000,0.000000,0.000000,0.000000,0.000000,0.000000,0.000000,0.000000,0.000000,1648018620.128099,0.000000
87.000000,-41748.185962,-35579.149196,3627.263442,19998.351633,9567.798325,73746.228069,44690.770768,34121.748402,-0.012000,0.984000,-0.004000,192.000000,0.000000,0.000000,0.000000,0.000000,0.000000,0.000000,0.000000,0.000000,0.000000,1648018620.135623,0.000000
88.000000,-41746.509581,-35581.741998,3631.309108,20000.206828,9569.675871,73755.906374,44717.369344,34140.255647,-0.012000,0.984000,-0.004000,192.000000,0.000000,0.000000,0.000000,0.000000,0.000000,0.000000,0.000000,0.000000,0.000000,1648018620.135638,0.000000
89.000000,-41753.997416,-35591.710876,3622.413113,19987.667500,9558.142371,73743.612915,44744.459658,34182.366333,-0.012000,0.984000,-0.004000,192.000000,0.000000,0.000000,0.000000,0.000000,0.000000,0.000000,0.000000,0.000000,0.000000,1648018620.143721,0.000000
90.000000,-41754.109175,-35593.007278,3623.106017,19985.342918,9558.120019,73730.715958,44725.550082,34181.204043,-0.012000,0.984000,-0.004000,192.000000,0.000000,0.000000,0.000000,0.000000,0.000000,0.000000,0.000000,0.000000,0.000000,1648018620.143737,0.000000
91.000000,-41732.495038,-35572.890708,3640.227454,20002.084375,9576.582560,73740.774243,44679.594896,34128.208056,-0.012000,0.984000,-0.004000,192.000000,0.000000,0.000000,0.000000,0.000000,0.000000,0.000000,0.000000,0.000000,0.000000,1648018620.150739,0.000000
92.000000,-41739.401727,-35579.484472,3626.592890,19998.798668,9565.563150,73744.350522,44698.504472,34137.685196,-0.012000,0.984000,-0.004000,192.000000,0.000000,0.000000,0.000000,0.000000,0.000000,0.000000,0.000000,0.000000,0.000000,1648018620.150755,0.000000
93.000000,-41748.968273,-35580.892632,3622.927204,19994.440078,9561.249263,73743.568211,44728.366402,34171.346923,-0.012000,0.984000,-0.004000,192.000000,0.000000,0.000000,0.000000,0.000000,0.000000,0.000000,0.000000,0.000000,0.000000,1648018620.157373,0.000000
94.000000,-41751.963407,-35582.278440,3621.720209,19989.634453,9560.332842,73737.689702,44750.695795,34204.136932,-0.012000,0.984000,-0.004000,192.000000,0.000000,0.000000,0.000000,0.000000,0.000000,0.000000,0.000000,0.000000,0.000000,1648018620.165259,0.000000
95.000000,-41746.442526,-35578.098664,3627.822236,19992.853104,9566.636034,73735.968618,44721.727934,34184.579156,-0.004000,0.988000,-0.002000,192.000000,255.000000,224.000000,30.000000,224.000000,255.000000,240.000000,0.000000,0.000000,0.000000,1648018620.165276,0.000000
96.000000,-41740.832238,-35574.522385,3632.069067,20003.783107,9572.715708,73744.350522,44681.964181,34147.676426,-0.004000,0.988000,-0.002000,192.000000,0.000000,0.000000,0.000000,0.000000,0.000000,0.000000,0.000000,0.000000,0.000000,1648018620.173211,0.000000
97.000000,-41734.327881,-35577.338705,3625.810579,20006.241799,9568.446525,73746.608048,44686.546288,34145.731824,-0.004000,0.988000,-0.002000,192.000000,0.000000,0.000000,0.000000,0.000000,0.000000,0.000000,0.000000,0.000000,0.000000,1648018620.173226,0.000000
98.000000,-41745.347291,-35578.724513,3622.122541,19997.748136,9563.395031,73750.519604,44715.827074,34174.990258,-0.004000,0.988000,-0.002000,192.000000,0.000000,0.000000,0.000000,0.000000,0.000000,0.000000,0.000000,0.000000,0.000000,1648018620.180286,0.000000
99.000000,-41746.621340,-35576.958725,3625.944689,19994.730651,9565.831371,73746.786862,44741.464524,34219.313767,-0.004000,0.988000,-0.002000,192.000000,0.000000,0.000000,0.000000,0.000000,0.000000,0.000000,0.000000,0.000000,0.000000,1648018620.180302,0.000000
100.000000,-41738.060622,-35563.122995,3640.853303,20009.549857,9581.544647,73761.583717,44720.252719,34202.795828,-0.004000,0.988000,-0.002000,192.000000,0.000000,0.000000,0.000000,0.000000,0.000000,0.000000,0.000000,0.000000,0.000000,1648018620.187705,0.000000
101.000000,-41742.285102,-35570.767292,3632.918433,20000.430346,9573.453316,73749.111444,44683.707617,34174.722037,-0.004000,0.988000,-0.002000,192.000000,0.000000,0.000000,0.000000,0.000000,0.000000,0.000000,0.000000,0.000000,0.000000,1648018620.187716,0.000000
102.000000,-41734.260825,-35565.648742,3639.623957,20007.806421,9579.153011,73753.134758,44684.333466,34163.099130,-0.004000,0.988000,-0.002000,192.000000,0.000000,0.000000,0.000000,0.000000,0.000000,0.000000,0.000000,0.000000,0.000000,1648018620.195913,0.000000
103.000000,-41740.385203,-35568.912097,3635.757105,20006.666482,9575.621435,73760.041447,44720.431533,34193.899833,-0.004000,0.988000,-0.002000,192.000000,0.000000,0.000000,0.000000,0.000000,0.000000,0.000000,0.000000,0.000000,0.000000,1648018620.195924,0.000000
104.000000,-41740.854590,-35572.734245,3629.655079,19997.502267,9568.714746,73746.540993,44749.712318,34245.331197,-0.004000,0.988000,-0.002000,192.000000,0.000000,0.000000,0.000000,0.000000,0.000000,0.000000,0.000000,0.000000,0.000000,1648018620.204076,0.000000
105.000000,-41725.811866,-35561.781891,3642.596739,20001.771450,9578.571865,73746.473938,44723.136094,34225.974587,0.006000,0.988000,-0.010000,192.000000,0.000000,48.000000,30.000000,224.000000,255.000000,176.000000,0.000000,0.000000,0.000000,1648018620.204093,0.000000
106.000000,-41717.876997,-35551.567143,3657.483000,20011.405052,9590.530049,73756.375761,44679.214916,34168.284734,0.006000,0.988000,-0.010000,192.000000,0.000000,0.000000,0.000000,0.000000,0.000000,0.000000,0.000000,0.000000,0.000000,1648018620.210625,0.000000
107.000000,-41724.738982,-35554.852850,3648.542303,20010.063947,9583.712767,73763.863595,44684.132300,34155.208964,0.006000,0.988000,-0.010000,192.000000,0.000000,0.000000,0.000000,0.000000,0.000000,0.000000,0.000000,0.000000,0.000000,1648018620.210659,0.000000
108.000000,-41731.556264,-35561.759539,3638.372259,20007.918180,9575.353214,73758.588583,44716.899957,34188.334249,0.006000,0.988000,-0.010000,192.000000,0.000000,0.000000,0.000000,0.000000,0.000000,0.000000,0.000000,0.000000,0.000000,1648018620.217593,0.000000
109.000000,-41729.499904,-35562.765367,3640.160399,20011.181535,9577.297816,73747.658580,44743.990272,34226.421622,0.006000,0.988000,-0.010000,192.000000,0.000000,0.000000,0.000000,0.000000,0.000000,0.000000,0.000000,0.000000,0.000000,1648018620.225518,0.000000
110.000000,-41717.474665,-35552.975303,3652.878541,20026.134852,9592.117023,73747.636229,44718.643393,34201.700592,0.006000,0.988000,-0.010000,192.000000,0.000000,0.000000,0.000000,0.000000,0.000000,0.000000,0.000000,0.000000,0.000000,1648018620.225535,0.000000
111.000000,-41718.614604,-35556.417472,3649.279910,20017.082395,9588.294874,73742.718845,44686.590992,34165.222545,0.006000,0.988000,-0.010000,192.000000,0.000000,0.000000,0.000000,0.000000,0.000000,0.000000,0.000000,0.000000,0.000000,1648018620.233636,0.000000
112.000000,-41709.875072,-35550.181335,3652.744431,20021.485689,9592.742871,73756.554575,44689.049684,34154.717225,0.006000,0.988000,-0.010000,192.000000,0.000000,0.000000,0.000000,0.000000,0.000000,0.000000,0.000000,0.000000,0.000000,1648018620.233652,0.000000
113.000000,-41713.183130,-35544.392233,3658.466477,20027.051273,9597.257924,73769.719752,44714.217748,34160.819252,0.006000,0.988000,-0.010000,192.000000,0.000000,0.000000,0.000000,0.000000,0.000000,0.000000,0.000000,0.000000,0.000000,1648018620.240298,0.000000
114.000000,-41723.375526,-35552.975303,3649.659890,20017.507078,9586.864363,73762.298973,44746.493667,34192.491674,0.006000,0.988000,-0.010000,192.000000,0.000000,0.000000,0.000000,0.000000,0.000000,0.000000,0.000000,0.000000,0.000000,1648018620.240314,0.000000
115.000000,-41726.348308,-35557.915039,3645.368355,20014.534296,9583.936284,73756.129891,44735.496609,34191.664659,0.004000,0.984000,-0.014000,192.000000,0.000000,32.000000,30.000000,192.000000,255.000000,144.000000,0.000000,0.000000,0.000000,1648018620.248172,0.000000
116.000000,-41731.556264,-35564.218231,3641.009765,20009.102822,9580.270598,73748.575002,44697.431588,34155.119557,0.004000,0.984000,-0.014000,192.000000,0.000000,0.000000,0.000000,0.000000,0.000000,0.000000,0.000000,0.000000,0.000000,1648018620.248189,0.000000
117.000000,-41734.596102,-35565.112301,3635.645346,20008.566381,9576.917836,73749.267906,44696.470463,34141.775565,0.004000,0.984000,-0.014000,192.000000,0.000000,0.000000,0.000000,0.000000,0.000000,0.000000,0.000000,0.000000,0.000000,1648018620.256109,0.000000
118.000000,-41732.696203,-35562.921830,3635.757105,20011.829735,9578.594217,73757.470996,44722.107914,34162.048598,0.004000,0.984000,-0.014000,192.000000,0.000000,0.000000,0.000000,0.000000,0.000000,0.000000,0.000000,0.000000,0.000000,1648018620.256125,0.000000
119.000000,-41732.763259,-35564.352341,3634.237186,20008.365215,9576.470801,73756.979258,44752.908618,34203.891063,0.004000,0.984000,-0.014000,192.000000,0.000000,0.000000,0.000000,0.000000,0.000000,0.000000,0.000000,0.000000,0.000000,1648018620.262835,0.000000
120.000000,-41734.305529,-35566.229888,3635.019497,20004.677177,9576.046118,73750.541955,44732.836751,34189.518892,0.004000,0.984000,-0.014000,192.000000,0.000000,0.000000,0.000000,0.000000,0.000000,0.000000,0.000000,0.000000,0.000000,1648018620.262851,0.000000
121.000000,-41724.716631,-35559.233792,3644.988375,20013.483764,9586.283217,73755.705208,44683.193527,34131.940798,0.004000,0.984000,-0.014000,192.000000,0.000000,0.000000,0.000000,0.000000,0.000000,0.000000,0.000000,0.000000,0.000000,1648018620.270841,0.000000
122.000000,-41727.264729,-35560.284324,3638.551073,20014.243724,9581.365833,73760.242612,44695.107006,34134.488897,0.004000,0.984000,-0.014000,192.000000,0.000000,0.000000,0.000000,0.000000,0.000000,0.000000,0.000000,0.000000,0.000000,1648018620.270857,0.000000
123.000000,-41728.382317,-35560.172565,3636.114733,20011.427404,9579.600046,73753.335923,44719.313946,34160.372217,0.004000,0.984000,-0.014000,192.000000,0.000000,0.000000,0.000000,0.000000,0.000000,0.000000,0.000000,0.000000,0.000000,1648018620.277808,0.000000
124.000000,-41734.484343,-35566.855737,3635.019497,20005.280674,9576.515505,73744.261115,44749.511152,34196.403229,0.004000,0.984000,-0.014000,192.000000,0.000000,0.000000,0.000000,0.000000,0.000000,0.000000,0.000000,0.000000,0.000000,1648018620.285970,0.000000
125.000000,-41725.342479,-35562.832423,3644.295471,20010.801555,9585.120927,73748.306781,44734.490780,34181.002877,-0.004000,0.988000,-0.012000,192.000000,255.000000,224.000000,30.000000,224.000000,255.000000,160.000000,0.000000,0.000000,0.000000,1648018620.285986,0.000000
126.000000,-41722.928491,-35559.591420,3645.860093,20012.723805,9588.071357,73748.507947,44699.532652,34139.450984,-0.004000,0.988000,-0.012000,192.000000,0.000000,0.000000,0.000000,0.000000,0.000000,0.000000,0.000000,0.000000,0.000000,1648018620.292590,0.000000
127.000000,-41716.222968,-35558.943219,3643.736678,20014.556648,9585.612665,73750.094920,44702.214861,34128.006891,-0.004000,0.988000,-0.012000,192.000000,0.000000,0.000000,0.000000,0.000000,0.000000,0.000000,0.000000,0.000000,0.000000,1648018620.292607,0.000000
128.000000,-41711.573805,-35551.522440,3645.636576,20024.413767,9589.926552,73761.606069,44729.886321,34143.206077,-0.004000,0.988000,-0.012000,192.000000,0.000000,0.000000,0.000000,0.000000,0.000000,0.000000,0.000000,0.000000,0.000000,1648018620.300524,0.000000
129.000000,-41722.906139,-35554.830498,3643.289643,20023.340884,9587.870191,73768.289240,44769.538315,34179.080627,-0.004000,0.988000,-0.012000,192.000000,0.000000,0.000000,0.000000,0.000000,0.000000,0.000000,0.000000,0.000000,0.000000,1648018620.300559,0.000000
130.000000,-41727.979985,-35564.888783,3638.931053,20011.539163,9580.136488,73755.794615,44756.864876,34169.223508,-0.004000,0.988000,-0.012000,192.000000,0.000000,0.000000,0.000000,0.000000,0.000000,0.000000,0.000000,0.000000,0.000000,1648018620.308590,0.000000
131.000000,-41723.442581,-35563.927658,3642.574387,20011.092128,9583.489249,73755.101711,44713.122512,34117.568626,-0.004000,0.988000,-0.012000,192.000000,0.000000,0.000000,0.000000,0.000000,0.000000,0.000000,0.000000,0.000000,0.000000,1648018620.308606,0.000000
132.000000,-41722.704974,-35563.972362,3640.272157,20021.575096,9584.293912,73759.616764,44718.665745,34108.717335,-0.004000,0.988000,-0.012000,192.000000,0.000000,0.000000,0.000000,0.000000,0.000000,0.000000,0.000000,0.000000,0.000000,1648018620.315583,0.000000
133.000000,-41725.275424,-35564.352341,3639.936881,20018.356445,9583.489249,73760.443778,44744.861990,34134.935932,-0.004000,0.988000,-0.012000,192.000000,0.000000,0.000000,0.000000,0.000000,0.000000,0.000000,0.000000,0.000000,0.000000,1648018620.315599,0.000000
134.000000,-41729.119924,-35569.850870,3635.980622,20012.142660,9579.398880,73754.006476,44776.556763,34183.662734,-0.004000,0.988000,-0.012000,192.000000,0.000000,0.000000,0.000000,0.000000,0.000000,0.000000,0.000000,0.000000,0.000000,1648018620.322913,0.000000
135.000000,-41718.815770,-35561.826594,3643.669622,20022.759738,9588.987778,73758.879156,44752.908618,34166.854223,-0.006000,0.984000,-0.014000,192.000000,255.000000,208.000000,30.000000,192.000000,255.000000,144.000000,0.000000,0.000000,0.000000,1648018620.322930,0.000000
136.000000,-41726.571825,-35566.051074,3636.762933,20018.445852,9583.623360,73755.749912,44724.544254,34140.792089,-0.006000,0.984000,-0.014000,192.000000,0.000000,0.000000,0.000000,0.000000,0.000000,0.000000,0.000000,0.000000,0.000000,1648018620.331140,0.000000
137.000000,-41740.452259,-35576.042304,3627.442256,20012.969674,9573.676833,73746.272772,44726.824132,34147.408205,-0.006000,0.984000,-0.014000,192.000000,0.000000,0.000000,0.000000,0.000000,0.000000,0.000000,0.000000,0.000000,0.000000,1648018620.331156,0.000000
138.000000,-41738.395898,-35574.164757,3629.565672,20016.165974,9575.017938,73750.229031,44748.862952,34176.040790,-0.006000,0.984000,-0.014000,192.000000,0.000000,0.000000,0.000000,0.000000,0.000000,0.000000,0.000000,0.000000,0.000000,1648018620.338247,0.000000
139.000000,-41734.529046,-35570.588478,3630.415038,20014.243724,9574.705014,73751.033694,44779.686007,34226.063994,-0.006000,0.984000,-0.014000,192.000000,0.000000,0.000000,0.000000,0.000000,0.000000,0.000000,0.000000,0.000000,0.000000,1648018620.345356,0.000000
140.000000,-41732.249168,-35575.304696,3628.269270,20003.559590,9569.787630,73741.824775,44742.090373,34209.747220,-0.006000,0.984000,-0.014000,192.000000,0.000000,0.000000,0.000000,0.000000,0.000000,0.000000,0.000000,0.000000,0.000000,1648018620.345372,0.000000
141.000000,-41719.732192,-35571.728417,3636.472361,20005.839468,9575.956711,73749.536127,44707.288707,34162.361522,-0.006000,0.984000,-0.014000,192.000000,0.000000,0.000000,0.000000,0.000000,0.000000,0.000000,0.000000,0.000000,0.000000,1648018620.352859,0.000000
142.000000,-41724.314299,-35572.778949,3636.204140,20009.035767,9577.074299,73752.620668,44702.885414,34134.623007,-0.006000,0.984000,-0.014000,192.000000,0.000000,0.000000,0.000000,0.000000,0.000000,0.000000,0.000000,0.000000,0.000000,1648018620.352875,0.000000
143.000000,-41735.423116,-35574.678847,3631.197349,20007.381738,9573.833296,73756.755740,44743.543237,34171.883365,-0.006000,0.984000,-0.014000,192.000000,0.000000,0.000000,0.000000,0.000000,0.000000,0.000000,0.000000,0.000000,0.000000,1648018620.360761,0.000000
144.000000,-41734.551398,-35574.164757,3630.035058,20004.565418,9572.223970,73748.083263,44777.786109,34213.658776,-0.006000,0.984000,-0.014000,192.000000,0.000000,0.000000,0.000000,0.000000,0.000000,0.000000,0.000000,0.000000,0.000000,1648018620.360778,0.000000
145.000000,-41730.461029,-35574.075350,3634.572462,20005.414785,9575.710842,73745.646923,44763.190420,34204.785133,-0.006000,0.984000,-0.014000,192.000000,0.000000,0.000000,30.000000,224.000000,255.000000,176.000000,0.000000,0.000000,0.000000,1648018620.368887,0.000000
146.000000,-41725.767163,-35568.979152,3642.082649,20014.221372,9585.187982,73747.949153,44723.225501,34164.820214,-0.006000,0.984000,-0.014000,192.000000,0.000000,0.000000,0.000000,0.000000,0.000000,0.000000,0.000000,0.000000,0.000000,1648018620.368902,0.000000
147.000000,-41720.425096,-35561.781891,3642.797904,20023.787919,9587.691377,73752.687723,44725.326565,34158.829946,-0.006000,0.984000,-0.014000,192.000000,0.000000,0.000000,0.000000,0.000000,0.000000,0.000000,0.000000,0.000000,0.000000,1648018620.375400,0.000000
148.000000,-41714.635994,-35556.417472,3647.961157,20027.185384,9590.686511,73754.319400,44733.283786,34153.264362,-0.006000,0.984000,-0.014000,192.000000,0.000000,0.000000,0.000000,0.000000,0.000000,0.000000,0.000000,0.000000,0.000000,1648018620.375417,0.000000
149.000000,-41729.231683,-35568.800338,3630.996183,20012.343825,9575.710842,73749.938458,44778.724882,34208.383764,-0.006000,0.984000,-0.014000,192.000000,0.000000,0.000000,0.000000,0.000000,0.000000,0.000000,0.000000,0.000000,0.000000,1648018620.383411,0.000000
150.000000,-41713.764276,-35556.842155,3646.150666,20024.503174,9593.458127,73755.258173,44767.034920,34212.764706,-0.006000,0.984000,-0.014000,192.000000,0.000000,0.000000,0.000000,0.000000,0.000000,0.000000,0.000000,0.000000,0.000000,1648018620.383445,0.000000
151.000000,-41711.216177,-35557.043321,3647.022384,20021.820965,9593.882810,73755.459339,44729.841617,34171.548089,-0.006000,0.984000,-0.014000,192.000000,0.000000,0.000000,0.000000,0.000000,0.000000,0.000000,0.000000,0.000000,0.000000,1648018620.391536,0.000000
152.000000,-41721.766200,-35560.597248,3639.847474,20019.295218,9587.311397,73753.112406,44720.789161,34146.312969,-0.006000,0.984000,-0.014000,192.000000,0.000000,0.000000,0.000000,0.000000,0.000000,0.000000,0.000000,0.000000,0.000000,1648018620.391553,0.000000
153.000000,-41730.505732,-35565.402873,3635.243015,20019.406977,9582.170496,73749.133795,44748.482972,34166.496595,-0.006000,0.984000,-0.014000,192.000000,0.000000,0.000000,0.000000,0.000000,0.000000,0.000000,0.000000,0.000000,0.000000,1648018620.397565,0.000000
154.000000,-41740.005224,-35576.243469,3621.116712,20002.419651,9568.133601,73741.064816,44791.912412,34224.253502,-0.006000,0.984000,-0.014000,192.000000,0.000000,0.000000,0.000000,0.000000,0.000000,0.000000,0.000000,0.000000,0.000000,1648018620.397582,0.000000
155.000000,-41737.323014,-35577.495167,3622.703686,20000.743270,9569.698223,73732.347635,44788.649057,34247.253447,-0.002000,0.986000,-0.012000,192.000000,255.000000,240.000000,30.000000,208.000000,255.000000,160.000000,0.000000,0.000000,0.000000,1648018620.405022,0.000000
156.000000,-41720.648613,-35564.844080,3636.472361,20014.131965,9582.729290,73742.450624,44752.841562,34215.491619,-0.002000,0.986000,-0.012000,192.000000,0.000000,0.000000,0.000000,0.000000,0.000000,0.000000,0.000000,0.000000,0.000000,1648018620.413123,0.000000
157.000000,-41725.007203,-35569.314428,3621.496692,20005.660654,9568.625339,73731.006531,44731.517998,34188.177787,-0.002000,0.986000,-0.012000,192.000000,0.000000,0.000000,0.000000,0.000000,0.000000,0.000000,0.000000,0.000000,0.000000,1648018620.413139,0.000000
158.000000,-41722.414401,-35552.774138,3627.285794,20017.194154,9575.107345,73736.683874,44744.459658,34190.077685,-0.002000,0.986000,-0.012000,192.000000,0.000000,0.000000,0.000000,0.000000,0.000000,0.000000,0.000000,0.000000,0.000000,1648018620.421227,0.000000
159.000000,-41734.193770,-35567.168661,3621.720209,20009.460450,9567.708918,73744.194060,44793.186461,34241.821974,-0.002000,0.986000,-0.012000,192.000000,0.000000,0.000000,0.000000,0.000000,0.000000,0.000000,0.000000,0.000000,0.000000,1648018620.421245,0.000000
160.000000,-41735.311357,-35579.976211,3629.386858,20009.438099,9572.872171,73751.257211,44788.403188,34254.853041,-0.002000,0.986000,-0.012000,192.000000,0.000000,0.000000,0.000000,0.000000,0.000000,0.000000,0.000000,0.000000,0.000000,1648018620.427708,0.000000
161.000000,-41715.261843,-35563.681789,3650.173980,20023.564401,9592.161726,73751.950115,44743.476181,34212.250616,-0.002000,0.986000,-0.012000,192.000000,0.000000,0.000000,0.000000,0.000000,0.000000,0.000000,0.000000,0.000000,0.000000,1648018620.427724,0.000000
