%OpenBCI Raw EEG Data
%Number of channels = 8
%Sample Rate = 256 Hz
%Board = OpenBCI_GUI$BoardCytonSerial
%Channels = Fp1, Fp2, F3, F4, Fz, Pz, O1, O2
%Data recorded at AIMS Lab (http://aimsl.uiu.ac.bd) by Rana Depto (mail@ranadepto.com)
%Brainwaves were obtained via the Ultracortex Mark IV Headset using the OpenBCI Cyton Board
%Recording Application = ConcentrateToday (https://concentrate.today)
%Data type = RAW data with noise
%Day No = 6
%Subject ID = 8
%Session ID = 7
%Record starting timestamp (UTC+6) = 2022-03-23T15:52:51.256225
%Record ending timestamp (UTC+6)   = 2022-03-23T15:53:22.397240
%Recorded durations = ~31 seconds
Sample Index, EXG Channel 0, EXG Channel 1, EXG Channel 2, EXG Channel 3, EXG Channel 4, EXG Channel 5, EXG Channel 6, EXG Channel 7, Accel Channel 0, Accel Channel 1, Accel Channel 2, Other, Other, Other, Other, Other, Other, Other, Analog Channel 0, Analog Channel 1, Analog Channel 2, Timestamp, Timestamp (Formatted)
219.000000,-26633.936362,-34918.163409,30644.152241,17365.159674,-2044.335251,29880.728409,19592.175733,28769.533786,-0.008000,0.972000,0.110000,192.000000,0.000000,0.000000,0.000000,0.000000,0.000000,0.000000,0.000000,0.000000,0.000000,1648029171.259982,0.000000
220.000000,-26639.501946,-34917.045822,30646.923858,17364.712639,-2041.764801,29879.923747,19594.857942,28773.355934,-0.008000,0.972000,0.110000,192.000000,0.000000,0.000000,0.000000,0.000000,0.000000,0.000000,0.000000,0.000000,0.000000,1648029171.259991,0.000000
221.000000,-26644.799309,-34927.148810,30639.704244,17355.213148,-2051.867789,29869.530185,19588.465344,28765.488120,-0.008000,0.972000,0.110000,192.000000,0.000000,0.000000,0.000000,0.000000,0.000000,0.000000,0.000000,0.000000,0.000000,1648029171.267928,0.000000
222.000000,-26640.574830,-34929.540447,30634.764509,17355.570776,-2053.208894,29869.932517,19589.247655,28761.062474,-0.008000,0.974000,0.112000,192.000000,255.000000,192.000000,30.000000,112.000000,3.000000,128.000000,0.000000,0.000000,0.000000,1648029171.267933,0.000000
223.000000,-26631.097690,-34923.326662,30637.379663,17360.197587,-2048.380917,29874.246403,19594.299149,28763.297649,-0.008000,0.974000,0.112000,192.000000,0.000000,0.000000,0.000000,0.000000,0.000000,0.000000,0.000000,0.000000,0.000000,1648029171.276017,0.000000
224.000000,-26630.918876,-34917.090525,30641.872363,17362.231596,-2045.944577,29874.648735,19602.256370,28768.974992,-0.008000,0.974000,0.112000,192.000000,0.000000,0.000000,0.000000,0.000000,0.000000,0.000000,0.000000,0.000000,0.000000,1648029171.276022,0.000000
225.000000,-26643.637019,-34925.338319,30632.976369,17350.429875,-2059.646196,29860.701246,19590.722870,28764.147015,-0.008000,0.974000,0.112000,192.000000,0.000000,0.000000,0.000000,0.000000,0.000000,0.000000,0.000000,0.000000,0.000000,1648029171.282682,0.000000
226.000000,-26636.171536,-34922.119668,30625.935570,17351.815683,-2061.747260,29857.817871,19582.609186,28754.938096,-0.008000,0.974000,0.112000,192.000000,0.000000,0.000000,0.000000,0.000000,0.000000,0.000000,0.000000,0.000000,0.000000,1648029171.282687,0.000000
227.000000,-26629.644827,-34909.178008,30627.611950,17363.595052,-2052.292472,29867.607935,19589.940559,28757.620306,-0.008000,0.974000,0.112000,192.000000,0.000000,0.000000,0.000000,0.000000,0.000000,0.000000,0.000000,0.000000,0.000000,1648029171.289671,0.000000
228.000000,-26630.851821,-34911.100258,30632.462279,17371.395811,-2041.585987,29883.187101,19599.752974,28766.538652,-0.008000,0.974000,0.112000,192.000000,0.000000,0.000000,0.000000,0.000000,0.000000,0.000000,0.000000,0.000000,0.000000,1648029171.289676,0.000000
229.000000,-26635.299818,-34921.113839,30631.478802,17365.092619,-2045.564597,29873.642906,19594.075631,28766.113969,-0.008000,0.974000,0.112000,192.000000,0.000000,0.000000,0.000000,0.000000,0.000000,0.000000,0.000000,0.000000,0.000000,1648029171.297567,0.000000
230.000000,-26654.388208,-34929.272226,30629.243628,17356.464846,-2054.929978,29862.712903,19584.218512,28758.044989,-0.008000,0.974000,0.112000,192.000000,0.000000,0.000000,0.000000,0.000000,0.000000,0.000000,0.000000,0.000000,0.000000,1648029171.305682,0.000000
231.000000,-26656.712789,-34937.207095,30627.455488,17357.694192,-2054.885275,29867.764398,19586.341928,28756.614477,-0.008000,0.974000,0.112000,192.000000,0.000000,0.000000,0.000000,0.000000,0.000000,0.000000,0.000000,0.000000,0.000000,1648029171.305687,0.000000
232.000000,-26649.292010,-34931.105069,30629.310683,17362.544520,-2050.973719,29873.464092,19589.739393,28760.190756,-0.008000,0.976000,0.112000,192.000000,255.000000,192.000000,30.000000,128.000000,3.000000,128.000000,0.000000,0.000000,0.000000,1648029171.312209,0.000000
233.000000,-26647.436815,-34933.027319,30631.858782,17362.902148,-2048.358565,29879.946098,19595.506143,28768.125626,-0.008000,0.976000,0.112000,192.000000,0.000000,0.000000,0.000000,0.000000,0.000000,0.000000,0.000000,0.000000,0.000000,1648029171.312216,0.000000
234.000000,-26643.771129,-34928.713432,30631.791727,17363.796218,-2048.470324,29884.572909,19602.725756,28771.970126,-0.008000,0.976000,0.112000,192.000000,0.000000,0.000000,0.000000,0.000000,0.000000,0.000000,0.000000,0.000000,0.000000,1648029171.320147,0.000000
235.000000,-26652.756530,-34932.490877,30628.729538,17361.449285,-2056.069917,29879.633174,19605.385614,28772.260698,-0.008000,0.976000,0.112000,192.000000,0.000000,0.000000,0.000000,0.000000,0.000000,0.000000,0.000000,0.000000,0.000000,1648029171.320157,0.000000
236.000000,-26647.861498,-34928.266398,30632.216410,17364.019735,-2051.554865,29882.136569,19608.760727,28771.970126,-0.008000,0.976000,0.112000,192.000000,0.000000,0.000000,0.000000,0.000000,0.000000,0.000000,0.000000,0.000000,0.000000,1648029171.328337,0.000000
237.000000,-26648.710865,-34930.680386,30631.523506,17363.259776,-2050.571388,29881.421313,19610.772384,28774.272355,-0.008000,0.976000,0.112000,192.000000,0.000000,0.000000,0.000000,0.000000,0.000000,0.000000,0.000000,0.000000,0.000000,1648029171.328342,0.000000
238.000000,-26651.527184,-34933.921389,30624.594465,17358.543558,-2056.561656,29877.845034,19604.737413,28772.372457,-0.008000,0.976000,0.112000,192.000000,0.000000,0.000000,0.000000,0.000000,0.000000,0.000000,0.000000,0.000000,0.000000,1648029171.335270,0.000000
239.000000,-26658.165653,-34929.920427,30623.320415,17360.711677,-2055.824048,29878.940270,19603.731585,28773.981783,-0.008000,0.976000,0.112000,192.000000,0.000000,0.000000,0.000000,0.000000,0.000000,0.000000,0.000000,0.000000,0.000000,1648029171.335274,0.000000
240.000000,-26661.808987,-34928.959302,30622.538104,17358.320041,-2061.367281,29876.414523,19600.222361,28777.111027,-0.008000,0.976000,0.112000,192.000000,0.000000,0.000000,0.000000,0.000000,0.000000,0.000000,0.000000,0.000000,0.000000,1648029171.342973,0.000000
241.000000,-26655.572850,-34927.551142,30621.465221,17354.900224,-2063.066013,29876.995668,19600.669396,28775.054666,-0.008000,0.976000,0.112000,192.000000,0.000000,0.000000,0.000000,0.000000,0.000000,0.000000,0.000000,0.000000,0.000000,1648029171.342997,0.000000
242.000000,-26639.323132,-34915.168275,30620.526447,17360.912843,-2056.047565,29881.421313,19606.167925,28777.826283,-0.006000,0.976000,0.118000,192.000000,255.000000,208.000000,30.000000,128.000000,3.000000,176.000000,0.000000,0.000000,0.000000,1648029171.350878,0.000000
243.000000,-26648.375588,-34917.246987,30618.783011,17359.303517,-2056.449897,29877.196834,19601.496411,28773.534748,-0.006000,0.976000,0.118000,192.000000,0.000000,0.000000,0.000000,0.000000,0.000000,0.000000,0.000000,0.000000,0.000000,1648029171.350882,0.000000
244.000000,-26652.577716,-34913.894226,30628.014282,17365.584357,-2052.381879,29878.739104,19600.937617,28772.841844,-0.006000,0.976000,0.118000,192.000000,0.000000,0.000000,0.000000,0.000000,0.000000,0.000000,0.000000,0.000000,0.000000,1648029171.357933,0.000000
245.000000,-26648.375588,-34921.024432,30628.282503,17360.376401,-2059.132106,29868.144377,19595.640254,28769.980820,-0.006000,0.976000,0.118000,192.000000,0.000000,0.000000,0.000000,0.000000,0.000000,0.000000,0.000000,0.000000,0.000000,1648029171.365053,0.000000
246.000000,-26643.212335,-34920.778563,30623.096898,17362.186892,-2056.941635,29868.949040,19595.461440,28768.349143,-0.006000,0.976000,0.118000,192.000000,0.000000,0.000000,0.000000,0.000000,0.000000,0.000000,0.000000,0.000000,0.000000,1648029171.365057,0.000000
247.000000,-26649.247306,-34917.269339,30620.347633,17364.086791,-2056.449897,29869.820758,19595.126163,28771.903070,-0.006000,0.976000,0.118000,192.000000,0.000000,0.000000,0.000000,0.000000,0.000000,0.000000,0.000000,0.000000,0.000000,1648029171.372516,0.000000
248.000000,-26651.862461,-34913.335432,30616.570189,17360.577567,-2059.623845,29867.607935,19594.768535,28771.858367,-0.006000,0.976000,0.118000,192.000000,0.000000,0.000000,0.000000,0.000000,0.000000,0.000000,0.000000,0.000000,0.000000,1648029171.372519,0.000000
249.000000,-26647.816795,-34913.134267,30618.961825,17360.465808,-2060.540266,29866.982087,19595.126163,28772.752437,-0.006000,0.976000,0.118000,192.000000,0.000000,0.000000,0.000000,0.000000,0.000000,0.000000,0.000000,0.000000,0.000000,1648029171.380529,0.000000
250.000000,-26641.468899,-34903.902996,30626.717881,17369.182988,-2050.437278,29877.219185,19602.301073,28775.792274,-0.006000,0.976000,0.118000,192.000000,0.000000,0.000000,0.000000,0.000000,0.000000,0.000000,0.000000,0.000000,0.000000,1648029171.380533,0.000000
251.000000,-26635.232763,-34899.320888,30628.751889,17370.859369,-2046.548074,29881.913052,19606.972588,28778.742704,-0.006000,0.976000,0.118000,192.000000,0.000000,0.000000,0.000000,0.000000,0.000000,0.000000,0.000000,0.000000,0.000000,1648029171.388551,0.000000
252.000000,-26638.473766,-34907.613386,30626.002625,17365.114971,-2049.878484,29876.705095,19602.949274,28775.591108,-0.006000,0.976000,0.118000,192.000000,0.000000,0.000000,0.000000,0.000000,0.000000,0.000000,0.000000,0.000000,0.000000,1648029171.388555,0.000000
253.000000,-26646.855670,-34913.558950,30620.995834,17360.666974,-2052.985376,29872.346505,19596.422565,28769.690248,-0.008000,0.978000,0.112000,192.000000,255.000000,192.000000,30.000000,144.000000,3.000000,128.000000,0.000000,0.000000,0.000000,1648029171.395159,0.000000
254.000000,-26646.386283,-34915.123572,30616.927817,17354.162616,-2060.294397,29864.009305,19589.337062,28764.817567,-0.008000,0.978000,0.112000,192.000000,0.000000,0.000000,0.000000,0.000000,0.000000,0.000000,0.000000,0.000000,0.000000,1648029171.395164,0.000000
255.000000,-26649.068493,-34918.923368,30615.676119,17352.218014,-2063.267179,29863.674028,19588.331233,28760.973067,-0.008000,0.978000,0.112000,192.000000,0.000000,0.000000,0.000000,0.000000,0.000000,0.000000,0.000000,0.000000,0.000000,1648029171.403170,0.000000
0.000000,-26650.901336,-34921.180895,30617.732479,17355.794293,-2060.115583,29871.497139,19597.361338,28761.822434,-0.008000,0.978000,0.112000,192.000000,0.000000,0.000000,0.000000,0.000000,0.000000,0.000000,0.000000,0.000000,0.000000,1648029171.403174,0.000000
1.000000,-26650.521356,-34925.472429,30615.720822,17356.777770,-2058.260388,29873.642906,19603.396309,28764.638753,-0.008000,0.978000,0.112000,192.000000,0.000000,0.000000,0.000000,0.000000,0.000000,0.000000,0.000000,0.000000,0.000000,1648029171.411237,0.000000
2.000000,-26646.051007,-34929.898075,30615.564360,17357.671840,-2061.188467,29871.474787,19603.709233,28764.325829,-0.008000,0.978000,0.112000,192.000000,0.000000,0.000000,0.000000,0.000000,0.000000,0.000000,0.000000,0.000000,0.000000,1648029171.411241,0.000000
3.000000,-26639.859574,-34928.355804,30618.827715,17357.090695,-2063.110717,29864.501043,19597.450745,28765.912803,-0.008000,0.978000,0.112000,192.000000,0.000000,0.000000,0.000000,0.000000,0.000000,0.000000,0.000000,0.000000,0.000000,1648029171.418184,0.000000
4.000000,-26640.708940,-34925.450078,30621.688738,17360.599918,-2057.835705,29867.674991,19600.490582,28767.008038,-0.008000,0.978000,0.112000,192.000000,0.000000,0.000000,0.000000,0.000000,0.000000,0.000000,0.000000,0.000000,0.000000,1648029171.424862,0.000000
5.000000,-26651.974219,-34928.936950,30622.538104,17360.219939,-2056.472249,29867.674991,19601.943445,28771.523091,-0.008000,0.978000,0.112000,192.000000,0.000000,0.000000,0.000000,0.000000,0.000000,0.000000,0.000000,0.000000,0.000000,1648029171.424866,0.000000
6.000000,-26647.906202,-34928.981653,30621.286407,17357.716543,-2056.785173,29867.473825,19602.055204,28768.505605,-0.008000,0.978000,0.112000,192.000000,0.000000,0.000000,0.000000,0.000000,0.000000,0.000000,0.000000,0.000000,0.000000,1648029171.432767,0.000000
7.000000,-26658.590336,-34940.269284,30612.479819,17347.322982,-2068.631598,29858.331961,19593.114506,28765.778692,-0.002000,0.970000,0.114000,192.000000,255.000000,240.000000,30.000000,80.000000,3.000000,144.000000,0.000000,0.000000,0.000000,1648029171.432771,0.000000
8.000000,-26666.659315,-34945.968979,30608.121229,17340.505700,-2075.895915,29849.726540,19583.167980,28762.358876,-0.002000,0.970000,0.114000,192.000000,0.000000,0.000000,0.000000,0.000000,0.000000,0.000000,0.000000,0.000000,0.000000,1648029171.440902,0.000000
9.000000,-26651.057798,-34928.042880,30617.777183,17353.179139,-2062.529571,29860.276563,19590.655814,28767.656239,-0.002000,0.970000,0.114000,192.000000,0.000000,0.000000,0.000000,0.000000,0.000000,0.000000,0.000000,0.000000,0.000000,1648029171.440906,0.000000
10.000000,-26638.630228,-34917.559912,30622.314587,17361.918671,-2055.734641,29866.624459,19594.835591,28773.825320,-0.002000,0.970000,0.114000,192.000000,0.000000,0.000000,0.000000,0.000000,0.000000,0.000000,0.000000,0.000000,0.000000,1648029171.447456,0.000000
11.000000,-26640.060740,-34921.896150,30614.089145,17358.096523,-2062.820144,29863.048180,19590.745221,28775.032315,-0.002000,0.970000,0.114000,192.000000,0.000000,0.000000,0.000000,0.000000,0.000000,0.000000,0.000000,0.000000,0.000000,1648029171.447460,0.000000
12.000000,-26642.474728,-34921.113839,30611.719860,17357.940061,-2064.250656,29863.852842,19589.158248,28771.903070,-0.002000,0.970000,0.114000,192.000000,0.000000,0.000000,0.000000,0.000000,0.000000,0.000000,0.000000,0.000000,0.000000,1648029171.455393,0.000000
13.000000,-26647.772091,-34922.656110,30616.570189,17358.074171,-2061.568446,29864.322229,19591.393422,28772.372457,-0.002000,0.970000,0.114000,192.000000,0.000000,0.000000,0.000000,0.000000,0.000000,0.000000,0.000000,0.000000,0.000000,1648029171.455398,0.000000
14.000000,-26645.738083,-34915.794124,30621.599331,17359.884663,-2057.165153,29869.641944,19596.579027,28774.808797,-0.002000,0.970000,0.114000,192.000000,0.000000,0.000000,0.000000,0.000000,0.000000,0.000000,0.000000,0.000000,0.000000,1648029171.463362,0.000000
15.000000,-26647.705036,-34919.057479,30621.509924,17358.543558,-2060.361452,29870.290145,19597.540152,28774.071190,-0.002000,0.970000,0.114000,192.000000,0.000000,0.000000,0.000000,0.000000,0.000000,0.000000,0.000000,0.000000,0.000000,1648029171.463366,0.000000
16.000000,-26648.532051,-34923.952511,30616.100802,17354.721410,-2063.222475,29869.396075,19596.690785,28768.706771,-0.002000,0.970000,0.114000,192.000000,0.000000,0.000000,0.000000,0.000000,0.000000,0.000000,0.000000,0.000000,0.000000,1648029171.470477,0.000000
17.000000,-26643.838184,-34916.419973,30614.580883,17359.527035,-2058.349795,29872.637078,19600.088251,28771.746608,-0.002000,0.974000,0.118000,192.000000,255.000000,240.000000,30.000000,112.000000,3.000000,176.000000,0.000000,0.000000,0.000000,1648029171.470481,0.000000
18.000000,-26649.157900,-34916.665842,30619.118287,17356.442494,-2058.416850,29866.803273,19595.193219,28770.807835,-0.002000,0.974000,0.118000,192.000000,0.000000,0.000000,0.000000,0.000000,0.000000,0.000000,0.000000,0.000000,0.000000,1648029171.477152,0.000000
19.000000,-26651.817757,-34920.935025,30620.325282,17351.480407,-2059.310920,29864.322229,19591.438126,28768.170329,-0.002000,0.974000,0.118000,192.000000,0.000000,0.000000,0.000000,0.000000,0.000000,0.000000,0.000000,0.000000,0.000000,1648029171.485130,0.000000
20.000000,-26649.336713,-34923.527828,30621.398165,17352.352125,-2057.969815,29867.071494,19590.141724,28767.745646,-0.002000,0.974000,0.118000,192.000000,0.000000,0.000000,0.000000,0.000000,0.000000,0.000000,0.000000,0.000000,0.000000,1648029171.485134,0.000000
21.000000,-26650.074321,-34927.081755,30623.700395,17354.363782,-2057.433374,29868.144377,19590.834628,28767.410370,-0.002000,0.974000,0.118000,192.000000,0.000000,0.000000,0.000000,0.000000,0.000000,0.000000,0.000000,0.000000,0.000000,1648029171.493110,0.000000
22.000000,-26646.945077,-34929.115764,30623.901561,17353.134436,-2057.053394,29869.530185,19587.347756,28764.750512,-0.002000,0.974000,0.118000,192.000000,0.000000,0.000000,0.000000,0.000000,0.000000,0.000000,0.000000,0.000000,0.000000,1648029171.493120,0.000000
23.000000,-26639.345484,-34923.281958,30626.762584,17356.375439,-2053.678281,29870.893642,19586.252521,28767.052742,-0.002000,0.974000,0.118000,192.000000,0.000000,0.000000,0.000000,0.000000,0.000000,0.000000,0.000000,0.000000,0.000000,1648029171.500169,0.000000
24.000000,-26645.894545,-34926.925293,30629.668311,17354.408485,-2056.516952,29865.171595,19583.056221,28767.924460,-0.002000,0.974000,0.118000,192.000000,0.000000,0.000000,0.000000,0.000000,0.000000,0.000000,0.000000,0.000000,0.000000,1648029171.500173,0.000000
25.000000,-26648.174423,-34929.674557,30624.974445,17353.223843,-2056.986339,29863.517566,19579.345832,28767.991515,-0.002000,0.974000,0.118000,192.000000,0.000000,0.000000,0.000000,0.000000,0.000000,0.000000,0.000000,0.000000,0.000000,1648029171.507748,0.000000
26.000000,-26653.605897,-34938.905828,30614.022090,17348.977011,-2062.641330,29858.153147,19574.674317,28763.454111,-0.002000,0.974000,0.118000,192.000000,0.000000,0.000000,0.000000,0.000000,0.000000,0.000000,0.000000,0.000000,0.000000,1648029171.507752,0.000000
27.000000,-26654.723484,-34939.375215,30612.815096,17348.507625,-2062.216647,29861.304743,19579.234073,28762.738855,-0.002000,0.976000,0.124000,192.000000,255.000000,240.000000,30.000000,128.000000,3.000000,224.000000,0.000000,0.000000,0.000000,1648029171.515675,0.000000
28.000000,-26655.304629,-34932.736746,30620.727613,17353.246195,-2057.567484,29868.613764,19587.817143,28764.683457,-0.002000,0.976000,0.124000,192.000000,0.000000,0.000000,0.000000,0.000000,0.000000,0.000000,0.000000,0.000000,0.000000,1648029171.515679,0.000000
29.000000,-26656.176347,-34933.429650,30628.148392,17355.906052,-2056.584007,29867.518528,19590.834628,28770.159634,-0.002000,0.976000,0.124000,192.000000,0.000000,0.000000,0.000000,0.000000,0.000000,0.000000,0.000000,0.000000,0.000000,1648029171.523823,0.000000
30.000000,-26655.282277,-34931.060366,30626.449660,17354.564947,-2058.618016,29863.472863,19586.967777,28770.003172,-0.002000,0.976000,0.124000,192.000000,0.000000,0.000000,0.000000,0.000000,0.000000,0.000000,0.000000,0.000000,0.000000,1648029171.523827,0.000000
31.000000,-26641.848879,-34918.319871,30634.429232,17363.639756,-2044.290548,29873.620555,19595.416736,28778.161559,-0.002000,0.976000,0.124000,192.000000,0.000000,0.000000,0.000000,0.000000,0.000000,0.000000,0.000000,0.000000,0.000000,1648029171.530338,0.000000
32.000000,-26636.484460,-34912.597825,30641.291218,17368.154808,-2039.328461,29870.670124,19595.617902,28781.983707,-0.002000,0.976000,0.124000,192.000000,0.000000,0.000000,0.000000,0.000000,0.000000,0.000000,0.000000,0.000000,0.000000,1648029171.530341,0.000000
33.000000,-26629.935399,-34910.228540,30645.761567,17375.195608,-2035.036926,29870.491310,19593.226265,28775.524053,-0.002000,0.976000,0.124000,192.000000,0.000000,0.000000,0.000000,0.000000,0.000000,0.000000,0.000000,0.000000,0.000000,1648029171.537472,0.000000
34.000000,-26631.008283,-34910.496761,30646.007436,17379.733012,-2034.589891,29872.748837,19590.991091,28774.138245,-0.002000,0.976000,0.124000,192.000000,0.000000,0.000000,0.000000,0.000000,0.000000,0.000000,0.000000,0.000000,0.000000,1648029171.537476,0.000000
35.000000,-26631.857649,-34910.206188,30639.503078,17377.050802,-2038.099115,29871.385380,19587.258349,28770.986649,-0.002000,0.976000,0.124000,192.000000,0.000000,0.000000,0.000000,0.000000,0.000000,0.000000,0.000000,0.000000,0.000000,1648029171.545257,0.000000
36.000000,-26631.298856,-34907.859255,30635.636227,17371.395811,-2043.552940,29870.513662,19586.498390,28772.774788,-0.002000,0.976000,0.124000,192.000000,0.000000,0.000000,0.000000,0.000000,0.000000,0.000000,0.000000,0.000000,0.000000,1648029171.553367,0.000000
37.000000,-26642.474728,-34916.039993,30628.349558,17358.677668,-2056.181676,29860.500081,19578.250596,28770.271393,-0.004000,0.970000,0.122000,192.000000,255.000000,224.000000,30.000000,80.000000,3.000000,208.000000,0.000000,0.000000,0.000000,1648029171.553371,0.000000
38.000000,-26644.128757,-34921.449115,30623.365119,17354.788465,-2058.394499,29859.226031,19574.182579,28764.236422,-0.004000,0.970000,0.122000,192.000000,0.000000,0.000000,0.000000,0.000000,0.000000,0.000000,0.000000,0.000000,0.000000,1648029171.560065,0.000000
39.000000,-26648.733216,-34932.848505,30620.548799,17346.317154,-2065.748223,29853.235764,19568.415829,28757.933230,-0.004000,0.970000,0.122000,192.000000,0.000000,0.000000,0.000000,0.000000,0.000000,0.000000,0.000000,0.000000,0.000000,1648029171.560069,0.000000
40.000000,-26647.928554,-34934.815459,30623.298064,17347.881776,-2063.088365,29856.566174,19568.616994,28755.787463,-0.004000,0.970000,0.122000,192.000000,0.000000,0.000000,0.000000,0.000000,0.000000,0.000000,0.000000,0.000000,0.000000,1648029171.568011,0.000000
41.000000,-26649.962562,-34934.927217,30622.649863,17352.977974,-2059.243865,29861.997648,19574.048468,28763.521166,-0.004000,0.970000,0.122000,192.000000,0.000000,0.000000,0.000000,0.000000,0.000000,0.000000,0.000000,0.000000,0.000000,1648029171.568016,0.000000
42.000000,-26645.201641,-34929.652206,30622.538104,17355.704886,-2055.488772,29868.211432,19580.709288,28773.758265,-0.004000,0.970000,0.122000,192.000000,0.000000,0.000000,0.000000,0.000000,0.000000,0.000000,0.000000,0.000000,0.000000,1648029171.576058,0.000000
43.000000,-26646.654504,-34932.557932,30624.415651,17355.660183,-2055.667586,29868.926688,19586.408983,28780.016754,-0.004000,0.970000,0.122000,192.000000,0.000000,0.000000,0.000000,0.000000,0.000000,0.000000,0.000000,0.000000,0.000000,1648029171.576067,0.000000
44.000000,-26654.343504,-34931.261531,30624.460354,17355.079038,-2057.299263,29865.931555,19585.872541,28775.546405,-0.004000,0.970000,0.122000,192.000000,0.000000,0.000000,0.000000,0.000000,0.000000,0.000000,0.000000,0.000000,0.000000,1648029171.583084,0.000000
45.000000,-26655.371684,-34931.127421,30625.846163,17354.140264,-2058.528609,29865.551575,19584.889064,28774.361762,-0.004000,0.970000,0.122000,192.000000,0.000000,0.000000,0.000000,0.000000,0.000000,0.000000,0.000000,0.000000,0.000000,1648029171.583088,0.000000
46.000000,-26646.386283,-34929.875723,30628.573075,17358.208282,-2054.706461,29867.540880,19588.644157,28775.054666,-0.004000,0.970000,0.122000,192.000000,0.000000,0.000000,0.000000,0.000000,0.000000,0.000000,0.000000,0.000000,0.000000,1648029171.590659,0.000000
47.000000,-26638.004379,-34922.790220,30633.065776,17365.427895,-2050.437278,29868.479653,19594.030928,28777.356896,-0.004000,0.970000,0.122000,192.000000,0.000000,0.000000,30.000000,112.000000,3.000000,144.000000,0.000000,0.000000,0.000000,1648029171.590663,0.000000
48.000000,-26636.439757,-34922.499647,30632.261113,17364.399715,-2054.102964,29860.231860,19590.409945,28776.641640,-0.004000,0.970000,0.122000,192.000000,0.000000,0.000000,0.000000,0.000000,0.000000,0.000000,0.000000,0.000000,0.000000,1648029171.598676,0.000000
49.000000,-26635.255114,-34919.482162,30632.708148,17364.064439,-2055.332310,29859.561307,19586.252521,28772.014829,-0.004000,0.970000,0.122000,192.000000,0.000000,0.000000,0.000000,0.000000,0.000000,0.000000,0.000000,0.000000,0.000000,1648029171.598681,0.000000
50.000000,-26643.748777,-34918.185761,30628.260151,17356.084866,-2062.551923,29855.202717,19580.999861,28768.639716,-0.004000,0.970000,0.122000,192.000000,0.000000,0.000000,0.000000,0.000000,0.000000,0.000000,0.000000,0.000000,0.000000,1648029171.605659,0.000000
51.000000,-26650.923687,-34924.243084,30628.774241,17353.223843,-2061.255522,29864.568098,19584.352623,28771.053704,-0.004000,0.970000,0.122000,192.000000,0.000000,0.000000,0.000000,0.000000,0.000000,0.000000,0.000000,0.000000,0.000000,1648029171.612789,0.000000
52.000000,-26650.811929,-34926.590017,30627.589599,17350.519282,-2065.904685,29863.629325,19580.865750,28772.171291,-0.004000,0.970000,0.122000,192.000000,0.000000,0.000000,0.000000,0.000000,0.000000,0.000000,0.000000,0.000000,0.000000,1648029171.612794,0.000000
53.000000,-26641.848879,-34922.253778,30630.808250,17354.274375,-2062.328406,29865.149243,19580.262253,28772.841844,-0.004000,0.970000,0.122000,192.000000,0.000000,0.000000,0.000000,0.000000,0.000000,0.000000,0.000000,0.000000,0.000000,1648029171.620332,0.000000
54.000000,-26644.687551,-34929.026357,30631.188229,17353.581471,-2061.076708,29863.472863,19578.652928,28771.254870,-0.004000,0.970000,0.122000,192.000000,0.000000,0.000000,0.000000,0.000000,0.000000,0.000000,0.000000,0.000000,0.000000,1648029171.620335,0.000000
55.000000,-26643.994647,-34933.004967,30624.505058,17347.993535,-2065.971740,29856.476767,19573.199102,28767.790349,-0.004000,0.970000,0.122000,192.000000,0.000000,0.000000,0.000000,0.000000,0.000000,0.000000,0.000000,0.000000,0.000000,1648029171.628231,0.000000
56.000000,-26651.013094,-34939.106994,30619.162991,17343.880814,-2072.341987,29852.162880,19570.315727,28764.884623,-0.004000,0.970000,0.122000,192.000000,0.000000,0.000000,0.000000,0.000000,0.000000,0.000000,0.000000,0.000000,0.000000,1648029171.628235,0.000000
57.000000,-26653.494138,-34939.486973,30619.118287,17345.825415,-2069.592723,29857.482595,19574.294338,28765.622230,-0.004000,0.970000,0.122000,192.000000,0.000000,0.000000,30.000000,160.000000,3.000000,176.000000,0.000000,0.000000,0.000000,1648029171.635230,0.000000
58.000000,-26643.324094,-34932.624988,30622.851029,17352.597994,-2063.133068,29864.903374,19582.519780,28768.282088,-0.004000,0.970000,0.122000,192.000000,0.000000,0.000000,0.000000,0.000000,0.000000,0.000000,0.000000,0.000000,0.000000,1648029171.635234,0.000000
59.000000,-26648.107368,-34939.330511,30620.280578,17348.731142,-2068.430432,29862.109406,19580.999861,28771.925422,-0.004000,0.970000,0.122000,192.000000,0.000000,0.000000,0.000000,0.000000,0.000000,0.000000,0.000000,0.000000,0.000000,1648029171.642942,0.000000
60.000000,-26654.790539,-34943.510287,30616.257264,17343.880814,-2070.039757,29859.270735,19579.636404,28771.120759,-0.004000,0.970000,0.122000,192.000000,0.000000,0.000000,0.000000,0.000000,0.000000,0.000000,0.000000,0.000000,0.000000,1648029171.642945,0.000000
61.000000,-26648.576754,-34936.827116,30616.458430,17347.345334,-2065.480002,29864.143415,19583.235035,28775.032315,-0.004000,0.970000,0.122000,192.000000,0.000000,0.000000,0.000000,0.000000,0.000000,0.000000,0.000000,0.000000,0.000000,1648029171.650944,0.000000
62.000000,-26638.451414,-34927.215866,30622.225180,17355.168445,-2055.667586,29874.939308,19592.734527,28781.089637,-0.004000,0.970000,0.122000,192.000000,0.000000,0.000000,0.000000,0.000000,0.000000,0.000000,0.000000,0.000000,0.000000,1648029171.650948,0.000000
63.000000,-26640.798347,-34930.278055,30625.957921,17354.408485,-2054.617054,29872.905299,19595.014405,28785.828207,-0.004000,0.970000,0.122000,192.000000,0.000000,0.000000,0.000000,0.000000,0.000000,0.000000,0.000000,0.000000,0.000000,1648029171.658868,0.000000
64.000000,-26644.396978,-34933.362595,30630.696491,17355.727238,-2054.080612,29875.185177,19596.646082,28789.002155,-0.004000,0.970000,0.122000,192.000000,0.000000,0.000000,0.000000,0.000000,0.000000,0.000000,0.000000,0.000000,0.000000,1648029171.658897,0.000000
65.000000,-26656.958658,-34936.223619,30622.180476,17348.686439,-2063.423641,29872.704133,19588.018309,28783.525978,-0.004000,0.970000,0.122000,192.000000,0.000000,0.000000,0.000000,0.000000,0.000000,0.000000,0.000000,0.000000,0.000000,1648029171.665053,0.000000
66.000000,-26655.997533,-34929.719261,30621.241703,17352.665049,-2059.154458,29881.577776,19588.644157,28779.770884,-0.004000,0.970000,0.122000,192.000000,0.000000,0.000000,0.000000,0.000000,0.000000,0.000000,0.000000,0.000000,0.000000,1648029171.672460,0.000000
67.000000,-26651.638943,-34931.887380,30622.895732,17350.809854,-2060.026176,29878.068552,19583.637367,28781.693135,-0.004000,0.970000,0.122000,192.000000,0.000000,0.000000,30.000000,192.000000,4.000000,0.000000,0.000000,0.000000,0.000000,1648029171.672464,0.000000
68.000000,-26643.972295,-34925.271264,30625.332072,17352.866215,-2054.617054,29879.879043,19583.994995,28776.284012,-0.004000,0.970000,0.122000,192.000000,0.000000,0.000000,0.000000,0.000000,0.000000,0.000000,0.000000,0.000000,0.000000,1648029171.680533,0.000000
69.000000,-26647.682684,-34921.113839,30632.730500,17355.883700,-2048.693842,29886.048125,19591.706346,28778.876815,-0.004000,0.970000,0.122000,192.000000,0.000000,0.000000,0.000000,0.000000,0.000000,0.000000,0.000000,0.000000,0.000000,1648029171.680537,0.000000
70.000000,-26659.819682,-34928.489915,30630.741195,17350.049895,-2052.717156,29880.124912,19589.784096,28776.976916,-0.004000,0.970000,0.122000,192.000000,0.000000,0.000000,0.000000,0.000000,0.000000,0.000000,0.000000,0.000000,0.000000,1648029171.688504,0.000000
71.000000,-26660.400827,-34929.383985,30633.691625,17347.322982,-2051.308996,29878.895566,19592.667471,28775.456998,-0.004000,0.970000,0.122000,192.000000,0.000000,0.000000,0.000000,0.000000,0.000000,0.000000,0.000000,0.000000,0.000000,1648029171.688508,0.000000
72.000000,-26650.789577,-34929.875723,30638.944285,17349.424046,-2048.000937,29879.923747,19593.628596,28776.976916,-0.004000,0.970000,0.122000,192.000000,0.000000,0.000000,0.000000,0.000000,0.000000,0.000000,0.000000,0.000000,0.000000,1648029171.695144,0.000000
73.000000,-26651.147205,-34923.505476,30636.753814,17350.295764,-2046.570426,29880.571947,19590.767573,28774.495873,-0.004000,0.970000,0.122000,192.000000,0.000000,0.000000,0.000000,0.000000,0.000000,0.000000,0.000000,0.000000,0.000000,1648029171.695149,0.000000
74.000000,-26655.192871,-34920.555046,30632.104651,17346.652430,-2049.923187,29878.604994,19589.694689,28772.953602,-0.004000,0.970000,0.122000,192.000000,0.000000,0.000000,0.000000,0.000000,0.000000,0.000000,0.000000,0.000000,0.000000,1648029171.703224,0.000000
75.000000,-26655.215222,-34916.151752,30632.059947,17347.434741,-2046.212798,29880.281374,19589.381765,28771.791312,-0.004000,0.970000,0.122000,192.000000,0.000000,0.000000,0.000000,0.000000,0.000000,0.000000,0.000000,0.000000,0.000000,1648029171.703228,0.000000
76.000000,-26652.153033,-34916.710546,30631.344692,17350.496930,-2044.268196,29882.695363,19591.862809,28775.255832,-0.004000,0.970000,0.122000,192.000000,0.000000,0.000000,0.000000,0.000000,0.000000,0.000000,0.000000,0.000000,0.000000,1648029171.711190,0.000000
77.000000,-26647.906202,-34917.537560,30629.377738,17351.994497,-2045.251673,29882.203625,19595.975530,28782.028411,-0.002000,0.974000,0.120000,192.000000,255.000000,240.000000,30.000000,112.000000,3.000000,192.000000,0.000000,0.000000,0.000000,1648029171.711195,0.000000
78.000000,-26645.671027,-34918.856313,30628.215447,17348.284107,-2049.610263,29877.733276,19594.030928,28781.424914,-0.002000,0.974000,0.120000,192.000000,0.000000,0.000000,0.000000,0.000000,0.000000,0.000000,0.000000,0.000000,0.000000,1648029171.718322,0.000000
79.000000,-26658.679743,-34918.364575,30627.924875,17348.060590,-2052.158362,29877.040372,19593.673300,28779.502664,-0.002000,0.974000,0.120000,192.000000,0.000000,0.000000,0.000000,0.000000,0.000000,0.000000,0.000000,0.000000,0.000000,1648029171.718327,0.000000
80.000000,-26676.449379,-34929.562799,30620.504096,17338.829319,-2061.769612,29871.340677,19589.001785,28775.814626,-0.002000,0.974000,0.120000,192.000000,0.000000,0.000000,0.000000,0.000000,0.000000,0.000000,0.000000,0.000000,0.000000,1648029171.724754,0.000000
81.000000,-26664.848824,-34926.366499,30620.235875,17341.265659,-2056.896932,29880.370781,19593.718003,28777.267489,-0.002000,0.974000,0.120000,192.000000,0.000000,0.000000,0.000000,0.000000,0.000000,0.000000,0.000000,0.000000,0.000000,1648029171.732743,0.000000
82.000000,-26655.394036,-34919.728031,30626.226142,17347.278279,-2049.230283,29889.222072,19604.446841,28785.001193,-0.002000,0.974000,0.120000,192.000000,0.000000,0.000000,0.000000,0.000000,0.000000,0.000000,0.000000,0.000000,0.000000,1648029171.732746,0.000000
83.000000,-26661.384304,-34927.662900,30623.029843,17341.712694,-2054.393536,29882.225976,19602.569294,28789.337431,-0.002000,0.974000,0.120000,192.000000,0.000000,0.000000,0.000000,0.000000,0.000000,0.000000,0.000000,0.000000,0.000000,1648029171.740857,0.000000
84.000000,-26657.942135,-34933.608464,30617.441907,17337.778787,-2058.618016,29877.196834,19598.523629,28786.118780,-0.002000,0.974000,0.120000,192.000000,0.000000,0.000000,0.000000,0.000000,0.000000,0.000000,0.000000,0.000000,0.000000,1648029171.740861,0.000000
85.000000,-26662.434836,-34934.010796,30616.614892,17338.426988,-2059.780307,29874.760494,19598.411870,28781.804893,-0.002000,0.974000,0.120000,192.000000,0.000000,0.000000,0.000000,0.000000,0.000000,0.000000,0.000000,0.000000,0.000000,1648029171.748293,0.000000
86.000000,-26664.178272,-34933.854334,30616.458430,17332.995514,-2062.864848,29868.971392,19595.796716,28778.742704,-0.002000,0.974000,0.120000,192.000000,0.000000,0.000000,0.000000,0.000000,0.000000,0.000000,0.000000,0.000000,0.000000,1648029171.748318,0.000000
87.000000,-26653.650600,-34932.245008,30622.247532,17337.354104,-2056.852228,29876.258060,19600.222361,28781.134341,-0.002000,0.974000,0.120000,192.000000,0.000000,0.000000,30.000000,144.000000,3.000000,176.000000,0.000000,0.000000,0.000000,1648029171.755788,0.000000
88.000000,-26649.984914,-34927.931121,30628.930703,17345.043104,-2049.632615,29884.416447,19602.390480,28786.834036,-0.002000,0.974000,0.120000,192.000000,0.000000,0.000000,0.000000,0.000000,0.000000,0.000000,0.000000,0.000000,0.000000,1648029171.755804,0.000000
89.000000,-26649.694341,-34925.494781,30633.333997,17349.580508,-2045.832818,29886.718677,19601.295245,28790.320908,-0.002000,0.974000,0.120000,192.000000,0.000000,0.000000,0.000000,0.000000,0.000000,0.000000,0.000000,0.000000,0.000000,1648029171.763933,0.000000
90.000000,-26655.997533,-34926.768831,30631.657616,17349.736971,-2046.972757,29886.606918,19599.663568,28790.432667,-0.002000,0.974000,0.120000,192.000000,0.000000,0.000000,0.000000,0.000000,0.000000,0.000000,0.000000,0.000000,0.000000,1648029171.763951,0.000000
91.000000,-26663.753589,-34924.310139,30632.708148,17349.714619,-2046.972757,29885.131703,19597.428393,28788.242196,-0.002000,0.974000,0.120000,192.000000,0.000000,0.000000,0.000000,0.000000,0.000000,0.000000,0.000000,0.000000,0.000000,1648029171.771599,0.000000
92.000000,-26655.662257,-34920.532694,30638.832526,17350.608689,-2043.776458,29884.058819,19598.657739,28789.203321,-0.002000,0.974000,0.120000,192.000000,0.000000,0.000000,0.000000,0.000000,0.000000,0.000000,0.000000,0.000000,0.000000,1648029171.771610,0.000000
93.000000,-26652.465958,-34926.522961,30639.301913,17346.607726,-2046.749240,29881.734238,19599.842381,28788.197492,-0.002000,0.974000,0.120000,192.000000,0.000000,0.000000,0.000000,0.000000,0.000000,0.000000,0.000000,0.000000,0.000000,1648029171.778356,0.000000
94.000000,-26659.685571,-34930.993310,30634.585695,17339.142244,-2054.035908,29874.581680,19598.344815,28780.933175,-0.002000,0.974000,0.120000,192.000000,0.000000,0.000000,0.000000,0.000000,0.000000,0.000000,0.000000,0.000000,0.000000,1648029171.778373,0.000000
95.000000,-26667.352220,-34936.313026,30622.359290,17327.251116,-2067.290493,29863.718732,19589.538227,28771.009001,-0.002000,0.974000,0.120000,192.000000,0.000000,0.000000,0.000000,0.000000,0.000000,0.000000,0.000000,0.000000,0.000000,1648029171.785444,0.000000
96.000000,-26668.000420,-34937.318854,30619.855895,17326.200584,-2068.698653,29863.964601,19586.878370,28767.790349,-0.002000,0.974000,0.120000,192.000000,0.000000,0.000000,0.000000,0.000000,0.000000,0.000000,0.000000,0.000000,0.000000,1648029171.785461,0.000000
97.000000,-26658.791501,-34928.780488,30624.482706,17335.297744,-2059.042699,29873.508796,19595.640254,28769.802006,0.002000,0.982000,0.116000,192.000000,0.000000,16.000000,30.000000,176.000000,3.000000,160.000000,0.000000,0.000000,0.000000,1648029171.793474,0.000000
98.000000,-26654.879946,-34924.064270,30631.568209,17340.326886,-2053.678281,29876.481578,19601.630521,28777.669821,0.002000,0.982000,0.116000,192.000000,0.000000,0.000000,0.000000,0.000000,0.000000,0.000000,0.000000,0.000000,0.000000,1648029171.800603,0.000000
99.000000,-26663.239499,-34931.865028,30627.209619,17332.950811,-2063.043661,29868.881985,19593.114506,28777.066323,0.002000,0.982000,0.116000,192.000000,0.000000,0.000000,0.000000,0.000000,0.000000,0.000000,0.000000,0.000000,0.000000,1648029171.800619,0.000000
100.000000,-26664.826472,-34940.045767,30615.921988,17327.117005,-2071.157345,29863.696380,19584.062050,28773.847672,0.002000,0.982000,0.116000,192.000000,0.000000,0.000000,0.000000,0.000000,0.000000,0.000000,0.000000,0.000000,0.000000,1648029171.808089,0.000000
101.000000,-26655.975182,-34935.441307,30617.039575,17329.709808,-2065.457650,29868.256136,19586.900721,28771.009001,0.002000,0.982000,0.116000,192.000000,0.000000,0.000000,0.000000,0.000000,0.000000,0.000000,0.000000,0.000000,0.000000,1648029171.808105,0.000000
102.000000,-26668.872138,-34935.642473,30619.207694,17328.055779,-2068.273970,29862.712903,19587.303053,28774.004134,0.002000,0.982000,0.116000,192.000000,0.000000,0.000000,0.000000,0.000000,0.000000,0.000000,0.000000,0.000000,0.000000,1648029171.816139,0.000000
103.000000,-26682.931385,-34942.951494,30616.145505,17323.339560,-2072.163173,29858.264906,19583.615015,28771.031352,0.002000,0.982000,0.116000,192.000000,0.000000,0.000000,0.000000,0.000000,0.000000,0.000000,0.000000,0.000000,0.000000,1648029171.816155,0.000000
104.000000,-26677.902243,-34940.381043,30616.011395,17325.574735,-2068.586894,29864.366932,19584.240864,28770.249041,0.002000,0.982000,0.116000,192.000000,0.000000,0.000000,0.000000,0.000000,0.000000,0.000000,0.000000,0.000000,0.000000,1648029171.824211,0.000000
105.000000,-26656.109292,-34930.210999,30620.369985,17332.794348,-2061.881371,29873.017058,19587.437163,28775.233480,0.002000,0.982000,0.116000,192.000000,0.000000,0.000000,0.000000,0.000000,0.000000,0.000000,0.000000,0.000000,0.000000,1648029171.824228,0.000000
106.000000,-26651.482481,-34932.334415,30621.532276,17335.230688,-2057.701595,29877.554462,19593.785059,28782.184873,0.002000,0.982000,0.116000,192.000000,0.000000,0.000000,0.000000,0.000000,0.000000,0.000000,0.000000,0.000000,0.000000,1648029171.831358,0.000000
107.000000,-26657.159824,-34934.211962,30622.918084,17335.700075,-2057.858057,29877.442703,19596.579027,28784.308289,0.002000,0.982000,0.116000,192.000000,0.000000,16.000000,30.000000,176.000000,3.000000,160.000000,0.000000,0.000000,0.000000,1648029171.831393,0.000000
108.000000,-26661.697228,-34933.362595,30621.308758,17335.744779,-2063.647159,29869.708999,19594.545018,28779.346201,0.002000,0.982000,0.116000,192.000000,0.000000,0.000000,0.000000,0.000000,0.000000,0.000000,0.000000,0.000000,0.000000,1648029171.838771,0.000000
109.000000,-26659.819682,-34930.278055,30618.894770,17335.253040,-2064.608284,29870.245441,19593.807410,28772.685381,0.002000,0.982000,0.116000,192.000000,0.000000,0.000000,0.000000,0.000000,0.000000,0.000000,0.000000,0.000000,0.000000,1648029171.838787,0.000000
110.000000,-26666.391094,-34940.492802,30619.520619,17333.308438,-2064.496525,29876.213357,19600.267065,28774.697038,0.002000,0.982000,0.116000,192.000000,0.000000,0.000000,0.000000,0.000000,0.000000,0.000000,0.000000,0.000000,0.000000,1648029171.846802,0.000000
111.000000,-26674.795350,-34939.308159,30620.772317,17334.358970,-2064.921208,29875.319287,19599.976492,28778.005097,0.002000,0.982000,0.116000,192.000000,0.000000,0.000000,0.000000,0.000000,0.000000,0.000000,0.000000,0.000000,0.000000,1648029171.846819,0.000000
112.000000,-26667.598089,-34934.100203,30625.890866,17333.308438,-2066.172906,29871.452435,19596.087288,28774.719390,0.002000,0.982000,0.116000,192.000000,0.000000,0.000000,0.000000,0.000000,0.000000,0.000000,0.000000,0.000000,0.000000,1648029171.854009,0.000000
113.000000,-26657.316286,-34936.089508,30633.423404,17332.749645,-2063.669510,29871.273621,19591.773402,28769.690248,0.002000,0.982000,0.116000,192.000000,0.000000,0.000000,0.000000,0.000000,0.000000,0.000000,0.000000,0.000000,0.000000,1648029171.860469,0.000000
114.000000,-26660.914917,-34943.644398,30630.808250,17328.771034,-2064.876505,29868.546709,19586.118410,28766.672762,0.002000,0.982000,0.116000,192.000000,0.000000,0.000000,0.000000,0.000000,0.000000,0.000000,0.000000,0.000000,0.000000,1648029171.860486,0.000000
115.000000,-26664.960583,-34941.185706,30628.126040,17329.419235,-2065.435298,29869.373723,19584.576140,28762.850614,0.002000,0.982000,0.116000,192.000000,0.000000,0.000000,0.000000,0.000000,0.000000,0.000000,0.000000,0.000000,0.000000,1648029171.868515,0.000000
116.000000,-26667.575737,-34939.732842,30625.980273,17330.894450,-2067.201086,29869.999572,19584.397326,28762.917669,0.002000,0.982000,0.116000,192.000000,0.000000,0.000000,0.000000,0.000000,0.000000,0.000000,0.000000,0.000000,0.000000,1648029171.868532,0.000000
117.000000,-26661.876042,-34931.596807,30628.953055,17337.041180,-2059.310920,29873.687610,19589.806448,28765.778692,0.002000,0.982000,0.116000,192.000000,0.000000,0.000000,0.000000,0.000000,0.000000,0.000000,0.000000,0.000000,0.000000,1648029171.876279,0.000000
118.000000,-26662.256022,-34931.619159,30628.438965,17336.035351,-2060.584970,29871.273621,19591.661643,28767.589184,-0.004000,0.974000,0.116000,192.000000,255.000000,224.000000,30.000000,112.000000,3.000000,160.000000,0.000000,0.000000,0.000000,1648029171.876296,0.000000
119.000000,-26666.033467,-34933.742575,30621.889904,17330.983857,-2064.474173,29870.066627,19590.052317,28766.516300,-0.004000,0.974000,0.116000,192.000000,0.000000,0.000000,0.000000,0.000000,0.000000,0.000000,0.000000,0.000000,0.000000,1648029171.883725,0.000000
120.000000,-26657.204528,-34932.334415,30622.761622,17328.838090,-2063.535400,29871.161863,19591.728698,28771.232518,-0.004000,0.974000,0.116000,192.000000,0.000000,0.000000,0.000000,0.000000,0.000000,0.000000,0.000000,0.000000,0.000000,1648029171.883742,0.000000
121.000000,-26650.297838,-34933.452002,30627.567247,17328.949848,-2063.848324,29873.508796,19596.199047,28778.943870,-0.004000,0.974000,0.116000,192.000000,0.000000,0.000000,0.000000,0.000000,0.000000,0.000000,0.000000,0.000000,0.000000,1648029171.891111,0.000000
122.000000,-26645.849841,-34930.613331,30634.116308,17335.744779,-2058.729775,29878.828511,19603.552771,28783.436571,-0.004000,0.974000,0.116000,192.000000,0.000000,0.000000,0.000000,0.000000,0.000000,0.000000,0.000000,0.000000,0.000000,1648029171.891127,0.000000
123.000000,-26649.739045,-34930.434517,30633.646921,17335.968296,-2057.902760,29876.749799,19603.888047,28782.274280,-0.004000,0.974000,0.116000,192.000000,0.000000,0.000000,0.000000,0.000000,0.000000,0.000000,0.000000,0.000000,0.000000,1648029171.899122,0.000000
124.000000,-26647.928554,-34920.063307,30636.843221,17340.930383,-2049.811429,29883.790598,19608.604265,28782.855425,-0.004000,0.974000,0.116000,192.000000,0.000000,0.000000,0.000000,0.000000,0.000000,0.000000,0.000000,0.000000,0.000000,1648029171.899139,0.000000
125.000000,-26650.700170,-34917.314043,30638.005512,17345.244270,-2046.615129,29885.109351,19608.313693,28784.040068,-0.004000,0.974000,0.116000,192.000000,0.000000,0.000000,0.000000,0.000000,0.000000,0.000000,0.000000,0.000000,0.000000,1648029171.907076,0.000000
126.000000,-26655.505795,-34925.405374,30637.781994,17342.316191,-2050.660795,29880.862520,19599.976492,28780.396733,-0.004000,0.974000,0.116000,192.000000,0.000000,0.000000,0.000000,0.000000,0.000000,0.000000,0.000000,0.000000,0.000000,1648029171.907093,0.000000
127.000000,-26662.032504,-34931.283883,30637.558477,17336.638848,-2055.958158,29872.368857,19590.320538,28772.484216,-0.004000,0.974000,0.116000,192.000000,0.000000,0.000000,0.000000,0.000000,0.000000,0.000000,0.000000,0.000000,0.000000,1648029171.913242,0.000000
128.000000,-26650.297838,-34924.421897,30640.330093,17340.684514,-2048.626786,29878.537938,19593.092155,28772.752437,-0.004000,0.974000,0.110000,192.000000,255.000000,224.000000,30.000000,112.000000,3.000000,112.000000,0.000000,0.000000,0.000000,1648029171.920781,0.000000
129.000000,-26641.223030,-34924.064270,30637.402014,17344.149035,-2046.570426,29884.237633,19599.283588,28776.842806,-0.004000,0.974000,0.110000,192.000000,0.000000,0.000000,0.000000,0.000000,0.000000,0.000000,0.000000,0.000000,0.000000,1648029171.920816,0.000000
130.000000,-26653.829414,-34934.524886,30627.455488,17336.303572,-2058.506257,29876.079247,19596.355509,28773.937079,-0.004000,0.974000,0.110000,192.000000,0.000000,0.000000,0.000000,0.000000,0.000000,0.000000,0.000000,0.000000,0.000000,1648029171.928738,0.000000
131.000000,-26657.942135,-34929.272226,30625.756756,17335.878889,-2059.914417,29874.313459,19597.763669,28771.746608,-0.004000,0.974000,0.110000,192.000000,0.000000,0.000000,0.000000,0.000000,0.000000,0.000000,0.000000,0.000000,0.000000,1648029171.928755,0.000000
132.000000,-26662.300725,-34921.896150,30626.092032,17338.136415,-2059.869714,29872.458264,19598.434222,28773.177120,-0.004000,0.974000,0.110000,192.000000,0.000000,0.000000,0.000000,0.000000,0.000000,0.000000,0.000000,0.000000,0.000000,1648029171.936773,0.000000
133.000000,-26662.412484,-34920.979729,30625.801459,17339.410465,-2059.646196,29873.799369,19602.546943,28779.234443,-0.004000,0.974000,0.110000,192.000000,0.000000,0.000000,0.000000,0.000000,0.000000,0.000000,0.000000,0.000000,0.000000,1648029171.936790,0.000000
134.000000,-26655.170519,-34924.846581,30625.466183,17340.125721,-2058.483906,29876.839206,19606.257332,28782.766018,-0.004000,0.974000,0.110000,192.000000,0.000000,0.000000,0.000000,0.000000,0.000000,0.000000,0.000000,0.000000,0.000000,1648029171.943367,0.000000
135.000000,-26653.740007,-34927.372328,30621.644035,17338.538747,-2060.696728,29877.487406,19606.838477,28782.654260,-0.004000,0.974000,0.110000,192.000000,0.000000,0.000000,0.000000,0.000000,0.000000,0.000000,0.000000,0.000000,0.000000,1648029171.943384,0.000000
136.000000,-26654.768187,-34929.831020,30617.732479,17337.935250,-2060.070879,29879.499063,19610.258294,28784.375344,-0.004000,0.974000,0.110000,192.000000,0.000000,0.000000,0.000000,0.000000,0.000000,0.000000,0.000000,0.000000,0.000000,1648029171.951402,0.000000
137.000000,-26653.427083,-34931.797973,30619.677081,17341.198604,-2055.645234,29883.477674,19610.973550,28784.777675,-0.004000,0.974000,0.110000,192.000000,0.000000,0.000000,0.000000,0.000000,0.000000,0.000000,0.000000,0.000000,0.000000,1648029171.951418,0.000000
138.000000,-26655.304629,-34927.484086,30623.476878,17344.953697,-2051.130182,29884.259985,19611.331178,28782.363687,-0.004000,0.974000,0.118000,192.000000,255.000000,224.000000,30.000000,112.000000,3.000000,176.000000,0.000000,0.000000,0.000000,1648029171.959415,0.000000
139.000000,-26662.166615,-34929.316929,30620.995834,17341.869157,-2052.873618,29878.984973,19602.725756,28774.674687,-0.004000,0.974000,0.118000,192.000000,0.000000,0.000000,0.000000,0.000000,0.000000,0.000000,0.000000,0.000000,0.000000,1648029171.959433,0.000000
140.000000,-26664.938231,-34928.176991,30620.593503,17345.266622,-2051.420754,29879.052029,19602.010501,28772.730085,-0.004000,0.974000,0.118000,192.000000,0.000000,0.000000,0.000000,0.000000,0.000000,0.000000,0.000000,0.000000,0.000000,1648029171.966609,0.000000
141.000000,-26659.998496,-34929.138116,30620.235875,17343.590241,-2054.885275,29874.492273,19596.914303,28771.232518,-0.004000,0.974000,0.118000,192.000000,0.000000,0.000000,0.000000,0.000000,0.000000,0.000000,0.000000,0.000000,0.000000,1648029171.966626,0.000000
142.000000,-26652.734179,-34925.584188,30623.074546,17342.025619,-2054.147667,29873.173520,19596.534323,28771.567794,-0.004000,0.974000,0.118000,192.000000,0.000000,0.000000,0.000000,0.000000,0.000000,0.000000,0.000000,0.000000,0.000000,1648029171.972952,0.000000
143.000000,-26645.961600,-34921.426764,30624.728575,17340.997439,-2051.890141,29872.234746,19600.065899,28770.226690,-0.004000,0.974000,0.118000,192.000000,0.000000,0.000000,0.000000,0.000000,0.000000,0.000000,0.000000,0.000000,0.000000,1648029171.981000,0.000000
144.000000,-26653.672952,-34928.042880,30620.928779,17333.084921,-2059.422679,29867.295011,19598.993015,28771.523091,-0.004000,0.974000,0.118000,192.000000,0.000000,0.000000,0.000000,0.000000,0.000000,0.000000,0.000000,0.000000,0.000000,1648029171.981012,0.000000
145.000000,-26657.271583,-34938.838773,30614.044441,17328.122834,-2064.183600,29868.300839,19597.584855,28767.410370,-0.004000,0.974000,0.118000,192.000000,0.000000,0.000000,0.000000,0.000000,0.000000,0.000000,0.000000,0.000000,0.000000,1648029171.988969,0.000000
146.000000,-26654.812891,-34933.250837,30615.564360,17330.648581,-2062.864848,29868.546709,19601.049376,28773.534748,-0.004000,0.974000,0.118000,192.000000,0.000000,0.000000,0.000000,0.000000,0.000000,0.000000,0.000000,0.000000,0.000000,1648029171.988980,0.000000
147.000000,-26659.305592,-34931.574456,30617.106630,17331.609706,-2065.122374,29868.814930,19600.200009,28779.167387,-0.004000,0.974000,0.118000,192.000000,0.000000,0.000000,0.000000,0.000000,0.000000,0.000000,0.000000,0.000000,0.000000,1648029171.995978,0.000000
148.000000,-26669.632097,-34939.576380,30613.910331,17331.766168,-2070.486792,29866.847976,19597.428393,28777.558062,-0.004000,0.978000,0.116000,192.000000,255.000000,224.000000,30.000000,144.000000,3.000000,160.000000,0.000000,0.000000,0.000000,1648029171.995990,0.000000
149.000000,-26668.603917,-34938.637607,30613.038613,17334.984819,-2067.357548,29868.949040,19596.243751,28776.149902,-0.004000,0.978000,0.116000,192.000000,0.000000,0.000000,0.000000,0.000000,0.000000,0.000000,0.000000,0.000000,0.000000,1648029172.003371,0.000000
150.000000,-26665.854653,-34940.403395,30613.150372,17333.420197,-2065.837630,29866.467996,19591.013442,28773.355934,-0.004000,0.978000,0.116000,192.000000,0.000000,0.000000,0.000000,0.000000,0.000000,0.000000,0.000000,0.000000,0.000000,1648029172.003395,0.000000
151.000000,-26656.265754,-34932.535581,30617.419555,17339.298706,-2056.740470,29869.261964,19590.611111,28770.293745,-0.004000,0.978000,0.116000,192.000000,0.000000,0.000000,0.000000,0.000000,0.000000,0.000000,0.000000,0.000000,0.000000,1648029172.011498,0.000000
152.000000,-26647.705036,-34927.595845,30623.633340,17346.250098,-2051.197237,29869.127854,19590.320538,28769.556137,-0.004000,0.978000,0.116000,192.000000,0.000000,0.000000,0.000000,0.000000,0.000000,0.000000,0.000000,0.000000,0.000000,1648029172.011508,0.000000
153.000000,-26650.387245,-34925.517133,30623.096898,17346.741837,-2051.733679,29868.658467,19585.872541,28768.058570,-0.004000,0.978000,0.116000,192.000000,0.000000,0.000000,0.000000,0.000000,0.000000,0.000000,0.000000,0.000000,0.000000,1648029172.018646,0.000000
154.000000,-26649.202603,-34926.612368,30618.403032,17340.796273,-2056.718118,29863.763435,19579.994032,28763.878794,-0.004000,0.978000,0.116000,192.000000,0.000000,0.000000,0.000000,0.000000,0.000000,0.000000,0.000000,0.000000,0.000000,1648029172.018663,0.000000
155.000000,-26645.492213,-34925.584188,30614.133848,17338.002305,-2057.053394,29861.103578,19578.988204,28758.201451,-0.004000,0.978000,0.116000,192.000000,0.000000,0.000000,0.000000,0.000000,0.000000,0.000000,0.000000,0.000000,0.000000,1648029172.026245,0.000000
156.000000,-26657.383341,-34927.349976,30611.630453,17333.084921,-2058.752127,29857.013209,19576.171884,28754.289896,-0.004000,0.978000,0.116000,192.000000,0.000000,0.000000,0.000000,0.000000,0.000000,0.000000,0.000000,0.000000,0.000000,1648029172.026262,0.000000
157.000000,-26658.232708,-34927.864066,30614.089145,17334.358970,-2056.204028,29862.064703,19580.664585,28755.273373,-0.004000,0.978000,0.116000,192.000000,0.000000,0.000000,0.000000,0.000000,0.000000,0.000000,0.000000,0.000000,0.000000,1648029172.033274,0.000000
158.000000,-26653.114158,-34931.663863,30617.978348,17334.314267,-2055.734641,29862.355275,19583.637367,28755.720407,-0.004000,0.982000,0.116000,192.000000,255.000000,224.000000,30.000000,176.000000,3.000000,160.000000,0.000000,0.000000,0.000000,1648029172.033291,0.000000
159.000000,-26651.661295,-34933.876685,30615.698471,17332.146148,-2058.260388,29860.343618,19585.224341,28757.217974,-0.004000,0.982000,0.116000,192.000000,0.000000,0.000000,0.000000,0.000000,0.000000,0.000000,0.000000,0.000000,0.000000,1648029172.041265,0.000000
160.000000,-26658.143301,-34934.860162,30614.916160,17333.397845,-2056.718118,29862.064703,19589.068841,28757.240326,-0.004000,0.982000,0.116000,192.000000,0.000000,0.000000,0.000000,0.000000,0.000000,0.000000,0.000000,0.000000,0.000000,1648029172.048378,0.000000
161.000000,-26660.914917,-34930.412165,30622.135773,17338.963430,-2050.124353,29867.585584,19596.601379,28764.415236,-0.004000,0.982000,0.116000,192.000000,0.000000,0.000000,0.000000,0.000000,0.000000,0.000000,0.000000,0.000000,0.000000,1648029172.048395,0.000000
162.000000,-26655.550498,-34921.717336,30629.221276,17345.333677,-2045.721060,29873.061761,19596.981358,28771.098408,-0.004000,0.982000,0.116000,192.000000,0.000000,0.000000,0.000000,0.000000,0.000000,0.000000,0.000000,0.000000,0.000000,1648029172.055934,0.000000
163.000000,-26645.335751,-34917.917540,30629.891828,17348.373514,-2044.558769,29879.655526,19596.601379,28773.110065,-0.004000,0.982000,0.116000,192.000000,0.000000,0.000000,0.000000,0.000000,0.000000,0.000000,0.000000,0.000000,0.000000,1648029172.055950,0.000000
164.000000,-26641.580658,-34920.867970,30624.259189,17345.467787,-2047.218626,29879.588470,19595.506143,28773.981783,-0.004000,0.982000,0.116000,192.000000,0.000000,0.000000,0.000000,0.000000,0.000000,0.000000,0.000000,0.000000,0.000000,1648029172.063749,0.000000
165.000000,-26653.650600,-34925.248912,30618.268921,17341.802101,-2055.198199,29876.325116,19589.001785,28774.004134,-0.004000,0.982000,0.116000,192.000000,0.000000,0.000000,0.000000,0.000000,0.000000,0.000000,0.000000,0.000000,0.000000,1648029172.063765,0.000000
166.000000,-26655.706961,-34930.613331,30613.508000,17338.158767,-2060.696728,29873.508796,19584.151457,28771.925422,-0.004000,0.982000,0.116000,192.000000,0.000000,0.000000,0.000000,0.000000,0.000000,0.000000,0.000000,0.000000,0.000000,1648029172.071947,0.000000
167.000000,-26646.989780,-34931.686214,30614.804401,17336.951773,-2058.685071,29875.296935,19585.134934,28771.903070,-0.004000,0.982000,0.116000,192.000000,0.000000,0.000000,0.000000,0.000000,0.000000,0.000000,0.000000,0.000000,0.000000,1648029172.071962,0.000000
168.000000,-26656.556327,-34936.424784,30614.603235,17334.604840,-2066.351720,29868.345543,19582.810352,28771.366629,-0.002000,0.984000,0.116000,192.000000,255.000000,240.000000,30.000000,192.000000,3.000000,160.000000,0.000000,0.000000,0.000000,1648029172.078445,0.000000
169.000000,-26662.032504,-34934.100203,30611.742212,17336.996476,-2065.278836,29870.513662,19586.230169,28769.936117,-0.002000,0.984000,0.116000,192.000000,0.000000,0.000000,0.000000,0.000000,0.000000,0.000000,0.000000,0.000000,0.000000,1648029172.078462,0.000000
170.000000,-26657.495100,-34924.891284,30615.005566,17342.472654,-2059.780307,29876.459226,19593.561541,28773.780617,-0.002000,0.984000,0.116000,192.000000,0.000000,0.000000,0.000000,0.000000,0.000000,0.000000,0.000000,0.000000,0.000000,1648029172.086347,0.000000
171.000000,-26657.740969,-34927.864066,30613.865628,17338.851671,-2065.770574,29870.200738,19593.494486,28774.831149,-0.002000,0.984000,0.116000,192.000000,0.000000,0.000000,0.000000,0.000000,0.000000,0.000000,0.000000,0.000000,0.000000,1648029172.086384,0.000000
172.000000,-26663.083036,-34936.760060,30603.740287,17330.425063,-2074.398348,29862.578793,19587.235998,28764.191719,-0.002000,0.984000,0.116000,192.000000,0.000000,0.000000,0.000000,0.000000,0.000000,0.000000,0.000000,0.000000,0.000000,1648029172.094308,0.000000
173.000000,-26663.306554,-34940.045767,30599.336994,17328.078130,-2075.582990,29862.019999,19585.626672,28761.688323,-0.002000,0.984000,0.116000,192.000000,0.000000,0.000000,0.000000,0.000000,0.000000,0.000000,0.000000,0.000000,0.000000,1648029172.094319,0.000000
174.000000,-26661.116083,-34943.085604,30595.179569,17322.914877,-2079.785118,29858.890755,19582.832704,28763.320001,-0.002000,0.984000,0.116000,192.000000,0.000000,0.000000,0.000000,0.000000,0.000000,0.000000,0.000000,0.000000,0.000000,1648029172.101754,0.000000
175.000000,-26655.036408,-34941.230409,30595.760715,17324.121871,-2075.605342,29862.399979,19586.163114,28764.258774,-0.002000,0.984000,0.116000,192.000000,0.000000,0.000000,0.000000,0.000000,0.000000,0.000000,0.000000,0.000000,0.000000,1648029172.108104,0.000000
176.000000,-26649.448472,-34934.122555,30602.913273,17328.815738,-2069.749185,29862.802310,19587.258349,28761.263640,-0.002000,0.984000,0.116000,192.000000,0.000000,0.000000,0.000000,0.000000,0.000000,0.000000,0.000000,0.000000,0.000000,1648029172.108116,0.000000
177.000000,-26653.874118,-34931.619159,30609.797610,17332.392017,-2066.217609,29863.875194,19588.822971,28759.631963,-0.002000,0.984000,0.116000,192.000000,0.000000,0.000000,0.000000,0.000000,0.000000,0.000000,0.000000,0.000000,0.000000,1648029172.116239,0.000000
178.000000,-26657.450397,-34934.748403,30610.155238,17331.162671,-2066.374071,29863.428159,19586.431335,28758.290858,-0.002000,0.984000,0.116000,192.000000,0.000000,0.000000,30.000000,160.000000,3.000000,160.000000,0.000000,0.000000,0.000000,1648029172.116256,0.000000
179.000000,-26657.048065,-34937.855296,30605.997813,17330.782691,-2067.782231,29864.031656,19585.269044,28759.564907,-0.002000,0.984000,0.116000,192.000000,0.000000,0.000000,0.000000,0.000000,0.000000,0.000000,0.000000,0.000000,0.000000,1648029172.123942,0.000000
180.000000,-26654.030580,-34936.514191,30605.774296,17334.627191,-2066.686996,29866.892680,19587.817143,28758.961410,-0.002000,0.984000,0.116000,192.000000,0.000000,0.000000,0.000000,0.000000,0.000000,0.000000,0.000000,0.000000,0.000000,1648029172.123959,0.000000
181.000000,-26657.025714,-34942.884438,30606.444848,17330.961505,-2071.202048,29861.327095,19582.743297,28758.000285,-0.002000,0.984000,0.116000,192.000000,0.000000,0.000000,0.000000,0.000000,0.000000,0.000000,0.000000,0.000000,0.000000,1648029172.131261,0.000000
182.000000,-26650.990743,-34938.168220,30606.154276,17331.833223,-2068.832763,29863.830491,19584.218512,28758.044989,-0.002000,0.984000,0.116000,192.000000,0.000000,0.000000,0.000000,0.000000,0.000000,0.000000,0.000000,0.000000,0.000000,1648029172.131278,0.000000
183.000000,-26661.406655,-34935.754232,30603.516770,17330.246249,-2070.240923,29861.707075,19583.905588,28758.827300,-0.002000,0.984000,0.116000,192.000000,0.000000,0.000000,0.000000,0.000000,0.000000,0.000000,0.000000,0.000000,0.000000,1648029172.138805,0.000000
184.000000,-26669.319173,-34937.810592,30601.661575,17326.379398,-2072.431394,29858.153147,19576.507160,28755.362780,-0.002000,0.984000,0.116000,192.000000,0.000000,0.000000,0.000000,0.000000,0.000000,0.000000,0.000000,0.000000,0.000000,1648029172.138822,0.000000
185.000000,-26667.218109,-34939.777546,30603.449715,17322.490194,-2075.895915,29850.687665,19568.348774,28752.144128,-0.002000,0.984000,0.116000,192.000000,0.000000,0.000000,0.000000,0.000000,0.000000,0.000000,0.000000,0.000000,0.000000,1648029172.146803,0.000000
186.000000,-26667.978068,-34945.298427,30601.952148,17321.506717,-2078.421662,29848.854822,19565.375992,28748.456091,-0.002000,0.984000,0.116000,192.000000,0.000000,0.000000,0.000000,0.000000,0.000000,0.000000,0.000000,0.000000,0.000000,1648029172.146820,0.000000
187.000000,-26664.178272,-34945.477241,30605.081392,17326.826433,-2076.901743,29853.168708,19569.041678,28750.892431,-0.002000,0.984000,0.116000,192.000000,0.000000,0.000000,0.000000,0.000000,0.000000,0.000000,0.000000,0.000000,0.000000,1648029172.154836,0.000000
188.000000,-26656.332809,-34945.656055,30606.243683,17326.602915,-2077.616999,29852.296990,19567.722925,28751.205355,-0.002000,0.968000,0.116000,192.000000,255.000000,240.000000,30.000000,64.000000,3.000000,160.000000,0.000000,0.000000,0.000000,1648029172.154853,0.000000
189.000000,-26649.962562,-34941.968017,30605.260206,17328.368703,-2072.811374,29852.542860,19571.366259,28749.506622,-0.002000,0.968000,0.116000,192.000000,0.000000,0.000000,0.000000,0.000000,0.000000,0.000000,0.000000,0.000000,0.000000,1648029172.160860,0.000000
190.000000,-26655.550498,-34936.469488,30607.316566,17329.419235,-2068.631598,29856.074435,19575.836608,28752.568811,-0.002000,0.968000,0.116000,192.000000,0.000000,0.000000,0.000000,0.000000,0.000000,0.000000,0.000000,0.000000,0.000000,1648029172.168477,0.000000
191.000000,-26656.533975,-34933.250837,30609.395279,17325.060645,-2072.476098,29854.442758,19578.407059,28754.111082,-0.002000,0.968000,0.116000,192.000000,0.000000,0.000000,0.000000,0.000000,0.000000,0.000000,0.000000,0.000000,0.000000,1648029172.168494,0.000000
192.000000,-26654.142339,-34935.217790,30608.232988,17324.904183,-2073.884258,29854.778034,19581.133971,28755.519242,-0.002000,0.968000,0.116000,192.000000,0.000000,0.000000,0.000000,0.000000,0.000000,0.000000,0.000000,0.000000,0.000000,1648029172.176440,0.000000
193.000000,-26656.936307,-34938.548200,30609.395279,17327.027598,-2074.711272,29854.062778,19582.162152,28755.251021,-0.002000,0.968000,0.116000,192.000000,0.000000,0.000000,0.000000,0.000000,0.000000,0.000000,0.000000,0.000000,0.000000,1648029172.176474,0.000000
194.000000,-26650.566059,-34931.194476,30612.189247,17335.253040,-2066.351720,29862.690552,19587.861846,28757.732064,-0.002000,0.968000,0.116000,192.000000,0.000000,0.000000,0.000000,0.000000,0.000000,0.000000,0.000000,0.000000,0.000000,1648029172.183564,0.000000
195.000000,-26650.789577,-34929.987482,30615.072622,17334.873061,-2068.519839,29860.790653,19588.264178,28763.118835,-0.002000,0.968000,0.116000,192.000000,0.000000,0.000000,0.000000,0.000000,0.000000,0.000000,0.000000,0.000000,0.000000,1648029172.183581,0.000000
196.000000,-26651.236612,-34936.424784,30609.462334,17328.659276,-2075.672397,29851.179403,19580.083439,28757.776768,-0.002000,0.968000,0.116000,192.000000,0.000000,0.000000,0.000000,0.000000,0.000000,0.000000,0.000000,0.000000,0.000000,1648029172.191099,0.000000
197.000000,-26653.427083,-34936.737709,30608.680023,17330.648581,-2073.057243,29855.113310,19580.150495,28760.682495,-0.002000,0.968000,0.116000,192.000000,0.000000,0.000000,0.000000,0.000000,0.000000,0.000000,0.000000,0.000000,0.000000,1648029172.191115,0.000000
198.000000,-26658.322115,-34935.083680,30609.730555,17331.810872,-2069.570371,29859.002514,19579.032907,28763.699980,0.002000,0.974000,0.118000,192.000000,0.000000,16.000000,30.000000,112.000000,3.000000,176.000000,0.000000,0.000000,0.000000,1648029172.198785,0.000000
199.000000,-26647.794443,-34930.948607,30616.659596,17338.874023,-2062.395461,29867.652639,19584.352623,28769.712599,0.002000,0.974000,0.118000,192.000000,0.000000,0.000000,0.000000,0.000000,0.000000,0.000000,0.000000,0.000000,0.000000,1648029172.198796,0.000000
200.000000,-26647.839147,-34936.134212,30618.492439,17339.902203,-2064.675339,29867.339714,19585.358451,28775.479350,0.002000,0.974000,0.118000,192.000000,0.000000,0.000000,0.000000,0.000000,0.000000,0.000000,0.000000,0.000000,0.000000,1648029172.207135,0.000000
201.000000,-26644.374626,-34936.402432,30618.201866,17338.181119,-2066.754051,29863.852842,19579.770515,28773.557100,0.002000,0.974000,0.118000,192.000000,0.000000,0.000000,0.000000,0.000000,0.000000,0.000000,0.000000,0.000000,0.000000,1648029172.207153,0.000000
202.000000,-26641.290085,-34933.630816,30619.453564,17340.885680,-2064.563580,29863.785787,19578.407059,28774.607632,0.002000,0.974000,0.118000,192.000000,0.000000,0.000000,0.000000,0.000000,0.000000,0.000000,0.000000,0.000000,0.000000,1648029172.213651,0.000000
203.000000,-26649.806100,-34937.050633,30616.838410,17339.835148,-2067.871638,29859.315438,19570.025154,28768.796178,0.002000,0.974000,0.118000,192.000000,0.000000,0.000000,0.000000,0.000000,0.000000,0.000000,0.000000,0.000000,0.000000,1648029172.213662,0.000000
204.000000,-26643.659370,-34929.898075,30621.509924,17346.697133,-2058.863885,29867.317363,19574.897835,28771.456036,0.002000,0.974000,0.118000,192.000000,0.000000,0.000000,0.000000,0.000000,0.000000,0.000000,0.000000,0.000000,0.000000,1648029172.220689,0.000000
205.000000,-26647.347408,-34931.015662,30620.191171,17344.953697,-2061.836667,29862.958773,19574.674317,28773.914727,0.002000,0.974000,0.118000,192.000000,0.000000,0.000000,0.000000,0.000000,0.000000,0.000000,0.000000,0.000000,0.000000,1648029172.228729,0.000000
206.000000,-26642.564135,-34930.009834,30619.632378,17346.540671,-2058.997996,29865.261002,19577.289471,28771.210166,0.002000,0.974000,0.118000,192.000000,0.000000,0.000000,0.000000,0.000000,0.000000,0.000000,0.000000,0.000000,0.000000,1648029172.228746,0.000000
207.000000,-26644.084054,-34930.278055,30622.716918,17347.032410,-2056.628711,29867.831453,19583.279739,28774.451169,0.002000,0.974000,0.118000,192.000000,0.000000,0.000000,0.000000,0.000000,0.000000,0.000000,0.000000,0.000000,0.000000,1648029172.236081,0.000000
208.000000,-26641.357141,-34932.312063,30622.649863,17344.372552,-2057.343967,29864.523395,19583.123277,28772.864195,0.002000,0.974000,0.118000,192.000000,0.000000,0.000000,30.000000,192.000000,3.000000,176.000000,0.000000,0.000000,0.000000,1648029172.236098,0.000000
209.000000,-26643.145280,-34937.385909,30618.470087,17339.566927,-2062.060185,29858.734293,19578.272948,28767.097445,0.002000,0.974000,0.118000,192.000000,0.000000,0.000000,0.000000,0.000000,0.000000,0.000000,0.000000,0.000000,0.000000,1648029172.243953,0.000000
210.000000,-26646.341580,-34938.838773,30619.855895,17340.460997,-2060.115583,29861.885889,19583.279739,28767.030390,0.002000,0.974000,0.118000,192.000000,0.000000,0.000000,0.000000,0.000000,0.000000,0.000000,0.000000,0.000000,0.000000,1648029172.243969,0.000000
211.000000,-26642.854708,-34935.083680,30621.755793,17342.763226,-2057.791002,29863.025828,19584.687899,28770.383152,0.002000,0.974000,0.118000,192.000000,0.000000,0.000000,0.000000,0.000000,0.000000,0.000000,0.000000,0.000000,0.000000,1648029172.252120,0.000000
212.000000,-26643.145280,-34933.809630,30620.973482,17340.662162,-2061.032004,29856.543822,19575.009593,28766.024562,0.002000,0.974000,0.118000,192.000000,0.000000,0.000000,0.000000,0.000000,0.000000,0.000000,0.000000,0.000000,0.000000,1648029172.252136,0.000000
213.000000,-26639.971333,-34931.775621,30625.265017,17341.556232,-2058.483906,29855.850918,19574.696669,28764.079960,0.002000,0.974000,0.118000,192.000000,0.000000,0.000000,0.000000,0.000000,0.000000,0.000000,0.000000,0.000000,0.000000,1648029172.258711,0.000000
214.000000,-26635.791556,-34928.422860,30627.433136,17343.031447,-2057.388670,29856.007380,19571.209797,28763.767035,0.002000,0.974000,0.118000,192.000000,0.000000,0.000000,0.000000,0.000000,0.000000,0.000000,0.000000,0.000000,0.000000,1648029172.258746,0.000000
215.000000,-26634.741024,-34930.456868,30628.148392,17341.466825,-2058.640368,29856.610877,19566.828855,28764.191719,0.002000,0.974000,0.118000,192.000000,0.000000,0.000000,0.000000,0.000000,0.000000,0.000000,0.000000,0.000000,0.000000,1648029172.266583,0.000000
216.000000,-26642.452376,-34936.134212,30625.533238,17339.410465,-2064.608284,29852.945191,19560.480959,28763.990553,0.002000,0.974000,0.118000,192.000000,0.000000,0.000000,0.000000,0.000000,0.000000,0.000000,0.000000,0.000000,0.000000,1648029172.266600,0.000000
217.000000,-26638.809042,-34933.563761,30629.109517,17344.081979,-2059.310920,29857.974334,19564.012535,28765.309306,0.002000,0.974000,0.118000,192.000000,0.000000,0.000000,0.000000,0.000000,0.000000,0.000000,0.000000,0.000000,0.000000,1648029172.274649,0.000000
218.000000,-26636.395053,-34930.188648,30633.982198,17350.899261,-2054.505295,29864.836319,19570.449837,28772.350105,0.002000,0.974000,0.118000,192.000000,0.000000,0.000000,30.000000,144.000000,3.000000,192.000000,0.000000,0.000000,0.000000,1648029172.274665,0.000000
219.000000,-26645.514565,-34933.764927,30626.896695,17348.775846,-2060.070879,29863.584621,19572.550901,28777.535710,0.002000,0.974000,0.118000,192.000000,0.000000,0.000000,0.000000,0.000000,0.000000,0.000000,0.000000,0.000000,0.000000,1648029172.280822,0.000000
220.000000,-26651.460129,-34940.872781,30615.542008,17338.874023,-2069.637426,29858.197851,19571.165093,28779.569719,0.002000,0.974000,0.118000,192.000000,0.000000,0.000000,0.000000,0.000000,0.000000,0.000000,0.000000,0.000000,0.000000,1648029172.280834,0.000000
221.000000,-26642.586487,-34938.749366,30614.424421,17341.198604,-2068.117507,29862.668200,19577.222416,28783.123646,0.002000,0.974000,0.118000,192.000000,0.000000,0.000000,0.000000,0.000000,0.000000,0.000000,0.000000,0.000000,0.000000,1648029172.288452,0.000000
222.000000,-26636.439757,-34934.033148,30622.582808,17347.032410,-2059.199161,29872.458264,19591.281663,28788.398658,0.002000,0.974000,0.118000,192.000000,0.000000,0.000000,0.000000,0.000000,0.000000,0.000000,0.000000,0.000000,0.000000,1648029172.296381,0.000000
223.000000,-26636.596219,-34925.964168,30633.132831,17354.497892,-2053.164190,29877.420351,19600.647044,28792.153751,0.002000,0.974000,0.118000,192.000000,0.000000,0.000000,0.000000,0.000000,0.000000,0.000000,0.000000,0.000000,0.000000,1648029172.296397,0.000000
224.000000,-26649.783748,-34928.154639,30633.378700,17351.413351,-2058.796830,29870.513662,19597.964835,28786.342297,0.002000,0.974000,0.118000,192.000000,0.000000,0.000000,0.000000,0.000000,0.000000,0.000000,0.000000,0.000000,0.000000,1648029172.304402,0.000000
225.000000,-26650.186080,-34928.445211,30634.093956,17353.156788,-2054.572350,29871.340677,19599.775326,28777.200434,0.002000,0.974000,0.118000,192.000000,0.000000,0.000000,0.000000,0.000000,0.000000,0.000000,0.000000,0.000000,0.000000,1648029172.304420,0.000000
226.000000,-26638.831394,-34925.159505,30634.988026,17357.805950,-2050.169057,29870.737180,19600.222361,28773.557100,0.002000,0.974000,0.118000,192.000000,0.000000,0.000000,0.000000,0.000000,0.000000,0.000000,0.000000,0.000000,0.000000,1648029172.310765,0.000000
227.000000,-26633.466975,-34923.796049,30634.026901,17358.610613,-2050.571388,29868.390246,19597.473097,28771.165463,0.002000,0.974000,0.118000,192.000000,0.000000,0.000000,0.000000,0.000000,0.000000,0.000000,0.000000,0.000000,0.000000,1648029172.310816,0.000000
228.000000,-26635.992722,-34922.767868,30631.635264,17357.716543,-2050.504333,29866.244479,19592.913341,28767.522129,0.002000,0.974000,0.118000,192.000000,0.000000,0.000000,0.000000,0.000000,0.000000,0.000000,0.000000,0.000000,0.000000,1648029172.318960,0.000000
229.000000,-26640.865402,-34924.131325,30626.628474,17354.184968,-2055.935807,29861.058874,19586.051355,28765.555175,-0.008000,0.980000,0.114000,192.000000,255.000000,192.000000,30.000000,160.000000,3.000000,144.000000,0.000000,0.000000,0.000000,1648029172.318978,0.000000
230.000000,-26641.021865,-34923.773697,30626.941398,17357.537729,-2055.734641,29862.690552,19586.230169,28767.924460,-0.008000,0.980000,0.114000,192.000000,0.000000,0.000000,0.000000,0.000000,0.000000,0.000000,0.000000,0.000000,0.000000,1648029172.326944,0.000000
231.000000,-26635.702149,-34923.237255,30630.517677,17358.498854,-2054.505295,29861.014171,19582.564483,28772.193643,-0.008000,0.980000,0.114000,192.000000,0.000000,0.000000,0.000000,0.000000,0.000000,0.000000,0.000000,0.000000,0.000000,1648029172.326961,0.000000
232.000000,-26629.086033,-34923.304310,30635.323302,17359.661145,-2053.141839,29859.896584,19576.082477,28773.132416,-0.008000,0.980000,0.114000,192.000000,0.000000,0.000000,0.000000,0.000000,0.000000,0.000000,0.000000,0.000000,0.000000,1648029172.334160,0.000000
233.000000,-26634.539859,-34923.237255,30632.931666,17355.302555,-2054.415888,29855.649752,19569.131085,28768.304440,-0.008000,0.980000,0.114000,192.000000,0.000000,0.000000,0.000000,0.000000,0.000000,0.000000,0.000000,0.000000,0.000000,1648029172.334178,0.000000
234.000000,-26630.382434,-34918.252816,30636.709110,17360.845788,-2048.157400,29865.149243,19576.529512,28771.970126,-0.008000,0.980000,0.114000,192.000000,0.000000,0.000000,0.000000,0.000000,0.000000,0.000000,0.000000,0.000000,0.000000,1648029172.341423,0.000000
235.000000,-26643.659370,-34923.483124,30638.676064,17358.275337,-2051.934844,29864.992781,19581.089268,28782.855425,-0.008000,0.980000,0.114000,192.000000,0.000000,0.000000,0.000000,0.000000,0.000000,0.000000,0.000000,0.000000,0.000000,1648029172.341458,0.000000
236.000000,-26647.906202,-34927.081755,30629.936532,17353.112084,-2059.400327,29861.215336,19581.268082,28782.117818,-0.008000,0.980000,0.114000,192.000000,0.000000,0.000000,0.000000,0.000000,0.000000,0.000000,0.000000,0.000000,0.000000,1648029172.348729,0.000000
237.000000,-26654.365856,-34924.690118,30626.606122,17351.279241,-2063.401289,29862.221165,19583.212684,28787.169312,-0.008000,0.980000,0.114000,192.000000,0.000000,0.000000,0.000000,0.000000,0.000000,0.000000,0.000000,0.000000,0.000000,1648029172.356655,0.000000
238.000000,-26646.542745,-34922.678461,30630.294160,17352.508587,-2058.372147,29868.278488,19589.091192,28793.718373,-0.008000,0.980000,0.114000,192.000000,0.000000,0.000000,0.000000,0.000000,0.000000,0.000000,0.000000,0.000000,0.000000,1648029172.356671,0.000000
239.000000,-26636.886792,-34917.984595,30631.277636,17356.308384,-2051.420754,29874.984011,19596.377861,28802.882588,-0.012000,0.980000,0.120000,192.000000,255.000000,160.000000,30.000000,160.000000,3.000000,192.000000,0.000000,0.000000,0.000000,1648029172.363368,0.000000
240.000000,-26647.034484,-34926.053575,30627.231971,17349.558157,-2059.981472,29869.038447,19594.589722,28803.642548,-0.012000,0.980000,0.120000,192.000000,0.000000,0.000000,0.000000,0.000000,0.000000,0.000000,0.000000,0.000000,0.000000,1648029172.363379,0.000000
241.000000,-26636.707978,-34919.593921,30630.025939,17353.916747,-2056.449897,29874.067590,19598.411870,28798.166370,-0.012000,0.980000,0.120000,192.000000,0.000000,0.000000,0.000000,0.000000,0.000000,0.000000,0.000000,0.000000,0.000000,1648029172.371304,0.000000
242.000000,-26633.534030,-34918.901017,30636.820869,17357.090695,-2055.131144,29876.101598,19599.998844,28793.248986,-0.012000,0.980000,0.120000,192.000000,0.000000,0.000000,0.000000,0.000000,0.000000,0.000000,0.000000,0.000000,0.000000,1648029172.371320,0.000000
243.000000,-26628.527239,-34914.296557,30639.614837,17363.818570,-2047.598606,29883.656488,19605.475021,28791.349088,-0.012000,0.980000,0.120000,192.000000,0.000000,0.000000,0.000000,0.000000,0.000000,0.000000,0.000000,0.000000,0.000000,1648029172.379063,0.000000
244.000000,-26628.773109,-34910.452057,30633.713977,17363.080962,-2050.057298,29881.376610,19600.334120,28784.442399,-0.012000,0.980000,0.120000,192.000000,0.000000,0.000000,0.000000,0.000000,0.000000,0.000000,0.000000,0.000000,0.000000,1648029172.379079,0.000000
245.000000,-26640.552478,-34917.492857,30626.539067,17354.408485,-2054.147667,29876.369819,19590.454649,28777.848634,-0.012000,0.980000,0.120000,192.000000,0.000000,0.000000,0.000000,0.000000,0.000000,0.000000,0.000000,0.000000,0.000000,1648029172.387246,0.000000
246.000000,-26641.647713,-34922.633758,30629.087165,17351.815683,-2052.605397,29875.967488,19585.671375,28776.216957,-0.012000,0.980000,0.120000,192.000000,0.000000,0.000000,0.000000,0.000000,0.000000,0.000000,0.000000,0.000000,0.000000,1648029172.387263,0.000000
247.000000,-26640.664237,-34921.069136,30630.204753,17351.748628,-2052.650100,29873.866424,19584.240864,28773.490044,-0.012000,0.980000,0.120000,192.000000,0.000000,0.000000,0.000000,0.000000,0.000000,0.000000,0.000000,0.000000,0.000000,1648029172.393651,0.000000
248.000000,-26638.965504,-34919.996252,30623.812154,17350.742799,-2054.751164,29869.664296,19582.899759,28769.310268,-0.012000,0.980000,0.120000,192.000000,0.000000,0.000000,0.000000,0.000000,0.000000,0.000000,0.000000,0.000000,0.000000,1648029172.393668,0.000000
249.000000,-26641.200678,-34922.790220,30618.335976,17346.317154,-2057.813353,29864.769264,19578.697631,28768.215033,-0.012000,0.986000,0.118000,192.000000,255.000000,160.000000,30.000000,208.000000,3.000000,176.000000,0.000000,0.000000,0.000000,1648029172.401860,0.000000
250.000000,-26639.792519,-34923.192552,30625.242665,17345.378380,-2057.343967,29865.037485,19578.831742,28770.338448,-0.012000,0.986000,0.118000,192.000000,0.000000,0.000000,0.000000,0.000000,0.000000,0.000000,0.000000,0.000000,0.000000,1648029172.401876,0.000000
251.000000,-26649.068493,-34926.075927,30627.947227,17342.740875,-2060.182638,29863.361104,19579.211721,28773.199472,-0.012000,0.986000,0.118000,192.000000,0.000000,0.000000,0.000000,0.000000,0.000000,0.000000,0.000000,0.000000,0.000000,1648029172.408883,0.000000
252.000000,-26651.326019,-34930.166296,30624.840334,17339.790444,-2064.205952,29864.076360,19579.949329,28774.451169,-0.012000,0.986000,0.118000,192.000000,0.000000,0.000000,0.000000,0.000000,0.000000,0.000000,0.000000,0.000000,0.000000,1648029172.416841,0.000000
253.000000,-26647.034484,-34927.908770,30618.224218,17338.896375,-2065.480002,29865.015133,19584.665547,28775.166425,-0.012000,0.986000,0.118000,192.000000,0.000000,0.000000,0.000000,0.000000,0.000000,0.000000,0.000000,0.000000,0.000000,1648029172.416853,0.000000
254.000000,-26641.200678,-34925.360671,30615.586712,17339.946907,-2062.149592,29869.820758,19593.449783,28775.009963,-0.012000,0.986000,0.118000,192.000000,0.000000,0.000000,0.000000,0.000000,0.000000,0.000000,0.000000,0.000000,0.000000,1648029172.423229,0.000000
255.000000,-26645.782786,-34923.840752,30619.073584,17341.220956,-2056.226379,29873.419389,19601.876390,28782.743666,-0.012000,0.986000,0.118000,192.000000,0.000000,0.000000,0.000000,0.000000,0.000000,0.000000,0.000000,0.000000,0.000000,1648029172.423241,0.000000
0.000000,-26660.266717,-34930.970959,30610.557569,17329.598049,-2066.552885,29859.807177,19591.549884,28781.067286,-0.012000,0.986000,0.118000,192.000000,0.000000,0.000000,0.000000,0.000000,0.000000,0.000000,0.000000,0.000000,0.000000,1648029172.431458,0.000000
1.000000,-26658.232708,-34931.328586,30607.875360,17328.033427,-2066.597589,29863.115235,19593.539190,28779.055629,-0.012000,0.986000,0.118000,192.000000,0.000000,0.000000,0.000000,0.000000,0.000000,0.000000,0.000000,0.000000,0.000000,1648029172.431483,0.000000
2.000000,-26660.043199,-34937.542371,30607.450677,17324.367741,-2071.134993,29861.394150,19593.002748,28777.669821,-0.012000,0.986000,0.118000,192.000000,0.000000,0.000000,0.000000,0.000000,0.000000,0.000000,0.000000,0.000000,0.000000,1648029172.439630,0.000000
3.000000,-26660.624344,-34941.185706,30601.460409,17321.841994,-2073.884258,29857.236726,19584.084402,28769.354972,-0.016000,0.978000,0.118000,192.000000,255.000000,128.000000,30.000000,144.000000,3.000000,176.000000,0.000000,0.000000,0.000000,1648029172.439646,0.000000
4.000000,-26656.221051,-34924.600711,30610.065831,17337.085883,-2057.746298,29872.257098,19594.679128,28774.585280,-0.016000,0.978000,0.118000,192.000000,0.000000,0.000000,0.000000,0.000000,0.000000,0.000000,0.000000,0.000000,0.000000,1648029172.446637,0.000000
5.000000,-26651.482481,-34919.996252,30616.950168,17340.013962,-2053.477115,29873.687610,19595.059108,28780.195568,-0.016000,0.978000,0.118000,192.000000,0.000000,0.000000,0.000000,0.000000,0.000000,0.000000,0.000000,0.000000,0.000000,1648029172.446653,0.000000
6.000000,-26640.284257,-34920.912674,30616.994872,17335.990648,-2056.181676,29867.473825,19587.437163,28775.278184,-0.016000,0.978000,0.118000,192.000000,0.000000,0.000000,0.000000,0.000000,0.000000,0.000000,0.000000,0.000000,0.000000,1648029172.454160,0.000000
7.000000,-26638.674931,-34924.220732,30611.071659,17335.990648,-2056.829877,29866.691514,19585.671375,28772.685381,-0.016000,0.978000,0.118000,192.000000,0.000000,0.000000,0.000000,0.000000,0.000000,0.000000,0.000000,0.000000,0.000000,1648029172.454176,0.000000
8.000000,-26648.330885,-34933.519057,30610.870494,17333.755473,-2059.690900,29864.903374,19583.123277,28768.751474,-0.016000,0.978000,0.118000,192.000000,0.000000,0.000000,0.000000,0.000000,0.000000,0.000000,0.000000,0.000000,0.000000,1648029172.462067,0.000000
9.000000,-26650.454301,-34927.439383,30614.938511,17335.588316,-2058.081574,29869.619592,19588.241826,28769.802006,-0.016000,0.978000,0.118000,192.000000,0.000000,0.000000,0.000000,0.000000,0.000000,0.000000,0.000000,0.000000,0.000000,1648029172.462084,0.000000
10.000000,-26653.203565,-34924.466601,30614.558532,17335.923593,-2059.467382,29873.173520,19596.154344,28777.893338,-0.016000,0.978000,0.118000,192.000000,0.000000,0.000000,0.000000,0.000000,0.000000,0.000000,0.000000,0.000000,0.000000,1648029172.469254,0.000000
11.000000,-26658.791501,-34929.227523,30611.675157,17331.855575,-2063.557752,29867.205604,19596.400213,28778.340373,-0.016000,0.978000,0.118000,192.000000,0.000000,0.000000,0.000000,0.000000,0.000000,0.000000,0.000000,0.000000,0.000000,1648029172.475659,0.000000
12.000000,-26650.096673,-34930.121592,30612.233950,17331.497947,-2062.082536,29863.003476,19597.763669,28779.122684,-0.016000,0.978000,0.118000,192.000000,0.000000,0.000000,0.000000,0.000000,0.000000,0.000000,0.000000,0.000000,0.000000,1648029172.475675,0.000000
13.000000,-26642.653542,-34928.445211,30613.128020,17333.978991,-2056.628711,29868.300839,19601.563466,28780.195568,-0.012000,0.978000,0.120000,192.000000,255.000000,160.000000,30.000000,144.000000,3.000000,192.000000,0.000000,0.000000,0.000000,1648029172.483696,0.000000
14.000000,-26641.647713,-34923.572531,30618.313625,17339.052837,-2051.219589,29875.296935,19606.682015,28787.951623,-0.012000,0.978000,0.120000,192.000000,0.000000,0.000000,0.000000,0.000000,0.000000,0.000000,0.000000,0.000000,0.000000,1648029172.483713,0.000000
15.000000,-26647.995609,-34925.204209,30616.704299,17335.856537,-2053.722984,29873.128816,19606.212629,28789.203321,-0.012000,0.978000,0.120000,192.000000,0.000000,0.000000,0.000000,0.000000,0.000000,0.000000,0.000000,0.000000,0.000000,1648029172.491803,0.000000
16.000000,-26652.868289,-34931.105069,30614.312662,17333.330790,-2057.053394,29871.340677,19604.737413,28789.069210,-0.012000,0.978000,0.120000,192.000000,0.000000,0.000000,0.000000,0.000000,0.000000,0.000000,0.000000,0.000000,0.000000,1648029172.491819,0.000000
17.000000,-26649.917859,-34931.395642,30613.396241,17333.017866,-2054.952330,29873.687610,19600.781155,28783.615385,-0.012000,0.978000,0.120000,192.000000,0.000000,0.000000,0.000000,0.000000,0.000000,0.000000,0.000000,0.000000,0.000000,1648029172.498884,0.000000
18.000000,-26640.641885,-34918.096354,30617.196037,17341.556232,-2046.033984,29883.164750,19603.016329,28786.543463,-0.012000,0.978000,0.120000,192.000000,0.000000,0.000000,0.000000,0.000000,0.000000,0.000000,0.000000,0.000000,0.000000,1648029172.498900,0.000000
19.000000,-26644.464033,-34916.084697,30616.413726,17344.596069,-2046.592778,29883.075343,19601.965797,28788.331603,-0.012000,0.978000,0.120000,192.000000,0.000000,0.000000,0.000000,0.000000,0.000000,0.000000,0.000000,0.000000,0.000000,1648029172.506429,0.000000
20.000000,-26644.553440,-34921.650281,30615.027918,17344.640773,-2049.297339,29877.085075,19598.769498,28788.085733,-0.012000,0.978000,0.120000,192.000000,0.000000,0.000000,0.000000,0.000000,0.000000,0.000000,0.000000,0.000000,0.000000,1648029172.506446,0.000000
21.000000,-26648.107368,-34926.657072,30609.238816,17338.851671,-2056.315786,29869.306668,19586.520742,28780.173216,-0.012000,0.978000,0.120000,192.000000,0.000000,0.000000,0.000000,0.000000,0.000000,0.000000,0.000000,0.000000,0.000000,1648029172.514460,0.000000
22.000000,-26648.196775,-34930.881552,30607.048345,17335.275392,-2057.165153,29869.731351,19585.336099,28778.161559,-0.012000,0.978000,0.120000,192.000000,0.000000,0.000000,0.000000,0.000000,0.000000,0.000000,0.000000,0.000000,0.000000,1648029172.514495,0.000000
23.000000,-26635.478632,-34919.571569,30606.668366,17343.456130,-2049.811429,29878.604994,19597.473097,28783.257757,-0.006000,0.976000,0.122000,192.000000,255.000000,208.000000,30.000000,128.000000,3.000000,208.000000,0.000000,0.000000,0.000000,1648029172.522268,0.000000
24.000000,-26636.640923,-34915.794124,30605.282558,17343.143206,-2052.560693,29875.140473,19600.289416,28785.314117,-0.006000,0.976000,0.122000,192.000000,0.000000,0.000000,0.000000,0.000000,0.000000,0.000000,0.000000,0.000000,0.000000,1648029172.522285,0.000000
25.000000,-26651.527184,-34928.825191,30606.310738,17333.800177,-2057.366318,29872.905299,19598.121297,28785.224710,-0.006000,0.976000,0.122000,192.000000,0.000000,0.000000,0.000000,0.000000,0.000000,0.000000,0.000000,0.000000,0.000000,1648029172.528458,0.000000
26.000000,-26652.085978,-34933.742575,30609.395279,17336.862366,-2049.453801,29883.611784,19605.787945,28790.745591,-0.006000,0.976000,0.122000,192.000000,0.000000,0.000000,0.000000,0.000000,0.000000,0.000000,0.000000,0.000000,0.000000,1648029172.528475,0.000000
27.000000,-26655.997533,-34933.295540,30605.886055,17336.482386,-2054.482943,29879.834340,19602.971626,28791.125571,-0.006000,0.976000,0.122000,192.000000,0.000000,0.000000,0.000000,0.000000,0.000000,0.000000,0.000000,0.000000,0.000000,1648029172.536133,0.000000
28.000000,-26657.070417,-34934.793107,30606.780125,17337.868194,-2053.365356,29882.851825,19603.217495,28789.628004,-0.006000,0.976000,0.122000,192.000000,0.000000,0.000000,0.000000,0.000000,0.000000,0.000000,0.000000,0.000000,0.000000,1648029172.543882,0.000000
29.000000,-26646.073359,-34924.176028,30614.893808,17345.087808,-2045.832818,29885.623441,19604.491544,28788.264547,-0.006000,0.976000,0.122000,192.000000,0.000000,0.000000,0.000000,0.000000,0.000000,0.000000,0.000000,0.000000,0.000000,1648029172.543898,0.000000
30.000000,-26639.166670,-34918.655147,30621.174648,17348.686439,-2042.971795,29885.869311,19604.938579,28786.431704,-0.006000,0.976000,0.122000,192.000000,0.000000,0.000000,0.000000,0.000000,0.000000,0.000000,0.000000,0.000000,0.000000,1648029172.552087,0.000000
31.000000,-26647.079187,-34929.585150,30617.821886,17339.097540,-2054.505295,29874.760494,19595.461440,28782.453094,-0.006000,0.976000,0.122000,192.000000,0.000000,0.000000,0.000000,0.000000,0.000000,0.000000,0.000000,0.000000,0.000000,1648029172.552104,0.000000
32.000000,-26631.880001,-34918.766906,30614.133848,17342.338543,-2049.811429,29879.946098,19594.455611,28777.066323,-0.006000,0.976000,0.122000,192.000000,0.000000,0.000000,0.000000,0.000000,0.000000,0.000000,0.000000,0.000000,0.000000,1648029172.558722,0.000000
33.000000,-26629.957751,-34917.381098,30609.127058,17344.260793,-2048.738545,29882.583604,19599.708271,28780.888472,-0.006000,0.976000,0.122000,192.000000,0.000000,0.000000,30.000000,128.000000,3.000000,208.000000,0.000000,0.000000,0.000000,1648029172.558738,0.000000
34.000000,-26634.137527,-34916.218807,30608.881188,17346.048933,-2048.246807,29886.763380,19600.892913,28784.643565,-0.006000,0.976000,0.122000,192.000000,0.000000,0.000000,0.000000,0.000000,0.000000,0.000000,0.000000,0.000000,0.000000,1648029172.566738,0.000000
35.000000,-26635.053949,-34912.664880,30610.579921,17345.892471,-2046.078687,29888.976203,19602.278722,28785.045896,-0.006000,0.976000,0.122000,192.000000,0.000000,0.000000,0.000000,0.000000,0.000000,0.000000,0.000000,0.000000,0.000000,1648029172.566754,0.000000
36.000000,-26636.015074,-34918.811610,30607.204808,17343.791407,-2050.012594,29887.948023,19602.770460,28791.125571,-0.006000,0.976000,0.122000,192.000000,0.000000,0.000000,0.000000,0.000000,0.000000,0.000000,0.000000,0.000000,0.000000,1648029172.574754,0.000000
37.000000,-26646.229821,-34924.935988,30600.387526,17336.392979,-2058.238036,29882.851825,19596.780192,28790.678536,-0.006000,0.976000,0.122000,192.000000,0.000000,0.000000,0.000000,0.000000,0.000000,0.000000,0.000000,0.000000,0.000000,1648029172.574769,0.000000
38.000000,-26645.559269,-34922.901979,30601.326299,17336.214165,-2057.925112,29884.550558,19596.579027,28790.723239,-0.006000,0.976000,0.122000,192.000000,0.000000,0.000000,0.000000,0.000000,0.000000,0.000000,0.000000,0.000000,0.000000,1648029172.581847,0.000000
39.000000,-26639.971333,-34919.817438,30606.109572,17339.231651,-2053.007728,29888.819741,19600.892913,28794.768905,-0.006000,0.976000,0.122000,192.000000,0.000000,0.000000,0.000000,0.000000,0.000000,0.000000,0.000000,0.000000,0.000000,1648029172.581863,0.000000
40.000000,-26631.388263,-34911.703755,30613.284482,17344.864290,-2049.006766,29892.843055,19606.659664,28803.374327,-0.006000,0.976000,0.122000,192.000000,0.000000,0.000000,0.000000,0.000000,0.000000,0.000000,0.000000,0.000000,0.000000,1648029172.589318,0.000000
41.000000,-26636.327998,-34912.329604,30607.204808,17344.216090,-2053.454763,29890.831398,19606.994940,28804.268396,-0.006000,0.976000,0.122000,192.000000,0.000000,0.000000,0.000000,0.000000,0.000000,0.000000,0.000000,0.000000,0.000000,1648029172.589335,0.000000
42.000000,-26633.712844,-34911.614348,30607.160104,17345.601898,-2052.940673,29894.184160,19611.979379,28805.095411,-0.006000,0.976000,0.122000,192.000000,0.000000,0.000000,0.000000,0.000000,0.000000,0.000000,0.000000,0.000000,0.000000,1648029172.596223,0.000000
43.000000,-26629.443661,-34915.436496,30606.400145,17341.265659,-2057.187504,29891.837226,19609.230114,28804.424859,-0.002000,0.974000,0.118000,192.000000,255.000000,240.000000,30.000000,112.000000,3.000000,176.000000,0.000000,0.000000,0.000000,1648029172.604342,0.000000
44.000000,-26629.756585,-34912.977804,30612.815096,17346.004229,-2051.487810,29896.106410,19611.018254,28801.496780,-0.002000,0.974000,0.118000,192.000000,0.000000,0.000000,0.000000,0.000000,0.000000,0.000000,0.000000,0.000000,0.000000,1648029172.604359,0.000000
45.000000,-26631.365911,-34913.804819,30616.458430,17344.081979,-2051.979548,29891.121971,19605.452669,28797.562873,-0.002000,0.974000,0.118000,192.000000,0.000000,0.000000,0.000000,0.000000,0.000000,0.000000,0.000000,0.000000,0.000000,1648029172.611260,0.000000
46.000000,-26637.065606,-34915.101220,30607.405973,17339.969258,-2057.455725,29883.276508,19597.540152,28788.845693,-0.002000,0.974000,0.118000,192.000000,0.000000,0.000000,0.000000,0.000000,0.000000,0.000000,0.000000,0.000000,0.000000,1648029172.611277,0.000000
47.000000,-26645.671027,-34921.180895,30604.723764,17341.288011,-2059.802659,29881.063686,19594.299149,28787.124608,-0.002000,0.974000,0.118000,192.000000,0.000000,0.000000,0.000000,0.000000,0.000000,0.000000,0.000000,0.000000,0.000000,1648029172.618901,0.000000
48.000000,-26649.470824,-34929.875723,30604.366136,17337.264697,-2065.234132,29873.687610,19583.883236,28778.049800,-0.002000,0.974000,0.118000,192.000000,0.000000,0.000000,0.000000,0.000000,0.000000,0.000000,0.000000,0.000000,0.000000,1648029172.618917,0.000000
49.000000,-26636.372702,-34922.298482,30617.218389,17345.668953,-2054.952330,29880.907223,19587.727736,28777.491007,-0.002000,0.974000,0.118000,192.000000,0.000000,0.000000,0.000000,0.000000,0.000000,0.000000,0.000000,0.000000,0.000000,1648029172.626864,0.000000
50.000000,-26637.937324,-34917.805781,30621.621683,17344.953697,-2055.555827,29877.554462,19586.520742,28777.759227,-0.002000,0.974000,0.118000,192.000000,0.000000,0.000000,0.000000,0.000000,0.000000,0.000000,0.000000,0.000000,0.000000,1648029172.626876,0.000000
51.000000,-26632.908181,-34913.424839,30619.297101,17347.144168,-2053.141839,29879.879043,19588.241826,28774.652335,-0.002000,0.974000,0.118000,192.000000,0.000000,0.000000,0.000000,0.000000,0.000000,0.000000,0.000000,0.000000,0.000000,1648029172.634978,0.000000
52.000000,-26630.069510,-34912.798990,30619.990005,17350.586337,-2049.453801,29883.902357,19593.047451,28781.849597,-0.002000,0.974000,0.118000,192.000000,0.000000,0.000000,0.000000,0.000000,0.000000,0.000000,0.000000,0.000000,0.000000,1648029172.634994,0.000000
53.000000,-26628.326074,-34911.346127,30622.068718,17351.972145,-2047.240978,29883.678840,19595.595550,28789.583300,-0.004000,0.978000,0.116000,192.000000,255.000000,224.000000,30.000000,144.000000,3.000000,160.000000,0.000000,0.000000,0.000000,1648029172.641551,0.000000
54.000000,-26627.342597,-34910.206188,30623.655692,17351.368648,-2048.425621,29880.817816,19595.774364,28797.652280,-0.004000,0.978000,0.116000,192.000000,0.000000,0.000000,0.000000,0.000000,0.000000,0.000000,0.000000,0.000000,0.000000,1648029172.641568,0.000000
55.000000,-26626.917914,-34911.793162,30617.732479,17350.362819,-2052.605397,29881.913052,19598.657739,28800.110972,-0.004000,0.978000,0.116000,192.000000,0.000000,0.000000,0.000000,0.000000,0.000000,0.000000,0.000000,0.000000,0.000000,1648029172.649644,0.000000
56.000000,-26633.377568,-34921.315005,30611.988081,17344.081979,-2061.434336,29877.643869,19597.741317,28798.859274,-0.004000,0.978000,0.116000,192.000000,0.000000,0.000000,0.000000,0.000000,0.000000,0.000000,0.000000,0.000000,0.000000,1648029172.649660,0.000000
57.000000,-26630.069510,-34921.024432,30613.508000,17345.937174,-2054.907626,29884.103523,19600.892913,28797.808742,-0.004000,0.978000,0.116000,192.000000,0.000000,0.000000,0.000000,0.000000,0.000000,0.000000,0.000000,0.000000,0.000000,1648029172.656638,0.000000
58.000000,-26630.494193,-34915.861179,30617.173686,17348.015886,-2051.420754,29887.880968,19605.229152,28800.490952,-0.004000,0.978000,0.116000,192.000000,0.000000,0.000000,0.000000,0.000000,0.000000,0.000000,0.000000,0.000000,0.000000,1648029172.664345,0.000000
59.000000,-26626.873210,-34913.201322,30615.832581,17348.261755,-2050.303167,29889.043258,19606.793774,28802.837885,-0.004000,0.978000,0.116000,192.000000,0.000000,0.000000,0.000000,0.000000,0.000000,0.000000,0.000000,0.000000,0.000000,1648029172.664361,0.000000
60.000000,-26615.049137,-34908.574511,30614.335014,17354.855520,-2044.961100,29893.871235,19610.168887,28804.827190,-0.004000,0.978000,0.116000,192.000000,0.000000,0.000000,0.000000,0.000000,0.000000,0.000000,0.000000,0.000000,0.000000,1648029172.671251,0.000000
61.000000,-26620.055928,-34911.234368,30616.838410,17351.726276,-2046.771592,29891.814875,19609.096004,28804.558969,-0.004000,0.978000,0.116000,192.000000,0.000000,0.000000,0.000000,0.000000,0.000000,0.000000,0.000000,0.000000,0.000000,1648029172.671267,0.000000
62.000000,-26624.168649,-34910.206188,30617.486610,17350.921613,-2047.822124,29890.004383,19605.542076,28802.524960,-0.004000,0.978000,0.116000,192.000000,0.000000,0.000000,0.000000,0.000000,0.000000,0.000000,0.000000,0.000000,0.000000,1648029172.679146,0.000000
63.000000,-26615.362062,-34907.702793,30616.994872,17358.767075,-2045.452839,29889.020907,19608.894838,28804.827190,-0.008000,0.978000,0.116000,192.000000,255.000000,192.000000,30.000000,144.000000,3.000000,160.000000,0.000000,0.000000,0.000000,1648029172.679163,0.000000
64.000000,-26630.069510,-34918.006947,30608.992947,17349.044067,-2055.265254,29875.721619,19596.400213,28798.054611,-0.008000,0.978000,0.116000,192.000000,0.000000,0.000000,0.000000,0.000000,0.000000,0.000000,0.000000,0.000000,0.000000,1648029172.687314,0.000000
65.000000,-26636.618571,-34915.168275,30605.327261,17345.825415,-2059.355624,29874.961659,19592.220437,28788.912748,-0.008000,0.978000,0.116000,192.000000,0.000000,0.000000,0.000000,0.000000,0.000000,0.000000,0.000000,0.000000,0.000000,1648029172.687349,0.000000
66.000000,-26633.086995,-34911.994328,30603.114438,17344.886642,-2059.690900,29877.442703,19592.086326,28786.655222,-0.008000,0.978000,0.116000,192.000000,0.000000,0.000000,0.000000,0.000000,0.000000,0.000000,0.000000,0.000000,0.000000,1648029172.693686,0.000000
67.000000,-26631.790594,-34912.910749,30602.533293,17346.540671,-2058.148629,29880.795465,19595.304977,28791.192626,-0.008000,0.978000,0.116000,192.000000,0.000000,0.000000,0.000000,0.000000,0.000000,0.000000,0.000000,0.000000,0.000000,1648029172.693701,0.000000
68.000000,-26634.964542,-34915.592958,30603.092087,17344.283145,-2064.340063,29877.554462,19593.002748,28793.070172,-0.008000,0.978000,0.116000,192.000000,0.000000,0.000000,0.000000,0.000000,0.000000,0.000000,0.000000,0.000000,0.000000,1648029172.701787,0.000000
69.000000,-26633.377568,-34914.184799,30606.109572,17345.132511,-2063.043661,29877.755627,19593.382727,28795.797085,-0.008000,0.978000,0.116000,192.000000,0.000000,0.000000,0.000000,0.000000,0.000000,0.000000,0.000000,0.000000,0.000000,1648029172.701803,0.000000
70.000000,-26634.361045,-34916.934063,30604.701412,17344.730180,-2062.864848,29873.017058,19591.549884,28797.115838,-0.008000,0.978000,0.116000,192.000000,0.000000,0.000000,0.000000,0.000000,0.000000,0.000000,0.000000,0.000000,0.000000,1648029172.709605,0.000000
71.000000,-26633.802251,-34918.252816,30603.762639,17343.746703,-2062.797792,29873.687610,19590.499352,28795.126533,-0.008000,0.978000,0.116000,192.000000,0.000000,0.000000,0.000000,0.000000,0.000000,0.000000,0.000000,0.000000,0.000000,1648029172.709614,0.000000
72.000000,-26632.259981,-34918.722203,30601.885092,17344.685476,-2063.535400,29875.498101,19593.673300,28798.076963,-0.008000,0.978000,0.116000,192.000000,0.000000,0.000000,0.000000,0.000000,0.000000,0.000000,0.000000,0.000000,0.000000,1648029172.716858,0.000000
73.000000,-26621.397033,-34911.077906,30610.110534,17349.356991,-2055.466420,29883.589433,19606.682015,28804.737783,-0.004000,0.976000,0.112000,192.000000,255.000000,224.000000,30.000000,128.000000,3.000000,128.000000,0.000000,0.000000,0.000000,1648029172.723274,0.000000
74.000000,-26618.312492,-34910.742630,30617.173686,17352.307421,-2052.270121,29889.758514,19614.661588,28813.030280,-0.004000,0.976000,0.112000,192.000000,0.000000,0.000000,0.000000,0.000000,0.000000,0.000000,0.000000,0.000000,0.000000,1648029172.723291,0.000000
75.000000,-26621.262922,-34916.621139,30614.983215,17348.775846,-2055.444068,29888.506816,19613.432242,28820.071080,-0.004000,0.976000,0.112000,192.000000,0.000000,0.000000,0.000000,0.000000,0.000000,0.000000,0.000000,0.000000,0.000000,1648029172.731486,0.000000
76.000000,-26621.128812,-34918.074002,30610.535218,17345.579546,-2058.081574,29885.690497,19608.268989,28816.315987,-0.004000,0.976000,0.112000,192.000000,0.000000,0.000000,0.000000,0.000000,0.000000,0.000000,0.000000,0.000000,0.000000,1648029172.731497,0.000000
77.000000,-26624.928609,-34915.660014,30604.924930,17346.361857,-2060.316749,29883.880005,19605.676187,28810.660995,-0.004000,0.976000,0.112000,192.000000,0.000000,0.000000,0.000000,0.000000,0.000000,0.000000,0.000000,0.000000,0.000000,1648029172.739366,0.000000
78.000000,-26632.528202,-34918.029299,30604.321433,17345.199567,-2061.926074,29879.387305,19603.686882,28806.503571,-0.004000,0.976000,0.112000,192.000000,0.000000,0.000000,0.000000,0.000000,0.000000,0.000000,0.000000,0.000000,0.000000,1648029172.739377,0.000000
79.000000,-26632.349388,-34916.419973,30611.742212,17351.949793,-2053.857095,29882.784770,19603.619826,28804.022527,-0.004000,0.976000,0.112000,192.000000,0.000000,0.000000,0.000000,0.000000,0.000000,0.000000,0.000000,0.000000,0.000000,1648029172.746248,0.000000
80.000000,-26634.383396,-34920.264473,30614.893808,17350.452226,-2054.102964,29881.041334,19597.271931,28804.447210,-0.004000,0.976000,0.112000,192.000000,0.000000,0.000000,0.000000,0.000000,0.000000,0.000000,0.000000,0.000000,0.000000,1648029172.746260,0.000000
81.000000,-26629.108385,-34917.716374,30613.105668,17351.301593,-2048.269158,29884.684668,19598.724794,28802.256739,-0.004000,0.976000,0.112000,192.000000,0.000000,0.000000,0.000000,0.000000,0.000000,0.000000,0.000000,0.000000,0.000000,1648029172.754220,0.000000
82.000000,-26628.147260,-34918.252816,30609.797610,17353.134436,-2050.236112,29882.293031,19596.646082,28798.859274,-0.004000,0.976000,0.112000,192.000000,0.000000,0.000000,0.000000,0.000000,0.000000,0.000000,0.000000,0.000000,0.000000,1648029172.754236,0.000000
83.000000,-26621.531143,-34914.073040,30613.195075,17360.890491,-2042.301243,29885.869311,19600.200009,28797.182893,-0.004000,0.976000,0.112000,192.000000,0.000000,0.000000,0.000000,0.000000,0.000000,0.000000,0.000000,0.000000,0.000000,1648029172.761681,0.000000
84.000000,-26620.368853,-34905.691136,30618.157162,17368.892416,-2035.819237,29887.500988,19604.782117,28797.384059,-0.006000,0.978000,0.114000,192.000000,255.000000,208.000000,30.000000,144.000000,3.000000,144.000000,0.000000,0.000000,0.000000,1648029172.761689,0.000000
85.000000,-26619.139507,-34907.479275,30618.738308,17364.109142,-2039.619033,29884.036468,19601.831687,28797.451114,-0.006000,0.978000,0.114000,192.000000,0.000000,0.000000,0.000000,0.000000,0.000000,0.000000,0.000000,0.000000,0.000000,1648029172.769764,0.000000
86.000000,-26615.071489,-34910.295595,30619.319453,17357.448322,-2040.960138,29885.846959,19602.636350,28796.735859,-0.006000,0.978000,0.114000,192.000000,0.000000,0.000000,0.000000,0.000000,0.000000,0.000000,0.000000,0.000000,0.000000,1648029172.769777,0.000000
87.000000,-26615.719690,-34914.408316,30621.174648,17355.302555,-2042.435353,29885.936366,19604.603303,28799.954510,-0.006000,0.978000,0.114000,192.000000,0.000000,0.000000,0.000000,0.000000,0.000000,0.000000,0.000000,0.000000,0.000000,1648029172.775896,0.000000
88.000000,-26618.401899,-34911.234368,30624.415651,17358.364744,-2039.730792,29890.339659,19608.246637,28803.061402,-0.006000,0.978000,0.114000,192.000000,0.000000,0.000000,0.000000,0.000000,0.000000,0.000000,0.000000,0.000000,0.000000,1648029172.775901,0.000000
89.000000,-26619.631245,-34916.129400,30627.813116,17354.341430,-2041.094248,29887.210415,19605.676187,28806.324757,-0.006000,0.978000,0.114000,192.000000,0.000000,0.000000,0.000000,0.000000,0.000000,0.000000,0.000000,0.000000,0.000000,1648029172.783254,0.000000
90.000000,-26615.160896,-34917.358746,30625.868514,17354.676706,-2041.027193,29889.691459,19605.519725,28809.297539,-0.006000,0.978000,0.114000,192.000000,0.000000,0.000000,0.000000,0.000000,0.000000,0.000000,0.000000,0.000000,0.000000,1648029172.791378,0.000000
91.000000,-26626.113251,-34921.292653,30618.157162,17348.105293,-2047.822124,29887.880968,19603.351605,28810.862161,-0.006000,0.978000,0.114000,192.000000,0.000000,0.000000,0.000000,0.000000,0.000000,0.000000,0.000000,0.000000,0.000000,1648029172.791382,0.000000
92.000000,-26628.728405,-34919.459810,30613.508000,17349.379343,-2047.710365,29892.396020,19607.754899,28816.271283,-0.006000,0.978000,0.114000,192.000000,0.000000,0.000000,0.000000,0.000000,0.000000,0.000000,0.000000,0.000000,0.000000,1648029172.799296,0.000000
93.000000,-26629.086033,-34919.213941,30610.177590,17346.898299,-2050.526685,29886.673973,19606.011463,28817.344167,-0.006000,0.978000,0.114000,192.000000,0.000000,0.000000,0.000000,0.000000,0.000000,0.000000,0.000000,0.000000,0.000000,1648029172.799300,0.000000
94.000000,-26631.969408,-34921.359708,30610.848142,17342.562061,-2052.627749,29880.683706,19600.982320,28813.477315,-0.004000,0.982000,0.106000,192.000000,255.000000,224.000000,30.000000,176.000000,3.000000,80.000000,0.000000,0.000000,0.000000,1648029172.805930,0.000000
95.000000,-26619.452431,-34918.342223,30612.077488,17345.154863,-2047.285682,29883.410619,19602.234018,28808.917559,-0.004000,0.982000,0.106000,192.000000,0.000000,0.000000,0.000000,0.000000,0.000000,0.000000,0.000000,0.000000,0.000000,1648029172.805934,0.000000
96.000000,-26603.493286,-34907.971014,30616.346671,17352.218014,-2040.736621,29889.490293,19605.184448,28807.107068,-0.004000,0.982000,0.106000,192.000000,0.000000,0.000000,0.000000,0.000000,0.000000,0.000000,0.000000,0.000000,0.000000,1648029172.813982,0.000000
97.000000,-26604.454411,-34910.563816,30617.821886,17351.905090,-2041.764801,29888.149189,19603.083384,28804.447210,-0.004000,0.982000,0.106000,192.000000,0.000000,0.000000,0.000000,0.000000,0.000000,0.000000,0.000000,0.000000,0.000000,1648029172.813986,0.000000
98.000000,-26620.502963,-34916.084697,30616.860761,17350.385171,-2043.687051,29888.506816,19604.580951,28801.876760,-0.004000,0.982000,0.106000,192.000000,0.000000,0.000000,0.000000,0.000000,0.000000,0.000000,0.000000,0.000000,0.000000,1648029172.821958,0.000000
99.000000,-26627.007321,-34911.770810,30623.320415,17349.647564,-2044.826990,29886.897491,19603.172791,28804.782487,-0.004000,0.982000,0.106000,192.000000,0.000000,0.000000,0.000000,0.000000,0.000000,0.000000,0.000000,0.000000,0.000000,1648029172.821962,0.000000
100.000000,-26624.638036,-34912.262548,30622.180476,17348.865253,-2045.899873,29887.970375,19604.022158,28803.262568,-0.004000,0.982000,0.106000,192.000000,0.000000,0.000000,0.000000,0.000000,0.000000,0.000000,0.000000,0.000000,0.000000,1648029172.829109,0.000000
101.000000,-26621.754661,-34912.106086,30620.168819,17349.558157,-2045.922225,29891.569005,19610.727681,28806.280053,-0.004000,0.982000,0.106000,192.000000,0.000000,0.000000,0.000000,0.000000,0.000000,0.000000,0.000000,0.000000,0.000000,1648029172.829113,0.000000
102.000000,-26616.949036,-34912.262548,30619.162991,17350.496930,-2045.519894,29891.121971,19614.572181,28812.046803,-0.004000,0.982000,0.106000,192.000000,0.000000,0.000000,0.000000,0.000000,0.000000,0.000000,0.000000,0.000000,0.000000,1648029172.836752,0.000000
103.000000,-26608.209504,-34916.375269,30616.592540,17350.742799,-2045.072859,29885.981069,19611.733510,28809.029318,-0.004000,0.982000,0.106000,192.000000,0.000000,0.000000,0.000000,0.000000,0.000000,0.000000,0.000000,0.000000,0.000000,1648029172.836760,0.000000
104.000000,-26607.829524,-34911.033203,30620.146468,17354.140264,-2042.323594,29886.428104,19616.472079,28813.834943,-0.002000,0.982000,0.116000,192.000000,255.000000,240.000000,30.000000,176.000000,3.000000,160.000000,0.000000,0.000000,0.000000,1648029172.843914,0.000000
105.000000,-26616.993739,-34908.932139,30626.717881,17361.181064,-2037.562673,29894.698250,19621.009483,28823.267379,-0.002000,0.982000,0.116000,192.000000,0.000000,0.000000,0.000000,0.000000,0.000000,0.000000,0.000000,0.000000,0.000000,1648029172.852174,0.000000
106.000000,-26622.581675,-34910.273243,30625.756756,17358.543558,-2040.200179,29894.854712,19616.740300,28828.274170,-0.002000,0.982000,0.116000,192.000000,0.000000,0.000000,0.000000,0.000000,0.000000,0.000000,0.000000,0.000000,0.000000,1648029172.852190,0.000000
107.000000,-26619.295969,-34909.401525,30624.773279,17358.878834,-2038.926129,29896.486389,19616.226210,28830.799917,-0.002000,0.982000,0.116000,192.000000,0.000000,0.000000,0.000000,0.000000,0.000000,0.000000,0.000000,0.000000,0.000000,1648029172.859166,0.000000
108.000000,-26632.081167,-34926.545313,30610.602273,17349.491101,-2052.471286,29883.678840,19606.078518,28826.418975,-0.002000,0.982000,0.116000,192.000000,0.000000,0.000000,0.000000,0.000000,0.000000,0.000000,0.000000,0.000000,0.000000,1648029172.859183,0.000000
109.000000,-26620.972350,-34918.588092,30607.674194,17351.011020,-2050.973719,29882.561252,19602.345777,28819.266417,-0.002000,0.982000,0.116000,192.000000,0.000000,0.000000,0.000000,0.000000,0.000000,0.000000,0.000000,0.000000,0.000000,1648029172.866630,0.000000
110.000000,-26610.131754,-34905.981708,30614.022090,17358.096523,-2044.312900,29887.165712,19605.787945,28815.310158,-0.002000,0.982000,0.116000,192.000000,0.000000,0.000000,0.000000,0.000000,0.000000,0.000000,0.000000,0.000000,0.000000,1648029172.866647,0.000000
111.000000,-26614.758565,-34910.385002,30616.525485,17358.320041,-2043.016498,29886.986898,19607.307864,28817.612388,-0.002000,0.982000,0.116000,192.000000,0.000000,0.000000,0.000000,0.000000,0.000000,0.000000,0.000000,0.000000,0.000000,1648029172.874555,0.000000
112.000000,-26618.804231,-34916.777601,30613.575055,17354.386133,-2043.754106,29885.131703,19605.363262,28816.561856,-0.002000,0.982000,0.116000,192.000000,0.000000,0.000000,0.000000,0.000000,0.000000,0.000000,0.000000,0.000000,0.000000,1648029172.874572,0.000000
113.000000,-26624.481574,-34920.532694,30608.568264,17350.519282,-2049.431449,29879.767284,19604.871524,28809.409298,-0.002000,0.982000,0.116000,192.000000,0.000000,0.000000,0.000000,0.000000,0.000000,0.000000,0.000000,0.000000,0.000000,1648029172.881894,0.000000
114.000000,-26628.773109,-34922.007909,30603.829694,17348.485273,-2054.080612,29880.996630,19612.493469,28806.525923,-0.002000,0.976000,0.114000,192.000000,255.000000,240.000000,30.000000,128.000000,3.000000,144.000000,0.000000,0.000000,0.000000,1648029172.881911,0.000000
115.000000,-26629.376606,-34925.226560,30597.280633,17338.114064,-2066.888162,29873.039409,19610.481812,28806.838847,-0.002000,0.976000,0.114000,192.000000,0.000000,0.000000,0.000000,0.000000,0.000000,0.000000,0.000000,0.000000,0.000000,1648029172.888969,0.000000
116.000000,-26629.220143,-34930.814496,30593.570244,17333.666066,-2070.352682,29874.268755,19610.079480,28808.828152,-0.002000,0.976000,0.114000,192.000000,0.000000,0.000000,0.000000,0.000000,0.000000,0.000000,0.000000,0.000000,0.000000,1648029172.888978,0.000000
117.000000,-26626.649693,-34928.087584,30604.187322,17342.003267,-2061.568446,29882.136569,19613.722815,28812.829115,-0.002000,0.976000,0.114000,192.000000,0.000000,0.000000,0.000000,0.000000,0.000000,0.000000,0.000000,0.000000,0.000000,1648029172.897041,0.000000
118.000000,-26628.236667,-34924.153677,30612.859799,17343.612593,-2061.657853,29877.397999,19608.380748,28814.773716,-0.002000,0.976000,0.114000,192.000000,0.000000,0.000000,0.000000,0.000000,0.000000,0.000000,0.000000,0.000000,0.000000,1648029172.897049,0.000000
119.000000,-26624.638036,-34922.723165,30613.329186,17343.254965,-2059.847362,29881.331906,19609.565390,28814.058460,-0.002000,0.976000,0.114000,192.000000,0.000000,0.000000,0.000000,0.000000,0.000000,0.000000,0.000000,0.000000,0.000000,1648029172.904378,0.000000
120.000000,-26621.285274,-34926.545313,30611.138715,17346.808892,-2059.869714,29882.091866,19608.134879,28813.879647,-0.002000,0.976000,0.114000,192.000000,0.000000,0.000000,0.000000,0.000000,0.000000,0.000000,0.000000,0.000000,0.000000,1648029172.911274,0.000000
121.000000,-26622.425213,-34922.790220,30611.809267,17349.401694,-2057.656891,29884.885834,19602.569294,28808.112896,-0.002000,0.976000,0.114000,192.000000,0.000000,0.000000,0.000000,0.000000,0.000000,0.000000,0.000000,0.000000,0.000000,1648029172.911290,0.000000
122.000000,-26617.597236,-34914.117743,30618.045404,17354.967279,-2051.890141,29890.362011,19601.317597,28808.515228,-0.002000,0.976000,0.114000,192.000000,0.000000,0.000000,0.000000,0.000000,0.000000,0.000000,0.000000,0.000000,0.000000,1648029172.918812,0.000000
123.000000,-26614.691510,-34907.278109,30624.348596,17360.711677,-2045.721060,29896.352279,19605.117393,28809.521056,-0.002000,0.976000,0.114000,192.000000,0.000000,0.000000,0.000000,0.000000,0.000000,0.000000,0.000000,0.000000,0.000000,1648029172.918828,0.000000
124.000000,-26621.754661,-34911.502589,30624.438003,17357.113046,-2048.291510,29890.898453,19598.814201,28805.296577,-0.002000,0.978000,0.118000,192.000000,255.000000,240.000000,30.000000,144.000000,3.000000,176.000000,0.000000,0.000000,0.000000,1648029172.926937,0.000000
125.000000,-26631.410614,-34920.935025,30619.319453,17352.486235,-2054.304129,29882.918880,19589.985262,28800.021565,-0.002000,0.978000,0.118000,192.000000,0.000000,0.000000,0.000000,0.000000,0.000000,0.000000,0.000000,0.000000,0.000000,1648029172.926954,0.000000
126.000000,-26624.526277,-34922.969034,30615.229084,17355.459017,-2049.744374,29888.640927,19597.048413,28800.490952,-0.002000,0.978000,0.118000,192.000000,0.000000,0.000000,0.000000,0.000000,0.000000,0.000000,0.000000,0.000000,0.000000,1648029172.935073,0.000000
127.000000,-26620.570018,-34921.113839,30613.977386,17356.576604,-2049.856132,29890.384363,19602.234018,28801.183856,-0.002000,0.978000,0.118000,192.000000,0.000000,0.000000,0.000000,0.000000,0.000000,0.000000,0.000000,0.000000,0.000000,1648029172.935091,0.000000
128.000000,-26617.954864,-34921.940854,30618.134811,17357.940061,-2048.291510,29895.793485,19612.001730,28809.230484,-0.002000,0.978000,0.118000,192.000000,0.000000,0.000000,0.000000,0.000000,0.000000,0.000000,0.000000,0.000000,0.000000,1648029172.941562,0.000000
129.000000,-26621.866420,-34924.466601,30619.006529,17353.357953,-2050.660795,29891.725468,19612.404062,28814.661958,-0.002000,0.978000,0.118000,192.000000,0.000000,0.000000,0.000000,0.000000,0.000000,0.000000,0.000000,0.000000,0.000000,1648029172.941597,0.000000
130.000000,-26625.219181,-34925.561836,30615.318491,17349.379343,-2052.270121,29884.103523,19608.157230,28813.499667,-0.002000,0.978000,0.118000,192.000000,0.000000,0.000000,0.000000,0.000000,0.000000,0.000000,0.000000,0.000000,0.000000,1648029172.949571,0.000000
131.000000,-26624.794498,-34922.834924,30617.196037,17354.207320,-2047.553903,29886.115180,19612.337007,28814.639606,-0.002000,0.978000,0.118000,192.000000,0.000000,0.000000,0.000000,0.000000,0.000000,0.000000,0.000000,0.000000,0.000000,1648029172.949587,0.000000
132.000000,-26618.513658,-34920.555046,30619.408860,17352.307421,-2048.850304,29883.589433,19614.840402,28816.293635,-0.002000,0.978000,0.118000,192.000000,0.000000,0.000000,0.000000,0.000000,0.000000,0.000000,0.000000,0.000000,0.000000,1648029172.957266,0.000000
133.000000,-26616.747870,-34920.890322,30616.279616,17348.932308,-2055.220551,29877.554462,19612.448765,28811.733879,-0.002000,0.978000,0.118000,192.000000,0.000000,0.000000,0.000000,0.000000,0.000000,0.000000,0.000000,0.000000,0.000000,1648029172.957282,0.000000
134.000000,-26621.464088,-34920.957377,30618.358328,17351.614517,-2054.080612,29876.839206,19609.319521,28808.001138,-0.004000,0.984000,0.116000,192.000000,255.000000,224.000000,30.000000,192.000000,3.000000,160.000000,0.000000,0.000000,0.000000,1648029172.964602,0.000000
135.000000,-26623.140469,-34921.270301,30616.704299,17351.770979,-2051.130182,29880.057857,19608.917190,28808.895208,-0.004000,0.984000,0.116000,192.000000,0.000000,0.000000,0.000000,0.000000,0.000000,0.000000,0.000000,0.000000,0.000000,1648029172.971039,0.000000
136.000000,-26630.918876,-34924.332490,30613.195075,17348.060590,-2053.477115,29879.923747,19609.364225,28811.756231,-0.004000,0.984000,0.116000,192.000000,0.000000,0.000000,0.000000,0.000000,0.000000,0.000000,0.000000,0.000000,0.000000,1648029172.971051,0.000000
137.000000,-26642.698245,-34934.323720,30610.155238,17336.750607,-2063.155420,29875.654563,19603.798640,28806.771792,-0.004000,0.984000,0.116000,192.000000,0.000000,0.000000,0.000000,0.000000,0.000000,0.000000,0.000000,0.000000,0.000000,1648029172.979235,0.000000
138.000000,-26629.980103,-34934.726052,30615.430250,17340.460997,-2058.930941,29882.695363,19608.179582,28807.956434,-0.004000,0.984000,0.116000,192.000000,0.000000,0.000000,0.000000,0.000000,0.000000,0.000000,0.000000,0.000000,0.000000,1648029172.979252,0.000000
139.000000,-26624.101594,-34933.921389,30621.219351,17342.629116,-2056.874580,29883.432970,19610.660626,28813.142039,-0.004000,0.984000,0.116000,192.000000,0.000000,0.000000,0.000000,0.000000,0.000000,0.000000,0.000000,0.000000,0.000000,1648029172.987176,0.000000
140.000000,-26624.414518,-34930.210999,30620.861724,17345.110160,-2053.208894,29885.019944,19612.135841,28814.326681,-0.004000,0.984000,0.116000,192.000000,0.000000,0.000000,0.000000,0.000000,0.000000,0.000000,0.000000,0.000000,0.000000,1648029172.987192,0.000000
141.000000,-26624.369815,-34928.579322,30618.559494,17345.221918,-2053.074783,29884.215282,19610.370053,28815.846600,-0.004000,0.984000,0.116000,192.000000,0.000000,0.000000,0.000000,0.000000,0.000000,0.000000,0.000000,0.000000,0.000000,1648029172.994048,0.000000
142.000000,-26623.788670,-34927.528790,30618.805363,17346.026581,-2053.030080,29884.237633,19611.509992,28815.936007,-0.004000,0.984000,0.116000,192.000000,0.000000,0.000000,0.000000,0.000000,0.000000,0.000000,0.000000,0.000000,0.000000,1648029172.994065,0.000000
143.000000,-26623.855725,-34929.451040,30620.347633,17342.807930,-2055.153496,29878.157959,19610.213591,28814.483144,-0.004000,0.984000,0.116000,192.000000,0.000000,0.000000,0.000000,0.000000,0.000000,0.000000,0.000000,0.000000,0.000000,1648029173.001662,0.000000
144.000000,-26607.091916,-34917.850485,30623.678043,17351.435703,-2048.515028,29884.751723,19615.510954,28815.891304,-0.008000,0.978000,0.122000,192.000000,255.000000,192.000000,30.000000,144.000000,3.000000,208.000000,0.000000,0.000000,0.000000,1648029173.001679,0.000000
145.000000,-26604.365004,-34918.498685,30625.488535,17352.665049,-2047.688013,29883.611784,19617.343797,28822.462716,-0.008000,0.978000,0.122000,192.000000,0.000000,0.000000,0.000000,0.000000,0.000000,0.000000,0.000000,0.000000,0.000000,1648029173.009886,0.000000
146.000000,-26617.373719,-34926.120630,30618.157162,17345.981878,-2053.924150,29874.313459,19610.213591,28818.752327,-0.008000,0.978000,0.122000,192.000000,0.000000,0.000000,0.000000,0.000000,0.000000,0.000000,0.000000,0.000000,0.000000,1648029173.009903,0.000000
147.000000,-26622.626379,-34922.499647,30615.765526,17348.015886,-2053.700632,29874.313459,19611.442937,28817.612388,-0.008000,0.978000,0.122000,192.000000,0.000000,0.000000,0.000000,0.000000,0.000000,0.000000,0.000000,0.000000,0.000000,1648029173.017633,0.000000
148.000000,-26621.061757,-34922.231427,30616.279616,17349.669915,-2054.147667,29873.017058,19611.755861,28820.808687,-0.008000,0.978000,0.122000,192.000000,0.000000,0.000000,0.000000,0.000000,0.000000,0.000000,0.000000,0.000000,0.000000,1648029173.017650,0.000000
149.000000,-26622.872248,-34929.182819,30606.690718,17342.293840,-2063.445993,29866.825624,19603.843344,28817.277112,-0.008000,0.978000,0.122000,192.000000,0.000000,0.000000,0.000000,0.000000,0.000000,0.000000,0.000000,0.000000,0.000000,1648029173.023931,0.000000
150.000000,-26623.922780,-34923.997214,30608.568264,17347.255927,-2055.399365,29875.542805,19609.118355,28818.953493,-0.008000,0.978000,0.122000,192.000000,0.000000,0.000000,0.000000,0.000000,0.000000,0.000000,0.000000,0.000000,0.000000,1648029173.023967,0.000000
151.000000,-26621.084108,-34919.392755,30615.653767,17351.949793,-2049.207932,29884.081171,19615.510954,28824.496725,-0.008000,0.978000,0.122000,192.000000,0.000000,0.000000,0.000000,0.000000,0.000000,0.000000,0.000000,0.000000,0.000000,1648029173.031422,0.000000
152.000000,-26624.414518,-34923.416069,30616.078450,17348.619383,-2054.393536,29880.661354,19608.358396,28822.328606,-0.008000,0.978000,0.122000,192.000000,0.000000,0.000000,0.000000,0.000000,0.000000,0.000000,0.000000,0.000000,0.000000,1648029173.039489,0.000000
153.000000,-26625.979141,-34925.427726,30617.732479,17350.385171,-2056.002862,29878.627345,19603.977454,28816.114821,-0.008000,0.978000,0.122000,192.000000,0.000000,0.000000,0.000000,0.000000,0.000000,0.000000,0.000000,0.000000,0.000000,1648029173.039505,0.000000
154.000000,-26616.502001,-34923.930159,30624.192133,17355.593128,-2050.079650,29880.124912,19603.061033,28811.018623,-0.004000,0.982000,0.124000,192.000000,255.000000,224.000000,30.000000,176.000000,3.000000,224.000000,0.000000,0.000000,0.000000,1648029173.046571,0.000000
155.000000,-26617.686643,-34914.005985,30627.276674,17360.890491,-2046.346908,29882.002459,19604.335082,28809.141077,-0.004000,0.982000,0.124000,192.000000,0.000000,0.000000,0.000000,0.000000,0.000000,0.000000,0.000000,0.000000,0.000000,1648029173.046588,0.000000
156.000000,-26627.610818,-34914.542426,30625.980273,17362.902148,-2049.342042,29881.935404,19607.106698,28809.677519,-0.004000,0.982000,0.124000,192.000000,0.000000,0.000000,0.000000,0.000000,0.000000,0.000000,0.000000,0.000000,0.000000,1648029173.054107,0.000000
