%OpenBCI Raw EEG Data
%Number of channels = 8
%Sample Rate = 256 Hz
%Board = OpenBCI_GUI$BoardCytonSerial
%Channels = Fp1, Fp2, F3, F4, Fz, Pz, O1, O2
%Data recorded at AIMS Lab (http://aimsl.uiu.ac.bd) by Rana Depto (mail@ranadepto.com)
%Brainwaves were obtained via the Ultracortex Mark IV Headset using the OpenBCI Cyton Board
%Recording Application = ConcentrateToday (https://concentrate.today)
%Data type = RAW data with noise
%Day No = 7
%Subject ID = 7
%Session ID = 7
%Record starting timestamp (UTC+6) = 2022-03-27T09:45:49.277991
%Record ending timestamp (UTC+6)   = 2022-03-27T09:46:20.273002
%Recorded durations = ~30 seconds
Sample Index, EXG Channel 0, EXG Channel 1, EXG Channel 2, EXG Channel 3, EXG Channel 4, EXG Channel 5, EXG Channel 6, EXG Channel 7, Accel Channel 0, Accel Channel 1, Accel Channel 2, Other, Other, Other, Other, Other, Other, Other, Analog Channel 0, Analog Channel 1, Analog Channel 2, Timestamp, Timestamp (Formatted)
219.000000,-36658.850212,-23894.730079,17285.967444,20542.773073,9368.376061,67392.431783,47575.173983,28642.307656,-0.080000,0.984000,0.078000,192.000000,0.000000,0.000000,0.000000,0.000000,0.000000,0.000000,0.000000,0.000000,0.000000,1648352749.281883,0.000000
220.000000,-36663.789947,-23904.341329,17279.686604,20530.993704,9359.837694,67387.894379,47564.422794,28626.639083,-0.080000,0.984000,0.078000,192.000000,0.000000,0.000000,0.000000,0.000000,0.000000,0.000000,0.000000,0.000000,0.000000,1648352749.281892,0.000000
221.000000,-36667.925020,-23914.332558,17272.779914,20517.694416,9350.896996,67385.435687,47561.584122,28625.834420,-0.080000,0.984000,0.078000,192.000000,0.000000,0.000000,0.000000,0.000000,0.000000,0.000000,0.000000,0.000000,0.000000,1648352749.289739,0.000000
222.000000,-36663.097043,-23908.968140,17276.177380,20519.326093,9354.383869,67382.529960,47566.590913,28621.721699,-0.080000,0.984000,0.078000,192.000000,0.000000,0.000000,0.000000,0.000000,0.000000,0.000000,0.000000,0.000000,0.000000,1648352749.289745,0.000000
223.000000,-36659.923096,-23902.776707,17282.257054,20527.082148,9361.826999,67392.476486,47576.380977,28628.650740,-0.070000,0.988000,0.074000,192.000000,253.000000,208.000000,30.000000,224.000000,2.000000,80.000000,0.000000,0.000000,0.000000,1648352749.297833,0.000000
224.000000,-36652.435261,-23892.763125,17286.883865,20535.531108,9368.443116,67399.517286,47581.812451,28641.324179,-0.070000,0.988000,0.074000,192.000000,0.000000,0.000000,0.000000,0.000000,0.000000,0.000000,0.000000,0.000000,0.000000,1648352749.297837,0.000000
225.000000,-36644.522744,-23884.291814,17295.064604,20544.605916,9377.182648,67406.066347,47586.662780,28637.323217,-0.070000,0.988000,0.074000,192.000000,0.000000,0.000000,0.000000,0.000000,0.000000,0.000000,0.000000,0.000000,0.000000,1648352749.304446,0.000000
226.000000,-36647.294360,-23890.080916,17293.164705,20544.069474,9375.752136,67407.966245,47586.595724,28633.657531,-0.070000,0.988000,0.074000,192.000000,0.000000,0.000000,0.000000,0.000000,0.000000,0.000000,0.000000,0.000000,0.000000,1648352749.304450,0.000000
227.000000,-36661.822994,-23904.631901,17277.876112,20536.067550,9362.832828,67405.239332,47584.248791,28667.654534,-0.070000,0.988000,0.074000,192.000000,0.000000,0.000000,0.000000,0.000000,0.000000,0.000000,0.000000,0.000000,0.000000,1648352749.312366,0.000000
228.000000,-36661.331256,-23903.313148,17283.039365,20537.408654,9368.309005,67399.584341,47575.755128,28690.073334,-0.070000,0.988000,0.074000,192.000000,0.000000,0.000000,0.000000,0.000000,0.000000,0.000000,0.000000,0.000000,0.000000,1648352749.312371,0.000000
229.000000,-36655.475099,-23900.429773,17290.147220,20540.649657,9374.746308,67396.052765,47572.916457,28681.333802,-0.070000,0.988000,0.074000,192.000000,0.000000,0.000000,0.000000,0.000000,0.000000,0.000000,0.000000,0.000000,0.000000,1648352749.320345,0.000000
230.000000,-36652.748186,-23900.027442,17290.728365,20540.314381,9373.740479,67397.706794,47572.759995,28667.319258,-0.070000,0.988000,0.074000,192.000000,0.000000,0.000000,0.000000,0.000000,0.000000,0.000000,0.000000,0.000000,0.000000,1648352749.320351,0.000000
231.000000,-36656.637389,-23904.341329,17286.973272,20533.005361,9367.526694,67400.970149,47576.984474,28688.709878,-0.070000,0.988000,0.074000,192.000000,0.000000,0.000000,0.000000,0.000000,0.000000,0.000000,0.000000,0.000000,0.000000,1648352749.327596,0.000000
232.000000,-36643.136936,-23897.993433,17295.958673,20540.090864,9375.506267,67402.221847,47572.245904,28696.644747,-0.070000,0.988000,0.074000,192.000000,0.000000,0.000000,0.000000,0.000000,0.000000,0.000000,0.000000,0.000000,0.000000,1648352749.327601,0.000000
233.000000,-36647.674340,-23900.519180,17292.561208,20540.113215,9372.578188,67409.866143,47582.214783,28706.434811,-0.076000,0.982000,0.078000,192.000000,253.000000,160.000000,30.000000,176.000000,2.000000,112.000000,0.000000,0.000000,0.000000,1648352749.334079,0.000000
234.000000,-36669.199070,-23912.097384,17280.781839,20529.339675,9360.105915,67404.792297,47579.353759,28722.840991,-0.076000,0.982000,0.078000,192.000000,0.000000,0.000000,0.000000,0.000000,0.000000,0.000000,0.000000,0.000000,0.000000,1648352749.342132,0.000000
235.000000,-36675.994000,-23919.719329,17274.970385,20523.461166,9353.847427,67394.957530,47576.291570,28727.199582,-0.076000,0.982000,0.078000,192.000000,0.000000,0.000000,0.000000,0.000000,0.000000,0.000000,0.000000,0.000000,0.000000,1648352749.342142,0.000000
236.000000,-36676.508090,-23921.194544,17273.539874,20523.327055,9352.595729,67396.812725,47582.550059,28736.989646,-0.076000,0.982000,0.078000,192.000000,0.000000,0.000000,0.000000,0.000000,0.000000,0.000000,0.000000,0.000000,0.000000,1648352749.350121,0.000000
237.000000,-36673.311791,-23918.825259,17275.842103,20525.741044,9353.601557,67395.248103,47584.047626,28735.536782,-0.076000,0.982000,0.078000,192.000000,0.000000,0.000000,0.000000,0.000000,0.000000,0.000000,0.000000,0.000000,0.000000,1648352749.350126,0.000000
238.000000,-36670.741340,-23919.831088,17277.920816,20524.802271,9354.205055,67395.717489,47585.947524,28741.795271,-0.076000,0.982000,0.078000,192.000000,0.000000,0.000000,0.000000,0.000000,0.000000,0.000000,0.000000,0.000000,0.000000,1648352749.357262,0.000000
239.000000,-36672.596535,-23923.183849,17277.049098,20522.790614,9352.662784,67395.538675,47587.221573,28748.009056,-0.076000,0.982000,0.078000,192.000000,0.000000,0.000000,0.000000,0.000000,0.000000,0.000000,0.000000,0.000000,0.000000,1648352749.357265,0.000000
240.000000,-36676.552794,-23922.423890,17276.892635,20524.109366,9351.835770,67389.928387,47586.618076,28756.435663,-0.076000,0.982000,0.078000,192.000000,0.000000,0.000000,0.000000,0.000000,0.000000,0.000000,0.000000,0.000000,0.000000,1648352749.364653,0.000000
241.000000,-36676.306924,-23920.591047,17277.429077,20524.958733,9350.762886,67390.643643,47588.070940,28764.750512,-0.076000,0.982000,0.078000,192.000000,0.000000,0.000000,0.000000,0.000000,0.000000,0.000000,0.000000,0.000000,0.000000,1648352749.364657,0.000000
242.000000,-36665.354570,-23909.214009,17286.593293,20535.151128,9361.603482,67396.566855,47586.998056,28760.861309,-0.076000,0.982000,0.078000,192.000000,0.000000,0.000000,0.000000,0.000000,0.000000,0.000000,0.000000,0.000000,0.000000,1648352749.372692,0.000000
243.000000,-36667.790910,-23908.141125,17285.788630,20534.726445,9360.664709,67395.985710,47588.182698,28758.290858,-0.090000,0.976000,0.086000,192.000000,253.000000,48.000000,30.000000,128.000000,2.000000,176.000000,0.000000,0.000000,0.000000,1648352749.372695,0.000000
244.000000,-36669.534346,-23908.521105,17285.252188,20533.742968,9359.703584,67392.476486,47586.774538,28753.664047,-0.090000,0.976000,0.086000,192.000000,0.000000,0.000000,0.000000,0.000000,0.000000,0.000000,0.000000,0.000000,0.000000,1648352749.380755,0.000000
245.000000,-36674.004695,-23913.326730,17279.999528,20531.641904,9354.607386,67392.252969,47587.109815,28763.498815,-0.090000,0.976000,0.086000,192.000000,0.000000,0.000000,0.000000,0.000000,0.000000,0.000000,0.000000,0.000000,0.000000,1648352749.380759,0.000000
246.000000,-36666.762729,-23908.655215,17286.325072,20534.972314,9359.860046,67394.264626,47587.310980,28746.176213,-0.090000,0.976000,0.086000,192.000000,0.000000,0.000000,0.000000,0.000000,0.000000,0.000000,0.000000,0.000000,0.000000,1648352749.387375,0.000000
247.000000,-36672.730645,-23912.253846,17280.625377,20525.808099,9351.656956,67398.310292,47592.541288,28757.933230,-0.090000,0.976000,0.086000,192.000000,0.000000,0.000000,0.000000,0.000000,0.000000,0.000000,0.000000,0.000000,0.000000,1648352749.387378,0.000000
248.000000,-36675.792834,-23918.512335,17275.618586,20521.382454,9344.906729,67386.776791,47578.526745,28759.743721,-0.090000,0.976000,0.086000,192.000000,0.000000,0.000000,0.000000,0.000000,0.000000,0.000000,0.000000,0.000000,0.000000,1648352749.394428,0.000000
249.000000,-36668.729683,-23910.488058,17281.921778,20531.217221,9352.282805,67394.309329,47582.371245,28751.138300,-0.090000,0.976000,0.086000,192.000000,0.000000,0.000000,0.000000,0.000000,0.000000,0.000000,0.000000,0.000000,0.000000,1648352749.402464,0.000000
250.000000,-36667.053302,-23909.281064,17281.318281,20532.178346,9351.276976,67399.249065,47588.562678,28750.579506,-0.090000,0.976000,0.086000,192.000000,0.000000,0.000000,0.000000,0.000000,0.000000,0.000000,0.000000,0.000000,0.000000,1648352749.402470,0.000000
251.000000,-36659.677227,-23905.682433,17286.414479,20536.268715,9356.954319,67399.293768,47586.618076,28735.425023,-0.090000,0.976000,0.086000,192.000000,0.000000,0.000000,0.000000,0.000000,0.000000,0.000000,0.000000,0.000000,0.000000,1648352749.410607,0.000000
252.000000,-36662.918229,-23899.133372,17288.023804,20537.363951,9359.234197,67400.970149,47592.965972,28729.233590,-0.090000,0.976000,0.086000,192.000000,0.000000,0.000000,0.000000,0.000000,0.000000,0.000000,0.000000,0.000000,0.000000,1648352749.410620,0.000000
253.000000,-36666.159232,-23900.653291,17283.978138,20532.267753,9356.015546,67389.190780,47581.633637,28721.455183,-0.096000,0.968000,0.088000,192.000000,253.000000,0.000000,30.000000,64.000000,2.000000,192.000000,0.000000,0.000000,0.000000,1648352749.417009,0.000000
254.000000,-36668.774386,-23905.101288,17280.692432,20528.736178,9353.378040,67385.301576,47576.135108,28718.638863,-0.096000,0.968000,0.088000,192.000000,0.000000,0.000000,0.000000,0.000000,0.000000,0.000000,0.000000,0.000000,0.000000,1648352749.417013,0.000000
255.000000,-36669.333180,-23908.431698,17278.323147,20526.009265,9349.488836,67383.111105,47576.202163,28715.643730,-0.096000,0.968000,0.088000,192.000000,0.000000,0.000000,0.000000,0.000000,0.000000,0.000000,0.000000,0.000000,0.000000,1648352749.424935,0.000000
0.000000,-36680.106721,-23915.628960,17272.288176,20519.236686,9341.375153,67378.864274,47572.983512,28724.070337,-0.096000,0.968000,0.088000,192.000000,0.000000,0.000000,0.000000,0.000000,0.000000,0.000000,0.000000,0.000000,0.000000,1648352749.424939,0.000000
1.000000,-36670.562526,-23905.011881,17282.882903,20529.719654,9352.483970,67378.797219,47569.563695,28717.476573,-0.096000,0.968000,0.088000,192.000000,0.000000,0.000000,0.000000,0.000000,0.000000,0.000000,0.000000,0.000000,0.000000,1648352749.433036,0.000000
2.000000,-36673.222384,-23907.984663,17274.344537,20519.974294,9345.867854,67375.042126,47569.787213,28715.934302,-0.096000,0.968000,0.088000,192.000000,0.000000,0.000000,0.000000,0.000000,0.000000,0.000000,0.000000,0.000000,0.000000,1648352749.433040,0.000000
3.000000,-36674.988171,-23913.080861,17272.623452,20518.655541,9346.270185,67371.644660,47570.614227,28714.146163,-0.096000,0.968000,0.088000,192.000000,0.000000,0.000000,0.000000,0.000000,0.000000,0.000000,0.000000,0.000000,0.000000,1648352749.439650,0.000000
4.000000,-36668.819090,-23911.046852,17278.367851,20525.629285,9352.059287,67377.612576,47571.441242,28697.695279,-0.096000,0.968000,0.088000,192.000000,0.000000,0.000000,0.000000,0.000000,0.000000,0.000000,0.000000,0.000000,0.000000,1648352749.439653,0.000000
5.000000,-36678.340933,-23920.255771,17267.616662,20512.173535,9340.257566,67376.159713,47573.922285,28708.088840,-0.096000,0.968000,0.088000,192.000000,0.000000,0.000000,0.000000,0.000000,0.000000,0.000000,0.000000,0.000000,0.000000,1648352749.447607,0.000000
6.000000,-36680.732570,-23918.937018,17268.197807,20516.174497,9341.621022,67371.868178,47567.440279,28707.530046,-0.096000,0.968000,0.088000,192.000000,0.000000,0.000000,0.000000,0.000000,0.000000,0.000000,0.000000,0.000000,0.000000,1648352749.447611,0.000000
7.000000,-36674.138805,-23911.493887,17273.003432,20523.572925,9347.164255,67371.085867,47564.713367,28695.862436,-0.086000,0.972000,0.092000,192.000000,253.000000,80.000000,30.000000,96.000000,2.000000,224.000000,0.000000,0.000000,0.000000,1648352749.454650,0.000000
8.000000,-36672.752997,-23912.991454,17273.182246,20523.572925,9345.890206,67367.062553,47561.092384,28688.262843,-0.086000,0.972000,0.092000,192.000000,0.000000,0.000000,0.000000,0.000000,0.000000,0.000000,0.000000,0.000000,0.000000,1648352749.462632,0.000000
9.000000,-36673.758826,-23911.806811,17271.818789,20522.544744,9347.276014,67368.649527,47563.841649,28691.436790,-0.086000,0.972000,0.092000,192.000000,0.000000,0.000000,0.000000,0.000000,0.000000,0.000000,0.000000,0.000000,0.000000,1648352749.462636,0.000000
10.000000,-36671.389541,-23909.795154,17272.958728,20522.723558,9349.131209,67368.247195,47559.550114,28694.677793,-0.086000,0.972000,0.092000,192.000000,0.000000,0.000000,0.000000,0.000000,0.000000,0.000000,0.000000,0.000000,0.000000,1648352749.469350,0.000000
11.000000,-36672.752997,-23910.868038,17269.918891,20519.281390,9346.560758,67367.755457,47557.963140,28694.007241,-0.086000,0.972000,0.092000,192.000000,0.000000,0.000000,0.000000,0.000000,0.000000,0.000000,0.000000,0.000000,0.000000,1648352749.469369,0.000000
12.000000,-36676.217517,-23917.327692,17264.442714,20510.988892,9340.704601,67358.568890,47551.570541,28683.188997,-0.086000,0.972000,0.092000,192.000000,0.000000,0.000000,0.000000,0.000000,0.000000,0.000000,0.000000,0.000000,0.000000,1648352749.477312,0.000000
13.000000,-36673.892936,-23916.903009,17263.012202,20505.222142,9338.670592,67361.161692,47556.040890,28681.602023,-0.086000,0.972000,0.092000,192.000000,0.000000,0.000000,0.000000,0.000000,0.000000,0.000000,0.000000,0.000000,0.000000,1648352749.477317,0.000000
14.000000,-36662.940581,-23908.230532,17270.812961,20515.414538,9346.985441,67361.586375,47562.187619,28688.329898,-0.086000,0.972000,0.092000,192.000000,0.000000,0.000000,0.000000,0.000000,0.000000,0.000000,0.000000,0.000000,0.000000,1648352749.485231,0.000000
15.000000,-36665.779253,-23905.861247,17279.798362,20524.891677,9356.082601,67363.083942,47561.651178,28674.091837,-0.086000,0.972000,0.092000,192.000000,0.000000,0.000000,0.000000,0.000000,0.000000,0.000000,0.000000,0.000000,0.000000,1648352749.485235,0.000000
16.000000,-36662.135918,-23903.380204,17283.687566,20530.412558,9360.552950,67366.079076,47563.640483,28665.687581,-0.086000,0.972000,0.092000,192.000000,0.000000,0.000000,0.000000,0.000000,0.000000,0.000000,0.000000,0.000000,0.000000,1648352749.492233,0.000000
17.000000,-36655.676264,-23895.378279,17287.710880,20534.815852,9366.453811,67368.113085,47569.518992,28661.798377,-0.084000,0.986000,0.098000,192.000000,253.000000,96.000000,30.000000,208.000000,3.000000,16.000000,0.000000,0.000000,0.000000,1648352749.492237,0.000000
18.000000,-36662.046511,-23901.100326,17282.234702,20527.640942,9360.485895,67366.369649,47570.502468,28667.095741,-0.084000,0.986000,0.098000,192.000000,0.000000,0.000000,0.000000,0.000000,0.000000,0.000000,0.000000,0.000000,0.000000,1648352749.499886,0.000000
19.000000,-36667.053302,-23905.905951,17278.323147,20524.131718,9357.311947,67364.268585,47567.216762,28679.299793,-0.084000,0.986000,0.098000,192.000000,0.000000,0.000000,0.000000,0.000000,0.000000,0.000000,0.000000,0.000000,0.000000,1648352749.499890,0.000000
20.000000,-36661.755939,-23898.440468,17281.787667,20530.658428,9364.084526,67368.627175,47561.271198,28671.789607,-0.084000,0.986000,0.098000,192.000000,0.000000,0.000000,0.000000,0.000000,0.000000,0.000000,0.000000,0.000000,0.000000,1648352749.507889,0.000000
21.000000,-36659.632523,-23893.523084,17282.055888,20536.067550,9365.984424,67368.247195,47562.947579,28674.896500,-0.084000,0.986000,0.098000,192.000000,0.000000,0.000000,0.000000,0.000000,0.000000,0.000000,0.000000,0.000000,0.000000,1648352749.507894,0.000000
22.000000,-36671.881279,-23908.811678,17272.355231,20523.215297,9354.048592,67362.681611,47560.622997,28685.491226,-0.084000,0.986000,0.098000,192.000000,0.000000,0.000000,0.000000,0.000000,0.000000,0.000000,0.000000,0.000000,0.000000,1648352749.514838,0.000000
23.000000,-36668.752035,-23905.235398,17277.742002,20525.830451,9356.395526,67355.841977,47549.044794,28691.749715,-0.084000,0.986000,0.098000,192.000000,0.000000,0.000000,0.000000,0.000000,0.000000,0.000000,0.000000,0.000000,0.000000,1648352749.521912,0.000000
24.000000,-36667.902668,-23903.357852,17283.531104,20526.456300,9357.088430,67353.115064,47544.350927,28688.821636,-0.084000,0.986000,0.098000,192.000000,0.000000,0.000000,0.000000,0.000000,0.000000,0.000000,0.000000,0.000000,0.000000,1648352749.521915,0.000000
25.000000,-36667.835613,-23903.559018,17285.073374,20526.344541,9355.613214,67349.628192,47541.847532,28701.450372,-0.084000,0.986000,0.098000,192.000000,0.000000,0.000000,0.000000,0.000000,0.000000,0.000000,0.000000,0.000000,0.000000,1648352749.529466,0.000000
26.000000,-36670.741340,-23908.252884,17280.826542,20522.634151,9351.165217,67344.822567,47538.785343,28713.363852,-0.084000,0.986000,0.098000,192.000000,0.000000,0.000000,0.000000,0.000000,0.000000,0.000000,0.000000,0.000000,0.000000,1648352749.529470,0.000000
27.000000,-36661.688884,-23899.759221,17291.175400,20534.391169,9360.552950,67349.002343,47542.182808,28710.614587,-0.084000,0.986000,0.098000,192.000000,0.000000,0.000000,0.000000,0.000000,0.000000,0.000000,0.000000,0.000000,0.000000,1648352749.537560,0.000000
28.000000,-36666.785081,-23901.815582,17287.196790,20532.290105,9356.730802,67352.980954,47546.988433,28723.936227,-0.082000,0.994000,0.106000,192.000000,253.000000,112.000000,31.000000,16.000000,3.000000,80.000000,0.000000,0.000000,0.000000,1648352749.537564,0.000000
29.000000,-36669.310828,-23901.614416,17286.302720,20529.898468,9355.412049,67351.528090,47545.244997,28737.347274,-0.082000,0.994000,0.106000,192.000000,0.000000,0.000000,0.000000,0.000000,0.000000,0.000000,0.000000,0.000000,0.000000,1648352749.544582,0.000000
30.000000,-36665.108700,-23897.635805,17291.913008,20535.195832,9359.770639,67358.188910,47547.144895,28746.600896,-0.082000,0.994000,0.106000,192.000000,0.000000,0.000000,0.000000,0.000000,0.000000,0.000000,0.000000,0.000000,0.000000,1648352749.544586,0.000000
31.000000,-36664.616962,-23896.674680,17291.331862,20536.335771,9360.262377,67360.088809,47545.982605,28763.141187,-0.082000,0.994000,0.106000,192.000000,0.000000,0.000000,0.000000,0.000000,0.000000,0.000000,0.000000,0.000000,0.000000,1648352749.552059,0.000000
32.000000,-36661.934753,-23894.439506,17296.003377,20538.347428,9365.157409,67359.977050,47542.272215,28764.392884,-0.082000,0.994000,0.106000,192.000000,0.000000,0.000000,0.000000,0.000000,0.000000,0.000000,0.000000,0.000000,0.000000,1648352749.552062,0.000000
33.000000,-36657.173831,-23890.773820,17300.563133,20541.119044,9368.688985,67361.049934,47537.131314,28764.348181,-0.082000,0.994000,0.106000,192.000000,0.000000,0.000000,0.000000,0.000000,0.000000,0.000000,0.000000,0.000000,0.000000,1648352749.560064,0.000000
34.000000,-36651.205915,-23888.628052,17307.246304,20547.265774,9374.276921,67362.502797,47541.579311,28761.375399,-0.082000,0.994000,0.106000,192.000000,0.000000,0.000000,0.000000,0.000000,0.000000,0.000000,0.000000,0.000000,0.000000,1648352749.560068,0.000000
35.000000,-36651.876468,-23893.165456,17300.049043,20536.291067,9366.073831,67359.798236,47545.937901,28779.413257,-0.082000,0.994000,0.106000,192.000000,0.000000,0.000000,0.000000,0.000000,0.000000,0.000000,0.000000,0.000000,0.000000,1648352749.568158,0.000000
36.000000,-36665.891011,-23898.373413,17289.387261,20526.009265,9354.786200,67349.695247,47540.953462,28809.968091,-0.082000,0.994000,0.106000,192.000000,0.000000,0.000000,0.000000,0.000000,0.000000,0.000000,0.000000,0.000000,0.000000,1648352749.568162,0.000000
37.000000,-36670.249602,-23896.339404,17293.343519,20535.396997,9359.301252,67345.046085,47532.973889,28819.713452,-0.082000,0.994000,0.106000,192.000000,0.000000,0.000000,0.000000,0.000000,0.000000,0.000000,0.000000,0.000000,0.000000,1648352749.575312,0.000000
38.000000,-36674.831709,-23901.659119,17288.582598,20534.592335,9354.920310,67349.114102,47537.600701,28851.721150,-0.088000,0.988000,0.114000,192.000000,253.000000,64.000000,30.000000,224.000000,3.000000,144.000000,0.000000,0.000000,0.000000,1648352749.575316,0.000000
39.000000,-36673.714122,-23901.212084,17283.374641,20530.457262,9349.801761,67345.090788,47534.829084,28883.035944,-0.088000,0.988000,0.114000,192.000000,0.000000,0.000000,0.000000,0.000000,0.000000,0.000000,0.000000,0.000000,0.000000,1648352749.581808,0.000000
40.000000,-36669.400235,-23897.904026,17282.324109,20531.619553,9348.192435,67336.932401,47529.308203,28891.037868,-0.088000,0.988000,0.114000,192.000000,0.000000,0.000000,0.000000,0.000000,0.000000,0.000000,0.000000,0.000000,0.000000,1648352749.589755,0.000000
41.000000,-36667.321523,-23900.899160,17287.755583,20536.469881,9353.601557,67340.151052,47528.257671,28899.442124,-0.088000,0.988000,0.114000,192.000000,0.000000,0.000000,0.000000,0.000000,0.000000,0.000000,0.000000,0.000000,0.000000,1648352749.589759,0.000000
42.000000,-36676.105759,-23914.913704,17286.258016,20528.847936,9348.751229,67342.095654,47532.884482,28900.380898,-0.088000,0.988000,0.114000,192.000000,0.000000,0.000000,0.000000,0.000000,0.000000,0.000000,0.000000,0.000000,0.000000,1648352749.597780,0.000000
43.000000,-36686.834596,-23930.202297,17274.121019,20513.693454,9335.340182,67332.059721,47528.660003,28917.234113,-0.088000,0.988000,0.114000,192.000000,0.000000,0.000000,0.000000,0.000000,0.000000,0.000000,0.000000,0.000000,0.000000,1648352749.597789,0.000000
44.000000,-36683.817111,-23927.363625,17275.730345,20514.207544,9336.457769,67328.729311,47528.928224,28920.050433,-0.088000,0.988000,0.114000,192.000000,0.000000,0.000000,0.000000,0.000000,0.000000,0.000000,0.000000,0.000000,0.000000,1648352749.604498,0.000000
45.000000,-36684.174738,-23928.190640,17273.271653,20512.553515,9333.820264,67329.399863,47530.492846,28926.912418,-0.088000,0.988000,0.114000,192.000000,0.000000,0.000000,0.000000,0.000000,0.000000,0.000000,0.000000,0.000000,0.000000,1648352749.604522,0.000000
46.000000,-36682.274840,-23925.061396,17274.948034,20516.107442,9335.854272,67328.058759,47528.749410,28932.030968,-0.088000,0.988000,0.114000,192.000000,0.000000,0.000000,0.000000,0.000000,0.000000,0.000000,0.000000,0.000000,0.000000,1648352749.612331,0.000000
47.000000,-36685.672305,-23925.329617,17272.176417,20515.034558,9333.619098,67331.478576,47531.699840,28943.966799,-0.088000,0.988000,0.114000,192.000000,0.000000,0.000000,0.000000,0.000000,0.000000,0.000000,0.000000,0.000000,0.000000,1648352749.612335,0.000000
48.000000,-36676.955125,-23917.439451,17279.150162,20521.762433,9339.922290,67331.076244,47525.530759,28936.188392,-0.088000,0.974000,0.112000,192.000000,253.000000,64.000000,30.000000,112.000000,3.000000,128.000000,0.000000,0.000000,0.000000,1648352749.620458,0.000000
49.000000,-36678.162119,-23919.182887,17276.646766,20520.890715,9337.709467,67330.584506,47526.178959,28929.684035,-0.088000,0.974000,0.112000,192.000000,0.000000,0.000000,0.000000,0.000000,0.000000,0.000000,0.000000,0.000000,0.000000,1648352749.620462,0.000000
50.000000,-36681.380770,-23919.920495,17273.696336,20517.739119,9334.557871,67324.616590,47529.799942,28932.880334,-0.088000,0.974000,0.112000,192.000000,0.000000,0.000000,0.000000,0.000000,0.000000,0.000000,0.000000,0.000000,0.000000,1648352749.627590,0.000000
51.000000,-36682.833634,-23921.574524,17269.941243,20510.921837,9330.199281,67319.118061,47524.189654,28940.345817,-0.088000,0.974000,0.112000,192.000000,0.000000,0.000000,0.000000,0.000000,0.000000,0.000000,0.000000,0.000000,0.000000,1648352749.627594,0.000000
52.000000,-36679.167948,-23919.071128,17274.478647,20514.073433,9335.206072,67317.039349,47515.025439,28935.651950,-0.088000,0.974000,0.112000,192.000000,0.000000,0.000000,0.000000,0.000000,0.000000,0.000000,0.000000,0.000000,0.000000,1648352749.635044,0.000000
53.000000,-36678.586802,-23918.042948,17278.814885,20518.074395,9341.039877,67321.822622,47519.115808,28924.409023,-0.088000,0.974000,0.112000,192.000000,0.000000,0.000000,0.000000,0.000000,0.000000,0.000000,0.000000,0.000000,0.000000,1648352749.635048,0.000000
54.000000,-36681.090198,-23919.942846,17278.412554,20521.047177,9342.604499,67321.532049,47521.306279,28922.106793,-0.088000,0.974000,0.112000,192.000000,0.000000,0.000000,0.000000,0.000000,0.000000,0.000000,0.000000,0.000000,0.000000,1648352749.642048,0.000000
55.000000,-36683.258317,-23918.758204,17277.406726,20523.729387,9342.470389,67323.655465,47519.965174,28926.688901,-0.088000,0.974000,0.112000,192.000000,0.000000,0.000000,0.000000,0.000000,0.000000,0.000000,0.000000,0.000000,0.000000,1648352749.650057,0.000000
56.000000,-36686.387561,-23921.060434,17277.294967,20520.421329,9339.497607,67320.414462,47520.948651,28920.832744,-0.088000,0.974000,0.112000,192.000000,0.000000,0.000000,0.000000,0.000000,0.000000,0.000000,0.000000,0.000000,0.000000,1648352749.650060,0.000000
57.000000,-36680.084369,-23917.506506,17281.430040,20525.472823,9341.822188,67321.241477,47517.707648,28915.200104,-0.088000,0.974000,0.112000,192.000000,0.000000,0.000000,0.000000,0.000000,0.000000,0.000000,0.000000,0.000000,0.000000,1648352749.657204,0.000000
58.000000,-36671.993038,-23912.097384,17284.246359,20528.914991,9345.107895,67321.621456,47516.768875,28910.796810,-0.094000,0.982000,0.122000,192.000000,253.000000,16.000000,30.000000,176.000000,3.000000,208.000000,0.000000,0.000000,0.000000,1648352749.657207,0.000000
59.000000,-36685.515843,-23916.500678,17283.396993,20527.372721,9343.342107,67316.815831,47508.252860,28904.895950,-0.094000,0.982000,0.122000,192.000000,0.000000,0.000000,0.000000,0.000000,0.000000,0.000000,0.000000,0.000000,0.000000,1648352749.664709,0.000000
60.000000,-36688.823901,-23918.288817,17280.379508,20522.924724,9340.972822,67319.743910,47517.797055,28903.286624,-0.094000,0.982000,0.122000,192.000000,0.000000,0.000000,0.000000,0.000000,0.000000,0.000000,0.000000,0.000000,0.000000,1648352749.664713,0.000000
61.000000,-36690.567337,-23920.523992,17279.485438,20521.650675,9339.519958,67317.933419,47513.773741,28897.966909,-0.094000,0.982000,0.122000,192.000000,0.000000,0.000000,0.000000,0.000000,0.000000,0.000000,0.000000,0.000000,0.000000,1648352749.672632,0.000000
62.000000,-36691.930794,-23917.059471,17279.016051,20523.170593,9339.162331,67315.430023,47510.085703,28901.833761,-0.094000,0.982000,0.122000,192.000000,0.000000,0.000000,0.000000,0.000000,0.000000,0.000000,0.000000,0.000000,0.000000,1648352749.672636,0.000000
63.000000,-36683.392427,-23907.291759,17284.112249,20532.893602,9346.001964,67309.685625,47509.728075,28897.877502,-0.094000,0.982000,0.122000,192.000000,0.000000,0.000000,0.000000,0.000000,0.000000,0.000000,0.000000,0.000000,0.000000,1648352749.680762,0.000000
64.000000,-36686.946355,-23911.985625,17276.289138,20527.372721,9340.615194,67300.677872,47507.202328,28894.837665,-0.094000,0.982000,0.122000,192.000000,0.000000,0.000000,0.000000,0.000000,0.000000,0.000000,0.000000,0.000000,0.000000,1648352749.680766,0.000000
65.000000,-36688.466273,-23917.193582,17271.505865,20522.455337,9335.407237,67295.492267,47504.810691,28890.277909,-0.094000,0.982000,0.122000,192.000000,0.000000,0.000000,0.000000,0.000000,0.000000,0.000000,0.000000,0.000000,0.000000,1648352749.687393,0.000000
66.000000,-36693.607175,-23924.256733,17266.253205,20517.336788,9329.685191,67296.498096,47505.235375,28901.274967,-0.094000,0.982000,0.122000,192.000000,0.000000,0.000000,0.000000,0.000000,0.000000,0.000000,0.000000,0.000000,0.000000,1648352749.687397,0.000000
67.000000,-36695.663535,-23926.089576,17265.113266,20514.811041,9326.466540,67300.052023,47502.620220,28906.885255,-0.094000,0.982000,0.122000,192.000000,0.000000,0.000000,0.000000,0.000000,0.000000,0.000000,0.000000,0.000000,0.000000,1648352749.695253,0.000000
68.000000,-36701.251471,-23933.063320,17256.373734,20505.691529,9317.011752,67298.062718,47494.931220,28918.374052,-0.094000,0.982000,0.118000,192.000000,253.000000,16.000000,30.000000,176.000000,3.000000,176.000000,0.000000,0.000000,0.000000,1648352749.695257,0.000000
69.000000,-36697.965765,-23930.403463,17257.826597,20509.692491,9320.923307,67296.475744,47494.238316,28918.150534,-0.094000,0.982000,0.118000,192.000000,0.000000,0.000000,0.000000,0.000000,0.000000,0.000000,0.000000,0.000000,0.000000,1648352749.702442,0.000000
70.000000,-36706.437076,-23935.499660,17247.991830,20505.177439,9313.882508,67299.895561,47498.239279,28942.513936,-0.094000,0.982000,0.118000,192.000000,0.000000,0.000000,0.000000,0.000000,0.000000,0.000000,0.000000,0.000000,0.000000,1648352749.709573,0.000000
71.000000,-36690.522634,-23924.346140,17263.258071,20520.488384,9330.422798,67301.907218,47491.913735,28929.996959,-0.094000,0.982000,0.118000,192.000000,0.000000,0.000000,0.000000,0.000000,0.000000,0.000000,0.000000,0.000000,0.000000,1648352749.709577,0.000000
72.000000,-36689.069770,-23925.039044,17267.639013,20519.639018,9331.138054,67310.736157,47491.980790,28916.988244,-0.094000,0.982000,0.118000,192.000000,0.000000,0.000000,0.000000,0.000000,0.000000,0.000000,0.000000,0.000000,0.000000,1648352749.717067,0.000000
73.000000,-36690.321468,-23923.049739,17269.002470,20516.398015,9333.328525,67311.674930,47490.662037,28913.031985,-0.094000,0.982000,0.118000,192.000000,0.000000,0.000000,0.000000,0.000000,0.000000,0.000000,0.000000,0.000000,0.000000,1648352749.717071,0.000000
74.000000,-36685.359381,-23918.847611,17274.545702,20519.639018,9340.883415,67312.792517,47491.064369,28899.486828,-0.094000,0.982000,0.118000,192.000000,0.000000,0.000000,0.000000,0.000000,0.000000,0.000000,0.000000,0.000000,0.000000,1648352749.724921,0.000000
75.000000,-36685.113512,-23920.144012,17274.121019,20522.768262,9342.202168,67315.050043,47493.880688,28888.847397,-0.094000,0.982000,0.118000,192.000000,0.000000,0.000000,0.000000,0.000000,0.000000,0.000000,0.000000,0.000000,0.000000,1648352749.724925,0.000000
76.000000,-36680.307887,-23914.690186,17275.462124,20525.897506,9344.392639,67309.171535,47490.103244,28885.874615,-0.094000,0.982000,0.118000,192.000000,0.000000,0.000000,0.000000,0.000000,0.000000,0.000000,0.000000,0.000000,0.000000,1648352749.733072,0.000000
77.000000,-36680.397294,-23913.326730,17275.529179,20525.428119,9342.448037,67307.092822,47485.521136,28860.483034,-0.094000,0.982000,0.118000,192.000000,0.000000,0.000000,0.000000,0.000000,0.000000,0.000000,0.000000,0.000000,0.000000,1648352749.733076,0.000000
78.000000,-36681.067846,-23917.528858,17269.158932,20518.744948,9334.893147,67304.701186,47483.710645,28850.692970,-0.090000,0.980000,0.118000,192.000000,253.000000,48.000000,30.000000,160.000000,3.000000,176.000000,0.000000,0.000000,0.000000,1648352749.739679,0.000000
79.000000,-36674.988171,-23912.387957,17272.064659,20520.443680,9337.374191,67307.226933,47483.084796,28833.884458,-0.090000,0.980000,0.118000,192.000000,0.000000,0.000000,0.000000,0.000000,0.000000,0.000000,0.000000,0.000000,0.000000,1648352749.739682,0.000000
80.000000,-36692.467236,-23922.803870,17264.330955,20510.251285,9329.014639,67303.829468,47479.441461,28841.707568,-0.090000,0.980000,0.118000,192.000000,0.000000,0.000000,0.000000,0.000000,0.000000,0.000000,0.000000,0.000000,0.000000,1648352749.747588,0.000000
81.000000,-36690.366172,-23922.647407,17269.896539,20515.392186,9334.669630,67295.581674,47464.801069,28825.390795,-0.090000,0.980000,0.118000,192.000000,0.000000,0.000000,0.000000,0.000000,0.000000,0.000000,0.000000,0.000000,0.000000,1648352749.747592,0.000000
82.000000,-36680.821977,-23910.823335,17277.607891,20528.087977,9342.716258,67296.520447,47466.544505,28813.432612,-0.090000,0.980000,0.118000,192.000000,0.000000,0.000000,0.000000,0.000000,0.000000,0.000000,0.000000,0.000000,0.000000,1648352749.755648,0.000000
83.000000,-36681.693695,-23907.180000,17277.943167,20530.300800,9345.532578,67300.677872,47465.583380,28805.341280,-0.090000,0.980000,0.118000,192.000000,0.000000,0.000000,0.000000,0.000000,0.000000,0.000000,0.000000,0.000000,0.000000,1648352749.755652,0.000000
84.000000,-36681.090198,-23905.905951,17278.524313,20532.245401,9347.052496,67304.969407,47463.236447,28807.464696,-0.090000,0.980000,0.118000,192.000000,0.000000,0.000000,0.000000,0.000000,0.000000,0.000000,0.000000,0.000000,0.000000,1648352749.762736,0.000000
85.000000,-36678.340933,-23907.001186,17278.658423,20529.183212,9347.745400,67302.220142,47459.481354,28808.716394,-0.090000,0.980000,0.118000,192.000000,0.000000,0.000000,0.000000,0.000000,0.000000,0.000000,0.000000,0.000000,0.000000,1648352749.769312,0.000000
86.000000,-36676.105759,-23907.671739,17280.245397,20528.535012,9348.058325,67303.158915,47465.069290,28804.380155,-0.090000,0.980000,0.118000,192.000000,0.000000,0.000000,0.000000,0.000000,0.000000,0.000000,0.000000,0.000000,0.000000,1648352749.769320,0.000000
87.000000,-36680.531404,-23914.645483,17273.584577,20519.773128,9338.983517,67299.560285,47468.824383,28810.728051,-0.090000,0.980000,0.118000,192.000000,0.000000,0.000000,0.000000,0.000000,0.000000,0.000000,0.000000,0.000000,0.000000,1648352749.777609,0.000000
88.000000,-36685.202919,-23920.546343,17267.683717,20512.575866,9331.473330,67292.988872,47463.437612,28801.787353,-0.092000,0.978000,0.114000,192.000000,253.000000,32.000000,30.000000,144.000000,3.000000,144.000000,0.000000,0.000000,0.000000,1648352749.777625,0.000000
89.000000,-36687.818073,-23923.362663,17266.968461,20508.373738,9328.120569,67291.088973,47460.375423,28804.313100,-0.092000,0.978000,0.114000,192.000000,0.000000,0.000000,0.000000,0.000000,0.000000,0.000000,0.000000,0.000000,0.000000,1648352749.785740,0.000000
90.000000,-36686.521672,-23921.641579,17270.008298,20509.424270,9330.601612,67296.989834,47457.983787,28802.927292,-0.092000,0.978000,0.114000,192.000000,0.000000,0.000000,0.000000,0.000000,0.000000,0.000000,0.000000,0.000000,0.000000,1648352749.785756,0.000000
91.000000,-36685.962878,-23921.708634,17267.415496,20508.977235,9330.467502,67293.190037,47451.300615,28798.926329,-0.092000,0.978000,0.114000,192.000000,0.000000,0.000000,0.000000,0.000000,0.000000,0.000000,0.000000,0.000000,0.000000,1648352749.792910,0.000000
92.000000,-36681.313715,-23919.920495,17269.516560,20516.196849,9334.379057,67291.983043,47458.497877,28787.593995,-0.092000,0.978000,0.114000,192.000000,0.000000,0.000000,0.000000,0.000000,0.000000,0.000000,0.000000,0.000000,0.000000,1648352749.792926,0.000000
93.000000,-36686.387561,-23921.641579,17260.464103,20506.920875,9325.058380,67291.781877,47463.616426,28791.818475,-0.092000,0.978000,0.114000,192.000000,0.000000,0.000000,0.000000,0.000000,0.000000,0.000000,0.000000,0.000000,0.000000,1648352749.800296,0.000000
94.000000,-36688.622736,-23922.580352,17258.005411,20499.634206,9320.565679,67288.339709,47454.385156,28797.093486,-0.092000,0.978000,0.114000,192.000000,0.000000,0.000000,0.000000,0.000000,0.000000,0.000000,0.000000,0.000000,0.000000,1648352749.800312,0.000000
95.000000,-36693.160140,-23926.201335,17257.021935,20497.622549,9319.850423,67285.344575,47450.317138,28798.166370,-0.092000,0.978000,0.114000,192.000000,0.000000,0.000000,0.000000,0.000000,0.000000,0.000000,0.000000,0.000000,0.000000,1648352749.808307,0.000000
96.000000,-36684.308849,-23918.691149,17267.594310,20510.251285,9331.763903,67292.653596,47455.905075,28782.430742,-0.092000,0.978000,0.114000,192.000000,0.000000,0.000000,0.000000,0.000000,0.000000,0.000000,0.000000,0.000000,0.000000,1648352749.808323,0.000000
97.000000,-36689.226233,-23923.519125,17259.368868,20504.886866,9325.863043,67296.632206,47460.509534,28786.968146,-0.092000,0.978000,0.114000,192.000000,0.000000,0.000000,0.000000,0.000000,0.000000,0.000000,0.000000,0.000000,0.000000,1648352749.816358,0.000000
98.000000,-36686.566375,-23924.770823,17258.743019,20503.165782,9325.661877,67290.351366,47451.211208,28779.055629,-0.084000,0.976000,0.126000,192.000000,253.000000,96.000000,30.000000,128.000000,3.000000,240.000000,0.000000,0.000000,0.000000,1648352749.816375,0.000000
99.000000,-36688.510977,-23929.330579,17257.245452,20497.220218,9321.705618,67289.904331,47447.634929,28756.525070,-0.084000,0.976000,0.126000,192.000000,0.000000,0.000000,0.000000,0.000000,0.000000,0.000000,0.000000,0.000000,0.000000,1648352749.822429,0.000000
100.000000,-36703.933681,-23936.729006,17252.953917,20492.504000,9315.625944,67284.428154,47439.923577,28745.259791,-0.084000,0.976000,0.126000,192.000000,0.000000,0.000000,0.000000,0.000000,0.000000,0.000000,0.000000,0.000000,0.000000,1648352749.822446,0.000000
101.000000,-36704.783047,-23936.952524,17252.663344,20491.766392,9315.782406,67279.846046,47436.749630,28745.259791,-0.084000,0.976000,0.126000,192.000000,0.000000,0.000000,0.000000,0.000000,0.000000,0.000000,0.000000,0.000000,0.000000,1648352749.830004,0.000000
102.000000,-36698.569262,-23928.302399,17257.804246,20494.068622,9320.766845,67283.243511,47442.270510,28736.162631,-0.084000,0.976000,0.126000,192.000000,0.000000,0.000000,0.000000,0.000000,0.000000,0.000000,0.000000,0.000000,0.000000,1648352749.837998,0.000000
103.000000,-36685.828768,-23915.271332,17269.471856,20504.886866,9333.037953,67292.541837,47444.617444,28722.036329,-0.084000,0.976000,0.126000,192.000000,0.000000,0.000000,0.000000,0.000000,0.000000,0.000000,0.000000,0.000000,0.000000,1648352749.838014,0.000000
104.000000,-36702.681983,-23934.493832,17253.825635,20490.045308,9317.749359,67282.282386,47437.844865,28719.152954,-0.084000,0.976000,0.126000,192.000000,0.000000,0.000000,0.000000,0.000000,0.000000,0.000000,0.000000,0.000000,0.000000,1648352749.845045,0.000000
105.000000,-36705.945338,-23938.070111,17247.120112,20493.710994,9314.150728,67279.063735,47441.801124,28715.599026,-0.084000,0.976000,0.126000,192.000000,0.000000,0.000000,0.000000,0.000000,0.000000,0.000000,0.000000,0.000000,0.000000,1648352749.845061,0.000000
106.000000,-36698.435151,-23932.370416,17254.719705,20505.669177,9321.549156,67281.835351,47442.203455,28714.168515,-0.084000,0.976000,0.126000,192.000000,0.000000,0.000000,0.000000,0.000000,0.000000,0.000000,0.000000,0.000000,0.000000,1648352749.852571,0.000000
107.000000,-36689.717971,-23921.395710,17266.052039,20506.183267,9329.864005,67282.058869,47438.135438,28701.472724,-0.084000,0.976000,0.126000,192.000000,0.000000,0.000000,0.000000,0.000000,0.000000,0.000000,0.000000,0.000000,0.000000,1648352749.852606,0.000000
108.000000,-36691.416704,-23921.149840,17265.850874,20502.651692,9328.679362,67282.371793,47438.537769,28701.226854,-0.088000,0.980000,0.126000,192.000000,253.000000,64.000000,30.000000,160.000000,3.000000,240.000000,0.000000,0.000000,0.000000,1648352749.860568,0.000000
109.000000,-36696.110570,-23927.900067,17262.721629,20502.651692,9324.700752,67278.929624,47433.732144,28708.513523,-0.088000,0.980000,0.126000,192.000000,0.000000,0.000000,0.000000,0.000000,0.000000,0.000000,0.000000,0.000000,0.000000,1648352749.860584,0.000000
110.000000,-36698.681021,-23930.381111,17260.709972,20502.897561,9323.672572,67277.633223,47430.491141,28710.301663,-0.088000,0.980000,0.126000,192.000000,0.000000,0.000000,0.000000,0.000000,0.000000,0.000000,0.000000,0.000000,0.000000,1648352749.868618,0.000000
111.000000,-36710.616852,-23936.125509,17254.049153,20496.080279,9317.592897,67277.029726,47438.135438,28727.780727,-0.088000,0.980000,0.126000,192.000000,0.000000,0.000000,0.000000,0.000000,0.000000,0.000000,0.000000,0.000000,0.000000,1648352749.868635,0.000000
112.000000,-36698.859835,-23923.943809,17268.890711,20512.665273,9333.552043,67286.663328,47443.477505,28731.334654,-0.088000,0.980000,0.126000,192.000000,0.000000,0.000000,0.000000,0.000000,0.000000,0.000000,0.000000,0.000000,0.000000,1648352749.875145,0.000000
113.000000,-36689.248584,-23920.658102,17273.025784,20516.196849,9338.871758,67292.899465,47442.963415,28732.899276,-0.088000,0.980000,0.126000,192.000000,0.000000,0.000000,0.000000,0.000000,0.000000,0.000000,0.000000,0.000000,0.000000,1648352749.875161,0.000000
114.000000,-36701.430285,-23924.659064,17270.812961,20512.441756,9335.273127,67291.513657,47436.123781,28731.960503,-0.088000,0.980000,0.126000,192.000000,0.000000,0.000000,0.000000,0.000000,0.000000,0.000000,0.000000,0.000000,0.000000,1648352749.883246,0.000000
115.000000,-36710.370983,-23928.190640,17269.047173,20512.329997,9332.546214,67285.143409,47432.011060,28744.589239,-0.088000,0.980000,0.126000,192.000000,0.000000,0.000000,0.000000,0.000000,0.000000,0.000000,0.000000,0.000000,0.000000,1648352749.883262,0.000000
116.000000,-36708.716954,-23927.251867,17265.761467,20517.470898,9332.725028,67286.864494,47441.219978,28755.139262,-0.088000,0.980000,0.126000,192.000000,0.000000,0.000000,0.000000,0.000000,0.000000,0.000000,0.000000,0.000000,0.000000,1648352749.890278,0.000000
117.000000,-36716.294195,-23936.214916,17256.127865,20510.810078,9323.046723,67280.315433,47440.795295,28765.063437,-0.088000,0.980000,0.126000,192.000000,0.000000,0.000000,0.000000,0.000000,0.000000,0.000000,0.000000,0.000000,0.000000,1648352749.898206,0.000000
118.000000,-36708.716954,-23930.179945,17264.912100,20516.509773,9328.366438,67289.703165,47451.546484,28771.880719,-0.098000,0.980000,0.144000,192.000000,252.000000,240.000000,30.000000,160.000000,4.000000,128.000000,0.000000,0.000000,0.000000,1648352749.898222,0.000000
119.000000,-36704.693640,-23924.100271,17269.807132,20520.555439,9330.422798,67287.222122,47446.740859,28770.852538,-0.098000,0.980000,0.144000,192.000000,0.000000,0.000000,0.000000,0.000000,0.000000,0.000000,0.000000,0.000000,0.000000,1648352749.904870,0.000000
120.000000,-36702.279651,-23918.668797,17270.768257,20520.533087,9331.719200,67295.067584,47452.507609,28771.344277,-0.098000,0.980000,0.144000,192.000000,0.000000,0.000000,0.000000,0.000000,0.000000,0.000000,0.000000,0.000000,0.000000,1648352749.904888,0.000000
121.000000,-36708.471085,-23924.793175,17263.794513,20511.927666,9324.946621,67295.022880,47449.981862,28799.172199,-0.098000,0.980000,0.144000,192.000000,0.000000,0.000000,0.000000,0.000000,0.000000,0.000000,0.000000,0.000000,0.000000,1648352749.912788,0.000000
122.000000,-36685.225270,-23909.482230,17285.654519,20538.570945,9348.505360,67301.638997,47449.914807,28788.733934,-0.098000,0.980000,0.144000,192.000000,0.000000,0.000000,0.000000,0.000000,0.000000,0.000000,0.000000,0.000000,0.000000,1648352749.912805,0.000000
123.000000,-36680.240831,-23904.408384,17287.465011,20546.215242,9352.394563,67311.004378,47460.129554,28796.042954,-0.098000,0.980000,0.144000,192.000000,0.000000,0.000000,0.000000,0.000000,0.000000,0.000000,0.000000,0.000000,0.000000,1648352749.920728,0.000000
124.000000,-36705.274785,-23926.313093,17262.453409,20520.823660,9328.902880,67300.432003,47445.466810,28819.936969,-0.098000,0.980000,0.144000,192.000000,0.000000,0.000000,0.000000,0.000000,0.000000,0.000000,0.000000,0.000000,0.000000,1648352749.920744,0.000000
125.000000,-36695.998811,-23918.869963,17272.288176,20531.328980,9340.168159,67302.622474,47446.606749,28830.174068,-0.098000,0.980000,0.144000,192.000000,0.000000,0.000000,0.000000,0.000000,0.000000,0.000000,0.000000,0.000000,0.000000,1648352749.927912,0.000000
126.000000,-36698.815131,-23919.026425,17270.611795,20528.266791,9336.323659,67302.398956,47454.809839,28843.003970,-0.098000,0.980000,0.144000,192.000000,0.000000,0.000000,0.000000,0.000000,0.000000,0.000000,0.000000,0.000000,0.000000,1648352749.927929,0.000000
127.000000,-36709.611024,-23928.682378,17258.541853,20517.001512,9322.264412,67290.887808,47448.439592,28862.204118,-0.098000,0.980000,0.144000,192.000000,0.000000,0.000000,0.000000,0.000000,0.000000,0.000000,0.000000,0.000000,0.000000,1648352749.935431,0.000000
128.000000,-36709.834541,-23928.972951,17257.379563,20518.834355,9320.453920,67286.260997,47442.985766,28881.225453,-0.102000,0.970000,0.158000,192.000000,252.000000,208.000000,30.000000,80.000000,4.000000,240.000000,0.000000,0.000000,0.000000,1648352749.935447,0.000000
129.000000,-36704.224253,-23924.681416,17261.112304,20519.750776,9321.303287,67287.378584,47453.446383,28894.301223,-0.102000,0.970000,0.158000,192.000000,0.000000,0.000000,0.000000,0.000000,0.000000,0.000000,0.000000,0.000000,0.000000,1648352749.943191,0.000000
130.000000,-36699.664497,-23923.787346,17264.800342,20524.109366,9323.091426,67292.072450,47457.872028,28907.667566,-0.102000,0.970000,0.158000,192.000000,0.000000,0.000000,0.000000,0.000000,0.000000,0.000000,0.000000,0.000000,0.000000,1648352749.943199,0.000000
131.000000,-36700.245643,-23930.157594,17259.011240,20523.483518,9317.525842,67298.666215,47458.207304,28922.822049,-0.102000,0.970000,0.158000,192.000000,0.000000,0.000000,0.000000,0.000000,0.000000,0.000000,0.000000,0.000000,0.000000,1648352749.950294,0.000000
132.000000,-36703.643108,-23937.399559,17251.501054,20518.409672,9306.573487,67296.453392,47463.057633,28951.611096,-0.102000,0.970000,0.158000,192.000000,0.000000,0.000000,0.000000,0.000000,0.000000,0.000000,0.000000,0.000000,0.000000,1648352749.957533,0.000000
133.000000,-36707.197035,-23944.641524,17247.254222,20517.001512,9298.862135,67288.742040,47456.687386,28978.187320,-0.102000,0.970000,0.158000,192.000000,0.000000,0.000000,0.000000,0.000000,0.000000,0.000000,0.000000,0.000000,0.000000,1648352749.957549,0.000000
134.000000,-36704.403067,-23953.939850,17248.237699,20522.768262,9298.012769,67283.534084,47453.200514,29001.209617,-0.102000,0.970000,0.158000,192.000000,0.000000,0.000000,0.000000,0.000000,0.000000,0.000000,0.000000,0.000000,0.000000,1648352749.964871,0.000000
135.000000,-36685.024105,-23954.699809,17259.592385,20537.229840,9309.076882,67285.769258,47458.252008,29009.904445,-0.102000,0.970000,0.158000,192.000000,0.000000,0.000000,0.000000,0.000000,0.000000,0.000000,0.000000,0.000000,0.000000,1648352749.964885,0.000000
136.000000,-36689.516805,-23957.605536,17262.453409,20538.414483,9310.015656,67294.955825,47463.281150,29006.663442,-0.102000,0.970000,0.158000,192.000000,0.000000,0.000000,0.000000,0.000000,0.000000,0.000000,0.000000,0.000000,0.000000,1648352749.973140,0.000000
137.000000,-36703.844274,-23969.362553,17252.663344,20525.316361,9298.839784,67290.038441,47456.575627,29014.710070,-0.102000,0.970000,0.158000,192.000000,0.000000,0.000000,0.000000,0.000000,0.000000,0.000000,0.000000,0.000000,0.000000,1648352749.973156,0.000000
138.000000,-36708.314622,-23976.917443,17246.918946,20514.274599,9292.357778,67282.416497,47443.209284,29018.487515,-0.102000,0.970000,0.158000,192.000000,0.000000,0.000000,0.000000,0.000000,0.000000,0.000000,0.000000,0.000000,0.000000,1648352749.981157,0.000000
139.000000,-36703.508997,-23973.721143,17253.982097,20521.874192,9300.136185,67289.144372,47434.715621,29020.275655,-0.088000,0.954000,0.170000,192.000000,253.000000,64.000000,29.000000,208.000000,5.000000,80.000000,0.000000,0.000000,0.000000,1648352749.981173,0.000000
140.000000,-36684.957049,-23962.791140,17272.690507,20541.834300,9318.688133,67292.295968,47427.406600,28985.473989,-0.088000,0.954000,0.170000,192.000000,0.000000,0.000000,0.000000,0.000000,0.000000,0.000000,0.000000,0.000000,0.000000,1648352749.987771,0.000000
141.000000,-36699.820960,-23976.023373,17252.350420,20523.461166,9298.191583,67286.797438,47421.304574,28985.943375,-0.088000,0.954000,0.170000,192.000000,0.000000,0.000000,0.000000,0.000000,0.000000,0.000000,0.000000,0.000000,0.000000,1648352749.987788,0.000000
142.000000,-36707.733477,-23985.522865,17239.744036,20509.468974,9284.869943,67268.089028,47398.058760,28986.099838,-0.088000,0.954000,0.170000,192.000000,0.000000,0.000000,0.000000,0.000000,0.000000,0.000000,0.000000,0.000000,0.000000,1648352749.995719,0.000000
143.000000,-36709.409858,-23988.383888,17235.005466,20505.825639,9280.801926,67265.384467,47383.373664,28992.760657,-0.088000,0.954000,0.170000,192.000000,0.000000,0.000000,0.000000,0.000000,0.000000,0.000000,0.000000,0.000000,0.000000,1648352749.995735,0.000000
144.000000,-36706.794704,-23987.892149,17238.671152,20510.720672,9286.456917,67266.591461,47375.103518,28993.453561,-0.088000,0.954000,0.170000,192.000000,0.000000,0.000000,0.000000,0.000000,0.000000,0.000000,0.000000,0.000000,0.000000,1648352750.003525,0.000000
145.000000,-36708.493436,-23991.691946,17241.867452,20514.676930,9291.754281,67275.308642,47374.522373,28982.925890,-0.088000,0.954000,0.170000,192.000000,0.000000,0.000000,0.000000,0.000000,0.000000,0.000000,0.000000,0.000000,0.000000,1648352750.003537,0.000000
146.000000,-36707.934643,-23990.887283,17245.242565,20516.599180,9293.944751,67282.572959,47377.115175,28982.791779,-0.088000,0.954000,0.170000,192.000000,0.000000,0.000000,0.000000,0.000000,0.000000,0.000000,0.000000,0.000000,0.000000,1648352750.009632,0.000000
147.000000,-36704.715992,-23989.814399,17248.192996,20518.856706,9296.336388,67282.841180,47370.811983,28976.198015,-0.088000,0.954000,0.170000,192.000000,0.000000,0.000000,0.000000,0.000000,0.000000,0.000000,0.000000,0.000000,0.000000,1648352750.017459,0.000000
148.000000,-36698.077523,-23982.952414,17253.870339,20531.954829,9305.925287,67292.653596,47372.711882,28983.417628,-0.088000,0.954000,0.170000,192.000000,0.000000,0.000000,0.000000,0.000000,0.000000,0.000000,0.000000,0.000000,0.000000,1648352750.017475,0.000000
149.000000,-36713.030841,-23997.302234,17241.152196,20521.047177,9293.989455,67281.477723,47352.841181,28982.970593,-0.088000,0.958000,0.188000,192.000000,253.000000,64.000000,29.000000,240.000000,5.000000,224.000000,0.000000,0.000000,0.000000,1648352750.025493,0.000000
150.000000,-36712.427343,-24000.297368,17242.426246,20515.369834,9294.928228,67275.487456,47341.911178,28968.196090,-0.088000,0.958000,0.188000,192.000000,0.000000,0.000000,0.000000,0.000000,0.000000,0.000000,0.000000,0.000000,0.000000,1648352750.025527,0.000000
151.000000,-36707.353497,-23997.458696,17245.041400,20514.185192,9298.191583,67282.125924,47339.072506,28960.015352,-0.088000,0.958000,0.188000,192.000000,0.000000,0.000000,0.000000,0.000000,0.000000,0.000000,0.000000,0.000000,0.000000,1648352750.033504,0.000000
152.000000,-36709.365154,-23995.357632,17244.057923,20514.945151,9297.409272,67284.204636,47328.880111,28956.751997,-0.088000,0.958000,0.188000,192.000000,0.000000,0.000000,0.000000,0.000000,0.000000,0.000000,0.000000,0.000000,0.000000,1648352750.033521,0.000000
153.000000,-36707.129980,-23993.390679,17247.187167,20515.347483,9298.616266,67282.930587,47323.493340,28945.687884,-0.088000,0.958000,0.188000,192.000000,0.000000,0.000000,0.000000,0.000000,0.000000,0.000000,0.000000,0.000000,0.000000,1648352750.039861,0.000000
154.000000,-36700.692678,-23990.350841,17251.702219,20519.102576,9302.818394,67279.399011,47319.268861,28931.606285,-0.088000,0.958000,0.188000,192.000000,0.000000,0.000000,0.000000,0.000000,0.000000,0.000000,0.000000,0.000000,0.000000,1648352750.039878,0.000000
155.000000,-36693.271898,-23985.522865,17259.190054,20526.255134,9310.261525,67279.220197,47311.892785,28913.858999,-0.088000,0.958000,0.188000,192.000000,0.000000,0.000000,0.000000,0.000000,0.000000,0.000000,0.000000,0.000000,0.000000,1648352750.048082,0.000000
156.000000,-36694.233023,-23985.411106,17257.133693,20522.835317,9307.892240,67283.288215,47312.451579,28905.410040,-0.088000,0.958000,0.188000,192.000000,0.000000,0.000000,0.000000,0.000000,0.000000,0.000000,0.000000,0.000000,0.000000,1648352750.048098,0.000000
157.000000,-36689.740323,-23984.472333,17249.847025,20521.293047,9303.868926,67275.867435,47292.603230,28909.545113,-0.088000,0.958000,0.188000,192.000000,0.000000,0.000000,0.000000,0.000000,0.000000,0.000000,0.000000,0.000000,0.000000,1648352750.056091,0.000000
158.000000,-36700.536215,-23987.646280,17245.533138,20516.018035,9299.398577,67269.832464,47286.702369,28901.386726,-0.088000,0.958000,0.188000,192.000000,0.000000,0.000000,0.000000,0.000000,0.000000,0.000000,0.000000,0.000000,0.000000,1648352750.056108,0.000000
159.000000,-36692.981326,-23976.001021,17258.765371,20526.836279,9311.267353,67277.812037,47280.443881,28872.508272,-0.096000,0.952000,0.198000,192.000000,253.000000,0.000000,29.000000,192.000000,6.000000,48.000000,0.000000,0.000000,0.000000,1648352750.063291,0.000000
160.000000,-36698.681021,-23978.727934,17250.718743,20513.939323,9302.684284,67280.047212,47264.104755,28873.067066,-0.096000,0.952000,0.198000,192.000000,0.000000,0.000000,0.000000,0.000000,0.000000,0.000000,0.000000,0.000000,0.000000,1648352750.063307,0.000000
161.000000,-36693.137788,-23975.352821,17255.434961,20518.856706,9307.802833,67277.588520,47253.845305,28854.716284,-0.096000,0.952000,0.198000,192.000000,0.000000,0.000000,0.000000,0.000000,0.000000,0.000000,0.000000,0.000000,0.000000,1648352750.069453,0.000000
162.000000,-36683.660648,-23965.674515,17264.666231,20534.279410,9319.649258,67281.812999,47251.431316,28833.437423,-0.096000,0.952000,0.198000,192.000000,0.000000,0.000000,0.000000,0.000000,0.000000,0.000000,0.000000,0.000000,0.000000,1648352750.069469,0.000000
163.000000,-36678.050360,-23957.918460,17270.701202,20541.499024,9327.114740,67286.149238,47245.418697,28813.879647,-0.096000,0.952000,0.198000,192.000000,0.000000,0.000000,0.000000,0.000000,0.000000,0.000000,0.000000,0.000000,0.000000,1648352750.077608,0.000000
164.000000,-36682.073674,-23962.031181,17268.197807,20537.721579,9323.873737,67282.125924,47245.552808,28806.749440,-0.096000,0.952000,0.198000,192.000000,0.000000,0.000000,0.000000,0.000000,0.000000,0.000000,0.000000,0.000000,0.000000,1648352750.085703,0.000000
165.000000,-36692.199015,-23972.603556,17257.401914,20526.299837,9313.100196,67269.072505,47237.081496,28819.221713,-0.096000,0.952000,0.198000,192.000000,0.000000,0.000000,0.000000,0.000000,0.000000,0.000000,0.000000,0.000000,0.000000,1648352750.085719,0.000000
166.000000,-36684.510015,-23965.450998,17261.000545,20528.222087,9317.972877,67266.323241,47227.403191,28810.102202,-0.096000,0.952000,0.198000,192.000000,0.000000,0.000000,0.000000,0.000000,0.000000,0.000000,0.000000,0.000000,0.000000,1648352750.092679,0.000000
167.000000,-36694.344782,-23972.514149,17251.769275,20516.487422,9310.194470,67264.199825,47221.189406,28810.683347,-0.096000,0.952000,0.198000,192.000000,0.000000,0.000000,0.000000,0.000000,0.000000,0.000000,0.000000,0.000000,0.000000,1648352750.092696,0.000000
168.000000,-36689.695619,-23969.340202,17258.228929,20517.806174,9314.865984,67264.065714,47213.455702,28791.483199,-0.096000,0.952000,0.198000,192.000000,0.000000,0.000000,0.000000,0.000000,0.000000,0.000000,0.000000,0.000000,0.000000,1648352750.100361,0.000000
169.000000,-36681.917212,-23961.338277,17265.627356,20524.511698,9321.370342,67269.296023,47211.712266,28782.430742,-0.096000,0.952000,0.206000,192.000000,253.000000,0.000000,29.000000,192.000000,6.000000,112.000000,0.000000,0.000000,0.000000,1648352750.100379,0.000000
170.000000,-36686.186395,-23962.612326,17264.465066,20523.327055,9319.135167,67266.770275,47209.141816,28780.709658,-0.096000,0.952000,0.206000,192.000000,0.000000,0.000000,0.000000,0.000000,0.000000,0.000000,0.000000,0.000000,0.000000,1648352750.108348,0.000000
171.000000,-36687.907480,-23961.450036,17264.174493,20522.902372,9318.263449,67259.371848,47201.609278,28783.995364,-0.096000,0.952000,0.206000,192.000000,0.000000,0.000000,0.000000,0.000000,0.000000,0.000000,0.000000,0.000000,0.000000,1648352750.108383,0.000000
172.000000,-36690.030895,-23963.282879,17260.665269,20522.298875,9317.279973,67260.936470,47193.763816,28795.707678,-0.096000,0.952000,0.206000,192.000000,0.000000,0.000000,0.000000,0.000000,0.000000,0.000000,0.000000,0.000000,0.000000,1648352750.116250,0.000000
173.000000,-36684.957049,-23957.583184,17266.566130,20529.026750,9323.829034,67261.741133,47184.957228,28797.741687,-0.096000,0.952000,0.206000,192.000000,0.000000,0.000000,0.000000,0.000000,0.000000,0.000000,0.000000,0.000000,0.000000,1648352750.116266,0.000000
174.000000,-36696.803474,-23966.590937,17256.843121,20517.180326,9314.329542,67260.981174,47183.437310,28812.538542,-0.096000,0.952000,0.206000,192.000000,0.000000,0.000000,0.000000,0.000000,0.000000,0.000000,0.000000,0.000000,0.000000,1648352750.122972,0.000000
175.000000,-36699.843311,-23974.637565,17255.345554,20512.531163,9312.831976,67252.576918,47174.675426,28829.279998,-0.096000,0.952000,0.206000,192.000000,0.000000,0.000000,0.000000,0.000000,0.000000,0.000000,0.000000,0.000000,0.000000,1648352750.122988,0.000000
176.000000,-36696.915233,-23974.078771,17257.468970,20512.240590,9314.620115,67254.409761,47176.217696,28840.299408,-0.096000,0.952000,0.206000,192.000000,0.000000,0.000000,0.000000,0.000000,0.000000,0.000000,0.000000,0.000000,0.000000,1648352750.130997,0.000000
177.000000,-36688.265108,-23964.042838,17264.308603,20519.974294,9322.934964,67259.327145,47171.546182,28847.519022,-0.096000,0.952000,0.206000,192.000000,0.000000,0.000000,0.000000,0.000000,0.000000,0.000000,0.000000,0.000000,0.000000,1648352750.131013,0.000000
178.000000,-36684.957049,-23959.728951,17266.744943,20523.505869,9325.125435,67257.114322,47153.418917,28835.538487,-0.096000,0.952000,0.206000,192.000000,0.000000,0.000000,0.000000,0.000000,0.000000,0.000000,0.000000,0.000000,0.000000,1648352750.137969,0.000000
179.000000,-36686.566375,-23959.438379,17264.465066,20519.929590,9321.660915,67260.936470,47155.721147,28846.759063,-0.098000,0.958000,0.208000,192.000000,252.000000,240.000000,29.000000,240.000000,6.000000,128.000000,0.000000,0.000000,0.000000,1648352750.146076,0.000000
180.000000,-36688.466273,-23963.394638,17260.665269,20517.582657,9317.279973,67257.896633,47153.597731,28859.477205,-0.098000,0.958000,0.208000,192.000000,0.000000,0.000000,0.000000,0.000000,0.000000,0.000000,0.000000,0.000000,0.000000,1648352750.146093,0.000000
181.000000,-36685.605250,-23959.058399,17263.928624,20518.812003,9319.313981,67260.243566,47154.648263,28870.429560,-0.098000,0.958000,0.208000,192.000000,0.000000,0.000000,0.000000,0.000000,0.000000,0.000000,0.000000,0.000000,0.000000,1648352750.152683,0.000000
182.000000,-36690.455579,-23963.215824,17259.681792,20514.229895,9314.038970,67260.645897,47146.623987,28877.850339,-0.098000,0.958000,0.208000,192.000000,0.000000,0.000000,0.000000,0.000000,0.000000,0.000000,0.000000,0.000000,0.000000,1648352750.152700,0.000000
183.000000,-36683.079503,-23963.908728,17260.777028,20514.632227,9316.542365,67256.063790,47137.057440,28873.558804,-0.098000,0.958000,0.208000,192.000000,0.000000,0.000000,0.000000,0.000000,0.000000,0.000000,0.000000,0.000000,0.000000,1648352750.160664,0.000000
184.000000,-36680.017314,-23954.163367,17267.817827,20522.008302,9324.946621,67259.148331,47132.609443,28856.526775,-0.098000,0.958000,0.208000,192.000000,0.000000,0.000000,0.000000,0.000000,0.000000,0.000000,0.000000,0.000000,0.000000,1648352750.160681,0.000000
185.000000,-36675.502262,-23942.853384,17275.909159,20528.937343,9333.596746,67274.302813,47139.449077,28854.783339,-0.098000,0.958000,0.208000,192.000000,0.000000,0.000000,0.000000,0.000000,0.000000,0.000000,0.000000,0.000000,0.000000,1648352750.168678,0.000000
186.000000,-36676.664552,-23944.909745,17276.736173,20526.836279,9333.954374,67279.376659,47144.321757,28855.386836,-0.098000,0.958000,0.208000,192.000000,0.000000,0.000000,0.000000,0.000000,0.000000,0.000000,0.000000,0.000000,0.000000,1648352750.168694,0.000000
187.000000,-36681.559584,-23948.642486,17270.097705,20519.907238,9327.584127,67281.075392,47141.460734,28866.562708,-0.098000,0.958000,0.208000,192.000000,0.000000,0.000000,0.000000,0.000000,0.000000,0.000000,0.000000,0.000000,0.000000,1648352750.175299,0.000000
188.000000,-36684.442959,-23951.168233,17265.470894,20515.906276,9323.829034,67282.952938,47139.180856,28878.632650,-0.098000,0.958000,0.208000,192.000000,0.000000,0.000000,0.000000,0.000000,0.000000,0.000000,0.000000,0.000000,0.000000,1648352750.175315,0.000000
189.000000,-36687.058113,-23954.789216,17261.715801,20513.313474,9320.744493,67277.566168,47131.402449,28888.690935,-0.096000,0.954000,0.198000,192.000000,253.000000,0.000000,29.000000,208.000000,6.000000,48.000000,0.000000,0.000000,0.000000,1648352750.183327,0.000000
190.000000,-36683.012448,-23951.056475,17265.470894,20518.476727,9325.795987,67274.906310,47125.881568,28885.338174,-0.096000,0.954000,0.198000,192.000000,0.000000,0.000000,0.000000,0.000000,0.000000,0.000000,0.000000,0.000000,0.000000,1648352750.183344,0.000000
191.000000,-36683.504186,-23951.011771,17263.056906,20517.962637,9325.371304,67271.799418,47123.691097,28890.300261,-0.096000,0.954000,0.198000,192.000000,0.000000,0.000000,0.000000,0.000000,0.000000,0.000000,0.000000,0.000000,0.000000,1648352750.191090,0.000000
192.000000,-36688.399218,-23954.565698,17256.172568,20509.692491,9318.196394,67265.228005,47114.973916,28899.710345,-0.096000,0.954000,0.198000,192.000000,0.000000,0.000000,0.000000,0.000000,0.000000,0.000000,0.000000,0.000000,0.000000,1648352750.191106,0.000000
193.000000,-36681.492529,-23947.927230,17259.033592,20512.799384,9322.622040,67270.614775,47112.179948,28900.649119,-0.096000,0.954000,0.198000,192.000000,0.000000,0.000000,0.000000,0.000000,0.000000,0.000000,0.000000,0.000000,0.000000,1648352750.198457,0.000000
194.000000,-36691.036724,-23956.309135,17247.231871,20505.624474,9312.161423,67271.821770,47110.905899,28911.780287,-0.096000,0.954000,0.198000,192.000000,0.000000,0.000000,0.000000,0.000000,0.000000,0.000000,0.000000,0.000000,0.000000,1648352750.204966,0.000000
195.000000,-36692.489587,-23958.209033,17246.069580,20501.914084,9310.708560,67264.803322,47100.892317,28907.756973,-0.096000,0.954000,0.198000,192.000000,0.000000,0.000000,0.000000,0.000000,0.000000,0.000000,0.000000,0.000000,0.000000,1648352750.204983,0.000000
196.000000,-36691.751980,-23957.516129,17247.410685,20499.880075,9312.116720,67268.200787,47093.315076,28903.733659,-0.096000,0.954000,0.198000,192.000000,0.000000,0.000000,0.000000,0.000000,0.000000,0.000000,0.000000,0.000000,0.000000,1648352750.212885,0.000000
197.000000,-36687.616907,-23958.276088,17251.948089,20503.054023,9315.357723,67269.050153,47088.621210,28890.926110,-0.096000,0.954000,0.198000,192.000000,0.000000,0.000000,0.000000,0.000000,0.000000,0.000000,0.000000,0.000000,0.000000,1648352750.212902,0.000000
198.000000,-36685.918174,-23955.929155,17252.328068,20499.902427,9315.044798,67262.791665,47080.284009,28876.263365,-0.096000,0.954000,0.198000,192.000000,0.000000,0.000000,0.000000,0.000000,0.000000,0.000000,0.000000,0.000000,0.000000,1648352750.220861,0.000000
199.000000,-36685.985230,-23951.391751,17254.451484,20497.846067,9317.168214,67264.557453,47077.422986,28863.008781,-0.088000,0.960000,0.198000,192.000000,253.000000,64.000000,30.000000,0.000000,6.000000,48.000000,0.000000,0.000000,0.000000,1648352750.220878,0.000000
200.000000,-36687.572204,-23951.615268,17253.736228,20498.181343,9318.017580,67273.229930,47080.999265,28865.422769,-0.088000,0.960000,0.198000,192.000000,0.000000,0.000000,0.000000,0.000000,0.000000,0.000000,0.000000,0.000000,0.000000,1648352750.227897,0.000000
201.000000,-36682.140730,-23945.535594,17256.306679,20506.004453,9323.180833,67270.927700,47077.512393,28862.382932,-0.088000,0.960000,0.198000,192.000000,0.000000,0.000000,0.000000,0.000000,0.000000,0.000000,0.000000,0.000000,0.000000,1648352750.227913,0.000000
202.000000,-36685.359381,-23944.596820,17254.004449,20508.753718,9321.705618,67265.965613,47072.013864,28863.008781,-0.088000,0.960000,0.198000,192.000000,0.000000,0.000000,0.000000,0.000000,0.000000,0.000000,0.000000,0.000000,0.000000,1648352750.235425,0.000000
203.000000,-36692.109608,-23950.497681,17247.924775,20501.914084,9314.888336,67259.371848,47065.353044,28870.988354,-0.088000,0.960000,0.198000,192.000000,0.000000,0.000000,0.000000,0.000000,0.000000,0.000000,0.000000,0.000000,0.000000,1648352750.235441,0.000000
204.000000,-36681.872509,-23943.903916,17258.251281,20509.848953,9323.761979,67253.850967,47056.188828,28852.615220,-0.088000,0.960000,0.198000,192.000000,0.000000,0.000000,0.000000,0.000000,0.000000,0.000000,0.000000,0.000000,0.000000,1648352750.243634,0.000000
205.000000,-36686.119340,-23949.313039,17252.886862,20503.858686,9317.637601,67247.748941,47050.355023,28835.046749,-0.088000,0.960000,0.198000,192.000000,0.000000,0.000000,0.000000,0.000000,0.000000,0.000000,0.000000,0.000000,0.000000,1648352750.243651,0.000000
206.000000,-36691.863739,-23953.403408,17247.790664,20498.628378,9314.038970,67249.425322,47051.629073,28838.354807,-0.088000,0.960000,0.198000,192.000000,0.000000,0.000000,0.000000,0.000000,0.000000,0.000000,0.000000,0.000000,0.000000,1648352750.251563,0.000000
207.000000,-36693.763637,-23953.269297,17246.002525,20494.359195,9311.692037,67252.711028,47056.948788,28845.105034,-0.088000,0.960000,0.198000,192.000000,0.000000,0.000000,0.000000,0.000000,0.000000,0.000000,0.000000,0.000000,0.000000,1648352750.251579,0.000000
208.000000,-36695.305907,-23955.303306,17242.269783,20488.011299,9307.624019,67246.184319,47050.757355,28846.222621,-0.088000,0.960000,0.198000,192.000000,0.000000,0.000000,0.000000,0.000000,0.000000,0.000000,0.000000,0.000000,0.000000,1648352750.257520,0.000000
209.000000,-36683.928869,-23952.330524,17244.437903,20492.772221,9310.417987,67246.273726,47045.012956,28845.105034,-0.092000,0.958000,0.192000,192.000000,253.000000,32.000000,29.000000,240.000000,6.000000,0.000000,0.000000,0.000000,0.000000,1648352750.265207,0.000000
210.000000,-36682.945392,-23948.553079,17248.841196,20497.197866,9316.318848,67253.672153,47043.358927,28838.287751,-0.092000,0.958000,0.192000,192.000000,0.000000,0.000000,0.000000,0.000000,0.000000,0.000000,0.000000,0.000000,0.000000,1648352750.265223,0.000000
211.000000,-36694.277727,-23950.587088,17245.555490,20493.688642,9312.764920,67254.677982,47045.303529,28851.810557,-0.092000,0.958000,0.192000,192.000000,0.000000,0.000000,0.000000,0.000000,0.000000,0.000000,0.000000,0.000000,0.000000,1648352750.273216,0.000000
212.000000,-36685.918174,-23946.787291,17251.769275,20502.808154,9319.425740,67252.912194,47036.184017,28845.887345,-0.092000,0.958000,0.192000,192.000000,0.000000,0.000000,0.000000,0.000000,0.000000,0.000000,0.000000,0.000000,0.000000,1648352750.273233,0.000000
213.000000,-36697.742247,-23954.163367,17240.325182,20490.201770,9307.221688,67254.610926,47038.776820,28861.533566,-0.092000,0.958000,0.192000,192.000000,0.000000,0.000000,0.000000,0.000000,0.000000,0.000000,0.000000,0.000000,0.000000,1648352750.281002,0.000000
214.000000,-36698.613965,-23952.039951,17238.157062,20483.786819,9304.673589,67244.239717,47028.874997,28880.890176,-0.092000,0.958000,0.192000,192.000000,0.000000,0.000000,0.000000,0.000000,0.000000,0.000000,0.000000,0.000000,0.000000,1648352750.281036,0.000000
215.000000,-36692.422532,-23949.156576,17244.259089,20490.335881,9312.630810,67239.791720,47016.045095,28867.300316,-0.092000,0.958000,0.192000,192.000000,0.000000,0.000000,0.000000,0.000000,0.000000,0.000000,0.000000,0.000000,0.000000,1648352750.287553,0.000000
216.000000,-36687.482797,-23947.077864,17247.231871,20496.192038,9315.871813,67244.195014,47019.777837,28858.381970,-0.092000,0.958000,0.192000,192.000000,0.000000,0.000000,0.000000,0.000000,0.000000,0.000000,0.000000,0.000000,0.000000,1648352750.287569,0.000000
217.000000,-36680.419645,-23941.534631,17254.786760,20504.998625,9322.666743,67242.496281,47016.358020,28843.965095,-0.092000,0.958000,0.192000,192.000000,0.000000,0.000000,0.000000,0.000000,0.000000,0.000000,0.000000,0.000000,0.000000,1648352750.295573,0.000000
218.000000,-36682.185433,-23940.752320,17255.345554,20505.535067,9321.996191,67247.033685,47011.686505,28816.673615,-0.092000,0.958000,0.192000,192.000000,0.000000,0.000000,0.000000,0.000000,0.000000,0.000000,0.000000,0.000000,0.000000,1648352750.295585,0.000000
219.000000,-36685.091160,-23942.004018,17249.802321,20499.835372,9316.229441,67250.945240,47011.820616,28817.210056,-0.094000,0.956000,0.192000,192.000000,253.000000,16.000000,29.000000,224.000000,6.000000,0.000000,0.000000,0.000000,0.000000,1648352750.303680,0.000000
220.000000,-36696.915233,-23954.453940,17237.732379,20485.798476,9304.360664,67244.418531,47007.260860,28836.857240,-0.094000,0.956000,0.192000,192.000000,0.000000,0.000000,0.000000,0.000000,0.000000,0.000000,0.000000,0.000000,0.000000,1648352750.303696,0.000000
221.000000,-36693.271898,-23953.246946,17242.873280,20490.090011,9308.562792,67241.289287,46997.828424,28836.723129,-0.094000,0.956000,0.192000,192.000000,0.000000,0.000000,0.000000,0.000000,0.000000,0.000000,0.000000,0.000000,0.000000,1648352750.310442,0.000000
222.000000,-36692.020201,-23951.928193,17244.572013,20493.040442,9309.367455,67233.242659,46990.899383,28824.384966,-0.094000,0.956000,0.192000,192.000000,0.000000,0.000000,0.000000,0.000000,0.000000,0.000000,0.000000,0.000000,0.000000,1648352750.310458,0.000000
223.000000,-36686.521672,-23946.362608,17250.159949,20498.024881,9314.955391,67237.511842,46994.430959,28805.318928,-0.094000,0.956000,0.192000,192.000000,0.000000,0.000000,0.000000,0.000000,0.000000,0.000000,0.000000,0.000000,0.000000,1648352750.317461,0.000000
224.000000,-36682.766579,-23946.340256,17251.545757,20499.656558,9316.721179,67238.271801,46996.286153,28790.767943,-0.094000,0.956000,0.192000,192.000000,0.000000,0.000000,0.000000,0.000000,0.000000,0.000000,0.000000,0.000000,0.000000,1648352750.317477,0.000000
225.000000,-36675.614020,-23937.287800,17258.854778,20506.675006,9323.046723,67240.261107,46994.967400,28767.097445,-0.094000,0.956000,0.192000,192.000000,0.000000,0.000000,0.000000,0.000000,0.000000,0.000000,0.000000,0.000000,0.000000,1648352750.325334,0.000000
226.000000,-36679.771445,-23935.387902,17254.831464,20501.377642,9319.090464,67240.931659,46996.152043,28752.725274,-0.094000,0.956000,0.192000,192.000000,0.000000,0.000000,0.000000,0.000000,0.000000,0.000000,0.000000,0.000000,0.000000,1648352750.333488,0.000000
227.000000,-36686.119340,-23938.159518,17245.913118,20491.811096,9310.462691,67234.807281,46991.726397,28757.776768,-0.094000,0.956000,0.192000,192.000000,0.000000,0.000000,0.000000,0.000000,0.000000,0.000000,0.000000,0.000000,0.000000,1648352750.333505,0.000000
228.000000,-36683.280669,-23941.534631,17246.091932,20495.700299,9312.206127,67228.079406,46985.981999,28754.781634,-0.094000,0.956000,0.192000,192.000000,0.000000,0.000000,0.000000,0.000000,0.000000,0.000000,0.000000,0.000000,0.000000,1648352750.340070,0.000000
229.000000,-36683.235965,-23944.283896,17250.025839,20495.901465,9315.201260,67223.385539,46980.595229,28739.716558,-0.096000,0.958000,0.188000,192.000000,253.000000,0.000000,29.000000,240.000000,5.000000,224.000000,0.000000,0.000000,0.000000,1648352750.340086,0.000000
230.000000,-36679.235003,-23936.907820,17257.692487,20500.885904,9319.761016,67223.653760,46978.628275,28725.344387,-0.096000,0.958000,0.188000,192.000000,0.000000,0.000000,0.000000,0.000000,0.000000,0.000000,0.000000,0.000000,0.000000,1648352750.348025,0.000000
231.000000,-36683.906517,-23936.550192,17255.054981,20496.527314,9317.190566,67228.973476,46983.478604,28728.205410,-0.096000,0.958000,0.188000,192.000000,0.000000,0.000000,0.000000,0.000000,0.000000,0.000000,0.000000,0.000000,0.000000,1648352750.348041,0.000000
232.000000,-36689.025067,-23946.183794,17243.342667,20483.339785,9306.797005,67223.117319,46983.210383,28745.080977,-0.096000,0.958000,0.188000,192.000000,0.000000,0.000000,0.000000,0.000000,0.000000,0.000000,0.000000,0.000000,0.000000,1648352750.356091,0.000000
233.000000,-36691.081427,-23945.446187,17245.466083,20484.926758,9308.115757,67217.127051,46976.616618,28749.663085,-0.096000,0.958000,0.188000,192.000000,0.000000,0.000000,0.000000,0.000000,0.000000,0.000000,0.000000,0.000000,0.000000,1648352750.356108,0.000000
234.000000,-36693.003677,-23942.786329,17250.383467,20491.654633,9311.893202,67215.294208,46967.452403,28732.452241,-0.096000,0.958000,0.188000,192.000000,0.000000,0.000000,0.000000,0.000000,0.000000,0.000000,0.000000,0.000000,0.000000,1648352750.363000,0.000000
235.000000,-36687.974535,-23941.601687,17252.171606,20492.101668,9313.189603,67220.949199,46967.117127,28705.093706,-0.096000,0.958000,0.188000,192.000000,0.000000,0.000000,0.000000,0.000000,0.000000,0.000000,0.000000,0.000000,0.000000,1648352750.363035,0.000000
236.000000,-36690.544986,-23941.847556,17246.360153,20483.719764,9306.998170,67224.681941,46968.324121,28709.005262,-0.096000,0.958000,0.188000,192.000000,0.000000,0.000000,0.000000,0.000000,0.000000,0.000000,0.000000,0.000000,0.000000,1648352750.370723,0.000000
237.000000,-36693.428361,-23943.032198,17245.980173,20483.809171,9306.349970,67221.686807,46968.637045,28708.267654,-0.096000,0.958000,0.188000,192.000000,0.000000,0.000000,0.000000,0.000000,0.000000,0.000000,0.000000,0.000000,0.000000,1648352750.370739,0.000000
238.000000,-36690.343820,-23942.808681,17248.572975,20487.005471,9310.350932,67215.920057,46959.383423,28703.305567,-0.096000,0.958000,0.188000,192.000000,0.000000,0.000000,0.000000,0.000000,0.000000,0.000000,0.000000,0.000000,0.000000,1648352750.378696,0.000000
239.000000,-36674.451730,-23928.257695,17263.615699,20505.445660,9326.824168,67214.064862,46956.142420,28668.816825,-0.096000,0.958000,0.188000,192.000000,0.000000,0.000000,0.000000,0.000000,0.000000,0.000000,0.000000,0.000000,0.000000,1648352750.378713,0.000000
240.000000,-36668.886145,-23919.026425,17266.588481,20513.000549,9330.981592,67223.877278,46969.419357,28652.500052,-0.084000,0.964000,0.180000,192.000000,253.000000,96.000000,30.000000,32.000000,5.000000,160.000000,0.000000,0.000000,0.000000,1648352750.385776,0.000000
241.000000,-36691.506111,-23939.344160,17245.868414,20489.575921,9306.729949,67218.915191,46961.596246,28659.384389,-0.084000,0.964000,0.180000,192.000000,0.000000,0.000000,0.000000,0.000000,0.000000,0.000000,0.000000,0.000000,0.000000,1648352750.392700,0.000000
242.000000,-36690.209709,-23939.366512,17244.907289,20487.452506,9304.986513,67213.059034,46948.855752,28663.474758,-0.084000,0.964000,0.180000,192.000000,0.000000,0.000000,0.000000,0.000000,0.000000,0.000000,0.000000,0.000000,0.000000,1648352750.392712,0.000000
243.000000,-36673.758826,-23922.580352,17256.351382,20498.069584,9316.832938,67215.473022,46953.862542,28651.158947,-0.084000,0.964000,0.180000,192.000000,0.000000,0.000000,0.000000,0.000000,0.000000,0.000000,0.000000,0.000000,0.000000,1648352750.400373,0.000000
244.000000,-36676.932773,-23928.123585,17254.853815,20496.974349,9317.347028,67215.808298,46956.880028,28651.337761,-0.084000,0.964000,0.180000,192.000000,0.000000,0.000000,0.000000,0.000000,0.000000,0.000000,0.000000,0.000000,0.000000,1648352750.400389,0.000000
245.000000,-36694.389486,-23947.815472,17245.667248,20485.127924,9308.808662,67214.802470,46952.879066,28666.268726,-0.084000,0.964000,0.180000,192.000000,0.000000,0.000000,0.000000,0.000000,0.000000,0.000000,0.000000,0.000000,0.000000,1648352750.408334,0.000000
246.000000,-36682.386599,-23939.522974,17257.044286,20492.816924,9318.419912,67217.082348,46949.794525,28669.710895,-0.084000,0.964000,0.180000,192.000000,0.000000,0.000000,0.000000,0.000000,0.000000,0.000000,0.000000,0.000000,0.000000,1648352750.408351,0.000000
247.000000,-36674.541137,-23931.386939,17262.609871,20499.745965,9323.337295,67221.664455,46950.308615,28654.735226,-0.084000,0.964000,0.180000,192.000000,0.000000,0.000000,0.000000,0.000000,0.000000,0.000000,0.000000,0.000000,0.000000,1648352750.416370,0.000000
248.000000,-36689.136826,-23943.345123,17251.545757,20489.955901,9309.948601,67221.686807,46952.722603,28675.008258,-0.084000,0.964000,0.180000,192.000000,0.000000,0.000000,0.000000,0.000000,0.000000,0.000000,0.000000,0.000000,0.000000,1648352750.416387,0.000000
249.000000,-36694.791817,-23947.167271,17246.896594,20479.361174,9303.421891,67210.935618,46942.306690,28689.089857,-0.084000,0.964000,0.180000,192.000000,0.000000,0.000000,0.000000,0.000000,0.000000,0.000000,0.000000,0.000000,0.000000,1648352750.422994,0.000000
250.000000,-36676.932773,-23928.570620,17260.933490,20495.141506,9317.861118,67212.209667,46937.232844,28676.483473,-0.080000,0.960000,0.162000,192.000000,253.000000,128.000000,30.000000,0.000000,5.000000,16.000000,0.000000,0.000000,0.000000,1648352750.423010,0.000000
251.000000,-36674.451730,-23924.971989,17261.402877,20497.264921,9317.302324,67216.680016,46943.468981,28673.600098,-0.080000,0.960000,0.162000,192.000000,0.000000,0.000000,0.000000,0.000000,0.000000,0.000000,0.000000,0.000000,0.000000,1648352750.431058,0.000000
252.000000,-36689.025067,-23939.612381,17247.678905,20482.333956,9303.332484,67210.667397,46939.199798,28689.827465,-0.080000,0.960000,0.162000,192.000000,0.000000,0.000000,0.000000,0.000000,0.000000,0.000000,0.000000,0.000000,0.000000,1648352750.431075,0.000000
253.000000,-36686.208747,-23935.946695,17249.131769,20487.631319,9306.551135,67206.018234,46931.734315,28685.513578,-0.080000,0.960000,0.162000,192.000000,0.000000,0.000000,0.000000,0.000000,0.000000,0.000000,0.000000,0.000000,0.000000,1648352750.439015,0.000000
254.000000,-36672.551831,-23929.755262,17251.098722,20494.448602,9311.200298,67205.548847,46930.057935,28682.384334,-0.080000,0.960000,0.162000,192.000000,0.000000,0.000000,0.000000,0.000000,0.000000,0.000000,0.000000,0.000000,0.000000,1648352750.439031,0.000000
255.000000,-36675.882241,-23935.544364,17247.410685,20491.744040,9308.406330,67202.911342,46924.447647,28683.121941,-0.080000,0.960000,0.162000,192.000000,0.000000,0.000000,0.000000,0.000000,0.000000,0.000000,0.000000,0.000000,0.000000,1648352750.446145,0.000000
0.000000,-36681.648991,-23933.040969,17253.378600,20494.225084,9312.764920,67199.022138,46918.144455,28687.659346,-0.080000,0.960000,0.162000,192.000000,0.000000,0.000000,0.000000,0.000000,0.000000,0.000000,0.000000,0.000000,0.000000,1648352750.452677,0.000000
1.000000,-36674.205860,-23924.189678,17258.363039,20498.270750,9318.241098,67204.878295,46920.558443,28679.724476,-0.080000,0.960000,0.162000,192.000000,0.000000,0.000000,0.000000,0.000000,0.000000,0.000000,0.000000,0.000000,0.000000,1648352750.452713,0.000000
2.000000,-36684.062980,-23933.711521,17246.293097,20486.558436,9306.595839,67198.686862,46915.395190,28688.531064,-0.080000,0.960000,0.162000,192.000000,0.000000,0.000000,0.000000,0.000000,0.000000,0.000000,0.000000,0.000000,0.000000,1648352750.460734,0.000000
3.000000,-36677.804491,-23929.397634,17255.412609,20494.225084,9314.687170,67204.587722,46917.496254,28682.540796,-0.080000,0.960000,0.162000,192.000000,0.000000,0.000000,0.000000,0.000000,0.000000,0.000000,0.000000,0.000000,0.000000,1648352750.460750,0.000000
4.000000,-36680.352590,-23930.358759,17253.691525,20492.660462,9313.390769,67208.879257,46922.704211,28687.324069,-0.076000,0.964000,0.160000,192.000000,253.000000,160.000000,30.000000,32.000000,5.000000,0.000000,0.000000,0.000000,0.000000,1648352750.468564,0.000000
5.000000,-36685.515843,-23934.896163,17247.567147,20487.899540,9309.032179,67201.525533,46918.524434,28693.493151,-0.076000,0.964000,0.160000,192.000000,0.000000,0.000000,0.000000,0.000000,0.000000,0.000000,0.000000,0.000000,0.000000,1648352750.468580,0.000000
6.000000,-36685.091160,-23936.125509,17246.896594,20488.413631,9309.009827,67204.498315,46923.531225,28683.747790,-0.076000,0.964000,0.160000,192.000000,0.000000,0.000000,0.000000,0.000000,0.000000,0.000000,0.000000,0.000000,0.000000,1648352750.475275,0.000000
7.000000,-36686.387561,-23935.812585,17245.913118,20483.831523,9306.238211,67202.240789,46921.698382,28688.262843,-0.076000,0.964000,0.160000,192.000000,0.000000,0.000000,0.000000,0.000000,0.000000,0.000000,0.000000,0.000000,0.000000,1648352750.475291,0.000000
8.000000,-36678.139767,-23924.592009,17255.345554,20489.598273,9315.491833,67205.235923,46924.984089,28672.236642,-0.076000,0.964000,0.160000,192.000000,0.000000,0.000000,0.000000,0.000000,0.000000,0.000000,0.000000,0.000000,0.000000,1648352750.483304,0.000000
9.000000,-36680.866680,-23926.402500,17250.271708,20486.290215,9310.596801,67211.874391,46932.717792,28684.820674,-0.076000,0.964000,0.160000,192.000000,0.000000,0.000000,0.000000,0.000000,0.000000,0.000000,0.000000,0.000000,0.000000,1648352750.483321,0.000000
10.000000,-36689.673268,-23934.538535,17242.694466,20480.031726,9302.594877,67210.332121,46934.260062,28702.635014,-0.076000,0.964000,0.160000,192.000000,0.000000,0.000000,0.000000,0.000000,0.000000,0.000000,0.000000,0.000000,0.000000,1648352750.491313,0.000000
11.000000,-36691.841387,-23939.187698,17246.248394,20476.276633,9303.801871,67201.614940,46926.436952,28702.724421,-0.076000,0.964000,0.160000,192.000000,0.000000,0.000000,0.000000,0.000000,0.000000,0.000000,0.000000,0.000000,0.000000,1648352750.491329,0.000000
12.000000,-36682.833634,-23931.096367,17255.457313,20485.798476,9312.541403,67200.251484,46920.536091,28686.139427,-0.076000,0.964000,0.160000,192.000000,0.000000,0.000000,0.000000,0.000000,0.000000,0.000000,0.000000,0.000000,0.000000,1648352750.498253,0.000000
13.000000,-36678.340933,-23923.139146,17261.604042,20497.086107,9320.677438,67210.153307,46923.486522,28667.363962,-0.076000,0.964000,0.160000,192.000000,0.000000,0.000000,0.000000,0.000000,0.000000,0.000000,0.000000,0.000000,0.000000,1648352750.498270,0.000000
14.000000,-36700.245643,-23939.522974,17239.833443,20476.567206,9299.599743,67206.912304,46918.435027,28694.186055,-0.076000,0.976000,0.164000,192.000000,253.000000,160.000000,30.000000,128.000000,5.000000,32.000000,0.000000,0.000000,0.000000,1648352750.504947,0.000000
15.000000,-36703.620756,-23945.088559,17235.631315,20469.168779,9294.816470,67197.792792,46909.516681,28713.944997,-0.076000,0.976000,0.164000,192.000000,0.000000,0.000000,0.000000,0.000000,0.000000,0.000000,0.000000,0.000000,0.000000,1648352750.512952,0.000000
16.000000,-36697.339916,-23940.975838,17241.331010,20472.432133,9298.973894,67192.383670,46906.610955,28713.497962,-0.076000,0.976000,0.164000,192.000000,0.000000,0.000000,0.000000,0.000000,0.000000,0.000000,0.000000,0.000000,0.000000,1648352750.512963,0.000000
17.000000,-36694.165968,-23938.427739,17242.560356,20474.823770,9300.650275,67194.663548,46913.048257,28719.063547,-0.076000,0.976000,0.164000,192.000000,0.000000,0.000000,0.000000,0.000000,0.000000,0.000000,0.000000,0.000000,0.000000,1648352750.520973,0.000000
18.000000,-36690.366172,-23932.772748,17246.248394,20482.557473,9306.506432,67202.039624,46916.959812,28718.460049,-0.076000,0.976000,0.164000,192.000000,0.000000,0.000000,0.000000,0.000000,0.000000,0.000000,0.000000,0.000000,0.000000,1648352750.520990,0.000000
19.000000,-36688.622736,-23928.727082,17248.595327,20486.446677,9309.367455,67205.571199,46911.774208,28707.328881,-0.076000,0.976000,0.164000,192.000000,0.000000,0.000000,0.000000,0.000000,0.000000,0.000000,0.000000,0.000000,0.000000,1648352750.528066,0.000000
20.000000,-36683.191262,-23921.082785,17253.736228,20489.799439,9313.882508,67205.615903,46917.384495,28682.652555,-0.076000,0.976000,0.164000,192.000000,0.000000,0.000000,0.000000,0.000000,0.000000,0.000000,0.000000,0.000000,0.000000,1648352750.528082,0.000000
21.000000,-36696.691715,-23928.369454,17241.152196,20477.461276,9301.633752,67206.733490,46926.660469,28696.600043,-0.076000,0.976000,0.164000,192.000000,0.000000,0.000000,0.000000,0.000000,0.000000,0.000000,0.000000,0.000000,0.000000,1648352750.535567,0.000000
22.000000,-36692.556643,-23928.592971,17242.493301,20477.327165,9302.751339,67197.099888,46919.127931,28707.038308,-0.076000,0.976000,0.164000,192.000000,0.000000,0.000000,0.000000,0.000000,0.000000,0.000000,0.000000,0.000000,0.000000,1648352750.535604,0.000000
23.000000,-36688.198052,-23927.005998,17246.449560,20481.305776,9307.199336,67195.356452,46917.362144,28689.514540,-0.076000,0.976000,0.164000,192.000000,0.000000,0.000000,0.000000,0.000000,0.000000,0.000000,0.000000,0.000000,0.000000,1648352750.543599,0.000000
24.000000,-36697.943413,-23936.818413,17234.849004,20471.716877,9296.738720,67189.299129,46916.043391,28696.264767,-0.080000,0.966000,0.150000,192.000000,253.000000,128.000000,30.000000,48.000000,4.000000,176.000000,0.000000,0.000000,0.000000,1648352750.543616,0.000000
25.000000,-36678.810320,-23926.022521,17244.840234,20485.731421,9309.702731,67197.882199,46924.782923,28694.700145,-0.080000,0.966000,0.150000,192.000000,0.000000,0.000000,0.000000,0.000000,0.000000,0.000000,0.000000,0.000000,0.000000,1648352750.551628,0.000000
26.000000,-36684.264145,-23921.261599,17248.260051,20488.368927,9312.854327,67202.419603,46927.465132,28695.013070,-0.080000,0.966000,0.150000,192.000000,0.000000,0.000000,0.000000,0.000000,0.000000,0.000000,0.000000,0.000000,0.000000,1648352750.551644,0.000000
27.000000,-36688.846253,-23923.742643,17247.142464,20489.978253,9311.803795,67198.932731,46923.620632,28696.577692,-0.080000,0.966000,0.150000,192.000000,0.000000,0.000000,0.000000,0.000000,0.000000,0.000000,0.000000,0.000000,0.000000,1648352750.558229,0.000000
28.000000,-36690.969669,-23927.609495,17243.007391,20484.993814,9307.467557,67194.775307,46921.832493,28700.042212,-0.080000,0.966000,0.150000,192.000000,0.000000,0.000000,0.000000,0.000000,0.000000,0.000000,0.000000,0.000000,0.000000,1648352750.558247,0.000000
29.000000,-36687.795721,-23924.368492,17243.968516,20485.016165,9308.339275,67193.344795,46917.093923,28694.387221,-0.080000,0.966000,0.150000,192.000000,0.000000,0.000000,0.000000,0.000000,0.000000,0.000000,0.000000,0.000000,0.000000,1648352750.565254,0.000000
30.000000,-36681.425474,-23919.808736,17248.751789,20490.782915,9313.144900,67190.684937,46913.338830,28682.876072,-0.080000,0.966000,0.150000,192.000000,0.000000,0.000000,0.000000,0.000000,0.000000,0.000000,0.000000,0.000000,0.000000,1648352750.565270,0.000000
31.000000,-36686.968706,-23924.882582,17242.538004,20486.424325,9306.573487,67192.473077,46917.987993,28688.106380,-0.080000,0.966000,0.150000,192.000000,0.000000,0.000000,0.000000,0.000000,0.000000,0.000000,0.000000,0.000000,0.000000,1648352750.573205,0.000000
32.000000,-36689.829730,-23931.275181,17237.844138,20481.171665,9303.153670,67185.722850,46911.304821,28701.584482,-0.080000,0.966000,0.150000,192.000000,0.000000,0.000000,0.000000,0.000000,0.000000,0.000000,0.000000,0.000000,0.000000,1648352750.581209,0.000000
33.000000,-36671.881279,-23915.696015,17256.217272,20499.991834,9323.672572,67191.824876,46914.814045,28684.418343,-0.080000,0.966000,0.150000,192.000000,0.000000,0.000000,0.000000,0.000000,0.000000,0.000000,0.000000,0.000000,0.000000,1648352750.581225,0.000000
34.000000,-36675.994000,-23918.400576,17254.362077,20497.130811,9321.236231,67195.691728,46919.083228,28675.589404,-0.070000,0.968000,0.150000,192.000000,253.000000,208.000000,30.000000,64.000000,4.000000,176.000000,0.000000,0.000000,0.000000,1648352750.587872,0.000000
35.000000,-36687.795721,-23927.207163,17244.124978,20487.340747,9311.915554,67191.824876,46916.155149,28686.050020,-0.070000,0.968000,0.150000,192.000000,0.000000,0.000000,0.000000,0.000000,0.000000,0.000000,0.000000,0.000000,0.000000,1648352750.587888,0.000000
36.000000,-36686.253451,-23925.843707,17243.007391,20486.983119,9310.462691,67189.969681,46910.231937,28690.654479,-0.070000,0.968000,0.150000,192.000000,0.000000,0.000000,0.000000,0.000000,0.000000,0.000000,0.000000,0.000000,0.000000,1648352750.595875,0.000000
37.000000,-36690.813207,-23932.392768,17237.687676,20481.328128,9304.986513,67186.102830,46910.589565,28695.817732,-0.070000,0.968000,0.150000,192.000000,0.000000,0.000000,0.000000,0.000000,0.000000,0.000000,0.000000,0.000000,0.000000,1648352750.595891,0.000000
38.000000,-36688.913308,-23931.744567,17241.420417,20483.585654,9309.233345,67191.042565,46906.230975,28690.587424,-0.070000,0.968000,0.150000,192.000000,0.000000,0.000000,0.000000,0.000000,0.000000,0.000000,0.000000,0.000000,0.000000,1648352750.603587,0.000000
39.000000,-36691.729628,-23930.425814,17236.525385,20477.260110,9303.287781,67194.350623,46901.626516,28702.858532,-0.070000,0.968000,0.150000,192.000000,0.000000,0.000000,0.000000,0.000000,0.000000,0.000000,0.000000,0.000000,0.000000,1648352750.603602,0.000000
40.000000,-36684.375904,-23921.596875,17236.614792,20481.015203,9304.047740,67184.560559,46897.558498,28701.182151,-0.070000,0.968000,0.150000,192.000000,0.000000,0.000000,0.000000,0.000000,0.000000,0.000000,0.000000,0.000000,0.000000,1648352750.610493,0.000000
41.000000,-36666.516860,-23906.710614,17251.903385,20493.532180,9317.883470,67185.789905,46903.079379,28675.499997,-0.070000,0.968000,0.150000,192.000000,0.000000,0.000000,0.000000,0.000000,0.000000,0.000000,0.000000,0.000000,0.000000,1648352750.610511,0.000000
42.000000,-36677.066884,-23923.653236,17253.602118,20490.782915,9319.559851,67205.794717,46916.311612,28664.480587,-0.070000,0.968000,0.150000,192.000000,0.000000,0.000000,0.000000,0.000000,0.000000,0.000000,0.000000,0.000000,0.000000,1648352750.618482,0.000000
43.000000,-36687.236927,-23937.086634,17244.907289,20481.909273,9310.909726,67204.475964,46918.457379,28664.122959,-0.070000,0.968000,0.150000,192.000000,0.000000,0.000000,0.000000,0.000000,0.000000,0.000000,0.000000,0.000000,0.000000,1648352750.618516,0.000000
44.000000,-36689.069770,-23939.791195,17240.302830,20476.813075,9304.405368,67197.233998,46914.389362,28660.658438,-0.056000,0.972000,0.154000,192.000000,254.000000,64.000000,30.000000,96.000000,4.000000,208.000000,0.000000,0.000000,0.000000,1648352750.626451,0.000000
45.000000,-36687.169872,-23933.152727,17245.175510,20479.092953,9306.372321,67194.462382,46916.535129,28661.485453,-0.056000,0.972000,0.154000,192.000000,0.000000,0.000000,0.000000,0.000000,0.000000,0.000000,0.000000,0.000000,0.000000,1648352750.626467,0.000000
46.000000,-36689.136826,-23933.398596,17246.561318,20477.908311,9303.824223,67191.735469,46919.865539,28659.205575,-0.056000,0.972000,0.154000,192.000000,0.000000,0.000000,0.000000,0.000000,0.000000,0.000000,0.000000,0.000000,0.000000,1648352750.633550,0.000000
47.000000,-36699.306869,-23944.038027,17236.324219,20468.475874,9292.715406,67182.392440,46917.831530,28671.588441,-0.056000,0.972000,0.154000,192.000000,0.000000,0.000000,0.000000,0.000000,0.000000,0.000000,0.000000,0.000000,0.000000,1648352750.639889,0.000000
48.000000,-36704.224253,-23948.486024,17227.785853,20462.217386,9284.109984,67166.142722,46906.521548,28686.474703,-0.056000,0.972000,0.154000,192.000000,0.000000,0.000000,0.000000,0.000000,0.000000,0.000000,0.000000,0.000000,0.000000,1648352750.639905,0.000000
49.000000,-36699.105704,-23945.200318,17229.194013,20465.748962,9286.367510,67162.253518,46900.285411,28684.641860,-0.056000,0.972000,0.154000,192.000000,0.000000,0.000000,0.000000,0.000000,0.000000,0.000000,0.000000,0.000000,0.000000,1648352750.648208,0.000000
50.000000,-36702.547872,-23944.999152,17222.555545,20461.479778,9281.159554,67163.616975,46905.940402,28706.211293,-0.056000,0.972000,0.154000,192.000000,0.000000,0.000000,0.000000,0.000000,0.000000,0.000000,0.000000,0.000000,0.000000,1648352750.648224,0.000000
51.000000,-36698.189282,-23939.947658,17227.852908,20465.011354,9283.417080,67150.429446,46901.112425,28707.597102,-0.056000,0.972000,0.154000,192.000000,0.000000,0.000000,0.000000,0.000000,0.000000,0.000000,0.000000,0.000000,0.000000,1648352750.656066,0.000000
52.000000,-36693.629526,-23936.505489,17233.396141,20470.174607,9287.440394,67145.757931,46902.140606,28700.712764,-0.056000,0.972000,0.154000,192.000000,0.000000,0.000000,0.000000,0.000000,0.000000,0.000000,0.000000,0.000000,0.000000,1648352750.656083,0.000000
53.000000,-36699.239814,-23939.366512,17225.908306,20462.865587,9280.287836,67146.987277,46903.459359,28708.580578,-0.056000,0.972000,0.154000,192.000000,0.000000,0.000000,0.000000,0.000000,0.000000,0.000000,0.000000,0.000000,0.000000,1648352750.663168,0.000000
54.000000,-36689.941488,-23931.722216,17233.820824,20469.369944,9287.239228,67146.406132,46903.995800,28706.457163,-0.046000,0.974000,0.156000,192.000000,254.000000,144.000000,30.000000,112.000000,4.000000,224.000000,0.000000,0.000000,0.000000,1648352750.663185,0.000000
55.000000,-36677.804491,-23919.764032,17244.907289,20479.405878,9298.303342,67147.814291,46911.394228,28699.058735,-0.046000,0.974000,0.156000,192.000000,0.000000,0.000000,0.000000,0.000000,0.000000,0.000000,0.000000,0.000000,0.000000,1648352750.670523,0.000000
56.000000,-36683.437131,-23924.480250,17238.537042,20470.934566,9291.821336,67139.007704,46906.476844,28711.888637,-0.046000,0.974000,0.156000,192.000000,0.000000,0.000000,0.000000,0.000000,0.000000,0.000000,0.000000,0.000000,0.000000,1648352750.670539,0.000000
57.000000,-36682.878337,-23926.178983,17237.017123,20469.772276,9290.591990,67130.067006,46896.485614,28720.203486,-0.046000,0.974000,0.156000,192.000000,0.000000,0.000000,0.000000,0.000000,0.000000,0.000000,0.000000,0.000000,0.000000,1648352750.678681,0.000000
58.000000,-36679.369113,-23923.787346,17241.085141,20475.516674,9294.056510,67127.675370,46895.368027,28724.025634,-0.046000,0.974000,0.156000,192.000000,0.000000,0.000000,0.000000,0.000000,0.000000,0.000000,0.000000,0.000000,0.000000,1648352750.678698,0.000000
59.000000,-36670.294305,-23914.801945,17250.875205,20484.323261,9302.214897,67128.681198,46900.754798,28720.874038,-0.046000,0.974000,0.156000,192.000000,0.000000,0.000000,0.000000,0.000000,0.000000,0.000000,0.000000,0.000000,0.000000,1648352750.686748,0.000000
60.000000,-36676.552794,-23917.730024,17244.102626,20477.193055,9294.436490,67126.602486,46901.782978,28723.645654,-0.046000,0.974000,0.156000,192.000000,0.000000,0.000000,0.000000,0.000000,0.000000,0.000000,0.000000,0.000000,0.000000,1648352750.686765,0.000000
61.000000,-36682.990096,-23924.837878,17236.547737,20468.699392,9285.093461,67114.487840,46892.305838,28728.563038,-0.046000,0.974000,0.156000,192.000000,0.000000,0.000000,0.000000,0.000000,0.000000,0.000000,0.000000,0.000000,0.000000,1648352750.693105,0.000000
62.000000,-36675.211689,-23920.814564,17246.114283,20474.935529,9292.760109,67104.049576,46882.538126,28706.568921,-0.046000,0.974000,0.156000,192.000000,0.000000,0.000000,0.000000,0.000000,0.000000,0.000000,0.000000,0.000000,0.000000,1648352750.700442,0.000000
63.000000,-36671.523651,-23915.293683,17250.472874,20478.668270,9298.146879,67103.580189,46887.008475,28678.316316,-0.046000,0.974000,0.156000,192.000000,0.000000,0.000000,0.000000,0.000000,0.000000,0.000000,0.000000,0.000000,0.000000,1648352750.700459,0.000000
64.000000,-36680.307887,-23919.227590,17240.101664,20470.152255,9288.245057,67095.131230,46892.976390,28686.854683,-0.038000,0.982000,0.162000,192.000000,254.000000,208.000000,30.000000,176.000000,5.000000,16.000000,0.000000,0.000000,0.000000,1648352750.707970,0.000000
65.000000,-36682.766579,-23921.082785,17239.811091,20470.867511,9288.334464,67087.621044,46890.405940,28695.102476,-0.038000,0.982000,0.162000,192.000000,0.000000,0.000000,0.000000,0.000000,0.000000,0.000000,0.000000,0.000000,0.000000,1648352750.707988,0.000000
66.000000,-36681.425474,-23917.148878,17240.705161,20476.164875,9290.234362,67087.822209,46891.411768,28694.655442,-0.038000,0.982000,0.162000,192.000000,0.000000,0.000000,0.000000,0.000000,0.000000,0.000000,0.000000,0.000000,0.000000,1648352750.716382,0.000000
67.000000,-36683.459483,-23919.585218,17236.838309,20473.370907,9286.769842,67081.071983,46888.573097,28696.756506,-0.038000,0.982000,0.162000,192.000000,0.000000,0.000000,0.000000,0.000000,0.000000,0.000000,0.000000,0.000000,0.000000,1648352750.716399,0.000000
68.000000,-36677.737436,-23917.014768,17243.812054,20476.343689,9291.888391,67077.003965,46883.521603,28682.786665,-0.038000,0.982000,0.162000,192.000000,0.000000,0.000000,0.000000,0.000000,0.000000,0.000000,0.000000,0.000000,0.000000,1648352750.723019,0.000000
69.000000,-36676.172814,-23912.812640,17247.097760,20480.299947,9293.587124,67075.327584,46890.428292,28672.370752,-0.038000,0.982000,0.162000,192.000000,0.000000,0.000000,0.000000,0.000000,0.000000,0.000000,0.000000,0.000000,0.000000,1648352750.723034,0.000000
70.000000,-36680.196128,-23913.036157,17242.068618,20476.477799,9289.384996,67068.532654,46888.528393,28678.651593,-0.038000,0.982000,0.162000,192.000000,0.000000,0.000000,0.000000,0.000000,0.000000,0.000000,0.000000,0.000000,0.000000,1648352750.730989,0.000000
71.000000,-36679.056189,-23913.796117,17241.778045,20478.467104,9289.854382,67067.616232,46885.980294,28670.381447,-0.038000,0.982000,0.162000,192.000000,0.000000,0.000000,0.000000,0.000000,0.000000,0.000000,0.000000,0.000000,0.000000,1648352750.731005,0.000000
72.000000,-36674.742302,-23908.744622,17243.879109,20479.338822,9292.871868,67065.716334,46884.169803,28656.612773,-0.038000,0.982000,0.162000,192.000000,0.000000,0.000000,0.000000,0.000000,0.000000,0.000000,0.000000,0.000000,0.000000,1648352750.739031,0.000000
73.000000,-36677.357456,-23911.516239,17240.481644,20475.516674,9288.759147,67063.659974,46889.444815,28657.819767,-0.038000,0.982000,0.162000,192.000000,0.000000,0.000000,0.000000,0.000000,0.000000,0.000000,0.000000,0.000000,0.000000,1648352750.739048,0.000000
74.000000,-36668.684980,-23904.050756,17248.662382,20484.546779,9297.476327,67059.793122,46883.722768,28646.398025,-0.040000,0.980000,0.166000,192.000000,254.000000,192.000000,30.000000,160.000000,5.000000,48.000000,0.000000,0.000000,0.000000,1648352750.746080,0.000000
75.000000,-36666.896840,-23901.122677,17251.813978,20485.999642,9299.845612,67063.659974,46889.690684,28643.604057,-0.040000,0.980000,0.166000,192.000000,0.000000,0.000000,0.000000,0.000000,0.000000,0.000000,0.000000,0.000000,0.000000,1648352750.746096,0.000000
76.000000,-36660.861869,-23897.859323,17258.921833,20488.815962,9304.159499,67060.776599,46889.266001,28640.720682,-0.040000,0.980000,0.166000,192.000000,0.000000,0.000000,0.000000,0.000000,0.000000,0.000000,0.000000,0.000000,0.000000,1648352750.752438,0.000000
77.000000,-36656.883258,-23897.009956,17262.028725,20488.748907,9303.734816,67054.138130,46890.070664,28620.067670,-0.040000,0.980000,0.166000,192.000000,0.000000,0.000000,0.000000,0.000000,0.000000,0.000000,0.000000,0.000000,0.000000,1648352750.760717,0.000000
78.000000,-36664.371093,-23902.486134,17255.278499,20484.055040,9296.291685,67051.567680,46897.603202,28618.681862,-0.040000,0.980000,0.166000,192.000000,0.000000,0.000000,0.000000,0.000000,0.000000,0.000000,0.000000,0.000000,0.000000,1648352750.760733,0.000000
79.000000,-36676.441035,-23916.970064,17237.866490,20468.297061,9278.611455,67031.875793,46893.557536,28626.840249,-0.040000,0.980000,0.166000,192.000000,0.000000,0.000000,0.000000,0.000000,0.000000,0.000000,0.000000,0.000000,0.000000,1648352750.768675,0.000000
80.000000,-36685.851119,-23927.676550,17221.527364,20455.333049,9262.406440,67025.751415,46894.473957,28654.176432,-0.040000,0.980000,0.166000,192.000000,0.000000,0.000000,0.000000,0.000000,0.000000,0.000000,0.000000,0.000000,0.000000,1648352750.768691,0.000000
81.000000,-36690.075599,-23921.999207,17228.255240,20461.591537,9268.039080,67026.421967,46893.602239,28664.726456,-0.040000,0.980000,0.166000,192.000000,0.000000,0.000000,0.000000,0.000000,0.000000,0.000000,0.000000,0.000000,0.000000,1648352750.775241,0.000000
82.000000,-36686.409913,-23918.311169,17232.658533,20464.273747,9272.174152,67032.456938,46894.429254,28670.604965,-0.040000,0.980000,0.166000,192.000000,0.000000,0.000000,0.000000,0.000000,0.000000,0.000000,0.000000,0.000000,0.000000,1648352750.775258,0.000000
83.000000,-36670.428416,-23908.185829,17247.187167,20477.304814,9287.105118,67040.995305,46898.072588,28661.798377,-0.040000,0.980000,0.166000,192.000000,0.000000,0.000000,0.000000,0.000000,0.000000,0.000000,0.000000,0.000000,0.000000,1648352750.783089,0.000000
84.000000,-36672.529480,-23908.878733,17247.656554,20473.192093,9286.971007,67050.606555,46905.359257,28660.166700,-0.040000,0.980000,0.166000,192.000000,0.000000,0.000000,0.000000,0.000000,0.000000,0.000000,0.000000,0.000000,0.000000,1648352750.783105,0.000000
85.000000,-36670.093139,-23907.470573,17251.813978,20473.281500,9289.452051,67052.528805,46911.953022,28658.602078,-0.042000,0.982000,0.174000,192.000000,254.000000,176.000000,30.000000,176.000000,5.000000,112.000000,0.000000,0.000000,0.000000,1648352750.791288,0.000000
86.000000,-36674.384674,-23915.561904,17246.963650,20469.191130,9283.260618,67047.253793,46904.331077,28665.486415,-0.042000,0.982000,0.174000,192.000000,0.000000,0.000000,0.000000,0.000000,0.000000,0.000000,0.000000,0.000000,0.000000,1648352750.791323,0.000000
87.000000,-36675.122282,-23920.322826,17244.236737,20468.006488,9280.354891,67035.876755,46890.852975,28665.687581,-0.042000,0.982000,0.174000,192.000000,0.000000,0.000000,0.000000,0.000000,0.000000,0.000000,0.000000,0.000000,0.000000,1648352750.798381,0.000000
88.000000,-36673.937639,-23917.908838,17241.241603,20465.011354,9279.416118,67033.686284,46887.030826,28665.642877,-0.042000,0.982000,0.174000,192.000000,0.000000,0.000000,0.000000,0.000000,0.000000,0.000000,0.000000,0.000000,0.000000,1648352750.798397,0.000000
89.000000,-36673.200032,-23916.411271,17242.917984,20470.532235,9284.668778,67033.328656,46883.141623,28661.105473,-0.042000,0.982000,0.174000,192.000000,0.000000,0.000000,0.000000,0.000000,0.000000,0.000000,0.000000,0.000000,0.000000,1648352750.805932,0.000000
90.000000,-36679.592631,-23917.975893,17237.888841,20471.091029,9282.835935,67036.480252,46887.790786,28666.246374,-0.042000,0.982000,0.174000,192.000000,0.000000,0.000000,0.000000,0.000000,0.000000,0.000000,0.000000,0.000000,0.000000,1648352750.805949,0.000000
91.000000,-36680.263183,-23917.797079,17241.062789,20475.226101,9288.110946,67039.810662,46885.332094,28665.017028,-0.042000,0.982000,0.174000,192.000000,0.000000,0.000000,0.000000,0.000000,0.000000,0.000000,0.000000,0.000000,0.000000,1648352750.812900,0.000000
92.000000,-36675.122282,-23914.377262,17248.528272,20480.903444,9295.151746,67046.158558,46881.398187,28644.118147,-0.042000,0.982000,0.174000,192.000000,0.000000,0.000000,0.000000,0.000000,0.000000,0.000000,0.000000,0.000000,0.000000,1648352750.812916,0.000000
93.000000,-36672.238907,-23915.785422,17250.294060,20479.942319,9292.827164,67040.995305,46875.363216,28616.066708,-0.042000,0.982000,0.174000,192.000000,0.000000,0.000000,0.000000,0.000000,0.000000,0.000000,0.000000,0.000000,0.000000,1648352750.820900,0.000000
94.000000,-36675.234041,-23917.126526,17248.528272,20479.249415,9288.982664,67047.477311,46883.141623,28614.993824,-0.042000,0.982000,0.174000,192.000000,0.000000,0.000000,0.000000,0.000000,0.000000,0.000000,0.000000,0.000000,0.000000,1648352750.827747,0.000000
95.000000,-36683.303020,-23924.279085,17241.532176,20468.900558,9281.584237,67050.517148,46888.617800,28624.783888,-0.038000,0.978000,0.172000,192.000000,254.000000,208.000000,30.000000,144.000000,5.000000,96.000000,0.000000,0.000000,0.000000,1648352750.827763,0.000000
96.000000,-36680.911384,-23923.317960,17241.822748,20465.816017,9281.405423,67042.224651,46883.588658,28625.409737,-0.038000,0.978000,0.172000,192.000000,0.000000,0.000000,0.000000,0.000000,0.000000,0.000000,0.000000,0.000000,0.000000,1648352750.835522,0.000000
97.000000,-36674.228212,-23916.254808,17247.388333,20469.146427,9287.462746,67040.995305,46881.107614,28605.896664,-0.038000,0.978000,0.172000,192.000000,0.000000,0.000000,0.000000,0.000000,0.000000,0.000000,0.000000,0.000000,0.000000,1648352750.835539,0.000000
98.000000,-36678.251526,-23918.825259,17240.883975,20463.223215,9281.092498,67041.576450,46883.253382,28600.152266,-0.038000,0.978000,0.172000,192.000000,0.000000,0.000000,0.000000,0.000000,0.000000,0.000000,0.000000,0.000000,0.000000,1648352750.843581,0.000000
99.000000,-36672.484776,-23913.147916,17245.421379,20468.967613,9285.048757,67046.002095,46883.387492,28595.167827,-0.038000,0.978000,0.172000,192.000000,0.000000,0.000000,0.000000,0.000000,0.000000,0.000000,0.000000,0.000000,0.000000,1648352750.843598,0.000000
100.000000,-36668.506166,-23912.656178,17249.265879,20471.582767,9287.798022,67046.538537,46889.511870,28585.735391,-0.038000,0.978000,0.172000,192.000000,0.000000,0.000000,0.000000,0.000000,0.000000,0.000000,0.000000,0.000000,0.000000,1648352750.851526,0.000000
101.000000,-36673.200032,-23917.126526,17243.342667,20464.117284,9281.204257,67042.850499,46886.382626,28585.377763,-0.038000,0.978000,0.172000,192.000000,0.000000,0.000000,0.000000,0.000000,0.000000,0.000000,0.000000,0.000000,0.000000,1648352750.851542,0.000000
102.000000,-36671.568355,-23914.712538,17245.510786,20465.324279,9282.992397,67043.185776,46878.224239,28574.939498,-0.038000,0.978000,0.172000,192.000000,0.000000,0.000000,0.000000,0.000000,0.000000,0.000000,0.000000,0.000000,0.000000,1648352750.858202,0.000000
103.000000,-36675.099930,-23918.422928,17243.275612,20462.329145,9280.533705,67040.369456,46872.479841,28569.195100,-0.038000,0.978000,0.172000,192.000000,0.000000,0.000000,0.000000,0.000000,0.000000,0.000000,0.000000,0.000000,0.000000,1648352750.858218,0.000000
104.000000,-36669.780215,-23913.706710,17248.371810,20466.397162,9285.473440,67041.285877,46866.713091,28543.580001,-0.038000,0.978000,0.172000,192.000000,0.000000,0.000000,0.000000,0.000000,0.000000,0.000000,0.000000,0.000000,0.000000,1648352750.866140,0.000000
105.000000,-36673.088273,-23915.740718,17242.582708,20459.959860,9280.891333,67040.101235,46863.807364,28537.589733,-0.042000,0.972000,0.186000,192.000000,254.000000,176.000000,30.000000,96.000000,5.000000,208.000000,0.000000,0.000000,0.000000,1648352750.866156,0.000000
106.000000,-36678.698561,-23921.351006,17238.626449,20455.422456,9276.800963,67043.342238,46869.060024,28546.284562,-0.042000,0.972000,0.186000,192.000000,0.000000,0.000000,0.000000,0.000000,0.000000,0.000000,0.000000,0.000000,0.000000,1648352750.874211,0.000000
107.000000,-36673.758826,-23919.428756,17245.555490,20460.026915,9281.830106,67045.689171,46872.122213,28548.072701,-0.042000,0.972000,0.186000,192.000000,0.000000,0.000000,0.000000,0.000000,0.000000,0.000000,0.000000,0.000000,0.000000,1648352750.874245,0.000000
108.000000,-36669.377884,-23919.026425,17250.919908,20462.664421,9286.054586,67045.979744,46872.189268,28526.659730,-0.042000,0.972000,0.186000,192.000000,0.000000,0.000000,0.000000,0.000000,0.000000,0.000000,0.000000,0.000000,0.000000,1648352750.881308,0.000000
109.000000,-36679.816148,-23927.564791,17242.158025,20454.818959,9277.918551,67041.375284,46863.539143,28524.335149,-0.042000,0.972000,0.186000,192.000000,0.000000,0.000000,0.000000,0.000000,0.000000,0.000000,0.000000,0.000000,0.000000,1648352750.887786,0.000000
110.000000,-36685.940526,-23932.884506,17237.084179,20450.862700,9273.023519,67038.156633,46861.728652,28531.107727,-0.042000,0.972000,0.186000,192.000000,0.000000,0.000000,0.000000,0.000000,0.000000,0.000000,0.000000,0.000000,0.000000,1648352750.887802,0.000000
111.000000,-36682.699523,-23931.141070,17239.498167,20454.327220,9276.912722,67042.403465,46865.170820,28536.963884,-0.042000,0.972000,0.186000,192.000000,0.000000,0.000000,0.000000,0.000000,0.000000,0.000000,0.000000,0.000000,0.000000,1648352750.895723,0.000000
112.000000,-36677.916250,-23925.575486,17244.035571,20461.435075,9282.970045,67046.829110,46863.248570,28525.698605,-0.042000,0.972000,0.186000,192.000000,0.000000,0.000000,0.000000,0.000000,0.000000,0.000000,0.000000,0.000000,0.000000,1648352750.895740,0.000000
113.000000,-36685.851119,-23933.376245,17235.765426,20450.817996,9272.710594,67044.146901,46857.660634,28532.426480,-0.042000,0.972000,0.186000,192.000000,0.000000,0.000000,0.000000,0.000000,0.000000,0.000000,0.000000,0.000000,0.000000,1648352750.903569,0.000000
114.000000,-36674.608192,-23922.870925,17246.471911,20458.797569,9282.970045,67043.476348,46849.792820,28522.792878,-0.042000,0.972000,0.186000,192.000000,0.000000,0.000000,0.000000,0.000000,0.000000,0.000000,0.000000,0.000000,0.000000,1648352750.903585,0.000000
115.000000,-36678.922078,-23921.596875,17241.778045,20454.237813,9278.767917,67048.773712,46848.339957,28519.730689,-0.046000,0.972000,0.182000,192.000000,254.000000,144.000000,30.000000,96.000000,5.000000,176.000000,0.000000,0.000000,0.000000,1648352750.910504,0.000000
116.000000,-36678.139767,-23922.401538,17240.906327,20451.890880,9277.225647,67046.985572,46843.757849,28518.322530,-0.046000,0.972000,0.182000,192.000000,0.000000,0.000000,0.000000,0.000000,0.000000,0.000000,0.000000,0.000000,0.000000,1648352750.910520,0.000000
117.000000,-36685.717009,-23931.051663,17233.954934,20447.867566,9270.475420,67043.409293,46842.662614,28523.262265,-0.046000,0.972000,0.182000,192.000000,0.000000,0.000000,0.000000,0.000000,0.000000,0.000000,0.000000,0.000000,0.000000,1648352750.918425,0.000000
118.000000,-36689.717971,-23934.739701,17233.038513,20448.940450,9270.251902,67042.202299,46839.220445,28525.966826,-0.046000,0.972000,0.182000,192.000000,0.000000,0.000000,0.000000,0.000000,0.000000,0.000000,0.000000,0.000000,0.000000,1648352750.918441,0.000000
119.000000,-36681.648991,-23926.357797,17240.705161,20452.807302,9277.829144,67042.269354,46840.963881,28514.299216,-0.046000,0.972000,0.182000,192.000000,0.000000,0.000000,0.000000,0.000000,0.000000,0.000000,0.000000,0.000000,0.000000,1648352750.926516,0.000000
120.000000,-36681.939564,-23923.630884,17241.710990,20452.181453,9277.829144,67051.232404,46848.228198,28508.286596,-0.046000,0.972000,0.182000,192.000000,0.000000,0.000000,0.000000,0.000000,0.000000,0.000000,0.000000,0.000000,0.000000,1648352750.926532,0.000000
121.000000,-36684.510015,-23921.306303,17237.508862,20449.342781,9273.537609,67053.311116,46849.725765,28526.659730,-0.046000,0.972000,0.182000,192.000000,0.000000,0.000000,0.000000,0.000000,0.000000,0.000000,0.000000,0.000000,0.000000,1648352750.933504,0.000000
122.000000,-36684.510015,-23922.781518,17234.714894,20442.190223,9269.022556,67043.521052,46839.712183,28537.477975,-0.046000,0.972000,0.182000,192.000000,0.000000,0.000000,0.000000,0.000000,0.000000,0.000000,0.000000,0.000000,0.000000,1648352750.933520,0.000000
123.000000,-36684.219442,-23930.492870,17239.654629,20440.804415,9271.794173,67045.711523,46840.718012,28530.571286,-0.046000,0.972000,0.182000,192.000000,0.000000,0.000000,0.000000,0.000000,0.000000,0.000000,0.000000,0.000000,0.000000,1648352750.939920,0.000000
124.000000,-36683.928869,-23937.176041,17243.655591,20441.698485,9274.968120,67047.454959,46841.343861,28519.685986,-0.046000,0.972000,0.182000,192.000000,0.000000,0.000000,0.000000,0.000000,0.000000,0.000000,0.000000,0.000000,0.000000,1648352750.948184,0.000000
125.000000,-36687.125169,-23940.394692,17236.503033,20436.892860,9267.636748,67043.744569,46838.549893,28519.328358,-0.052000,0.968000,0.180000,192.000000,254.000000,96.000000,30.000000,64.000000,5.000000,160.000000,0.000000,0.000000,0.000000,1648352750.948201,0.000000
126.000000,-36682.431302,-23933.264486,17236.838309,20438.099854,9267.010899,67033.574526,46832.179646,28511.326434,-0.052000,0.968000,0.180000,192.000000,0.000000,0.000000,0.000000,0.000000,0.000000,0.000000,0.000000,0.000000,0.000000,1648352750.956199,0.000000
127.000000,-36674.608192,-23925.731948,17243.208557,20442.793720,9273.939940,67033.395712,46833.185474,28488.415896,-0.052000,0.968000,0.180000,192.000000,0.000000,0.000000,0.000000,0.000000,0.000000,0.000000,0.000000,0.000000,0.000000,1648352750.956216,0.000000
128.000000,-36674.138805,-23925.441375,17242.828577,20441.989057,9271.145972,67031.048778,46830.749134,28477.754113,-0.052000,0.968000,0.180000,192.000000,0.000000,0.000000,0.000000,0.000000,0.000000,0.000000,0.000000,0.000000,0.000000,1648352750.963220,0.000000
129.000000,-36685.582898,-23934.516184,17230.713931,20428.555659,9258.316071,67022.309246,46821.942547,28488.438247,-0.052000,0.968000,0.180000,192.000000,0.000000,0.000000,0.000000,0.000000,0.000000,0.000000,0.000000,0.000000,0.000000,1648352750.963254,0.000000
130.000000,-36691.930794,-23938.584201,17227.115301,20424.487641,9256.617338,67021.839860,46821.562567,28505.470277,-0.052000,0.968000,0.180000,192.000000,0.000000,0.000000,0.000000,0.000000,0.000000,0.000000,0.000000,0.000000,0.000000,1648352750.970495,0.000000
131.000000,-36696.691715,-23940.059416,17223.427263,20421.313694,9253.398687,67023.829165,46816.578128,28533.499364,-0.052000,0.968000,0.180000,192.000000,0.000000,0.000000,0.000000,0.000000,0.000000,0.000000,0.000000,0.000000,0.000000,1648352750.970510,0.000000
132.000000,-36684.130035,-23932.415120,17234.804301,20431.975476,9264.753373,67024.656180,46813.471235,28534.639303,-0.052000,0.968000,0.180000,192.000000,0.000000,0.000000,0.000000,0.000000,0.000000,0.000000,0.000000,0.000000,0.000000,1648352750.978751,0.000000
133.000000,-36683.772407,-23932.660989,17236.614792,20433.763615,9266.183885,67034.379188,46822.121361,28541.948323,-0.052000,0.968000,0.180000,192.000000,0.000000,0.000000,0.000000,0.000000,0.000000,0.000000,0.000000,0.000000,0.000000,1648352750.978767,0.000000
134.000000,-36675.502262,-23925.575486,17246.628373,20442.994886,9276.398632,67035.429720,46819.617965,28536.427443,-0.052000,0.968000,0.180000,192.000000,0.000000,0.000000,0.000000,0.000000,0.000000,0.000000,0.000000,0.000000,0.000000,1648352750.986671,0.000000
135.000000,-36675.837538,-23924.435547,17247.276574,20442.637258,9275.839838,67041.777616,46820.400276,28537.142698,-0.060000,0.968000,0.180000,192.000000,254.000000,32.000000,30.000000,64.000000,5.000000,160.000000,0.000000,0.000000,0.000000,1648352750.986688,0.000000
136.000000,-36667.969724,-23926.402500,17247.500091,20442.234926,9275.996301,67040.570622,46809.000887,28547.804481,-0.060000,0.968000,0.180000,192.000000,0.000000,0.000000,0.000000,0.000000,0.000000,0.000000,0.000000,0.000000,0.000000,1648352750.993455,0.000000
137.000000,-36669.869622,-23928.548268,17248.036533,20441.474967,9276.465687,67047.298497,46808.263279,28553.079492,-0.060000,0.968000,0.180000,192.000000,0.000000,0.000000,0.000000,0.000000,0.000000,0.000000,0.000000,0.000000,0.000000,1648352750.993471,0.000000
138.000000,-36668.819090,-23921.641579,17254.585594,20448.649877,9282.724176,67049.153691,46806.229270,28539.221411,-0.060000,0.968000,0.180000,192.000000,0.000000,0.000000,0.000000,0.000000,0.000000,0.000000,0.000000,0.000000,0.000000,1648352751.000467,0.000000
139.000000,-36671.478948,-23918.132355,17249.802321,20445.565336,9277.784440,67052.081770,46810.990192,28552.408940,-0.060000,0.968000,0.180000,192.000000,0.000000,0.000000,0.000000,0.000000,0.000000,0.000000,0.000000,0.000000,0.000000,1648352751.008102,0.000000
140.000000,-36672.618887,-23924.457899,17246.315449,20438.524537,9272.352966,67046.940869,46803.815282,28562.534280,-0.060000,0.968000,0.180000,192.000000,0.000000,0.000000,0.000000,0.000000,0.000000,0.000000,0.000000,0.000000,0.000000,1648352751.008114,0.000000
141.000000,-36674.541137,-23931.632809,17240.593402,20431.841365,9268.217894,67046.560889,46803.949392,28574.179539,-0.060000,0.968000,0.180000,192.000000,0.000000,0.000000,0.000000,0.000000,0.000000,0.000000,0.000000,0.000000,0.000000,1648352751.016338,0.000000
142.000000,-36672.596535,-23934.762053,17239.185243,20434.568278,9269.514295,67047.656125,46801.825977,28574.805388,-0.060000,0.968000,0.180000,192.000000,0.000000,0.000000,0.000000,0.000000,0.000000,0.000000,0.000000,0.000000,0.000000,1648352751.016354,0.000000
143.000000,-36672.708294,-23935.119681,17240.459292,20436.401121,9271.548304,67049.801892,46803.480006,28570.513853,-0.060000,0.968000,0.180000,192.000000,0.000000,0.000000,0.000000,0.000000,0.000000,0.000000,0.000000,0.000000,0.000000,1648352751.022950,0.000000
144.000000,-36667.969724,-23928.660027,17247.522443,20437.406950,9277.113888,67055.859215,46807.100988,28567.541071,-0.060000,0.968000,0.180000,192.000000,0.000000,0.000000,0.000000,0.000000,0.000000,0.000000,0.000000,0.000000,0.000000,1648352751.022966,0.000000
145.000000,-36662.426491,-23924.346140,17252.640993,20440.200918,9279.684339,67054.540462,46808.911480,28560.343809,-0.058000,0.972000,0.184000,192.000000,254.000000,48.000000,30.000000,96.000000,5.000000,192.000000,0.000000,0.000000,0.000000,1648352751.031083,0.000000
146.000000,-36657.084424,-23920.546343,17259.927661,20448.359304,9286.322807,67056.418008,46809.269107,28546.753949,-0.058000,0.972000,0.184000,192.000000,0.000000,0.000000,0.000000,0.000000,0.000000,0.000000,0.000000,0.000000,0.000000,1648352751.031099,0.000000
147.000000,-36659.945447,-23921.373358,17257.334859,20448.962802,9285.160516,67062.564738,46809.291459,28539.087300,-0.058000,0.972000,0.184000,192.000000,0.000000,0.000000,0.000000,0.000000,0.000000,0.000000,0.000000,0.000000,0.000000,1648352751.038986,0.000000
148.000000,-36665.578087,-23923.988512,17252.842158,20446.660572,9280.131373,67060.955413,46803.278840,28544.608181,-0.058000,0.972000,0.184000,192.000000,0.000000,0.000000,0.000000,0.000000,0.000000,0.000000,0.000000,0.000000,0.000000,1648352751.039002,0.000000
149.000000,-36669.936677,-23925.910762,17250.092894,20445.855909,9277.583275,67057.289726,46807.816244,28560.544975,-0.058000,0.972000,0.184000,192.000000,0.000000,0.000000,0.000000,0.000000,0.000000,0.000000,0.000000,0.000000,0.000000,1648352751.046079,0.000000
150.000000,-36677.402160,-23929.732910,17243.230908,20438.166909,9269.961330,67047.209090,46799.210822,28581.063876,-0.058000,0.972000,0.184000,192.000000,0.000000,0.000000,0.000000,0.000000,0.000000,0.000000,0.000000,0.000000,0.000000,1648352751.046114,0.000000
151.000000,-36676.016352,-23927.900067,17243.320315,20434.300057,9269.022556,67040.123587,46786.962067,28589.825760,-0.058000,0.972000,0.184000,192.000000,0.000000,0.000000,0.000000,0.000000,0.000000,0.000000,0.000000,0.000000,0.000000,1648352751.053464,0.000000
152.000000,-36664.371093,-23919.965198,17255.099685,20445.610040,9280.667815,67044.325715,46781.307075,28574.492463,-0.058000,0.972000,0.184000,192.000000,0.000000,0.000000,0.000000,0.000000,0.000000,0.000000,0.000000,0.000000,0.000000,1648352751.053480,0.000000
153.000000,-36666.427453,-23923.005035,17251.612812,20443.017238,9278.007958,67049.265450,46788.392578,28576.660583,-0.058000,0.972000,0.184000,192.000000,0.000000,0.000000,0.000000,0.000000,0.000000,0.000000,0.000000,0.000000,0.000000,1648352751.060535,0.000000
154.000000,-36673.535308,-23930.448166,17242.783873,20437.429301,9272.107097,67044.258659,46788.526689,28588.864635,-0.058000,0.972000,0.184000,192.000000,0.000000,0.000000,0.000000,0.000000,0.000000,0.000000,0.000000,0.000000,0.000000,1648352751.060552,0.000000
155.000000,-36671.434244,-23925.664893,17241.755693,20438.815110,9272.956463,67041.777616,46785.732721,28590.295147,-0.052000,0.974000,0.186000,192.000000,254.000000,96.000000,30.000000,112.000000,5.000000,208.000000,0.000000,0.000000,0.000000,1648352751.068793,0.000000
156.000000,-36665.667494,-23918.400576,17246.561318,20444.939488,9278.767917,67044.348066,46789.890145,28586.450647,-0.052000,0.974000,0.186000,192.000000,0.000000,0.000000,0.000000,0.000000,0.000000,0.000000,0.000000,0.000000,0.000000,1648352751.075399,0.000000
157.000000,-36656.168003,-23910.711576,17256.574900,20454.707200,9287.954484,67050.070113,46792.125319,28568.636306,-0.052000,0.974000,0.186000,192.000000,0.000000,0.000000,0.000000,0.000000,0.000000,0.000000,0.000000,0.000000,0.000000,1648352751.075417,0.000000
158.000000,-36654.648084,-23910.130430,17257.446618,20456.405932,9288.446222,67055.725104,46797.132110,28558.287449,-0.052000,0.974000,0.186000,192.000000,0.000000,0.000000,0.000000,0.000000,0.000000,0.000000,0.000000,0.000000,0.000000,1648352751.083240,0.000000
