%OpenBCI Raw EEG Data
%Number of channels = 8
%Sample Rate = 256 Hz
%Board = OpenBCI_GUI$BoardCytonSerial
%Channels = Fp1, Fp2, F3, F4, Fz, Pz, O1, O2
%Data recorded at AIMS Lab (http://aimsl.uiu.ac.bd) by Rana Depto (mail@ranadepto.com)
%Brainwaves were obtained via the Ultracortex Mark IV Headset using the OpenBCI Cyton Board
%Recording Application = ConcentrateToday (https://concentrate.today)
%Data type = RAW data with noise
%Day No = 7
%Subject ID = 1
%Session ID = 7
%Record starting timestamp (UTC+6) = 2022-03-14T12:14:29.211778
%Record ending timestamp (UTC+6)   = 2022-03-14T12:14:55.057168
%Recorded durations = ~25 seconds
Sample Index, EXG Channel 0, EXG Channel 1, EXG Channel 2, EXG Channel 3, EXG Channel 4, EXG Channel 5, EXG Channel 6, EXG Channel 7, Accel Channel 0, Accel Channel 1, Accel Channel 2, Other, Other, Other, Other, Other, Other, Other, Analog Channel 0, Analog Channel 1, Analog Channel 2, Timestamp, Timestamp (Formatted)
221.000000,8123.003915,12398.937333,-734.120695,6581.962893,-22029.029969,7919.357171,19446.196490,9853.386563,-0.166000,0.956000,0.154000,192.000000,0.000000,0.000000,0.000000,0.000000,0.000000,0.000000,0.000000,0.000000,0.000000,1647238469.216745,0.000000
222.000000,8116.052522,12386.733280,-739.999204,6577.470193,-22034.036760,7921.055904,19452.007944,9870.753869,-0.166000,0.956000,0.154000,192.000000,0.000000,0.000000,0.000000,0.000000,0.000000,0.000000,0.000000,0.000000,0.000000,1647238469.216753,0.000000
223.000000,8118.444159,12387.314425,-723.257747,6585.270951,-22021.877411,7934.779875,19459.160502,9890.401052,-0.168000,0.952000,0.154000,192.000000,250.000000,192.000000,29.000000,192.000000,4.000000,208.000000,0.000000,0.000000,0.000000,1647238469.223744,0.000000
224.000000,8110.911621,12378.083155,-728.041020,6583.169887,-22024.425510,7937.909119,19470.202264,9886.578904,-0.168000,0.952000,0.154000,192.000000,0.000000,0.000000,0.000000,0.000000,0.000000,0.000000,0.000000,0.000000,0.000000,1647238469.223749,0.000000
225.000000,8097.053539,12361.565216,-747.084707,6568.373033,-22039.579992,7919.468930,19459.786351,9843.372982,-0.168000,0.952000,0.154000,192.000000,0.000000,0.000000,0.000000,0.000000,0.000000,0.000000,0.000000,0.000000,0.000000,1647238469.231320,0.000000
226.000000,8107.290638,12365.923806,-739.261596,6575.793812,-22031.198088,7932.991735,19459.875758,9888.925837,-0.168000,0.952000,0.154000,192.000000,0.000000,0.000000,0.000000,0.000000,0.000000,0.000000,0.000000,0.000000,0.000000,1647238469.231324,0.000000
227.000000,8104.295505,12362.839265,-733.226625,6570.474097,-22032.695655,7930.398933,19452.432627,9885.863648,-0.168000,0.952000,0.154000,192.000000,0.000000,0.000000,0.000000,0.000000,0.000000,0.000000,0.000000,0.000000,0.000000,1647238469.239305,0.000000
228.000000,8109.101130,12367.063745,-725.783494,6576.419661,-22025.610152,7933.595232,19460.523958,9870.932683,-0.168000,0.952000,0.154000,192.000000,0.000000,0.000000,0.000000,0.000000,0.000000,0.000000,0.000000,0.000000,0.000000,1647238469.239309,0.000000
229.000000,8116.320743,12373.232826,-721.179035,6585.740338,-22017.965855,7945.285195,19474.806723,9910.159994,-0.168000,0.952000,0.154000,192.000000,0.000000,0.000000,0.000000,0.000000,0.000000,0.000000,0.000000,0.000000,0.000000,1647238469.247342,0.000000
230.000000,8113.213851,12369.120105,-724.352983,6581.873486,-22023.106757,7938.736133,19470.448133,9899.587619,-0.168000,0.952000,0.154000,192.000000,0.000000,0.000000,0.000000,0.000000,0.000000,0.000000,0.000000,0.000000,0.000000,1647238469.247346,0.000000
231.000000,8107.067121,12363.107486,-733.763067,6570.205876,-22035.579030,7924.654534,19466.268357,9869.345709,-0.168000,0.952000,0.154000,192.000000,0.000000,0.000000,0.000000,0.000000,0.000000,0.000000,0.000000,0.000000,0.000000,1647238469.253473,0.000000
232.000000,8109.503461,12362.436934,-737.428753,6568.641254,-22038.909440,7920.787683,19458.042915,9857.566340,-0.168000,0.952000,0.154000,192.000000,0.000000,0.000000,0.000000,0.000000,0.000000,0.000000,0.000000,0.000000,0.000000,1647238469.253479,0.000000
233.000000,8113.973810,12366.370841,-734.947709,6573.670396,-22032.941524,7927.806130,19460.658069,9871.714994,-0.176000,0.944000,0.154000,192.000000,250.000000,128.000000,29.000000,128.000000,4.000000,208.000000,0.000000,0.000000,0.000000,1647238469.261017,0.000000
234.000000,8115.560784,12373.881027,-728.577462,6577.716062,-22026.839498,7937.976174,19464.636679,9893.530297,-0.176000,0.944000,0.154000,192.000000,0.000000,0.000000,0.000000,0.000000,0.000000,0.000000,0.000000,0.000000,0.000000,1647238469.268887,0.000000
235.000000,8113.996162,12369.097754,-726.811674,6575.503239,-22028.113547,7935.584537,19461.909766,9877.079413,-0.176000,0.944000,0.154000,192.000000,0.000000,0.000000,0.000000,0.000000,0.000000,0.000000,0.000000,0.000000,0.000000,1647238469.268898,0.000000
236.000000,8122.981563,12375.892684,-720.597889,6587.528478,-22020.983341,7932.052962,19459.965165,9834.722857,-0.176000,0.944000,0.154000,192.000000,0.000000,0.000000,0.000000,0.000000,0.000000,0.000000,0.000000,0.000000,0.000000,1647238469.276995,0.000000
237.000000,8117.214813,12374.126896,-734.612433,6581.784079,-22029.231135,7929.482511,19454.041952,9859.645052,-0.176000,0.944000,0.154000,192.000000,0.000000,0.000000,0.000000,0.000000,0.000000,0.000000,0.000000,0.000000,0.000000,1647238469.276999,0.000000
238.000000,8111.671580,12370.103582,-731.326727,6575.950274,-22032.136861,7932.947032,19461.105104,9887.651788,-0.176000,0.944000,0.154000,192.000000,0.000000,0.000000,0.000000,0.000000,0.000000,0.000000,0.000000,0.000000,0.000000,1647238469.283707,0.000000
239.000000,8119.248822,12376.809105,-717.982735,6587.036739,-22022.592666,7947.743886,19477.824208,9919.435968,-0.176000,0.944000,0.154000,192.000000,0.000000,0.000000,0.000000,0.000000,0.000000,0.000000,0.000000,0.000000,0.000000,1647238469.283712,0.000000
240.000000,8125.775531,12377.814934,-718.005087,6591.752957,-22019.038739,7946.983927,19478.271243,9908.215393,-0.176000,0.944000,0.154000,192.000000,0.000000,0.000000,0.000000,0.000000,0.000000,0.000000,0.000000,0.000000,0.000000,1647238469.291586,0.000000
241.000000,8126.401380,12376.697347,-723.525968,6586.477946,-22024.559620,7937.059753,19464.122589,9891.540991,-0.176000,0.944000,0.154000,192.000000,0.000000,0.000000,0.000000,0.000000,0.000000,0.000000,0.000000,0.000000,0.000000,1647238469.291590,0.000000
242.000000,8128.256575,12380.810068,-720.530834,6590.680074,-22021.966818,7936.500959,19461.373325,9877.437041,-0.176000,0.944000,0.154000,192.000000,0.000000,0.000000,0.000000,0.000000,0.000000,0.000000,0.000000,0.000000,0.000000,1647238469.299515,0.000000
243.000000,8118.846490,12372.450515,-724.554148,6585.069786,-22026.727739,7931.829444,19461.239214,9864.718898,-0.186000,0.954000,0.152000,192.000000,250.000000,48.000000,29.000000,208.000000,4.000000,192.000000,0.000000,0.000000,0.000000,1647238469.299519,0.000000
244.000000,8122.646287,12373.612806,-722.855416,6583.348701,-22024.716082,7935.673944,19461.418028,9876.364157,-0.186000,0.954000,0.152000,192.000000,0.000000,0.000000,0.000000,0.000000,0.000000,0.000000,0.000000,0.000000,0.000000,1647238469.307637,0.000000
245.000000,8126.624897,12375.512704,-721.871939,6586.969684,-22024.090233,7939.809017,19461.015697,9899.945247,-0.186000,0.954000,0.152000,192.000000,0.000000,0.000000,0.000000,0.000000,0.000000,0.000000,0.000000,0.000000,0.000000,1647238469.307641,0.000000
246.000000,8128.502444,12378.999576,-717.468645,6590.680074,-22020.916286,7943.564110,19466.156598,9896.234858,-0.186000,0.954000,0.152000,192.000000,0.000000,0.000000,0.000000,0.000000,0.000000,0.000000,0.000000,0.000000,0.000000,1647238469.314244,0.000000
247.000000,8132.548110,12386.085079,-711.254860,6599.017274,-22014.501335,7946.268671,19467.229482,9882.376776,-0.186000,0.954000,0.152000,192.000000,0.000000,0.000000,0.000000,0.000000,0.000000,0.000000,0.000000,0.000000,0.000000,1647238469.314273,0.000000
248.000000,8129.977659,12383.045242,-717.066314,6593.406986,-22020.648065,7934.377543,19451.225633,9847.463351,-0.186000,0.954000,0.152000,192.000000,0.000000,0.000000,0.000000,0.000000,0.000000,0.000000,0.000000,0.000000,0.000000,1647238469.321403,0.000000
249.000000,8130.603508,12380.050108,-718.094494,6584.578047,-22023.665550,7934.466950,19462.200339,9857.543988,-0.186000,0.954000,0.152000,192.000000,0.000000,0.000000,0.000000,0.000000,0.000000,0.000000,0.000000,0.000000,0.000000,1647238469.329163,0.000000
250.000000,8115.381970,12362.459286,-733.964233,6571.032890,-22037.903611,7920.787683,19449.817473,9873.324320,-0.186000,0.954000,0.152000,192.000000,0.000000,0.000000,0.000000,0.000000,0.000000,0.000000,0.000000,0.000000,0.000000,1647238469.329167,0.000000
251.000000,8113.012685,12355.507893,-738.546340,6574.028024,-22040.585821,7914.864470,19436.786406,9856.627566,-0.186000,0.954000,0.152000,192.000000,0.000000,0.000000,0.000000,0.000000,0.000000,0.000000,0.000000,0.000000,0.000000,1647238469.335878,0.000000
252.000000,8119.002952,12367.667242,-726.968137,6585.762690,-22028.694693,7929.303697,19448.051685,9874.285445,-0.186000,0.954000,0.152000,192.000000,0.000000,0.000000,0.000000,0.000000,0.000000,0.000000,0.000000,0.000000,0.000000,1647238469.335883,0.000000
253.000000,8111.760987,12368.918940,-730.700878,6580.711196,-22031.175736,7930.577747,19451.583260,9869.144543,-0.192000,0.954000,0.148000,192.000000,250.000000,0.000000,29.000000,208.000000,4.000000,160.000000,0.000000,0.000000,0.000000,1647238469.344031,0.000000
254.000000,8113.303258,12370.595321,-742.659061,6570.719966,-22038.618867,7926.599136,19441.457920,9869.591578,-0.192000,0.954000,0.148000,192.000000,0.000000,0.000000,0.000000,0.000000,0.000000,0.000000,0.000000,0.000000,0.000000,1647238469.344036,0.000000
255.000000,8119.695857,12375.691518,-729.918567,6577.246675,-22031.443957,7936.746828,19460.613365,9872.966692,-0.192000,0.954000,0.148000,192.000000,0.000000,0.000000,0.000000,0.000000,0.000000,0.000000,0.000000,0.000000,0.000000,1647238469.351795,0.000000
0.000000,8119.472339,12372.539922,-718.765046,6586.299132,-22025.833669,7941.664212,19464.256700,9874.754831,-0.192000,0.954000,0.148000,192.000000,0.000000,0.000000,0.000000,0.000000,0.000000,0.000000,0.000000,0.000000,0.000000,1647238469.351799,0.000000
1.000000,8114.979638,12362.749858,-723.704782,6578.207800,-22032.360379,7939.697258,19460.635717,9870.955035,-0.192000,0.954000,0.148000,192.000000,0.000000,0.000000,0.000000,0.000000,0.000000,0.000000,0.000000,0.000000,0.000000,1647238469.359051,0.000000
2.000000,8119.025304,12367.488428,-721.894291,6581.493507,-22030.192260,7942.915910,19460.434551,9862.997814,-0.192000,0.954000,0.148000,192.000000,0.000000,0.000000,0.000000,0.000000,0.000000,0.000000,0.000000,0.000000,0.000000,1647238469.359055,0.000000
3.000000,8125.820235,12373.657510,-719.480302,6587.573181,-22025.252524,7948.861474,19462.848540,9875.894770,-0.192000,0.954000,0.148000,192.000000,0.000000,0.000000,0.000000,0.000000,0.000000,0.000000,0.000000,0.000000,0.000000,1647238469.366506,0.000000
4.000000,8123.808578,12370.841190,-719.122674,6586.679111,-22024.649027,7953.778857,19469.442304,9892.032730,-0.192000,0.954000,0.148000,192.000000,0.000000,0.000000,0.000000,0.000000,0.000000,0.000000,0.000000,0.000000,0.000000,1647238469.366509,0.000000
5.000000,8119.360580,12360.693498,-727.683392,6579.750071,-22031.533364,7945.061677,19460.456903,9878.487572,-0.192000,0.954000,0.148000,192.000000,0.000000,0.000000,0.000000,0.000000,0.000000,0.000000,0.000000,0.000000,0.000000,1647238469.374561,0.000000
6.000000,8118.242993,12362.168713,-729.091552,6580.822954,-22031.756882,7943.497055,19457.886452,9877.034709,-0.192000,0.954000,0.148000,192.000000,0.000000,0.000000,0.000000,0.000000,0.000000,0.000000,0.000000,0.000000,0.000000,1647238469.374565,0.000000
7.000000,8115.761950,12361.095829,-729.203311,6580.621789,-22032.718007,7943.072372,19458.825226,9877.213523,-0.192000,0.954000,0.148000,192.000000,0.000000,0.000000,0.000000,0.000000,0.000000,0.000000,0.000000,0.000000,0.000000,1647238469.381619,0.000000
8.000000,8113.169147,12355.664355,-735.573558,6572.821030,-22040.317600,7937.730305,19454.913670,9863.891883,-0.186000,0.964000,0.152000,192.000000,250.000000,48.000000,30.000000,32.000000,4.000000,192.000000,0.000000,0.000000,0.000000,1647238469.388627,0.000000
9.000000,8112.140967,12358.480675,-738.792209,6575.123259,-22041.435187,7938.467912,19455.718333,9863.847180,-0.186000,0.964000,0.152000,192.000000,0.000000,0.000000,0.000000,0.000000,0.000000,0.000000,0.000000,0.000000,0.000000,1647238469.388631,0.000000
10.000000,8119.338229,12363.465114,-734.210102,6583.125184,-22035.936658,7943.631165,19469.732877,9869.949206,-0.186000,0.964000,0.152000,192.000000,0.000000,0.000000,0.000000,0.000000,0.000000,0.000000,0.000000,0.000000,0.000000,1647238469.396209,0.000000
11.000000,8130.871729,12378.820762,-733.226625,6590.277742,-22033.880297,7937.730305,19468.883511,9833.202938,-0.186000,0.964000,0.152000,192.000000,0.000000,0.000000,0.000000,0.000000,0.000000,0.000000,0.000000,0.000000,0.000000,1647238469.396213,0.000000
12.000000,8128.100112,12376.004443,-733.159570,6590.948295,-22035.847251,7933.706991,19465.798970,9822.429397,-0.186000,0.964000,0.152000,192.000000,0.000000,0.000000,0.000000,0.000000,0.000000,0.000000,0.000000,0.000000,0.000000,1647238469.404159,0.000000
13.000000,8114.331438,12352.177483,-731.751410,6581.515858,-22038.238888,7947.341555,19467.520054,9912.529279,-0.186000,0.964000,0.152000,192.000000,0.000000,0.000000,0.000000,0.000000,0.000000,0.000000,0.000000,0.000000,0.000000,1647238469.404163,0.000000
14.000000,8112.655057,12350.948137,-727.191654,6580.822954,-22035.087292,7948.705011,19465.530749,9908.573021,-0.186000,0.964000,0.152000,192.000000,0.000000,0.000000,0.000000,0.000000,0.000000,0.000000,0.000000,0.000000,0.000000,1647238469.411214,0.000000
15.000000,8122.199252,12365.633233,-721.827235,6588.042568,-22029.789928,7947.028631,19466.491874,9892.613875,-0.186000,0.964000,0.152000,192.000000,0.000000,0.000000,0.000000,0.000000,0.000000,0.000000,0.000000,0.000000,0.000000,1647238469.411218,0.000000
16.000000,8112.789167,12355.016155,-729.046849,6578.185448,-22038.641219,7938.982003,19463.988479,9870.373889,-0.186000,0.964000,0.152000,192.000000,0.000000,0.000000,0.000000,0.000000,0.000000,0.000000,0.000000,0.000000,0.000000,1647238469.418878,0.000000
17.000000,8110.464586,12349.718791,-731.103209,6573.402175,-22042.888050,7933.595232,19457.215900,9848.469180,-0.186000,0.964000,0.152000,192.000000,0.000000,0.000000,0.000000,0.000000,0.000000,0.000000,0.000000,0.000000,0.000000,1647238469.418883,0.000000
18.000000,8113.951458,12351.417524,-731.840817,6573.670396,-22041.323428,7935.405724,19460.255737,9849.586767,-0.180000,0.958000,0.146000,192.000000,250.000000,96.000000,29.000000,240.000000,4.000000,144.000000,0.000000,0.000000,0.000000,1647238469.426820,0.000000
19.000000,8114.130272,12346.902471,-733.830122,6574.430355,-22041.770463,7941.775971,19470.917519,9871.893808,-0.180000,0.958000,0.146000,192.000000,0.000000,0.000000,0.000000,0.000000,0.000000,0.000000,0.000000,0.000000,0.000000,1647238469.426824,0.000000
20.000000,8109.190537,12343.259137,-733.539550,6572.172829,-22042.508071,7938.646726,19459.249909,9867.289349,-0.180000,0.958000,0.146000,192.000000,0.000000,0.000000,0.000000,0.000000,0.000000,0.000000,0.000000,0.000000,0.000000,1647238469.434773,0.000000
21.000000,8107.223583,12340.018134,-732.846645,6568.864771,-22043.916231,7940.144293,19450.733894,9895.586657,-0.180000,0.958000,0.146000,192.000000,0.000000,0.000000,0.000000,0.000000,0.000000,0.000000,0.000000,0.000000,0.000000,1647238469.434777,0.000000
22.000000,8120.545223,12354.569120,-724.844721,6577.917227,-22035.422568,7948.190921,19459.495778,9892.010378,-0.180000,0.958000,0.146000,192.000000,0.000000,0.000000,0.000000,0.000000,0.000000,0.000000,0.000000,0.000000,0.000000,1647238469.440840,0.000000
23.000000,8123.361543,12361.498161,-722.676602,6585.092137,-22030.259315,7949.532026,19463.228519,9877.481744,-0.180000,0.958000,0.146000,192.000000,0.000000,0.000000,0.000000,0.000000,0.000000,0.000000,0.000000,0.000000,0.000000,1647238469.448477,0.000000
24.000000,8121.618107,12360.715849,-723.034230,6586.924981,-22032.427434,7944.346421,19451.829130,9856.024069,-0.180000,0.958000,0.146000,192.000000,0.000000,0.000000,0.000000,0.000000,0.000000,0.000000,0.000000,0.000000,0.000000,1647238469.448505,0.000000
25.000000,8123.719171,12359.173579,-721.760180,6588.958989,-22031.354550,7948.816770,19460.300441,9875.492439,-0.180000,0.958000,0.146000,192.000000,0.000000,0.000000,0.000000,0.000000,0.000000,0.000000,0.000000,0.000000,0.000000,1647238469.456588,0.000000
26.000000,8131.050543,12365.834399,-715.836968,6595.083367,-22025.431338,7951.633090,19465.642508,9875.760660,-0.180000,0.958000,0.146000,192.000000,0.000000,0.000000,0.000000,0.000000,0.000000,0.000000,0.000000,0.000000,0.000000,1647238469.456592,0.000000
27.000000,8125.507310,12357.631309,-722.564843,6585.650931,-22032.829765,7938.579671,19450.912708,9860.136790,-0.180000,0.958000,0.146000,192.000000,0.000000,0.000000,0.000000,0.000000,0.000000,0.000000,0.000000,0.000000,0.000000,1647238469.464511,0.000000
28.000000,8125.395551,12355.776114,-722.229567,6583.728681,-22033.723835,7935.584537,19450.577432,9859.198017,-0.166000,0.954000,0.146000,192.000000,250.000000,208.000000,29.000000,208.000000,4.000000,144.000000,0.000000,0.000000,0.000000,1647238469.464515,0.000000
29.000000,8127.720133,12361.967547,-720.486131,6587.416719,-22030.304018,7932.701162,19445.257717,9838.522653,-0.166000,0.954000,0.146000,192.000000,0.000000,0.000000,0.000000,0.000000,0.000000,0.000000,0.000000,0.000000,0.000000,1647238469.471116,0.000000
30.000000,8128.480092,12361.453457,-716.127541,6593.697559,-22025.140765,7936.724476,19456.143016,9840.377848,-0.166000,0.954000,0.146000,192.000000,0.000000,0.000000,0.000000,0.000000,0.000000,0.000000,0.000000,0.000000,0.000000,1647238469.471120,0.000000
31.000000,8137.577252,12367.510780,-706.851567,6605.566335,-22014.277818,7956.684584,19487.346052,9899.878192,-0.166000,0.954000,0.146000,192.000000,0.000000,0.000000,0.000000,0.000000,0.000000,0.000000,0.000000,0.000000,0.000000,1647238469.479144,0.000000
32.000000,8136.794941,12362.034602,-713.579442,6599.754882,-22016.870620,7951.677793,19487.346052,9891.518640,-0.166000,0.954000,0.146000,192.000000,0.000000,0.000000,0.000000,0.000000,0.000000,0.000000,0.000000,0.000000,0.000000,1647238469.479148,0.000000
33.000000,8129.150644,12358.681841,-721.827235,6592.512917,-22021.184507,7942.088895,19475.924310,9884.656654,-0.166000,0.954000,0.146000,192.000000,0.000000,0.000000,0.000000,0.000000,0.000000,0.000000,0.000000,0.000000,0.000000,1647238469.487069,0.000000
34.000000,8133.464531,12368.203684,-715.792264,6599.553716,-22014.054300,7944.167607,19474.918482,9886.198924,-0.166000,0.954000,0.146000,192.000000,0.000000,0.000000,0.000000,0.000000,0.000000,0.000000,0.000000,0.000000,0.000000,1647238469.487073,0.000000
35.000000,8139.700668,12379.536018,-705.286945,6609.388484,-22003.370166,7947.028631,19474.605557,9871.066793,-0.166000,0.954000,0.146000,192.000000,0.000000,0.000000,0.000000,0.000000,0.000000,0.000000,0.000000,0.000000,0.000000,1647238469.495552,0.000000
36.000000,8131.363467,12369.880065,-711.746599,6597.631466,-22010.701538,7935.115151,19466.894205,9839.975517,-0.166000,0.954000,0.146000,192.000000,0.000000,0.000000,0.000000,0.000000,0.000000,0.000000,0.000000,0.000000,0.000000,1647238469.495556,0.000000
37.000000,8126.155511,12361.207588,-721.000221,6584.600399,-22018.435242,7937.752657,19455.383057,9894.402015,-0.166000,0.954000,0.146000,192.000000,0.000000,0.000000,0.000000,0.000000,0.000000,0.000000,0.000000,0.000000,0.000000,1647238469.501555,0.000000
38.000000,8130.491749,12363.062783,-722.609546,6585.919152,-22018.859925,7936.791532,19457.886452,9891.384529,-0.166000,0.948000,0.150000,192.000000,250.000000,208.000000,29.000000,160.000000,4.000000,176.000000,0.000000,0.000000,0.000000,1647238469.501559,0.000000
39.000000,8132.235185,12368.315443,-720.307317,6589.249562,-22014.076652,7937.395029,19478.226540,9877.705261,-0.166000,0.948000,0.150000,192.000000,0.000000,0.000000,0.000000,0.000000,0.000000,0.000000,0.000000,0.000000,0.000000,1647238469.508640,0.000000
40.000000,8127.407208,12359.464152,-717.893328,6581.761728,-22016.803565,7928.677848,19477.399525,9859.823866,-0.166000,0.948000,0.150000,192.000000,0.000000,0.000000,0.000000,0.000000,0.000000,0.000000,0.000000,0.000000,0.000000,1647238469.516851,0.000000
41.000000,8129.731790,12363.107486,-711.612488,6591.060053,-22012.109698,7934.556357,19475.924310,9890.311645,-0.166000,0.948000,0.150000,192.000000,0.000000,0.000000,0.000000,0.000000,0.000000,0.000000,0.000000,0.000000,0.000000,1647238469.516857,0.000000
42.000000,8128.547147,12362.079306,-710.606660,6592.714082,-22009.651006,7932.298831,19473.197397,9878.509924,-0.166000,0.948000,0.150000,192.000000,0.000000,0.000000,0.000000,0.000000,0.000000,0.000000,0.000000,0.000000,0.000000,1647238469.523937,0.000000
43.000000,8125.999048,12355.239672,-717.446294,6584.332178,-22016.714158,7925.056866,19476.572511,9863.623662,-0.166000,0.948000,0.150000,192.000000,0.000000,0.000000,0.000000,0.000000,0.000000,0.000000,0.000000,0.000000,0.000000,1647238469.523948,0.000000
44.000000,8126.155511,12350.411695,-720.821407,6578.587780,-22020.133975,7922.128787,19464.234348,9862.908407,-0.166000,0.948000,0.150000,192.000000,0.000000,0.000000,0.000000,0.000000,0.000000,0.000000,0.000000,0.000000,0.000000,1647238469.531395,0.000000
45.000000,8121.953383,12346.835416,-726.230529,6575.503239,-22021.430376,7923.000505,19465.240176,9880.007491,-0.166000,0.948000,0.150000,192.000000,0.000000,0.000000,0.000000,0.000000,0.000000,0.000000,0.000000,0.000000,0.000000,1647238469.531399,0.000000
46.000000,8115.516080,12345.337849,-722.877767,6576.397309,-22019.374015,7924.766293,19476.930139,9876.990006,-0.166000,0.948000,0.150000,192.000000,0.000000,0.000000,0.000000,0.000000,0.000000,0.000000,0.000000,0.000000,0.000000,1647238469.539273,0.000000
47.000000,8110.643400,12341.560404,-722.430733,6573.133954,-22019.865754,7920.407703,19474.091467,9852.067811,-0.166000,0.948000,0.150000,192.000000,0.000000,0.000000,0.000000,0.000000,0.000000,0.000000,0.000000,0.000000,0.000000,1647238469.539277,0.000000
48.000000,8112.096263,12346.231919,-722.430733,6569.624730,-22020.290437,7918.239584,19470.135208,9828.866700,-0.174000,0.952000,0.156000,192.000000,250.000000,144.000000,29.000000,192.000000,4.000000,224.000000,0.000000,0.000000,0.000000,1647238469.546478,0.000000
49.000000,8111.760987,12342.029791,-722.833064,6570.429393,-22017.228248,7927.336744,19468.548235,9876.587674,-0.174000,0.952000,0.156000,192.000000,0.000000,0.000000,0.000000,0.000000,0.000000,0.000000,0.000000,0.000000,0.000000,1647238469.546481,0.000000
50.000000,8121.014609,12346.857768,-717.401590,6581.761728,-22009.226323,7937.618546,19472.728011,9903.722692,-0.174000,0.952000,0.156000,192.000000,0.000000,0.000000,0.000000,0.000000,0.000000,0.000000,0.000000,0.000000,0.000000,1647238469.554006,0.000000
51.000000,8135.900871,12360.715849,-704.236413,6592.714082,-21996.910512,7950.850779,19483.970938,9908.394207,-0.174000,0.952000,0.156000,192.000000,0.000000,0.000000,0.000000,0.000000,0.000000,0.000000,0.000000,0.000000,0.000000,1647238469.554010,0.000000
52.000000,8125.373200,12353.652698,-708.125616,6583.482812,-22001.984358,7948.392087,19492.084621,9898.514736,-0.174000,0.952000,0.156000,192.000000,0.000000,0.000000,0.000000,0.000000,0.000000,0.000000,0.000000,0.000000,0.000000,1647238469.561955,0.000000
53.000000,8118.444159,12345.740181,-713.668849,6574.296245,-22009.203972,7940.188997,19487.323700,9866.305872,-0.174000,0.952000,0.156000,192.000000,0.000000,0.000000,0.000000,0.000000,0.000000,0.000000,0.000000,0.000000,0.000000,1647238469.561958,0.000000
54.000000,8121.640458,12344.734352,-710.472549,6575.145611,-22007.058204,7944.636994,19480.104086,9890.378701,-0.174000,0.952000,0.156000,192.000000,0.000000,0.000000,0.000000,0.000000,0.000000,0.000000,0.000000,0.000000,0.000000,1647238469.569008,0.000000
55.000000,8117.572441,12344.622593,-716.976907,6570.809373,-22010.925056,7940.345459,19474.493799,9893.999683,-0.174000,0.952000,0.156000,192.000000,0.000000,0.000000,0.000000,0.000000,0.000000,0.000000,0.000000,0.000000,0.000000,1647238469.576137,0.000000
56.000000,8111.090435,12335.391323,-727.035192,6558.851189,-22021.698597,7928.901366,19459.696944,9876.766488,-0.174000,0.952000,0.156000,192.000000,0.000000,0.000000,0.000000,0.000000,0.000000,0.000000,0.000000,0.000000,0.000000,1647238469.576141,0.000000
57.000000,8106.240106,12330.138663,-727.705744,6557.867713,-22025.744262,7928.744904,19471.342203,9878.688738,-0.174000,0.952000,0.156000,192.000000,0.000000,0.000000,0.000000,0.000000,0.000000,0.000000,0.000000,0.000000,0.000000,1647238469.583653,0.000000
58.000000,8102.395606,12331.770340,-727.728096,6560.974605,-22025.878373,7934.042267,19483.881531,9892.032730,-0.178000,0.946000,0.156000,192.000000,250.000000,112.000000,29.000000,144.000000,4.000000,224.000000,0.000000,0.000000,0.000000,1647238469.583659,0.000000
59.000000,8100.965095,12332.664410,-728.599814,6562.718041,-22024.425510,7933.751694,19481.981633,9885.818945,-0.178000,0.946000,0.156000,192.000000,0.000000,0.000000,0.000000,0.000000,0.000000,0.000000,0.000000,0.000000,0.000000,1647238469.591724,0.000000
60.000000,8096.964132,12327.009419,-734.612433,6558.672376,-22028.672341,7930.354229,19477.779505,9877.861724,-0.178000,0.946000,0.156000,192.000000,0.000000,0.000000,0.000000,0.000000,0.000000,0.000000,0.000000,0.000000,0.000000,1647238469.591728,0.000000
61.000000,8092.382025,12317.219355,-743.910759,6547.094172,-22038.060074,7924.185148,19472.459790,9867.937549,-0.178000,0.946000,0.156000,192.000000,0.000000,0.000000,0.000000,0.000000,0.000000,0.000000,0.000000,0.000000,0.000000,1647238469.599582,0.000000
62.000000,8093.521964,12314.872422,-744.469553,6554.894931,-22038.529460,7926.643840,19473.756191,9867.401107,-0.178000,0.946000,0.156000,192.000000,0.000000,0.000000,0.000000,0.000000,0.000000,0.000000,0.000000,0.000000,0.000000,1647238469.599585,0.000000
63.000000,8094.751310,12315.185346,-739.596872,6557.532437,-22037.456577,7924.699238,19465.240176,9873.234913,-0.178000,0.946000,0.156000,192.000000,0.000000,0.000000,0.000000,0.000000,0.000000,0.000000,0.000000,0.000000,0.000000,1647238469.606310,0.000000
64.000000,8088.783394,12308.345712,-740.736811,6552.078611,-22039.334123,7928.923718,19477.801857,9891.317474,-0.178000,0.946000,0.156000,192.000000,0.000000,0.000000,0.000000,0.000000,0.000000,0.000000,0.000000,0.000000,0.000000,1647238469.606314,0.000000
65.000000,8084.916542,12305.618799,-741.273253,6545.663660,-22042.418664,7928.409627,19480.729935,9881.214485,-0.178000,0.946000,0.156000,192.000000,0.000000,0.000000,0.000000,0.000000,0.000000,0.000000,0.000000,0.000000,0.000000,1647238469.614385,0.000000
66.000000,8091.622065,12309.753872,-743.463724,6548.882311,-22043.424492,7929.348401,19476.885435,9874.196038,-0.178000,0.946000,0.156000,192.000000,0.000000,0.000000,0.000000,0.000000,0.000000,0.000000,0.000000,0.000000,0.000000,1647238469.614389,0.000000
67.000000,8091.398548,12299.963808,-745.631843,6547.518855,-22044.586783,7926.934412,19473.107990,9858.929796,-0.178000,0.946000,0.156000,192.000000,0.000000,0.000000,0.000000,0.000000,0.000000,0.000000,0.000000,0.000000,0.000000,1647238469.622257,0.000000
68.000000,8075.305292,12290.687834,-754.013747,6537.527625,-22053.438074,7919.267764,19469.688173,9845.339935,-0.178000,0.948000,0.156000,192.000000,250.000000,112.000000,29.000000,160.000000,4.000000,224.000000,0.000000,0.000000,0.000000,1647238469.622260,0.000000
69.000000,8077.674577,12300.164974,-749.744564,6540.098076,-22050.621754,7926.643840,19479.254720,9862.394316,-0.178000,0.948000,0.156000,192.000000,0.000000,0.000000,0.000000,0.000000,0.000000,0.000000,0.000000,0.000000,0.000000,1647238469.629364,0.000000
70.000000,8068.040975,12290.173744,-761.546285,6537.572329,-22057.975478,7925.503901,19474.762019,9884.343730,-0.178000,0.948000,0.156000,192.000000,0.000000,0.000000,0.000000,0.000000,0.000000,0.000000,0.000000,0.000000,0.000000,1647238469.635995,0.000000
71.000000,8070.320853,12289.234971,-758.998186,6540.992146,-22054.600365,7928.007296,19479.075906,9893.217372,-0.178000,0.948000,0.156000,192.000000,0.000000,0.000000,0.000000,0.000000,0.000000,0.000000,0.000000,0.000000,0.000000,1647238469.635998,0.000000
72.000000,8076.221714,12298.019206,-745.117753,6549.932843,-22040.407007,7934.489302,19484.686194,9885.148392,-0.178000,0.948000,0.156000,192.000000,0.000000,0.000000,0.000000,0.000000,0.000000,0.000000,0.000000,0.000000,0.000000,1647238469.643918,0.000000
73.000000,8089.699815,12307.496346,-733.740715,6559.678204,-22031.622771,7939.294927,19480.551121,9873.413726,-0.178000,0.948000,0.156000,192.000000,0.000000,0.000000,0.000000,0.000000,0.000000,0.000000,0.000000,0.000000,0.000000,1647238469.643921,0.000000
74.000000,8082.368443,12294.331168,-740.669756,6553.754992,-22039.959972,7934.399895,19472.728011,9889.484631,-0.178000,0.948000,0.156000,192.000000,0.000000,0.000000,0.000000,0.000000,0.000000,0.000000,0.000000,0.000000,0.000000,1647238469.651945,0.000000
75.000000,8059.837885,12271.197113,-759.936960,6534.599547,-22058.690734,7921.346476,19477.354822,9877.705261,-0.178000,0.948000,0.156000,192.000000,0.000000,0.000000,0.000000,0.000000,0.000000,0.000000,0.000000,0.000000,0.000000,1647238469.651948,0.000000
76.000000,8067.102202,12283.267055,-756.114811,6539.807503,-22052.767521,7931.002430,19486.139057,9897.643017,-0.178000,0.948000,0.156000,192.000000,0.000000,0.000000,0.000000,0.000000,0.000000,0.000000,0.000000,0.000000,0.000000,1647238469.658498,0.000000
77.000000,8088.045786,12301.640189,-739.954500,6561.376937,-22035.891954,7941.954785,19492.419898,9883.226142,-0.178000,0.948000,0.156000,192.000000,0.000000,0.000000,0.000000,0.000000,0.000000,0.000000,0.000000,0.000000,0.000000,1647238469.658502,0.000000
78.000000,8082.614312,12295.806384,-743.486076,6556.861884,-22039.200013,7934.176378,19480.685232,9873.950168,-0.174000,0.954000,0.152000,192.000000,250.000000,144.000000,29.000000,208.000000,4.000000,192.000000,0.000000,0.000000,0.000000,1647238469.666658,0.000000
79.000000,8067.281016,12280.383680,-753.790230,6542.042678,-22049.772388,7932.432941,19482.361613,9898.715901,-0.174000,0.954000,0.152000,192.000000,0.000000,0.000000,0.000000,0.000000,0.000000,0.000000,0.000000,0.000000,0.000000,1647238469.666662,0.000000
80.000000,8067.817458,12279.355500,-761.903913,6540.545111,-22053.549833,7926.733247,19477.153656,9867.289349,-0.174000,0.954000,0.152000,192.000000,0.000000,0.000000,0.000000,0.000000,0.000000,0.000000,0.000000,0.000000,0.000000,1647238469.674556,0.000000
81.000000,8080.289731,12294.889962,-748.917550,6554.671413,-22041.703408,7936.724476,19483.523903,9876.364157,-0.174000,0.954000,0.152000,192.000000,0.000000,0.000000,0.000000,0.000000,0.000000,0.000000,0.000000,0.000000,0.000000,1647238469.674560,0.000000
82.000000,8083.396624,12300.947285,-745.922416,6558.359451,-22037.970667,7945.128732,19488.642453,9912.194003,-0.174000,0.954000,0.152000,192.000000,0.000000,0.000000,0.000000,0.000000,0.000000,0.000000,0.000000,0.000000,0.000000,1647238469.681718,0.000000
83.000000,8072.578379,12284.921084,-757.455916,6542.310899,-22052.253431,7927.403799,19467.430647,9874.419555,-0.174000,0.954000,0.152000,192.000000,0.000000,0.000000,0.000000,0.000000,0.000000,0.000000,0.000000,0.000000,0.000000,1647238469.681723,0.000000
84.000000,8061.111934,12278.617892,-762.239189,6535.404210,-22060.300059,7920.765331,19461.105104,9860.449715,-0.174000,0.954000,0.152000,192.000000,0.000000,0.000000,0.000000,0.000000,0.000000,0.000000,0.000000,0.000000,0.000000,1647238469.688420,0.000000
85.000000,8078.143964,12301.729596,-748.358756,6557.241864,-22043.737417,7939.876072,19489.245950,9883.829639,-0.174000,0.954000,0.152000,192.000000,0.000000,0.000000,0.000000,0.000000,0.000000,0.000000,0.000000,0.000000,0.000000,1647238469.696316,0.000000
86.000000,8082.256685,12294.219410,-748.872846,6548.167056,-22047.134882,7934.913985,19487.904845,9876.297102,-0.174000,0.954000,0.152000,192.000000,0.000000,0.000000,0.000000,0.000000,0.000000,0.000000,0.000000,0.000000,0.000000,1647238469.696324,0.000000
87.000000,8077.674577,12282.283578,-746.928244,6553.620881,-22045.391446,7941.507750,19491.302310,9899.386454,-0.174000,0.954000,0.152000,192.000000,0.000000,0.000000,0.000000,0.000000,0.000000,0.000000,0.000000,0.000000,0.000000,1647238469.704339,0.000000
88.000000,8072.332510,12273.476991,-749.252826,6550.581044,-22049.705332,7942.200654,19491.123496,9909.690608,-0.178000,0.956000,0.154000,192.000000,250.000000,112.000000,29.000000,224.000000,4.000000,208.000000,0.000000,0.000000,0.000000,1647238469.704343,0.000000
89.000000,8068.286844,12264.536293,-763.289721,6537.326460,-22064.055152,7920.519462,19473.465618,9862.014337,-0.178000,0.956000,0.154000,192.000000,0.000000,0.000000,0.000000,0.000000,0.000000,0.000000,0.000000,0.000000,0.000000,1647238469.711816,0.000000
90.000000,8070.097336,12272.292348,-760.249884,6543.249672,-22059.294231,7921.972325,19473.085639,9841.897767,-0.178000,0.956000,0.154000,192.000000,0.000000,0.000000,0.000000,0.000000,0.000000,0.000000,0.000000,0.000000,0.000000,1647238469.711832,0.000000
91.000000,8077.786336,12287.268017,-745.810657,6559.655852,-22043.178623,7942.670040,19491.682290,9881.661520,-0.178000,0.956000,0.154000,192.000000,0.000000,0.000000,0.000000,0.000000,0.000000,0.000000,0.000000,0.000000,0.000000,1647238469.719259,0.000000
92.000000,8069.270321,12273.566398,-753.231436,6545.149570,-22052.499301,7936.836235,19481.467543,9892.457413,-0.178000,0.956000,0.154000,192.000000,0.000000,0.000000,0.000000,0.000000,0.000000,0.000000,0.000000,0.000000,0.000000,1647238469.719276,0.000000
93.000000,8064.174123,12273.141715,-758.618207,6546.021288,-22054.287440,7939.518444,19480.796990,9919.011285,-0.178000,0.956000,0.154000,192.000000,0.000000,0.000000,0.000000,0.000000,0.000000,0.000000,0.000000,0.000000,0.000000,1647238469.727296,0.000000
94.000000,8070.074984,12276.382718,-754.080803,6548.323518,-22050.308830,7943.117075,19485.937892,9906.896640,-0.178000,0.956000,0.154000,192.000000,0.000000,0.000000,0.000000,0.000000,0.000000,0.000000,0.000000,0.000000,0.000000,1647238469.727312,0.000000
95.000000,8075.282940,12280.182514,-746.905893,6554.000861,-22046.173757,7943.452352,19483.859179,9895.765471,-0.178000,0.956000,0.154000,192.000000,0.000000,0.000000,0.000000,0.000000,0.000000,0.000000,0.000000,0.000000,0.000000,1647238469.735408,0.000000
96.000000,8071.460792,12274.482819,-752.382070,6549.888140,-22051.672286,7935.495130,19474.113819,9870.105668,-0.178000,0.956000,0.154000,192.000000,0.000000,0.000000,0.000000,0.000000,0.000000,0.000000,0.000000,0.000000,0.000000,1647238469.735424,0.000000
97.000000,8080.535600,12281.724785,-752.560884,6556.727774,-22047.380751,7938.423209,19479.969976,9871.446773,-0.178000,0.956000,0.154000,192.000000,0.000000,0.000000,0.000000,0.000000,0.000000,0.000000,0.000000,0.000000,0.000000,1647238469.741697,0.000000
98.000000,8087.174068,12287.290369,-753.209085,6556.638367,-22044.206803,7948.705011,19497.404337,9913.758625,-0.174000,0.956000,0.152000,192.000000,250.000000,144.000000,29.000000,224.000000,4.000000,192.000000,0.000000,0.000000,0.000000,1647238469.741708,0.000000
99.000000,8085.698853,12291.917180,-751.555056,6557.890064,-22047.067827,7942.088895,19486.653148,9899.945247,-0.174000,0.956000,0.152000,192.000000,0.000000,0.000000,0.000000,0.000000,0.000000,0.000000,0.000000,0.000000,0.000000,1647238469.748671,0.000000
100.000000,8059.614367,12265.586825,-768.162402,6542.445009,-22066.402086,7923.648706,19474.024412,9869.479819,-0.174000,0.956000,0.152000,192.000000,0.000000,0.000000,0.000000,0.000000,0.000000,0.000000,0.000000,0.000000,0.000000,1647238469.748681,0.000000
101.000000,8054.473466,12259.663613,-773.325655,6537.684087,-22069.084295,7917.725494,19466.849502,9861.522598,-0.174000,0.956000,0.152000,192.000000,0.000000,0.000000,0.000000,0.000000,0.000000,0.000000,0.000000,0.000000,0.000000,1647238469.756849,0.000000
102.000000,8065.962263,12271.331223,-763.915570,6547.764724,-22057.819016,7926.509729,19473.733839,9882.644997,-0.174000,0.956000,0.152000,192.000000,0.000000,0.000000,0.000000,0.000000,0.000000,0.000000,0.000000,0.000000,0.000000,1647238469.765033,0.000000
103.000000,8076.936969,12279.199037,-754.706652,6556.168980,-22049.213594,7927.582613,19475.231406,9868.094011,-0.174000,0.956000,0.152000,192.000000,0.000000,0.000000,0.000000,0.000000,0.000000,0.000000,0.000000,0.000000,0.000000,1647238469.765049,0.000000
104.000000,8086.391757,12286.262189,-749.051660,6565.243788,-22041.546946,7930.331878,19475.544331,9864.405973,-0.174000,0.956000,0.152000,192.000000,0.000000,0.000000,0.000000,0.000000,0.000000,0.000000,0.000000,0.000000,0.000000,1647238469.771726,0.000000
105.000000,8088.962208,12281.858895,-742.882579,6567.031928,-22038.507109,7943.631165,19497.337281,9919.212451,-0.174000,0.956000,0.152000,192.000000,0.000000,0.000000,0.000000,0.000000,0.000000,0.000000,0.000000,0.000000,0.000000,1647238469.771744,0.000000
106.000000,8084.380100,12279.735479,-742.770820,6563.187428,-22040.295248,7941.731267,19492.822229,9915.524413,-0.174000,0.956000,0.152000,192.000000,0.000000,0.000000,0.000000,0.000000,0.000000,0.000000,0.000000,0.000000,0.000000,1647238469.779673,0.000000
107.000000,8085.877667,12287.156258,-737.294643,6571.345815,-22035.646085,7940.300756,19486.250816,9892.971503,-0.174000,0.956000,0.152000,192.000000,0.000000,0.000000,0.000000,0.000000,0.000000,0.000000,0.000000,0.000000,0.000000,1647238469.779707,0.000000
108.000000,8080.446193,12276.427421,-746.347099,6561.846323,-22045.391446,7932.745866,19480.014679,9892.055081,-0.174000,0.956000,0.152000,192.000000,0.000000,0.000000,0.000000,0.000000,0.000000,0.000000,0.000000,0.000000,0.000000,1647238469.787625,0.000000
109.000000,8088.716339,12282.261226,-741.608529,6566.406079,-22039.200013,7943.050020,19500.131249,9908.058930,-0.178000,0.956000,0.150000,192.000000,250.000000,112.000000,29.000000,224.000000,4.000000,176.000000,0.000000,0.000000,0.000000,1647238469.787642,0.000000
110.000000,8085.698853,12279.221389,-745.430678,6563.925035,-22041.926925,7938.512616,19492.665767,9887.718843,-0.178000,0.956000,0.150000,192.000000,0.000000,0.000000,0.000000,0.000000,0.000000,0.000000,0.000000,0.000000,0.000000,1647238469.794095,0.000000
111.000000,8078.501592,12274.594578,-751.286835,6558.962948,-22049.705332,7927.247337,19476.058421,9870.597407,-0.178000,0.956000,0.150000,192.000000,0.000000,0.000000,0.000000,0.000000,0.000000,0.000000,0.000000,0.000000,0.000000,1647238469.794111,0.000000
112.000000,8084.782432,12282.931779,-746.212989,6567.478963,-22044.095045,7932.276479,19480.282900,9888.143526,-0.178000,0.956000,0.150000,192.000000,0.000000,0.000000,0.000000,0.000000,0.000000,0.000000,0.000000,0.000000,0.000000,1647238469.801966,0.000000
113.000000,8092.314970,12294.264113,-735.148875,6576.956102,-22032.986228,7944.659346,19485.535560,9910.495271,-0.178000,0.956000,0.150000,192.000000,0.000000,0.000000,0.000000,0.000000,0.000000,0.000000,0.000000,0.000000,0.000000,1647238469.801973,0.000000
114.000000,8069.516190,12273.074659,-762.708576,6551.989204,-22057.282574,7922.419360,19470.738705,9879.895732,-0.178000,0.956000,0.150000,192.000000,0.000000,0.000000,0.000000,0.000000,0.000000,0.000000,0.000000,0.000000,0.000000,1647238469.810300,0.000000
115.000000,8061.603673,12260.825904,-772.431585,6536.857073,-22068.436094,7911.757578,19463.541444,9863.020165,-0.178000,0.956000,0.150000,192.000000,0.000000,0.000000,0.000000,0.000000,0.000000,0.000000,0.000000,0.000000,0.000000,1647238469.810317,0.000000
116.000000,8075.439403,12272.068831,-752.538532,6552.235073,-22052.096969,7930.220119,19480.484066,9886.422442,-0.178000,0.956000,0.150000,192.000000,0.000000,0.000000,0.000000,0.000000,0.000000,0.000000,0.000000,0.000000,0.000000,1647238469.817465,0.000000
117.000000,8084.737728,12281.791840,-747.308224,6566.115506,-22042.306905,7941.217177,19488.731860,9906.941343,-0.178000,0.956000,0.150000,192.000000,0.000000,0.000000,0.000000,0.000000,0.000000,0.000000,0.000000,0.000000,0.000000,1647238469.823738,0.000000
118.000000,8089.677464,12288.139735,-733.830122,6570.138820,-22035.109643,7944.949918,19492.978691,9903.789747,-0.178000,0.956000,0.150000,192.000000,0.000000,0.000000,0.000000,0.000000,0.000000,0.000000,0.000000,0.000000,0.000000,1647238469.823756,0.000000
119.000000,8083.418975,12277.209732,-741.362660,6559.454687,-22045.279687,7932.947032,19477.243063,9880.208657,-0.178000,0.954000,0.150000,192.000000,250.000000,112.000000,29.000000,208.000000,4.000000,176.000000,0.000000,0.000000,0.000000,1647238469.831643,0.000000
120.000000,8076.221714,12269.788953,-754.170210,6551.743335,-22053.773350,7925.503901,19468.347069,9870.329186,-0.178000,0.954000,0.150000,192.000000,0.000000,0.000000,0.000000,0.000000,0.000000,0.000000,0.000000,0.000000,0.000000,1647238469.831654,0.000000
121.000000,8084.044824,12280.920122,-744.111925,6564.439126,-22043.893879,7931.449465,19483.367441,9865.344747,-0.178000,0.954000,0.150000,192.000000,0.000000,0.000000,0.000000,0.000000,0.000000,0.000000,0.000000,0.000000,0.000000,1647238469.839562,0.000000
122.000000,8082.234333,12285.613988,-743.664890,6566.987224,-22042.955106,7941.798322,19500.131249,9924.107483,-0.178000,0.954000,0.150000,192.000000,0.000000,0.000000,0.000000,0.000000,0.000000,0.000000,0.000000,0.000000,0.000000,1647238469.839568,0.000000
123.000000,8085.050653,12282.864724,-738.389878,6565.757879,-22039.848213,7946.380430,19508.826078,9926.208547,-0.178000,0.954000,0.150000,192.000000,0.000000,0.000000,0.000000,0.000000,0.000000,0.000000,0.000000,0.000000,0.000000,1647238469.847012,0.000000
124.000000,8070.298501,12267.106744,-753.052622,6554.134971,-22053.527481,7932.276479,19487.055479,9904.303837,-0.178000,0.954000,0.150000,192.000000,0.000000,0.000000,0.000000,0.000000,0.000000,0.000000,0.000000,0.000000,0.000000,1647238469.847028,0.000000
125.000000,8070.074984,12267.151447,-756.919474,6554.403192,-22055.762655,7935.115151,19491.659938,9920.575907,-0.178000,0.954000,0.150000,192.000000,0.000000,0.000000,0.000000,0.000000,0.000000,0.000000,0.000000,0.000000,0.000000,1647238469.854557,0.000000
126.000000,8070.343205,12265.720936,-753.611416,6558.538265,-22053.661591,7932.544700,19484.596787,9910.025884,-0.178000,0.954000,0.150000,192.000000,0.000000,0.000000,0.000000,0.000000,0.000000,0.000000,0.000000,0.000000,0.000000,1647238469.854573,0.000000
127.000000,8078.412185,12274.996909,-745.095401,6565.735527,-22047.224289,7933.215253,19483.032165,9891.049253,-0.178000,0.954000,0.150000,192.000000,0.000000,0.000000,0.000000,0.000000,0.000000,0.000000,0.000000,0.000000,0.000000,1647238469.862561,0.000000
128.000000,8075.573513,12269.967767,-748.515218,6558.202989,-22051.247603,7930.421284,19488.441287,9873.749003,-0.178000,0.954000,0.150000,192.000000,0.000000,0.000000,0.000000,0.000000,0.000000,0.000000,0.000000,0.000000,0.000000,1647238469.862579,0.000000
129.000000,8068.622120,12263.530465,-758.774669,6552.547998,-22058.802492,7932.477645,19489.469467,9915.591468,-0.182000,0.956000,0.150000,192.000000,250.000000,80.000000,29.000000,224.000000,4.000000,176.000000,0.000000,0.000000,0.000000,1647238469.870656,0.000000
130.000000,8085.162411,12276.986215,-743.910759,6565.467306,-22047.112530,7935.696296,19488.776563,9898.358273,-0.182000,0.956000,0.150000,192.000000,0.000000,0.000000,0.000000,0.000000,0.000000,0.000000,0.000000,0.000000,0.000000,1647238469.870672,0.000000
131.000000,8083.642493,12266.615005,-740.714460,6559.968777,-22046.777254,7932.499997,19486.876665,9891.675102,-0.182000,0.956000,0.150000,192.000000,0.000000,0.000000,0.000000,0.000000,0.000000,0.000000,0.000000,0.000000,0.000000,1647238469.876681,0.000000
132.000000,8077.093432,12260.401220,-748.694032,6557.308919,-22050.711161,7930.041305,19477.779505,9907.254268,-0.182000,0.956000,0.150000,192.000000,0.000000,0.000000,0.000000,0.000000,0.000000,0.000000,0.000000,0.000000,0.000000,1647238469.884247,0.000000
133.000000,8082.077871,12266.547950,-748.515218,6565.556713,-22047.693675,7931.270651,19482.965110,9902.783919,-0.182000,0.956000,0.150000,192.000000,0.000000,0.000000,0.000000,0.000000,0.000000,0.000000,0.000000,0.000000,0.000000,1647238469.884263,0.000000
134.000000,8065.872856,12253.762752,-760.495753,6547.474152,-22059.584804,7924.095741,19490.519999,9894.402015,-0.182000,0.956000,0.150000,192.000000,0.000000,0.000000,0.000000,0.000000,0.000000,0.000000,0.000000,0.000000,0.000000,1647238469.892186,0.000000
135.000000,8055.993385,12247.571319,-766.597780,6535.113637,-22069.352516,7912.025799,19476.237235,9868.228122,-0.182000,0.956000,0.150000,192.000000,0.000000,0.000000,0.000000,0.000000,0.000000,0.000000,0.000000,0.000000,0.000000,1647238469.892203,0.000000
136.000000,8056.306309,12246.252566,-766.217800,6532.207910,-22073.308775,7910.930563,19465.486046,9885.036634,-0.182000,0.956000,0.150000,192.000000,0.000000,0.000000,0.000000,0.000000,0.000000,0.000000,0.000000,0.000000,0.000000,1647238469.899338,0.000000
137.000000,8061.022527,12247.973650,-766.888352,6536.521797,-22072.124132,7908.404816,19465.173121,9863.601311,-0.182000,0.956000,0.150000,192.000000,0.000000,0.000000,0.000000,0.000000,0.000000,0.000000,0.000000,0.000000,0.000000,1647238469.899353,0.000000
138.000000,8066.923388,12255.394430,-763.446184,6540.098076,-22067.586728,7911.601116,19471.565720,9863.936587,-0.182000,0.956000,0.150000,192.000000,0.000000,0.000000,0.000000,0.000000,0.000000,0.000000,0.000000,0.000000,0.000000,1647238469.906783,0.000000
139.000000,8074.657091,12262.457581,-755.578370,6545.529550,-22057.908423,7923.961630,19473.152694,9893.798517,-0.178000,0.946000,0.148000,192.000000,250.000000,112.000000,29.000000,144.000000,4.000000,160.000000,0.000000,0.000000,0.000000,1647238469.906799,0.000000
140.000000,8076.489935,12264.916273,-749.990433,6552.168018,-22053.952164,7929.191939,19477.265415,9911.277582,-0.178000,0.946000,0.148000,192.000000,0.000000,0.000000,0.000000,0.000000,0.000000,0.000000,0.000000,0.000000,0.000000,1647238469.914665,0.000000
141.000000,8081.004987,12265.787991,-747.531742,6556.258387,-22051.538176,7934.623412,19495.593845,9905.980218,-0.178000,0.946000,0.148000,192.000000,0.000000,0.000000,0.000000,0.000000,0.000000,0.000000,0.000000,0.000000,0.000000,1647238469.914682,0.000000
142.000000,8065.269359,12252.376944,-761.948617,6543.160265,-22068.749019,7912.808110,19475.611386,9844.356459,-0.178000,0.946000,0.148000,192.000000,0.000000,0.000000,0.000000,0.000000,0.000000,0.000000,0.000000,0.000000,0.000000,1647238469.922848,0.000000
143.000000,8065.783449,12253.740401,-759.914608,6543.652003,-22068.011411,7913.232793,19475.611386,9853.923005,-0.178000,0.946000,0.148000,192.000000,0.000000,0.000000,0.000000,0.000000,0.000000,0.000000,0.000000,0.000000,0.000000,1647238469.922864,0.000000
144.000000,8065.492876,12256.757886,-767.670663,6539.986317,-22070.581862,7916.719665,19471.923348,9928.711942,-0.178000,0.946000,0.148000,192.000000,0.000000,0.000000,0.000000,0.000000,0.000000,0.000000,0.000000,0.000000,0.000000,1647238469.929427,0.000000
145.000000,8063.436516,12246.721953,-770.732852,6532.051448,-22074.515769,7910.707046,19476.483104,9888.277637,-0.178000,0.946000,0.148000,192.000000,0.000000,0.000000,0.000000,0.000000,0.000000,0.000000,0.000000,0.000000,0.000000,1647238469.929443,0.000000
146.000000,8067.862161,12255.997927,-761.188657,6546.334213,-22065.105684,7915.065636,19476.639566,9885.036634,-0.178000,0.946000,0.148000,192.000000,0.000000,0.000000,0.000000,0.000000,0.000000,0.000000,0.000000,0.000000,0.000000,1647238469.936613,0.000000
147.000000,8078.434536,12254.478008,-749.476343,6551.542169,-22061.685868,7913.277496,19472.280976,9883.874343,-0.178000,0.946000,0.148000,192.000000,0.000000,0.000000,0.000000,0.000000,0.000000,0.000000,0.000000,0.000000,0.000000,1647238469.945026,0.000000
148.000000,8080.803821,12250.678212,-752.069146,6547.518855,-22062.781103,7912.115206,19477.712450,9884.075509,-0.178000,0.946000,0.148000,192.000000,0.000000,0.000000,0.000000,0.000000,0.000000,0.000000,0.000000,0.000000,0.000000,1647238469.945042,0.000000
149.000000,8083.910714,12259.842427,-746.123582,6556.124277,-22055.695600,7921.212366,19477.108953,9885.707186,-0.176000,0.954000,0.144000,192.000000,250.000000,128.000000,29.000000,208.000000,4.000000,128.000000,0.000000,0.000000,0.000000,1647238469.952487,0.000000
150.000000,8096.003007,12280.920122,-734.903006,6572.977492,-22043.603306,7931.158892,19485.557912,9886.355387,-0.176000,0.954000,0.144000,192.000000,0.000000,0.000000,0.000000,0.000000,0.000000,0.000000,0.000000,0.000000,0.000000,1647238469.952521,0.000000
151.000000,8102.127385,12287.960921,-730.477361,6576.710233,-22041.435187,7928.253165,19479.992328,9874.374852,-0.176000,0.954000,0.144000,192.000000,0.000000,0.000000,0.000000,0.000000,0.000000,0.000000,0.000000,0.000000,0.000000,1647238469.959117,0.000000
152.000000,8113.191499,12296.119308,-726.431695,6571.658739,-22037.881260,7932.008258,19483.233331,9877.884075,-0.176000,0.954000,0.144000,192.000000,0.000000,0.000000,0.000000,0.000000,0.000000,0.000000,0.000000,0.000000,0.000000,1647238469.959133,0.000000
153.000000,8111.895098,12294.308817,-732.109038,6573.290416,-22040.250545,7919.580688,19471.230444,9844.378810,-0.176000,0.954000,0.144000,192.000000,0.000000,0.000000,0.000000,0.000000,0.000000,0.000000,0.000000,0.000000,0.000000,1647238469.967143,0.000000
154.000000,8101.568592,12274.929854,-744.670718,6555.721945,-22055.226213,7905.454386,19459.808702,9839.953165,-0.176000,0.954000,0.144000,192.000000,0.000000,0.000000,0.000000,0.000000,0.000000,0.000000,0.000000,0.000000,0.000000,1647238469.967160,0.000000
155.000000,8085.028301,12249.158293,-754.974872,6535.314803,-22069.330164,7896.066653,19451.717371,9829.313735,-0.176000,0.954000,0.144000,192.000000,0.000000,0.000000,0.000000,0.000000,0.000000,0.000000,0.000000,0.000000,0.000000,1647238469.975093,0.000000
156.000000,8093.991350,12261.764677,-737.205236,6549.262291,-22055.270917,7918.686619,19480.886397,9881.013320,-0.176000,0.954000,0.144000,192.000000,0.000000,0.000000,0.000000,0.000000,0.000000,0.000000,0.000000,0.000000,0.000000,1647238469.975109,0.000000
157.000000,8112.364484,12284.719918,-731.214968,6562.963910,-22047.112530,7916.742017,19471.923348,9869.502171,-0.176000,0.954000,0.144000,192.000000,0.000000,0.000000,0.000000,0.000000,0.000000,0.000000,0.000000,0.000000,0.000000,1647238469.982173,0.000000
158.000000,8107.961191,12281.478915,-734.523026,6566.719004,-22045.726722,7918.865433,19472.392735,9878.398166,-0.176000,0.954000,0.144000,192.000000,0.000000,0.000000,0.000000,0.000000,0.000000,0.000000,0.000000,0.000000,0.000000,1647238469.982190,0.000000
159.000000,8109.838737,12286.597465,-720.642593,6571.546980,-22037.478928,7932.812921,19486.764906,9901.822794,-0.180000,0.956000,0.142000,192.000000,250.000000,96.000000,29.000000,224.000000,4.000000,112.000000,0.000000,0.000000,0.000000,1647238469.989639,0.000000
160.000000,8098.461699,12275.332186,-725.112942,6561.131067,-22046.419626,7925.235680,19482.942758,9877.213523,-0.180000,0.956000,0.142000,192.000000,0.000000,0.000000,0.000000,0.000000,0.000000,0.000000,0.000000,0.000000,0.000000,1647238469.989656,0.000000
161.000000,8106.418920,12281.657729,-727.459875,6558.717079,-22046.777254,7927.582613,19486.630796,9879.560456,-0.180000,0.956000,0.142000,192.000000,0.000000,0.000000,0.000000,0.000000,0.000000,0.000000,0.000000,0.000000,0.000000,1647238469.996514,0.000000
162.000000,8115.605487,12287.268017,-719.033267,6574.452707,-22036.204879,7936.299793,19495.839715,9878.554628,-0.180000,0.956000,0.142000,192.000000,0.000000,0.000000,0.000000,0.000000,0.000000,0.000000,0.000000,0.000000,0.000000,1647238469.996524,0.000000
163.000000,8097.858202,12268.827828,-737.853436,6552.168018,-22054.198033,7921.212366,19475.723144,9867.870494,-0.180000,0.956000,0.142000,192.000000,0.000000,0.000000,0.000000,0.000000,0.000000,0.000000,0.000000,0.000000,0.000000,1647238470.004474,0.000000
164.000000,8092.918467,12265.318604,-748.917550,6542.400306,-22064.636298,7914.260973,19468.995269,9866.641148,-0.180000,0.956000,0.142000,192.000000,0.000000,0.000000,0.000000,0.000000,0.000000,0.000000,0.000000,0.000000,0.000000,1647238470.011363,0.000000
165.000000,8083.486031,12254.723877,-753.857285,6537.125294,-22070.872434,7909.075369,19464.591976,9848.804456,-0.180000,0.956000,0.142000,192.000000,0.000000,0.000000,0.000000,0.000000,0.000000,0.000000,0.000000,0.000000,0.000000,1647238470.011368,0.000000
166.000000,8108.609391,12275.533351,-724.688259,6558.046527,-22048.855966,7932.522348,19476.930139,9906.293143,-0.180000,0.956000,0.142000,192.000000,0.000000,0.000000,0.000000,0.000000,0.000000,0.000000,0.000000,0.000000,0.000000,1647238470.018995,0.000000
167.000000,8123.160377,12292.833602,-708.013857,6579.392443,-22032.136861,7940.859549,19481.534598,9892.256247,-0.180000,0.956000,0.142000,192.000000,0.000000,0.000000,0.000000,0.000000,0.000000,0.000000,0.000000,0.000000,0.000000,1647238470.019000,0.000000
168.000000,8113.236202,12287.446831,-725.179997,6570.049413,-22043.200975,7927.694372,19477.354822,9855.621738,-0.180000,0.956000,0.142000,192.000000,0.000000,0.000000,0.000000,0.000000,0.000000,0.000000,0.000000,0.000000,0.000000,1647238470.027018,0.000000
169.000000,8119.494691,12291.157221,-725.537625,6566.495486,-22042.664533,7932.321183,19480.417011,9885.014282,-0.172000,0.950000,0.144000,192.000000,250.000000,160.000000,29.000000,176.000000,4.000000,128.000000,0.000000,0.000000,0.000000,1647238470.027023,0.000000
170.000000,8115.270211,12284.988139,-720.754352,6561.019309,-22046.576088,7928.029648,19473.756191,9888.098823,-0.172000,0.950000,0.144000,192.000000,0.000000,0.000000,0.000000,0.000000,0.000000,0.000000,0.000000,0.000000,0.000000,1647238470.033916,0.000000
171.000000,8101.412130,12266.100915,-734.567730,6544.389611,-22063.518711,7912.450482,19471.923348,9870.440944,-0.172000,0.950000,0.144000,192.000000,0.000000,0.000000,0.000000,0.000000,0.000000,0.000000,0.000000,0.000000,0.000000,1647238470.033926,0.000000
172.000000,8093.767833,12264.916273,-741.988509,6543.629652,-22067.184397,7910.148252,19470.246967,9862.439020,-0.172000,0.950000,0.144000,192.000000,0.000000,0.000000,0.000000,0.000000,0.000000,0.000000,0.000000,0.000000,0.000000,1647238470.041642,0.000000
173.000000,8107.402397,12286.195133,-736.646442,6559.141762,-22056.343801,7918.194880,19476.617214,9866.842314,-0.172000,0.950000,0.144000,192.000000,0.000000,0.000000,0.000000,0.000000,0.000000,0.000000,0.000000,0.000000,0.000000,1647238470.041646,0.000000
174.000000,8121.528700,12293.057119,-727.258709,6567.076631,-22048.140710,7915.624430,19470.559892,9843.015354,-0.172000,0.950000,0.144000,192.000000,0.000000,0.000000,0.000000,0.000000,0.000000,0.000000,0.000000,0.000000,0.000000,1647238470.050146,0.000000
175.000000,8114.711418,12277.567360,-722.520140,6560.348756,-22049.414760,7918.932488,19469.844636,9855.644090,-0.172000,0.950000,0.144000,192.000000,0.000000,0.000000,0.000000,0.000000,0.000000,0.000000,0.000000,0.000000,0.000000,1647238470.050151,0.000000
176.000000,8113.236202,12278.081450,-729.627994,6565.132030,-22049.750036,7923.626354,19472.929176,9872.720822,-0.172000,0.950000,0.144000,192.000000,0.000000,0.000000,0.000000,0.000000,0.000000,0.000000,0.000000,0.000000,0.000000,1647238470.057612,0.000000
177.000000,8113.303258,12280.294273,-742.703765,6561.220474,-22056.902594,7910.952915,19461.060400,9865.456505,-0.172000,0.950000,0.144000,192.000000,0.000000,0.000000,0.000000,0.000000,0.000000,0.000000,0.000000,0.000000,0.000000,1647238470.057616,0.000000
178.000000,8120.634630,12287.782107,-725.492922,6571.144649,-22047.157234,7916.697313,19471.856293,9867.222293,-0.172000,0.950000,0.144000,192.000000,0.000000,0.000000,0.000000,0.000000,0.000000,0.000000,0.000000,0.000000,0.000000,1647238470.063671,0.000000
179.000000,8125.529662,12286.441003,-716.351058,6568.149515,-22045.570260,7922.419360,19482.406316,9871.312663,-0.174000,0.954000,0.142000,192.000000,250.000000,144.000000,29.000000,208.000000,4.000000,112.000000,0.000000,0.000000,0.000000,1647238470.071325,0.000000
180.000000,8120.142891,12281.747136,-723.660078,6558.337099,-22053.616888,7916.451444,19480.059383,9873.100802,-0.174000,0.954000,0.142000,192.000000,0.000000,0.000000,0.000000,0.000000,0.000000,0.000000,0.000000,0.000000,0.000000,1647238470.071328,0.000000
181.000000,8128.636554,12296.991026,-718.876805,6574.452707,-22044.497376,7920.139482,19477.064249,9851.464313,-0.174000,0.954000,0.142000,192.000000,0.000000,0.000000,0.000000,0.000000,0.000000,0.000000,0.000000,0.000000,0.000000,1647238470.079353,0.000000
182.000000,8118.824139,12283.915256,-730.857340,6569.982358,-22052.901632,7913.925697,19465.083714,9864.093049,-0.174000,0.954000,0.142000,192.000000,0.000000,0.000000,0.000000,0.000000,0.000000,0.000000,0.000000,0.000000,0.000000,1647238470.079356,0.000000
183.000000,8111.425711,12271.800610,-750.281006,6557.174809,-22065.239795,7901.073444,19450.510377,9866.797610,-0.174000,0.954000,0.142000,192.000000,0.000000,0.000000,0.000000,0.000000,0.000000,0.000000,0.000000,0.000000,0.000000,1647238470.087279,0.000000
184.000000,8144.171017,12302.534259,-711.970116,6576.777289,-22037.054245,7920.295944,19470.023450,9859.041555,-0.174000,0.954000,0.142000,192.000000,0.000000,0.000000,0.000000,0.000000,0.000000,0.000000,0.000000,0.000000,0.000000,1647238470.087283,0.000000
185.000000,8165.986319,12332.731465,-676.028511,6610.662533,-22008.555771,7939.607851,19484.194456,9843.238871,-0.174000,0.954000,0.142000,192.000000,0.000000,0.000000,0.000000,0.000000,0.000000,0.000000,0.000000,0.000000,0.000000,1647238470.093936,0.000000
186.000000,8147.881406,12320.013323,-699.319029,6598.056149,-22024.112585,7934.891633,19478.450057,9897.486555,-0.174000,0.954000,0.142000,192.000000,0.000000,0.000000,0.000000,0.000000,0.000000,0.000000,0.000000,0.000000,0.000000,1647238470.093940,0.000000
187.000000,8134.895043,12305.931724,-724.062410,6578.744242,-22042.262202,7923.000505,19476.997194,9898.022997,-0.174000,0.954000,0.142000,192.000000,0.000000,0.000000,0.000000,0.000000,0.000000,0.000000,0.000000,0.000000,0.000000,1647238470.101979,0.000000
188.000000,8132.637517,12296.611046,-718.586232,6575.771460,-22042.709236,7915.602078,19466.223653,9869.099840,-0.174000,0.954000,0.142000,192.000000,0.000000,0.000000,0.000000,0.000000,0.000000,0.000000,0.000000,0.000000,0.000000,1647238470.101983,0.000000
189.000000,8141.242938,12304.367102,-719.636764,6582.879315,-22038.887088,7912.428130,19460.389848,9853.587729,-0.176000,0.956000,0.142000,192.000000,250.000000,128.000000,29.000000,224.000000,4.000000,112.000000,0.000000,0.000000,0.000000,1647238470.109892,0.000000
190.000000,8142.516988,12310.759701,-710.673715,6587.461422,-22028.493527,7920.161834,19478.964147,9874.955997,-0.176000,0.956000,0.142000,192.000000,0.000000,0.000000,0.000000,0.000000,0.000000,0.000000,0.000000,0.000000,0.000000,1647238470.109896,0.000000
191.000000,8139.790075,12307.116366,-718.832102,6575.749108,-22034.260277,7913.322200,19475.544331,9863.355441,-0.176000,0.956000,0.142000,192.000000,0.000000,0.000000,0.000000,0.000000,0.000000,0.000000,0.000000,0.000000,0.000000,1647238470.116893,0.000000
192.000000,8142.494636,12315.274753,-725.805846,6568.440088,-22035.199050,7909.455348,19472.750362,9851.888997,-0.176000,0.956000,0.142000,192.000000,0.000000,0.000000,0.000000,0.000000,0.000000,0.000000,0.000000,0.000000,0.000000,1647238470.116897,0.000000
193.000000,8145.713287,12323.142567,-712.327744,6580.040643,-22025.565448,7915.557374,19478.718278,9881.795631,-0.176000,0.956000,0.142000,192.000000,0.000000,0.000000,0.000000,0.000000,0.000000,0.000000,0.000000,0.000000,0.000000,1647238470.123664,0.000000
194.000000,8148.931938,12325.467148,-705.108131,6581.538210,-22020.625713,7921.480587,19488.485991,9903.745044,-0.176000,0.956000,0.142000,192.000000,0.000000,0.000000,0.000000,0.000000,0.000000,0.000000,0.000000,0.000000,0.000000,1647238470.131696,0.000000
195.000000,8150.295395,12325.601259,-705.868090,6591.663550,-22013.651969,7923.559299,19485.960243,9897.151279,-0.176000,0.956000,0.142000,192.000000,0.000000,0.000000,0.000000,0.000000,0.000000,0.000000,0.000000,0.000000,0.000000,1647238470.131700,0.000000
196.000000,8140.840607,12310.178555,-715.389933,6577.760765,-22023.106757,7911.154081,19473.309156,9870.932683,-0.176000,0.956000,0.142000,192.000000,0.000000,0.000000,0.000000,0.000000,0.000000,0.000000,0.000000,0.000000,0.000000,1647238470.139579,0.000000
197.000000,8139.879482,12310.357369,-713.825311,6577.805469,-22023.218515,7912.159909,19473.510322,9883.382605,-0.176000,0.956000,0.142000,192.000000,0.000000,0.000000,0.000000,0.000000,0.000000,0.000000,0.000000,0.000000,0.000000,1647238470.139582,0.000000
198.000000,8132.034019,12309.440948,-727.504579,6573.849210,-22030.974571,7905.387331,19473.398563,9895.005512,-0.176000,0.956000,0.142000,192.000000,0.000000,0.000000,0.000000,0.000000,0.000000,0.000000,0.000000,0.000000,0.000000,1647238470.146725,0.000000
199.000000,8140.505331,12316.459395,-708.304430,6582.208762,-22017.004730,7910.863508,19480.417011,9885.573075,-0.178000,0.960000,0.146000,192.000000,250.000000,112.000000,30.000000,0.000000,4.000000,144.000000,0.000000,0.000000,0.000000,1647238470.146751,0.000000
200.000000,8135.677354,12309.262134,-717.692163,6566.428431,-22023.754957,7905.364979,19481.355784,9891.764509,-0.178000,0.960000,0.146000,192.000000,0.000000,0.000000,0.000000,0.000000,0.000000,0.000000,0.000000,0.000000,0.000000,1647238470.154284,0.000000
201.000000,8124.277964,12296.007549,-732.958404,6557.018346,-22035.333161,7896.737206,19475.946662,9902.515698,-0.178000,0.960000,0.146000,192.000000,0.000000,0.000000,0.000000,0.000000,0.000000,0.000000,0.000000,0.000000,0.000000,1647238470.154288,0.000000
202.000000,8127.049580,12301.662541,-718.653288,6567.657777,-22026.325408,7896.826613,19470.314022,9886.444794,-0.178000,0.960000,0.146000,192.000000,0.000000,0.000000,0.000000,0.000000,0.000000,0.000000,0.000000,0.000000,0.000000,1647238470.162191,0.000000
203.000000,8130.804674,12311.407901,-708.147968,6575.749108,-22018.949332,7897.072482,19466.447171,9880.655692,-0.178000,0.960000,0.146000,192.000000,0.000000,0.000000,0.000000,0.000000,0.000000,0.000000,0.000000,0.000000,0.000000,1647238470.162195,0.000000
204.000000,8128.949479,12305.507041,-711.366619,6569.110640,-22021.363321,7901.408720,19476.997194,9903.454471,-0.178000,0.960000,0.146000,192.000000,0.000000,0.000000,0.000000,0.000000,0.000000,0.000000,0.000000,0.000000,0.000000,1647238470.169282,0.000000
205.000000,8144.461589,12324.371913,-701.241279,6582.722853,-22008.913399,7906.884898,19475.946662,9888.188230,-0.178000,0.960000,0.146000,192.000000,0.000000,0.000000,0.000000,0.000000,0.000000,0.000000,0.000000,0.000000,0.000000,1647238470.169286,0.000000
206.000000,8134.090380,12332.195024,-709.354962,6570.474097,-22016.848268,7893.295037,19461.820359,9853.207750,-0.178000,0.960000,0.146000,192.000000,0.000000,0.000000,0.000000,0.000000,0.000000,0.000000,0.000000,0.000000,0.000000,1647238470.176939,0.000000
207.000000,8129.016534,12347.125989,-722.788360,6566.406079,-22022.816184,7896.737206,19462.915595,9903.454471,-0.178000,0.960000,0.146000,192.000000,0.000000,0.000000,0.000000,0.000000,0.000000,0.000000,0.000000,0.000000,0.000000,1647238470.176943,0.000000
208.000000,8128.748313,12359.397097,-726.185826,6565.243788,-22026.414815,7889.741110,19453.952545,9897.441852,-0.178000,0.960000,0.146000,192.000000,0.000000,0.000000,0.000000,0.000000,0.000000,0.000000,0.000000,0.000000,0.000000,1647238470.184019,0.000000
209.000000,8140.930014,12379.312501,-701.889479,6577.403137,-22011.528553,7891.976284,19449.012810,9868.429287,-0.178000,0.960000,0.146000,192.000000,0.000000,0.000000,0.000000,0.000000,0.000000,0.000000,0.000000,0.000000,0.000000,1647238470.191873,0.000000
210.000000,8135.587947,12380.206571,-706.896270,6563.388594,-22015.529515,7890.679883,19455.137188,9856.068773,-0.180000,0.954000,0.138000,192.000000,250.000000,96.000000,29.000000,208.000000,4.000000,80.000000,0.000000,0.000000,0.000000,1647238470.191877,0.000000
211.000000,8136.839645,12388.655530,-699.989581,6573.648044,-22009.494544,7910.438825,19472.057458,9928.689591,-0.180000,0.954000,0.138000,192.000000,0.000000,0.000000,0.000000,0.000000,0.000000,0.000000,0.000000,0.000000,0.000000,1647238470.198978,0.000000
212.000000,8137.689011,12394.444632,-697.866165,6583.147536,-22003.996015,7920.407703,19484.194456,9937.049143,-0.180000,0.954000,0.138000,192.000000,0.000000,0.000000,0.000000,0.000000,0.000000,0.000000,0.000000,0.000000,0.000000,1647238470.198982,0.000000
213.000000,8132.548110,12390.890704,-702.001238,6578.520725,-22009.181620,7913.456310,19477.511284,9912.909259,-0.180000,0.954000,0.138000,192.000000,0.000000,0.000000,0.000000,0.000000,0.000000,0.000000,0.000000,0.000000,0.000000,1647238470.206605,0.000000
214.000000,8125.641421,12380.608902,-715.188767,6561.108716,-22023.039701,7897.564220,19464.994307,9878.532276,-0.180000,0.954000,0.138000,192.000000,0.000000,0.000000,0.000000,0.000000,0.000000,0.000000,0.000000,0.000000,0.000000,1647238470.206615,0.000000
215.000000,8119.405284,12378.463135,-720.664945,6557.823009,-22025.610152,7894.300865,19457.931156,9872.944340,-0.180000,0.954000,0.138000,192.000000,0.000000,0.000000,0.000000,0.000000,0.000000,0.000000,0.000000,0.000000,0.000000,1647238470.214553,0.000000
216.000000,8115.381970,12371.757611,-721.313145,6555.945463,-22026.370111,7895.261990,19456.657106,9885.729538,-0.180000,0.954000,0.138000,192.000000,0.000000,0.000000,0.000000,0.000000,0.000000,0.000000,0.000000,0.000000,0.000000,1647238470.214557,0.000000
217.000000,8118.399455,12372.897550,-722.564843,6561.041660,-22024.626675,7893.697368,19450.555080,9889.261113,-0.180000,0.954000,0.138000,192.000000,0.000000,0.000000,0.000000,0.000000,0.000000,0.000000,0.000000,0.000000,0.000000,1647238470.222516,0.000000
218.000000,8112.297429,12363.263948,-733.405439,6548.927015,-22033.410911,7884.354339,19442.351990,9861.723764,-0.180000,0.954000,0.138000,192.000000,0.000000,0.000000,0.000000,0.000000,0.000000,0.000000,0.000000,0.000000,0.000000,1647238470.222520,0.000000
219.000000,8104.831946,12361.051126,-725.895253,6549.709326,-22031.533364,7890.813993,19457.215900,9875.626549,-0.180000,0.954000,0.138000,192.000000,0.000000,0.000000,0.000000,0.000000,0.000000,0.000000,0.000000,0.000000,0.000000,1647238470.229218,0.000000
220.000000,8118.108883,12377.703175,-714.674677,6564.796754,-22018.614056,7905.007351,19467.363592,9894.200849,-0.180000,0.950000,0.134000,192.000000,250.000000,96.000000,29.000000,176.000000,4.000000,48.000000,0.000000,0.000000,0.000000,1647238470.229222,0.000000
221.000000,8127.004877,12387.604998,-707.522119,6572.888085,-22011.662663,7911.310543,19469.799932,9902.247477,-0.180000,0.950000,0.134000,192.000000,0.000000,0.000000,0.000000,0.000000,0.000000,0.000000,0.000000,0.000000,0.000000,1647238470.237157,0.000000
222.000000,8122.825101,12378.686652,-710.919584,6569.714137,-22016.021254,7909.768273,19466.178950,9900.951076,-0.180000,0.950000,0.134000,192.000000,0.000000,0.000000,0.000000,0.000000,0.000000,0.000000,0.000000,0.000000,0.000000,1647238470.237160,0.000000
223.000000,8116.432502,12371.981129,-718.586232,6562.114544,-22023.598495,7898.033607,19453.661973,9864.115401,-0.180000,0.950000,0.134000,192.000000,0.000000,0.000000,0.000000,0.000000,0.000000,0.000000,0.000000,0.000000,0.000000,1647238470.244247,0.000000
224.000000,8116.812482,12375.713870,-721.380201,6559.253521,-22024.157289,7896.089005,19459.026391,9843.752962,-0.180000,0.950000,0.134000,192.000000,0.000000,0.000000,0.000000,0.000000,0.000000,0.000000,0.000000,0.000000,0.000000,1647238470.244250,0.000000
225.000000,8111.738636,12371.444687,-727.348116,6556.347794,-22027.979437,7898.994732,19455.986554,9888.657616,-0.180000,0.950000,0.134000,192.000000,0.000000,0.000000,0.000000,0.000000,0.000000,0.000000,0.000000,0.000000,0.000000,1647238470.251365,0.000000
226.000000,8128.904775,12387.493239,-707.589174,6578.856001,-22012.087347,7911.623467,19467.855330,9907.500137,-0.180000,0.950000,0.134000,192.000000,0.000000,0.000000,0.000000,0.000000,0.000000,0.000000,0.000000,0.000000,0.000000,1647238470.258863,0.000000
227.000000,8127.451912,12388.186143,-704.683447,6578.364262,-22010.343910,7911.131729,19463.541444,9888.836430,-0.180000,0.950000,0.134000,192.000000,0.000000,0.000000,0.000000,0.000000,0.000000,0.000000,0.000000,0.000000,0.000000,1647238470.258867,0.000000
228.000000,8125.552014,12382.017062,-707.253898,6571.882256,-22012.847306,7913.769235,19466.313060,9903.141547,-0.180000,0.950000,0.134000,192.000000,0.000000,0.000000,0.000000,0.000000,0.000000,0.000000,0.000000,0.000000,0.000000,1647238470.266894,0.000000
229.000000,8132.793979,12386.733280,-704.795206,6572.776326,-22008.801640,7914.998581,19463.563796,9901.733387,-0.180000,0.950000,0.134000,192.000000,0.000000,0.000000,0.000000,0.000000,0.000000,0.000000,0.000000,0.000000,0.000000,1647238470.266898,0.000000
230.000000,8126.446083,12383.022890,-710.271384,6571.144649,-22012.534381,7913.210441,19470.336374,9902.336884,-0.172000,0.958000,0.144000,192.000000,250.000000,160.000000,29.000000,240.000000,4.000000,128.000000,0.000000,0.000000,0.000000,1647238470.274851,0.000000
231.000000,8118.444159,12380.430088,-707.633878,6570.921131,-22014.948370,7909.812976,19474.113819,9871.670290,-0.172000,0.958000,0.144000,192.000000,0.000000,0.000000,0.000000,0.000000,0.000000,0.000000,0.000000,0.000000,0.000000,1647238470.274854,0.000000
232.000000,8116.052522,12376.317367,-711.210157,6568.864771,-22015.261294,7910.483528,19466.223653,9869.412764,-0.172000,0.958000,0.144000,192.000000,0.000000,0.000000,0.000000,0.000000,0.000000,0.000000,0.000000,0.000000,0.000000,1647238470.281501,0.000000
233.000000,8112.096263,12369.947120,-715.054657,6563.299187,-22017.161193,7908.248354,19460.389848,9871.536180,-0.172000,0.958000,0.144000,192.000000,0.000000,0.000000,0.000000,0.000000,0.000000,0.000000,0.000000,0.000000,0.000000,1647238470.281527,0.000000
234.000000,8117.348923,12375.177428,-711.008991,6560.527570,-22015.216591,7909.075369,19453.080827,9865.702375,-0.172000,0.958000,0.144000,192.000000,0.000000,0.000000,0.000000,0.000000,0.000000,0.000000,0.000000,0.000000,0.000000,1647238470.290865,0.000000
235.000000,8119.785264,12378.351376,-710.718418,6565.087326,-22012.243809,7916.652610,19464.189644,9891.451584,-0.172000,0.958000,0.144000,192.000000,0.000000,0.000000,0.000000,0.000000,0.000000,0.000000,0.000000,0.000000,0.000000,1647238470.290873,0.000000
236.000000,8122.758046,12377.390251,-706.516290,6572.686919,-22007.616998,7916.898479,19466.201301,9877.369985,-0.172000,0.958000,0.144000,192.000000,0.000000,0.000000,0.000000,0.000000,0.000000,0.000000,0.000000,0.000000,0.000000,1647238470.297533,0.000000
237.000000,8118.198290,12376.473829,-706.315125,6561.980434,-22011.349739,7910.707046,19464.815493,9849.944395,-0.172000,0.958000,0.144000,192.000000,0.000000,0.000000,0.000000,0.000000,0.000000,0.000000,0.000000,0.000000,0.000000,1647238470.297537,0.000000
238.000000,8117.773607,12387.403832,-701.084817,6570.429393,-22005.605341,7918.396046,19459.719295,9881.192134,-0.172000,0.958000,0.144000,192.000000,0.000000,0.000000,0.000000,0.000000,0.000000,0.000000,0.000000,0.000000,0.000000,1647238470.304508,0.000000
239.000000,8118.377104,12395.606923,-699.453139,6568.037756,-22006.231190,7921.748808,19462.446208,9898.022997,-0.172000,0.958000,0.144000,192.000000,0.000000,0.000000,0.000000,0.000000,0.000000,0.000000,0.000000,0.000000,0.000000,1647238470.304511,0.000000
240.000000,8113.236202,12402.625370,-708.505596,6558.426506,-22015.708329,7912.919869,19463.563796,9875.201866,-0.164000,0.956000,0.144000,192.000000,250.000000,224.000000,29.000000,224.000000,4.000000,128.000000,0.000000,0.000000,0.000000,1647238470.311016,0.000000
241.000000,8121.349886,12422.339609,-704.012895,6559.320576,-22009.561599,7921.882918,19472.728011,9894.781994,-0.164000,0.956000,0.144000,192.000000,0.000000,0.000000,0.000000,0.000000,0.000000,0.000000,0.000000,0.000000,0.000000,1647238470.319227,0.000000
242.000000,8117.147758,12427.078179,-708.863224,6560.616977,-22012.646140,7919.424226,19465.329583,9894.491422,-0.164000,0.956000,0.144000,192.000000,0.000000,0.000000,0.000000,0.000000,0.000000,0.000000,0.000000,0.000000,0.000000,1647238470.319251,0.000000
243.000000,8113.772644,12425.401798,-711.456026,6562.226303,-22015.171887,7915.535023,19461.239214,9872.340843,-0.164000,0.956000,0.144000,192.000000,0.000000,0.000000,0.000000,0.000000,0.000000,0.000000,0.000000,0.000000,0.000000,1647238470.327150,0.000000
244.000000,8116.454854,12430.497996,-709.176148,6564.014442,-22013.361396,7916.339685,19460.725124,9870.418593,-0.164000,0.956000,0.144000,192.000000,0.000000,0.000000,0.000000,0.000000,0.000000,0.000000,0.000000,0.000000,0.000000,1647238470.327154,0.000000
245.000000,8114.264383,12428.329876,-715.166416,6559.767611,-22018.614056,7911.243488,19450.778598,9863.310738,-0.164000,0.956000,0.144000,192.000000,0.000000,0.000000,0.000000,0.000000,0.000000,0.000000,0.000000,0.000000,0.000000,1647238470.334180,0.000000
246.000000,8116.901888,12431.436769,-709.198500,6561.600454,-22015.730681,7913.143386,19451.650316,9857.141657,-0.164000,0.956000,0.144000,192.000000,0.000000,0.000000,0.000000,0.000000,0.000000,0.000000,0.000000,0.000000,0.000000,1647238470.334204,0.000000
247.000000,8112.073912,12425.625315,-710.360791,6552.168018,-22021.542134,7907.846023,19447.247022,9858.371002,-0.164000,0.956000,0.144000,192.000000,0.000000,0.000000,0.000000,0.000000,0.000000,0.000000,0.000000,0.000000,0.000000,1647238470.341680,0.000000
248.000000,8122.065141,12435.013048,-706.985677,6562.136896,-22017.809393,7913.188090,19456.053609,9875.268921,-0.164000,0.956000,0.144000,192.000000,0.000000,0.000000,0.000000,0.000000,0.000000,0.000000,0.000000,0.000000,0.000000,1647238470.341703,0.000000
249.000000,8128.971830,12451.061601,-701.196575,6577.470193,-22010.723890,7917.814901,19477.399525,9864.383622,-0.164000,0.956000,0.144000,192.000000,0.000000,0.000000,0.000000,0.000000,0.000000,0.000000,0.000000,0.000000,0.000000,1647238470.349801,0.000000
250.000000,8121.171072,12441.159778,-699.430787,6569.155344,-22012.623788,7914.618601,19466.871854,9855.755848,-0.172000,0.952000,0.138000,192.000000,250.000000,160.000000,29.000000,192.000000,4.000000,80.000000,0.000000,0.000000,0.000000,1647238470.349804,0.000000
251.000000,8105.033112,12422.563126,-713.333573,6551.542169,-22026.884201,7907.331932,19447.828167,9872.899636,-0.172000,0.952000,0.138000,192.000000,0.000000,0.000000,0.000000,0.000000,0.000000,0.000000,0.000000,0.000000,0.000000,1647238470.357827,0.000000
252.000000,8120.880499,12434.856586,-700.570726,6562.650986,-22016.222419,7912.025799,19459.115798,9863.243683,-0.172000,0.952000,0.138000,192.000000,0.000000,0.000000,0.000000,0.000000,0.000000,0.000000,0.000000,0.000000,0.000000,1647238470.357830,0.000000
253.000000,8126.289621,12435.080103,-691.920601,6565.020271,-22010.813297,7914.126863,19471.476313,9847.686869,-0.172000,0.952000,0.138000,192.000000,0.000000,0.000000,0.000000,0.000000,0.000000,0.000000,0.000000,0.000000,0.000000,1647238470.364436,0.000000
254.000000,8113.862051,12418.137481,-708.527947,6547.004765,-22026.280704,7901.766348,19460.121627,9842.635374,-0.172000,0.952000,0.138000,192.000000,0.000000,0.000000,0.000000,0.000000,0.000000,0.000000,0.000000,0.000000,0.000000,1647238470.364439,0.000000
255.000000,8111.157490,12407.855679,-713.221814,6539.025192,-22034.953181,7891.015159,19440.273278,9844.736438,-0.172000,0.952000,0.138000,192.000000,0.000000,0.000000,0.000000,0.000000,0.000000,0.000000,0.000000,0.000000,0.000000,1647238470.373406,0.000000
0.000000,8116.566612,12412.929525,-702.627087,6546.021288,-22029.052321,7893.272685,19450.108045,9830.856005,-0.172000,0.952000,0.138000,192.000000,0.000000,0.000000,0.000000,0.000000,0.000000,0.000000,0.000000,0.000000,0.000000,1647238470.379508,0.000000
1.000000,8119.964077,12417.712798,-705.286945,6547.071820,-22029.566411,7890.031682,19447.314077,9815.545060,-0.172000,0.952000,0.138000,192.000000,0.000000,0.000000,0.000000,0.000000,0.000000,0.000000,0.000000,0.000000,0.000000,1647238470.379521,0.000000
2.000000,8123.585060,12423.546603,-708.237375,6552.927977,-22029.097024,7895.507860,19457.931156,9850.771409,-0.172000,0.952000,0.138000,192.000000,0.000000,0.000000,0.000000,0.000000,0.000000,0.000000,0.000000,0.000000,0.000000,1647238470.387459,0.000000
3.000000,8141.824084,12438.276403,-689.037226,6577.917227,-22009.181620,7914.395084,19465.620156,9896.704244,-0.172000,0.952000,0.138000,192.000000,0.000000,0.000000,0.000000,0.000000,0.000000,0.000000,0.000000,0.000000,0.000000,1647238470.387464,0.000000
4.000000,8138.113694,12434.364847,-688.523136,6571.099945,-22010.343910,7916.652610,19474.985537,9897.061872,-0.184000,0.954000,0.136000,192.000000,250.000000,64.000000,29.000000,208.000000,4.000000,64.000000,0.000000,0.000000,0.000000,1647238470.394144,0.000000
5.000000,8126.781360,12427.592269,-696.167433,6559.074707,-22019.597533,7905.923773,19472.012755,9870.798572,-0.184000,0.954000,0.136000,192.000000,0.000000,0.000000,0.000000,0.000000,0.000000,0.000000,0.000000,0.000000,0.000000,1647238470.394147,0.000000
6.000000,8116.723075,12419.590344,-701.397741,6552.346832,-22026.370111,7898.257124,19461.082752,9847.150427,-0.184000,0.954000,0.136000,192.000000,0.000000,0.000000,0.000000,0.000000,0.000000,0.000000,0.000000,0.000000,0.000000,1647238470.402091,0.000000
7.000000,8123.026266,12423.054865,-700.861299,6557.308919,-22025.096062,7900.827575,19455.003077,9845.630508,-0.184000,0.954000,0.136000,192.000000,0.000000,0.000000,0.000000,0.000000,0.000000,0.000000,0.000000,0.000000,0.000000,1647238470.402115,0.000000
8.000000,8125.708476,12425.871185,-698.424959,6557.085402,-22026.034835,7896.133708,19450.398618,9828.866700,-0.184000,0.954000,0.136000,192.000000,0.000000,0.000000,0.000000,0.000000,0.000000,0.000000,0.000000,0.000000,0.000000,1647238470.410062,0.000000
9.000000,8124.367371,12422.674885,-698.201442,6559.633501,-22025.319579,7902.928639,19465.217825,9847.373944,-0.184000,0.954000,0.136000,192.000000,0.000000,0.000000,0.000000,0.000000,0.000000,0.000000,0.000000,0.000000,0.000000,1647238470.410065,0.000000
10.000000,8120.813444,12420.774987,-703.677619,6557.621844,-22027.711216,7903.375674,19465.150769,9867.535218,-0.184000,0.954000,0.136000,192.000000,0.000000,0.000000,0.000000,0.000000,0.000000,0.000000,0.000000,0.000000,0.000000,1647238470.416777,0.000000
11.000000,8117.863013,12417.981019,-706.695104,6551.542169,-22032.896821,7893.943238,19451.069170,9843.663555,-0.184000,0.954000,0.136000,192.000000,0.000000,0.000000,0.000000,0.000000,0.000000,0.000000,0.000000,0.000000,0.000000,1647238470.416781,0.000000
12.000000,8112.185670,12406.246353,-715.702857,6542.534416,-22040.965800,7885.874258,19442.039066,9822.988191,-0.184000,0.954000,0.136000,192.000000,0.000000,0.000000,0.000000,0.000000,0.000000,0.000000,0.000000,0.000000,0.000000,1647238470.424721,0.000000
13.000000,8107.938839,12403.184164,-722.944823,6539.852207,-22046.464330,7881.806240,19447.872871,9812.929906,-0.184000,0.954000,0.136000,192.000000,0.000000,0.000000,0.000000,0.000000,0.000000,0.000000,0.000000,0.000000,0.000000,1647238470.424724,0.000000
14.000000,8116.857185,12415.365865,-713.221814,6550.916320,-22036.517803,7893.876182,19451.963240,9838.545005,-0.192000,0.956000,0.130000,192.000000,250.000000,0.000000,29.000000,224.000000,4.000000,16.000000,0.000000,0.000000,0.000000,1647238470.431760,0.000000
15.000000,8119.137063,12412.393083,-715.836968,6547.943538,-22039.401178,7890.411662,19450.130397,9840.802531,-0.192000,0.956000,0.130000,192.000000,0.000000,0.000000,0.000000,0.000000,0.000000,0.000000,0.000000,0.000000,0.000000,1647238470.439842,0.000000
16.000000,8124.367371,12415.857603,-707.008029,6549.083477,-22034.819071,7897.720682,19458.244080,9848.603290,-0.192000,0.956000,0.130000,192.000000,0.000000,0.000000,0.000000,0.000000,0.000000,0.000000,0.000000,0.000000,0.000000,1647238470.439846,0.000000
17.000000,8121.014609,12414.427091,-702.962363,6546.736544,-22035.668437,7903.778005,19469.129380,9862.930758,-0.192000,0.956000,0.130000,192.000000,0.000000,0.000000,0.000000,0.000000,0.000000,0.000000,0.000000,0.000000,0.000000,1647238470.446439,0.000000
18.000000,8134.425656,12427.145234,-691.205346,6555.565483,-22026.638332,7906.035531,19465.709563,9841.607194,-0.192000,0.956000,0.130000,192.000000,0.000000,0.000000,0.000000,0.000000,0.000000,0.000000,0.000000,0.000000,0.000000,1647238470.446446,0.000000
19.000000,8131.028191,12423.412493,-695.765101,6560.751088,-22028.202954,7899.933505,19460.412200,9838.656764,-0.192000,0.956000,0.130000,192.000000,0.000000,0.000000,0.000000,0.000000,0.000000,0.000000,0.000000,0.000000,0.000000,1647238470.454561,0.000000
20.000000,8125.172034,12415.745844,-702.247107,6551.989204,-22034.841422,7895.396101,19464.480217,9842.613023,-0.192000,0.956000,0.130000,192.000000,0.000000,0.000000,0.000000,0.000000,0.000000,0.000000,0.000000,0.000000,0.000000,1647238470.454575,0.000000
21.000000,8126.066104,12418.338647,-706.784511,6551.050431,-22038.283591,7892.378615,19465.597804,9818.428435,-0.192000,0.956000,0.130000,192.000000,0.000000,0.000000,0.000000,0.000000,0.000000,0.000000,0.000000,0.000000,0.000000,1647238470.462817,0.000000
22.000000,8116.566612,12405.598152,-715.769913,6542.467361,-22048.230117,7885.449575,19445.637696,9822.787025,-0.192000,0.956000,0.130000,192.000000,0.000000,0.000000,0.000000,0.000000,0.000000,0.000000,0.000000,0.000000,0.000000,1647238470.462853,0.000000
23.000000,8111.246897,12404.413510,-712.864186,6541.819160,-22048.408931,7888.198839,19446.151787,9826.497415,-0.192000,0.956000,0.130000,192.000000,0.000000,0.000000,0.000000,0.000000,0.000000,0.000000,0.000000,0.000000,0.000000,1647238470.471270,0.000000
24.000000,8117.460682,12410.783757,-707.700933,6542.981451,-22043.916231,7902.749825,19463.474389,9873.838410,-0.192000,0.962000,0.136000,192.000000,250.000000,0.000000,30.000000,16.000000,4.000000,64.000000,0.000000,0.000000,0.000000,1647238470.471287,0.000000
25.000000,8131.296412,12419.567993,-695.832157,6563.008614,-22031.242792,7910.461177,19462.602671,9880.231009,-0.192000,0.962000,0.136000,192.000000,0.000000,0.000000,0.000000,0.000000,0.000000,0.000000,0.000000,0.000000,0.000000,1647238470.477534,0.000000
26.000000,8129.754142,12416.461100,-697.396779,6561.265178,-22031.511012,7904.157985,19453.594917,9843.820017,-0.192000,0.962000,0.136000,192.000000,0.000000,0.000000,0.000000,0.000000,0.000000,0.000000,0.000000,0.000000,0.000000,1647238470.477550,0.000000
27.000000,8126.893118,12415.969362,-701.487148,6553.151495,-22036.473100,7903.487432,19453.438455,9846.524578,-0.192000,0.962000,0.136000,192.000000,0.000000,0.000000,0.000000,0.000000,0.000000,0.000000,0.000000,0.000000,0.000000,1647238470.485526,0.000000
28.000000,8129.977659,12420.171490,-703.834081,6560.102887,-22032.583896,7905.320275,19461.440380,9845.429342,-0.192000,0.962000,0.136000,192.000000,0.000000,0.000000,0.000000,0.000000,0.000000,0.000000,0.000000,0.000000,0.000000,1647238470.485542,0.000000
29.000000,8127.988354,12424.351266,-701.084817,6566.339024,-22030.885164,7903.822709,19459.048743,9828.799645,-0.192000,0.962000,0.136000,192.000000,0.000000,0.000000,0.000000,0.000000,0.000000,0.000000,0.000000,0.000000,0.000000,1647238470.492504,0.000000
30.000000,8124.166205,12420.484414,-698.782587,6563.343890,-22033.612076,7901.855755,19458.177025,9822.831729,-0.192000,0.962000,0.136000,192.000000,0.000000,0.000000,0.000000,0.000000,0.000000,0.000000,0.000000,0.000000,0.000000,1647238470.492521,0.000000
31.000000,8125.596717,12416.818728,-698.871994,6561.488695,-22033.500318,7902.883935,19457.215900,9821.825900,-0.192000,0.962000,0.136000,192.000000,0.000000,0.000000,0.000000,0.000000,0.000000,0.000000,0.000000,0.000000,0.000000,1647238470.499015,0.000000
32.000000,8128.971830,12421.959629,-700.570726,6560.304053,-22035.333161,7903.174508,19461.283918,9820.663610,-0.192000,0.962000,0.136000,192.000000,0.000000,0.000000,0.000000,0.000000,0.000000,0.000000,0.000000,0.000000,0.000000,1647238470.506841,0.000000
33.000000,8125.484958,12417.802205,-703.588212,6558.247692,-22037.858908,7905.633200,19459.965165,9856.515808,-0.192000,0.962000,0.136000,192.000000,0.000000,0.000000,0.000000,0.000000,0.000000,0.000000,0.000000,0.000000,0.000000,1647238470.506852,0.000000
34.000000,8128.189519,12416.259934,-703.901136,6555.990166,-22037.948315,7905.499089,19463.854368,9858.818037,-0.196000,0.966000,0.136000,192.000000,249.000000,224.000000,30.000000,48.000000,4.000000,64.000000,0.000000,0.000000,0.000000,1647238470.514768,0.000000
35.000000,8116.499557,12405.285228,-720.150855,6537.169997,-22055.270917,7884.600208,19433.478347,9816.796758,-0.196000,0.966000,0.136000,192.000000,0.000000,0.000000,0.000000,0.000000,0.000000,0.000000,0.000000,0.000000,0.000000,1647238470.514780,0.000000
36.000000,8126.446083,12416.639914,-704.951668,6554.805524,-22040.854042,7906.013180,19460.836883,9847.329241,-0.196000,0.966000,0.136000,192.000000,0.000000,0.000000,0.000000,0.000000,0.000000,0.000000,0.000000,0.000000,0.000000,1647238470.523558,0.000000
37.000000,8123.361543,12410.873164,-708.773817,6561.041660,-22041.926925,7905.543793,19468.816455,9840.646069,-0.196000,0.966000,0.136000,192.000000,0.000000,0.000000,0.000000,0.000000,0.000000,0.000000,0.000000,0.000000,0.000000,1647238470.523574,0.000000
38.000000,8119.762912,12406.089891,-707.857395,6555.096096,-22044.318562,7899.933505,19457.819397,9824.619868,-0.196000,0.966000,0.136000,192.000000,0.000000,0.000000,0.000000,0.000000,0.000000,0.000000,0.000000,0.000000,0.000000,1647238470.530868,0.000000
39.000000,8131.318764,12409.308542,-698.536718,6556.280739,-22038.954143,7903.554488,19458.869929,9824.329296,-0.196000,0.966000,0.136000,192.000000,0.000000,0.000000,0.000000,0.000000,0.000000,0.000000,0.000000,0.000000,0.000000,1647238470.530877,0.000000
40.000000,8124.389723,12407.028664,-701.397741,6555.207855,-22040.339952,7902.123976,19455.383057,9832.957069,-0.196000,0.966000,0.136000,192.000000,0.000000,0.000000,0.000000,0.000000,0.000000,0.000000,0.000000,0.000000,0.000000,1647238470.539159,0.000000
41.000000,8114.599659,12398.199725,-707.835043,6547.608262,-22048.453635,7899.866450,19461.462732,9842.389505,-0.196000,0.966000,0.136000,192.000000,0.000000,0.000000,0.000000,0.000000,0.000000,0.000000,0.000000,0.000000,0.000000,1647238470.539175,0.000000
42.000000,8114.867880,12394.690501,-712.260689,6549.888140,-22051.873452,7895.619618,19460.546310,9832.420627,-0.196000,0.966000,0.136000,192.000000,0.000000,0.000000,0.000000,0.000000,0.000000,0.000000,0.000000,0.000000,0.000000,1647238470.547263,0.000000
43.000000,8125.283793,12409.554411,-705.733979,6555.744297,-22044.810300,7901.967514,19462.177987,9847.061020,-0.196000,0.966000,0.136000,192.000000,0.000000,0.000000,0.000000,0.000000,0.000000,0.000000,0.000000,0.000000,0.000000,1647238470.547297,0.000000
44.000000,8127.943650,12416.081121,-702.135349,6548.815256,-22043.782120,7899.754691,19457.126493,9837.583880,-0.190000,0.960000,0.126000,192.000000,250.000000,16.000000,30.000000,0.000000,3.000000,240.000000,0.000000,0.000000,0.000000,1647238470.553332,0.000000
45.000000,8119.472339,12400.636065,-709.869052,6544.210797,-22049.928850,7893.473851,19449.504548,9830.632488,-0.190000,0.960000,0.126000,192.000000,0.000000,0.000000,0.000000,0.000000,0.000000,0.000000,0.000000,0.000000,0.000000,1647238470.553349,0.000000
46.000000,8118.466511,12396.433937,-704.124654,6552.883274,-22043.692713,7896.647799,19452.320868,9831.660668,-0.190000,0.960000,0.126000,192.000000,0.000000,0.000000,0.000000,0.000000,0.000000,0.000000,0.000000,0.000000,0.000000,1647238470.559507,0.000000
47.000000,8119.874670,12398.557353,-702.738846,6550.111657,-22040.876393,7902.906287,19463.519092,9836.868624,-0.190000,0.960000,0.126000,192.000000,0.000000,0.000000,0.000000,0.000000,0.000000,0.000000,0.000000,0.000000,0.000000,1647238470.567111,0.000000
48.000000,8118.421807,12401.887763,-707.388009,6551.765686,-22043.648010,7895.954895,19465.933080,9818.719008,-0.190000,0.960000,0.126000,192.000000,0.000000,0.000000,0.000000,0.000000,0.000000,0.000000,0.000000,0.000000,0.000000,1647238470.567122,0.000000
49.000000,8123.920336,12406.738091,-713.467683,6556.571312,-22044.385617,7901.140499,19469.017621,9853.118343,-0.190000,0.960000,0.126000,192.000000,0.000000,0.000000,0.000000,0.000000,0.000000,0.000000,0.000000,0.000000,0.000000,1647238470.575539,0.000000
50.000000,8126.803711,12409.442652,-713.668849,6555.833704,-22044.407969,7902.928639,19467.564758,9858.885093,-0.190000,0.960000,0.126000,192.000000,0.000000,0.000000,0.000000,0.000000,0.000000,0.000000,0.000000,0.000000,0.000000,1647238470.575556,0.000000
51.000000,8123.406246,12399.898458,-704.504633,6554.045564,-22043.424492,7905.454386,19465.709563,9857.320470,-0.190000,0.960000,0.126000,192.000000,0.000000,0.000000,0.000000,0.000000,0.000000,0.000000,0.000000,0.000000,0.000000,1647238470.582169,0.000000
52.000000,8110.486938,12389.303731,-715.702857,6538.824026,-22057.059056,7888.802336,19448.163444,9829.023162,-0.190000,0.960000,0.126000,192.000000,0.000000,0.000000,0.000000,0.000000,0.000000,0.000000,0.000000,0.000000,0.000000,1647238470.582187,0.000000
53.000000,8115.449025,12398.065614,-716.865148,6549.575216,-22053.818053,7887.215362,19442.642563,9804.995037,-0.190000,0.960000,0.126000,192.000000,0.000000,0.000000,0.000000,0.000000,0.000000,0.000000,0.000000,0.000000,0.000000,1647238470.589857,0.000000
54.000000,8121.059313,12403.742958,-711.277212,6550.983375,-22049.839443,7893.384444,19458.445246,9805.732644,-0.190000,0.960000,0.126000,192.000000,0.000000,0.000000,0.000000,0.000000,0.000000,0.000000,0.000000,0.000000,0.000000,1647238470.589873,0.000000
55.000000,8123.853281,12408.749748,-713.311221,6555.565483,-22047.179585,7902.593363,19464.547272,9865.188285,-0.178000,0.954000,0.132000,192.000000,250.000000,112.000000,29.000000,208.000000,4.000000,32.000000,0.000000,0.000000,0.000000,1647238470.598165,0.000000
56.000000,8119.561746,12400.747824,-714.339401,6551.966852,-22050.420588,7894.457328,19455.695981,9841.875415,-0.178000,0.954000,0.132000,192.000000,0.000000,0.000000,0.000000,0.000000,0.000000,0.000000,0.000000,0.000000,0.000000,1647238470.598181,0.000000
57.000000,8120.142891,12396.031606,-716.686334,6552.816218,-22052.499301,7894.658493,19455.673630,9830.274860,-0.178000,0.954000,0.132000,192.000000,0.000000,0.000000,0.000000,0.000000,0.000000,0.000000,0.000000,0.000000,0.000000,1647238470.606138,0.000000
58.000000,8116.790130,12394.288170,-720.486131,6551.765686,-22057.506091,7885.606037,19437.926345,9815.746226,-0.178000,0.954000,0.132000,192.000000,0.000000,0.000000,0.000000,0.000000,0.000000,0.000000,0.000000,0.000000,0.000000,1647238470.606155,0.000000
59.000000,8131.586985,12410.917868,-703.767026,6564.416774,-22041.211670,7903.330970,19457.394714,9838.924985,-0.178000,0.954000,0.132000,192.000000,0.000000,0.000000,0.000000,0.000000,0.000000,0.000000,0.000000,0.000000,0.000000,1647238470.615538,0.000000
60.000000,8137.040810,12421.959629,-692.077064,6574.296245,-22032.650951,7909.298886,19462.557967,9827.927927,-0.178000,0.954000,0.132000,192.000000,0.000000,0.000000,0.000000,0.000000,0.000000,0.000000,0.000000,0.000000,0.000000,1647238470.615555,0.000000
61.000000,8136.593775,12423.524251,-688.031398,6574.832687,-22030.035797,7915.132691,19457.998211,9839.036744,-0.178000,0.954000,0.132000,192.000000,0.000000,0.000000,0.000000,0.000000,0.000000,0.000000,0.000000,0.000000,0.000000,1647238470.621698,0.000000
62.000000,8132.212833,12417.578687,-702.805901,6569.758841,-22039.870565,7904.470909,19442.754321,9830.140749,-0.178000,0.954000,0.132000,192.000000,0.000000,0.000000,0.000000,0.000000,0.000000,0.000000,0.000000,0.000000,0.000000,1647238470.629145,0.000000
63.000000,8116.074874,12405.888725,-712.953593,6565.109678,-22049.615926,7895.038473,19442.866080,9809.890069,-0.178000,0.954000,0.132000,192.000000,0.000000,0.000000,0.000000,0.000000,0.000000,0.000000,0.000000,0.000000,0.000000,1647238470.629161,0.000000
64.000000,8126.043752,12414.807071,-697.195613,6571.614036,-22037.747149,7913.210441,19461.373325,9846.859854,-0.178000,0.954000,0.132000,192.000000,0.000000,0.000000,0.000000,0.000000,0.000000,0.000000,0.000000,0.000000,0.000000,1647238470.635975,0.000000
65.000000,8123.987391,12410.113205,-708.170320,6563.388594,-22046.799606,7901.498127,19452.566737,9820.015409,-0.168000,0.950000,0.136000,192.000000,250.000000,192.000000,29.000000,176.000000,4.000000,64.000000,0.000000,0.000000,0.000000,1647238470.636008,0.000000
66.000000,8123.607412,12410.537888,-710.405494,6564.394422,-22047.023123,7901.676941,19461.753304,9809.688903,-0.168000,0.950000,0.136000,192.000000,0.000000,0.000000,0.000000,0.000000,0.000000,0.000000,0.000000,0.000000,0.000000,1647238470.642315,0.000000
67.000000,8120.187595,12407.073367,-713.355924,6565.891989,-22049.481815,7898.458290,19447.939926,9816.416778,-0.168000,0.950000,0.136000,192.000000,0.000000,0.000000,0.000000,0.000000,0.000000,0.000000,0.000000,0.000000,0.000000,1647238470.642331,0.000000
68.000000,8118.667676,12409.107376,-711.590136,6571.457573,-22048.207766,7903.576839,19450.264508,9854.213578,-0.168000,0.950000,0.136000,192.000000,0.000000,0.000000,0.000000,0.000000,0.000000,0.000000,0.000000,0.000000,0.000000,1647238470.650233,0.000000
69.000000,8122.802749,12412.616600,-705.063427,6571.032890,-22041.837518,7914.506842,19472.146865,9874.687776,-0.168000,0.950000,0.136000,192.000000,0.000000,0.000000,0.000000,0.000000,0.000000,0.000000,0.000000,0.000000,0.000000,1647238470.650249,0.000000
70.000000,8121.863976,12413.175394,-708.349134,6565.891989,-22044.787949,7906.437863,19461.038048,9847.351592,-0.168000,0.950000,0.136000,192.000000,0.000000,0.000000,0.000000,0.000000,0.000000,0.000000,0.000000,0.000000,0.000000,1647238470.657393,0.000000
71.000000,8116.074874,12406.402815,-715.814616,6564.170905,-22050.398237,7900.469947,19456.075961,9837.583880,-0.168000,0.950000,0.136000,192.000000,0.000000,0.000000,0.000000,0.000000,0.000000,0.000000,0.000000,0.000000,0.000000,1647238470.657409,0.000000
72.000000,8117.661848,12406.022835,-713.154759,6566.964873,-22047.783082,7897.586572,19451.113874,9823.725799,-0.168000,0.950000,0.136000,192.000000,0.000000,0.000000,0.000000,0.000000,0.000000,0.000000,0.000000,0.000000,0.000000,1647238470.666205,0.000000
73.000000,8116.432502,12405.307580,-714.786436,6565.221437,-22049.101835,7896.357226,19449.236327,9827.793816,-0.168000,0.950000,0.136000,192.000000,0.000000,0.000000,0.000000,0.000000,0.000000,0.000000,0.000000,0.000000,0.000000,1647238470.666221,0.000000
74.000000,8128.413037,12416.483452,-704.884613,6574.810335,-22040.116434,7910.863508,19463.630851,9853.163046,-0.168000,0.950000,0.136000,192.000000,0.000000,0.000000,0.000000,0.000000,0.000000,0.000000,0.000000,0.000000,0.000000,1647238470.673013,0.000000
75.000000,8131.028191,12410.940219,-708.751465,6562.203951,-22048.252469,7898.502993,19447.671705,9836.935680,-0.176000,0.950000,0.142000,192.000000,250.000000,128.000000,29.000000,176.000000,4.000000,112.000000,0.000000,0.000000,0.000000,1647238470.673029,0.000000
76.000000,8130.737618,12410.984923,-711.053695,6564.394422,-22048.833614,7892.691540,19448.275202,9820.194223,-0.176000,0.950000,0.142000,192.000000,0.000000,0.000000,0.000000,0.000000,0.000000,0.000000,0.000000,0.000000,0.000000,1647238470.679987,0.000000
77.000000,8120.902851,12409.085024,-714.138235,6565.735527,-22049.973553,7890.858697,19441.793196,9814.762749,-0.176000,0.950000,0.142000,192.000000,0.000000,0.000000,0.000000,0.000000,0.000000,0.000000,0.000000,0.000000,0.000000,1647238470.687979,0.000000
78.000000,8112.543298,12407.386292,-721.111980,6569.043585,-22052.655763,7892.199801,19439.982705,9805.442072,-0.176000,0.950000,0.142000,192.000000,0.000000,0.000000,0.000000,0.000000,0.000000,0.000000,0.000000,0.000000,0.000000,1647238470.687991,0.000000
79.000000,8122.109845,12415.634086,-709.131445,6569.960006,-22048.945373,7900.358188,19454.578394,9840.713124,-0.176000,0.950000,0.142000,192.000000,0.000000,0.000000,0.000000,0.000000,0.000000,0.000000,0.000000,0.000000,0.000000,1647238470.696014,0.000000
80.000000,8127.831892,12423.121920,-697.061503,6578.319559,-22039.579992,7913.501014,19467.497703,9862.282558,-0.176000,0.950000,0.142000,192.000000,0.000000,0.000000,0.000000,0.000000,0.000000,0.000000,0.000000,0.000000,0.000000,1647238470.696030,0.000000
81.000000,8123.719171,12414.896478,-704.951668,6573.580989,-22044.519728,7909.812976,19460.769827,9846.859854,-0.176000,0.950000,0.142000,192.000000,0.000000,0.000000,0.000000,0.000000,0.000000,0.000000,0.000000,0.000000,0.000000,1647238470.704051,0.000000
82.000000,8116.656019,12404.748786,-715.769913,6561.108716,-22054.667420,7900.402892,19464.591976,9828.710238,-0.176000,0.950000,0.142000,192.000000,0.000000,0.000000,0.000000,0.000000,0.000000,0.000000,0.000000,0.000000,0.000000,1647238470.704067,0.000000
83.000000,8122.065141,12411.342551,-715.300526,6564.774402,-22055.181510,7897.497165,19459.875758,9837.427418,-0.176000,0.950000,0.142000,192.000000,0.000000,0.000000,0.000000,0.000000,0.000000,0.000000,0.000000,0.000000,0.000000,1647238470.712140,0.000000
84.000000,8118.287697,12411.208440,-717.043962,6565.176733,-22057.416684,7892.020988,19448.163444,9831.146578,-0.176000,0.950000,0.142000,192.000000,0.000000,0.000000,0.000000,0.000000,0.000000,0.000000,0.000000,0.000000,0.000000,1647238470.712157,0.000000
85.000000,8123.205080,12404.324103,-718.966212,6558.582969,-22060.233004,7891.238676,19447.112912,9833.739380,-0.182000,0.954000,0.138000,192.000000,250.000000,80.000000,29.000000,208.000000,4.000000,80.000000,0.000000,0.000000,0.000000,1647238470.718308,0.000000
86.000000,8125.440255,12412.504841,-717.379238,6570.161172,-22053.795702,7899.575877,19453.684324,9860.561473,-0.182000,0.954000,0.138000,192.000000,0.000000,0.000000,0.000000,0.000000,0.000000,0.000000,0.000000,0.000000,0.000000,1647238470.718346,0.000000
87.000000,8125.619069,12420.506766,-708.773817,6580.867658,-22047.447806,7903.599191,19450.353915,9858.438058,-0.182000,0.954000,0.138000,192.000000,0.000000,0.000000,0.000000,0.000000,0.000000,0.000000,0.000000,0.000000,0.000000,1647238470.725320,0.000000
88.000000,8129.418865,12419.925621,-702.671790,6578.900704,-22046.576088,7903.554488,19455.763037,9841.696601,-0.182000,0.954000,0.138000,192.000000,0.000000,0.000000,0.000000,0.000000,0.000000,0.000000,0.000000,0.000000,0.000000,1647238470.725337,0.000000
89.000000,8124.210909,12413.577725,-713.110055,6571.435222,-22053.281612,7898.860621,19450.510377,9840.757828,-0.182000,0.954000,0.138000,192.000000,0.000000,0.000000,0.000000,0.000000,0.000000,0.000000,0.000000,0.000000,0.000000,1647238470.733088,0.000000
90.000000,8127.563671,12417.086949,-710.204328,6578.677187,-22047.537213,7908.404816,19458.489950,9860.092087,-0.182000,0.954000,0.138000,192.000000,0.000000,0.000000,0.000000,0.000000,0.000000,0.000000,0.000000,0.000000,0.000000,1647238470.733104,0.000000
91.000000,8128.413037,12420.663228,-711.366619,6582.409928,-22046.017295,7910.774101,19467.989441,9854.414744,-0.182000,0.954000,0.138000,192.000000,0.000000,0.000000,0.000000,0.000000,0.000000,0.000000,0.000000,0.000000,0.000000,1647238470.740179,0.000000
92.000000,8127.161339,12417.936315,-714.607622,6575.726757,-22050.711161,7901.431072,19452.902013,9829.827825,-0.182000,0.954000,0.138000,192.000000,0.000000,0.000000,0.000000,0.000000,0.000000,0.000000,0.000000,0.000000,0.000000,1647238470.740196,0.000000
93.000000,8124.993220,12413.220097,-713.937070,6572.932788,-22053.840405,7898.234772,19443.134301,9828.352610,-0.182000,0.954000,0.138000,192.000000,0.000000,0.000000,0.000000,0.000000,0.000000,0.000000,0.000000,0.000000,0.000000,1647238470.747025,0.000000
94.000000,8124.993220,12413.689484,-715.859320,6571.837553,-22054.376847,7901.900459,19451.270336,9841.271918,-0.182000,0.954000,0.138000,192.000000,0.000000,0.000000,0.000000,0.000000,0.000000,0.000000,0.000000,0.000000,0.000000,1647238470.755017,0.000000
95.000000,8123.652115,12411.901344,-717.535701,6569.468268,-22056.969649,7900.961685,19453.349048,9853.587729,-0.186000,0.952000,0.134000,192.000000,250.000000,48.000000,29.000000,192.000000,4.000000,48.000000,0.000000,0.000000,0.000000,1647238470.755034,0.000000
96.000000,8127.474264,12413.443615,-714.004125,6567.411908,-22054.354495,7904.895592,19458.624060,9840.958994,-0.186000,0.952000,0.134000,192.000000,0.000000,0.000000,0.000000,0.000000,0.000000,0.000000,0.000000,0.000000,0.000000,1647238470.762933,0.000000
97.000000,8131.251708,12419.277420,-721.760180,6568.194219,-22053.594536,7900.872278,19453.125531,9838.433246,-0.186000,0.952000,0.134000,192.000000,0.000000,0.000000,0.000000,0.000000,0.000000,0.000000,0.000000,0.000000,0.000000,1647238470.762949,0.000000
98.000000,8129.910604,12422.831347,-722.207215,6568.954178,-22051.784045,7898.637104,19452.566737,9850.212616,-0.186000,0.952000,0.134000,192.000000,0.000000,0.000000,0.000000,0.000000,0.000000,0.000000,0.000000,0.000000,0.000000,1647238470.771014,0.000000
99.000000,8134.313897,12420.752635,-702.716494,6578.565428,-22040.786986,7908.293057,19466.335412,9857.856912,-0.186000,0.952000,0.134000,192.000000,0.000000,0.000000,0.000000,0.000000,0.000000,0.000000,0.000000,0.000000,0.000000,1647238470.771030,0.000000
100.000000,8125.619069,12411.610772,-713.802959,6563.142724,-22049.817091,7900.157022,19463.809665,9861.232026,-0.186000,0.952000,0.134000,192.000000,0.000000,0.000000,0.000000,0.000000,0.000000,0.000000,0.000000,0.000000,0.000000,1647238470.779024,0.000000
101.000000,8114.286734,12400.993693,-732.891349,6550.759858,-22064.055152,7878.945217,19439.714484,9831.571261,-0.186000,0.952000,0.134000,192.000000,0.000000,0.000000,0.000000,0.000000,0.000000,0.000000,0.000000,0.000000,0.000000,1647238470.779041,0.000000
102.000000,8123.048618,12405.419338,-723.369506,6562.293358,-22052.141673,7893.227982,19454.243118,9869.613930,-0.186000,0.952000,0.134000,192.000000,0.000000,0.000000,0.000000,0.000000,0.000000,0.000000,0.000000,0.000000,0.000000,1647238470.786956,0.000000
103.000000,8129.620031,12412.616600,-713.668849,6564.550884,-22044.273859,7899.844098,19465.575453,9878.264055,-0.186000,0.952000,0.134000,192.000000,0.000000,0.000000,0.000000,0.000000,0.000000,0.000000,0.000000,0.000000,0.000000,1647238470.786972,0.000000
104.000000,8137.890177,12421.736112,-705.912793,6575.860867,-22034.796719,7903.308618,19479.053554,9863.668366,-0.186000,0.952000,0.134000,192.000000,0.000000,0.000000,0.000000,0.000000,0.000000,0.000000,0.000000,0.000000,0.000000,1647238470.794134,0.000000
105.000000,8137.733714,12418.673923,-711.210157,6571.435222,-22037.858908,7897.139537,19470.604595,9867.110535,-0.184000,0.952000,0.144000,192.000000,250.000000,64.000000,29.000000,192.000000,4.000000,128.000000,0.000000,0.000000,0.000000,1647238470.794151,0.000000
106.000000,8129.865900,12410.068501,-719.726171,6557.912416,-22045.726722,7885.874258,19455.092484,9844.848197,-0.184000,0.952000,0.144000,192.000000,0.000000,0.000000,0.000000,0.000000,0.000000,0.000000,0.000000,0.000000,0.000000,1647238470.800341,0.000000
107.000000,8125.328496,12407.430995,-724.151817,6557.510085,-22046.441978,7886.120127,19464.167293,9854.951186,-0.184000,0.952000,0.144000,192.000000,0.000000,0.000000,0.000000,0.000000,0.000000,0.000000,0.000000,0.000000,0.000000,1647238470.800376,0.000000
108.000000,8129.351810,12409.330894,-718.072142,6558.292396,-22040.764635,7884.667264,19460.680420,9836.667459,-0.184000,0.952000,0.144000,192.000000,0.000000,0.000000,0.000000,0.000000,0.000000,0.000000,0.000000,0.000000,0.000000,1647238470.807313,0.000000
109.000000,8137.018458,12410.269667,-716.127541,6557.085402,-22039.378827,7888.221191,19462.714429,9870.306834,-0.184000,0.952000,0.144000,192.000000,0.000000,0.000000,0.000000,0.000000,0.000000,0.000000,0.000000,0.000000,0.000000,1647238470.815156,0.000000
110.000000,8138.024287,12413.845946,-710.941936,6561.041660,-22034.439091,7892.266857,19460.680420,9880.990968,-0.184000,0.952000,0.144000,192.000000,0.000000,0.000000,0.000000,0.000000,0.000000,0.000000,0.000000,0.000000,0.000000,1647238470.815173,0.000000
111.000000,8127.183691,12413.600077,-712.685372,6557.800657,-22035.623733,7893.831479,19470.336374,9878.576979,-0.184000,0.952000,0.144000,192.000000,0.000000,0.000000,0.000000,0.000000,0.000000,0.000000,0.000000,0.000000,0.000000,1647238470.823686,0.000000
112.000000,8125.015572,12410.761405,-716.596927,6560.974605,-22036.137824,7889.137612,19465.821322,9877.191171,-0.184000,0.952000,0.144000,192.000000,0.000000,0.000000,0.000000,0.000000,0.000000,0.000000,0.000000,0.000000,0.000000,1647238470.823702,0.000000
113.000000,8128.122464,12408.481527,-715.859320,6557.957120,-22035.780196,7886.388348,19458.936984,9866.708203,-0.184000,0.952000,0.144000,192.000000,0.000000,0.000000,0.000000,0.000000,0.000000,0.000000,0.000000,0.000000,0.000000,1647238470.829919,0.000000
114.000000,8123.540357,12404.413510,-723.928299,6551.922149,-22040.049379,7879.816935,19455.248947,9865.568264,-0.184000,0.952000,0.144000,192.000000,0.000000,0.000000,0.000000,0.000000,0.000000,0.000000,0.000000,0.000000,0.000000,1647238470.829936,0.000000
115.000000,8118.153586,12400.479603,-723.436561,6552.838570,-22040.809338,7873.759612,19459.115798,9833.314697,-0.194000,0.952000,0.140000,192.000000,249.000000,240.000000,29.000000,192.000000,4.000000,96.000000,0.000000,0.000000,0.000000,1647238470.837921,0.000000
116.000000,8114.040865,12398.467946,-723.950651,6551.877445,-22041.703408,7866.249426,19445.727103,9808.370150,-0.194000,0.952000,0.140000,192.000000,0.000000,0.000000,0.000000,0.000000,0.000000,0.000000,0.000000,0.000000,0.000000,1647238470.837938,0.000000
117.000000,8113.102092,12395.383405,-737.607567,6546.289509,-22048.811263,7861.488505,19437.658124,9837.025087,-0.194000,0.952000,0.140000,192.000000,0.000000,0.000000,0.000000,0.000000,0.000000,0.000000,0.000000,0.000000,0.000000,1647238470.853610,0.000000
118.000000,8124.836758,12405.687559,-717.289831,6556.683070,-22030.594591,7884.779022,19462.088580,9890.959846,-0.194000,0.952000,0.140000,192.000000,0.000000,0.000000,0.000000,0.000000,0.000000,0.000000,0.000000,0.000000,0.000000,1647238470.853626,0.000000
119.000000,8128.547147,12409.420301,-708.371485,6565.467306,-22021.855059,7897.452461,19470.694002,9923.347524,-0.194000,0.952000,0.140000,192.000000,0.000000,0.000000,0.000000,0.000000,0.000000,0.000000,0.000000,0.000000,0.000000,1647238470.867985,0.000000
120.000000,8136.459665,12415.209402,-696.681523,6577.760765,-22013.383748,7900.559354,19476.594863,9896.838355,-0.194000,0.952000,0.140000,192.000000,0.000000,0.000000,0.000000,0.000000,0.000000,0.000000,0.000000,0.000000,0.000000,1647238470.876708,0.000000
121.000000,8121.931031,12404.949952,-707.723285,6560.706384,-22026.660684,7880.286322,19455.695981,9839.640241,-0.194000,0.952000,0.140000,192.000000,0.000000,0.000000,0.000000,0.000000,0.000000,0.000000,0.000000,0.000000,0.000000,1647238470.876724,0.000000
122.000000,8117.639496,12403.631199,-715.077009,6556.057221,-22031.734530,7880.979226,19455.718333,9872.720822,-0.194000,0.952000,0.140000,192.000000,0.000000,0.000000,0.000000,0.000000,0.000000,0.000000,0.000000,0.000000,0.000000,1647238470.883935,0.000000
123.000000,8111.939801,12397.350359,-720.195558,6550.111657,-22036.093120,7878.833458,19452.499682,9874.508962,-0.194000,0.952000,0.140000,192.000000,0.000000,0.000000,0.000000,0.000000,0.000000,0.000000,0.000000,0.000000,0.000000,1647238470.883951,0.000000
124.000000,8116.164281,12401.328969,-716.082837,6560.035832,-22030.572239,7880.308673,19454.645449,9859.533293,-0.194000,0.952000,0.140000,192.000000,0.000000,0.000000,0.000000,0.000000,0.000000,0.000000,0.000000,0.000000,0.000000,1647238470.891995,0.000000
125.000000,8113.750293,12400.747824,-718.765046,6556.258387,-22033.008579,7878.229961,19459.585185,9850.704354,-0.192000,0.950000,0.142000,192.000000,250.000000,0.000000,29.000000,176.000000,4.000000,112.000000,0.000000,0.000000,0.000000,1647238470.892012,0.000000
126.000000,8114.420845,12399.719644,-722.989526,6548.077649,-22037.255411,7878.833458,19461.999173,9875.984177,-0.192000,0.950000,0.142000,192.000000,0.000000,0.000000,0.000000,0.000000,0.000000,0.000000,0.000000,0.000000,0.000000,1647238470.898193,0.000000
127.000000,8118.622973,12417.086949,-721.648421,6560.035832,-22032.405082,7879.235790,19463.072057,9873.860761,-0.192000,0.950000,0.142000,192.000000,0.000000,0.000000,0.000000,0.000000,0.000000,0.000000,0.000000,0.000000,0.000000,1647238470.898210,0.000000
128.000000,8120.053484,12417.913964,-719.703820,6568.708309,-22029.655818,7875.905380,19453.125531,9857.409877,-0.192000,0.950000,0.142000,192.000000,0.000000,0.000000,0.000000,0.000000,0.000000,0.000000,0.000000,0.000000,0.000000,1647238470.904397,0.000000
129.000000,8128.234223,12416.036417,-720.933166,6567.188390,-22030.572239,7876.061842,19458.378191,9863.847180,-0.192000,0.950000,0.142000,192.000000,0.000000,0.000000,0.000000,0.000000,0.000000,0.000000,0.000000,0.000000,0.000000,1647238470.904432,0.000000
130.000000,8122.042790,12393.349396,-717.379238,6551.676280,-22033.947353,7875.704214,19453.147883,9850.167912,-0.192000,0.950000,0.142000,192.000000,0.000000,0.000000,0.000000,0.000000,0.000000,0.000000,0.000000,0.000000,0.000000,1647238470.910451,0.000000
131.000000,8109.838737,12378.016100,-721.715477,6540.925090,-22039.244716,7874.228999,19455.807740,9831.995944,-0.192000,0.950000,0.142000,192.000000,0.000000,0.000000,0.000000,0.000000,0.000000,0.000000,0.000000,0.000000,0.000000,1647238470.910467,0.000000
132.000000,8107.558859,12376.183257,-717.312183,6546.557730,-22040.854042,7869.781002,19442.821377,9850.927872,-0.192000,0.950000,0.142000,192.000000,0.000000,0.000000,0.000000,0.000000,0.000000,0.000000,0.000000,0.000000,0.000000,1647238470.916259,0.000000
133.000000,8121.483996,12385.235713,-709.980811,6553.531474,-22036.428396,7873.692557,19446.330601,9860.762639,-0.192000,0.950000,0.142000,192.000000,0.000000,0.000000,0.000000,0.000000,0.000000,0.000000,0.000000,0.000000,0.000000,1647238470.916275,0.000000
134.000000,8115.717246,12381.145344,-714.160587,6545.015460,-22039.624696,7871.122106,19446.531766,9848.580938,-0.192000,0.950000,0.142000,192.000000,0.000000,0.000000,0.000000,0.000000,0.000000,0.000000,0.000000,0.000000,0.000000,1647238470.922614,0.000000
135.000000,8110.866917,12371.601149,-723.123637,6533.951346,-22048.587745,7862.740202,19456.791217,9845.921081,-0.192000,0.960000,0.142000,192.000000,250.000000,0.000000,30.000000,0.000000,4.000000,112.000000,0.000000,0.000000,0.000000,1647238470.928675,0.000000
136.000000,8108.050598,12365.566178,-723.838892,6530.151550,-22050.442940,7861.264987,19461.507435,9857.946319,-0.192000,0.960000,0.142000,192.000000,0.000000,0.000000,0.000000,0.000000,0.000000,0.000000,0.000000,0.000000,0.000000,1647238470.928692,0.000000
137.000000,8099.668694,12358.011288,-726.230529,6519.869747,-22054.957992,7858.761592,19445.592993,9882.823811,-0.192000,0.960000,0.142000,192.000000,0.000000,0.000000,0.000000,0.000000,0.000000,0.000000,0.000000,0.000000,0.000000,1647238470.934860,0.000000
138.000000,8115.113749,12371.891722,-714.920546,6530.308012,-22045.726722,7858.716888,19449.526900,9854.302985,-0.192000,0.960000,0.142000,192.000000,0.000000,0.000000,0.000000,0.000000,0.000000,0.000000,0.000000,0.000000,0.000000,1647238470.934876,0.000000
139.000000,8121.126368,12378.686652,-716.619279,6534.264271,-22042.329257,7858.761592,19451.113874,9856.135828,-0.192000,0.960000,0.142000,192.000000,0.000000,0.000000,0.000000,0.000000,0.000000,0.000000,0.000000,0.000000,0.000000,1647238470.940927,0.000000
140.000000,8113.549127,12372.808143,-714.831139,6529.011611,-22042.262202,7867.903455,19466.111894,9869.278654,-0.192000,0.960000,0.142000,192.000000,0.000000,0.000000,0.000000,0.000000,0.000000,0.000000,0.000000,0.000000,0.000000,1647238470.940943,0.000000
141.000000,8111.962153,12369.187161,-717.960384,6531.917337,-22044.832652,7868.506952,19458.735819,9887.897657,-0.192000,0.960000,0.142000,192.000000,0.000000,0.000000,0.000000,0.000000,0.000000,0.000000,0.000000,0.000000,0.000000,1647238470.947197,0.000000
142.000000,8104.921353,12365.253254,-733.360736,6519.467416,-22055.896766,7851.765496,19439.401560,9856.091125,-0.192000,0.960000,0.142000,192.000000,0.000000,0.000000,0.000000,0.000000,0.000000,0.000000,0.000000,0.000000,0.000000,1647238470.947213,0.000000
143.000000,8112.811519,12381.480620,-726.319936,6515.220584,-22053.862757,7854.201836,19439.893298,9846.681040,-0.192000,0.960000,0.142000,192.000000,0.000000,0.000000,0.000000,0.000000,0.000000,0.000000,0.000000,0.000000,0.000000,1647238470.953422,0.000000
144.000000,8119.293525,12377.211437,-723.213044,6518.886270,-22047.961896,7860.437973,19440.921478,9847.753924,-0.192000,0.960000,0.142000,192.000000,0.000000,0.000000,0.000000,0.000000,0.000000,0.000000,0.000000,0.000000,0.000000,1647238470.953438,0.000000
145.000000,8118.690028,12359.553559,-714.406456,6537.482922,-22040.697579,7868.395194,19450.085694,9851.665479,-0.184000,0.954000,0.140000,192.000000,250.000000,64.000000,29.000000,208.000000,4.000000,96.000000,0.000000,0.000000,0.000000,1647238470.959571,0.000000
146.000000,8110.464586,12361.609919,-718.876805,6533.101980,-22045.212632,7864.304824,19446.934098,9839.416723,-0.184000,0.954000,0.140000,192.000000,0.000000,0.000000,0.000000,0.000000,0.000000,0.000000,0.000000,0.000000,0.000000,1647238470.959587,0.000000
147.000000,8109.726979,12361.498161,-716.395762,6520.696762,-22049.414760,7856.034679,19440.899127,9827.994982,-0.184000,0.954000,0.140000,192.000000,0.000000,0.000000,0.000000,0.000000,0.000000,0.000000,0.000000,0.000000,0.000000,1647238470.966945,0.000000
148.000000,8111.313952,12362.481637,-716.306355,6521.412018,-22047.604269,7861.130877,19445.280069,9850.436133,-0.184000,0.954000,0.140000,192.000000,0.000000,0.000000,0.000000,0.000000,0.000000,0.000000,0.000000,0.000000,0.000000,1647238470.966961,0.000000
149.000000,8104.742539,12351.261062,-727.705744,6516.181709,-22055.047399,7848.502141,19425.074092,9829.067865,-0.184000,0.954000,0.140000,192.000000,0.000000,0.000000,0.000000,0.000000,0.000000,0.000000,0.000000,0.000000,0.000000,1647238470.973821,0.000000
150.000000,8118.801787,12362.951024,-712.730075,6527.469340,-22043.312734,7865.310653,19460.389848,9843.417685,-0.184000,0.954000,0.140000,192.000000,0.000000,0.000000,0.000000,0.000000,0.000000,0.000000,0.000000,0.000000,0.000000,1647238470.980702,0.000000
151.000000,8114.420845,12358.212454,-718.072142,6517.500462,-22050.398237,7857.822818,19469.375249,9821.557679,-0.184000,0.954000,0.140000,192.000000,0.000000,0.000000,0.000000,0.000000,0.000000,0.000000,0.000000,0.000000,0.000000,1647238470.980718,0.000000
152.000000,8107.380045,12355.306727,-723.525968,6519.065084,-22053.572184,7853.620691,19447.090560,9851.687831,-0.184000,0.954000,0.140000,192.000000,0.000000,0.000000,0.000000,0.000000,0.000000,0.000000,0.000000,0.000000,0.000000,1647238470.987673,0.000000
153.000000,8118.242993,12370.930597,-712.461855,6537.505274,-22041.748111,7863.366051,19448.096388,9871.424421,-0.184000,0.954000,0.140000,192.000000,0.000000,0.000000,0.000000,0.000000,0.000000,0.000000,0.000000,0.000000,0.000000,1647238470.987689,0.000000
154.000000,8119.695857,12374.238655,-714.898195,6529.480997,-22045.056170,7859.298034,19437.814586,9853.900654,-0.184000,0.954000,0.140000,192.000000,0.000000,0.000000,0.000000,0.000000,0.000000,0.000000,0.000000,0.000000,0.000000,1647238470.993864,0.000000
155.000000,8120.254650,12376.518533,-712.528910,6518.908622,-22046.061998,7856.302900,19453.259641,9815.410950,-0.184000,0.954000,0.140000,192.000000,0.000000,0.000000,0.000000,0.000000,0.000000,0.000000,0.000000,0.000000,0.000000,1647238470.993880,0.000000
156.000000,8120.120540,12368.807181,-713.020648,6526.798788,-22045.950239,7858.515723,19451.359743,9824.441054,-0.186000,0.960000,0.136000,192.000000,250.000000,48.000000,30.000000,0.000000,4.000000,64.000000,0.000000,0.000000,0.000000,1647238471.001523,0.000000
157.000000,8112.856223,12359.620614,-712.394799,6537.013535,-22045.391446,7862.717851,19445.123606,9864.897712,-0.186000,0.960000,0.136000,192.000000,0.000000,0.000000,0.000000,0.000000,0.000000,0.000000,0.000000,0.000000,0.000000,1647238471.001534,0.000000
158.000000,8117.415979,12372.763440,-716.328706,6533.213739,-22049.079484,7854.648871,19434.461824,9858.929796,-0.186000,0.960000,0.136000,192.000000,0.000000,0.000000,0.000000,0.000000,0.000000,0.000000,0.000000,0.000000,0.000000,1647238471.009415,0.000000
159.000000,8124.724999,12381.592379,-713.512387,6534.532492,-22044.229155,7857.822818,19435.802929,9860.717936,-0.186000,0.960000,0.136000,192.000000,0.000000,0.000000,0.000000,0.000000,0.000000,0.000000,0.000000,0.000000,0.000000,1647238471.009422,0.000000
160.000000,8123.115673,12376.049146,-713.378276,6535.739486,-22045.547908,7857.778115,19442.687266,9856.694622,-0.186000,0.960000,0.136000,192.000000,0.000000,0.000000,0.000000,0.000000,0.000000,0.000000,0.000000,0.000000,0.000000,1647238471.016753,0.000000
161.000000,8116.052522,12356.178445,-715.971078,6523.490730,-22050.621754,7853.017193,19439.826243,9835.080485,-0.186000,0.960000,0.136000,192.000000,0.000000,0.000000,0.000000,0.000000,0.000000,0.000000,0.000000,0.000000,0.000000,1647238471.016762,0.000000
162.000000,8119.226470,12350.545806,-707.320953,6531.023268,-22042.530423,7858.605130,19440.161519,9847.642165,-0.186000,0.960000,0.136000,192.000000,0.000000,0.000000,0.000000,0.000000,0.000000,0.000000,0.000000,0.000000,0.000000,1647238471.025502,0.000000
163.000000,8114.934935,12352.959794,-714.406456,6536.655907,-22045.905536,7855.744106,19440.407388,9841.830712,-0.186000,0.960000,0.136000,192.000000,0.000000,0.000000,0.000000,0.000000,0.000000,0.000000,0.000000,0.000000,0.000000,1647238471.025513,0.000000
164.000000,8108.765853,12355.463190,-726.923433,6523.893061,-22057.573147,7842.511874,19424.694112,9815.567412,-0.186000,0.960000,0.136000,192.000000,0.000000,0.000000,0.000000,0.000000,0.000000,0.000000,0.000000,0.000000,0.000000,1647238471.031645,0.000000
165.000000,8114.487900,12362.548693,-715.524044,6531.671468,-22051.538176,7852.883083,19433.679513,9842.948299,-0.186000,0.960000,0.136000,192.000000,0.000000,0.000000,0.000000,0.000000,0.000000,0.000000,0.000000,0.000000,0.000000,1647238471.040749,0.000000
166.000000,8137.286679,12374.909207,-692.837023,6544.836646,-22030.974571,7876.285359,19456.165368,9858.482761,-0.190000,0.956000,0.138000,192.000000,250.000000,16.000000,29.000000,224.000000,4.000000,80.000000,0.000000,0.000000,0.000000,1647238471.040765,0.000000
167.000000,8128.390685,12365.968509,-700.973058,6537.795846,-22038.171832,7865.601226,19445.481234,9824.306944,-0.190000,0.956000,0.138000,192.000000,0.000000,0.000000,0.000000,0.000000,0.000000,0.000000,0.000000,0.000000,0.000000,1647238471.046977,0.000000
168.000000,8118.064179,12357.608957,-711.478378,6529.928032,-22047.358399,7858.403964,19444.810682,9821.423569,-0.190000,0.956000,0.138000,192.000000,0.000000,0.000000,0.000000,0.000000,0.000000,0.000000,0.000000,0.000000,0.000000,1647238471.046994,0.000000
