%OpenBCI Raw EEG Data
%Number of channels = 8
%Sample Rate = 256 Hz
%Board = OpenBCI_GUI$BoardCytonSerial
%Channels = Fp1, Fp2, F3, F4, Fz, Pz, O1, O2
%Data recorded at AIMS Lab (http://aimsl.uiu.ac.bd) by Rana Depto (mail@ranadepto.com)
%Brainwaves were obtained via the Ultracortex Mark IV Headset using the OpenBCI Cyton Board
%Recording Application = ConcentrateToday (https://concentrate.today)
%Data type = RAW data with noise
%Day No = 7
%Subject ID = 5
%Session ID = 7
%Record starting timestamp (UTC+6) = 2022-03-27T11:03:12.962758
%Record ending timestamp (UTC+6)   = 2022-03-27T11:03:43.893009
%Recorded durations = ~30 seconds
Sample Index, EXG Channel 0, EXG Channel 1, EXG Channel 2, EXG Channel 3, EXG Channel 4, EXG Channel 5, EXG Channel 6, EXG Channel 7, Accel Channel 0, Accel Channel 1, Accel Channel 2, Other, Other, Other, Other, Other, Other, Other, Analog Channel 0, Analog Channel 1, Analog Channel 2, Timestamp, Timestamp (Formatted)
219.000000,-24238.991647,-44494.969487,13800.548172,-187052.585131,-187500.022352,20614.321007,20594.852638,-8031.607632,-0.028000,0.854000,0.478000,192.000000,0.000000,0.000000,0.000000,0.000000,0.000000,0.000000,0.000000,0.000000,0.000000,1648357392.962476,0.000000
220.000000,-24235.191850,-44496.332943,13801.486945,-187053.300387,-187497.943640,20606.319083,20603.145135,-8026.623193,-0.028000,0.854000,0.478000,192.000000,0.000000,0.000000,0.000000,0.000000,0.000000,0.000000,0.000000,0.000000,0.000000,1648357392.970042,0.000000
221.000000,-24236.085920,-44499.596298,13798.067128,-187041.431611,-187455.967063,20595.254969,20604.821516,-8028.567794,-0.028000,0.854000,0.478000,192.000000,0.000000,0.000000,0.000000,0.000000,0.000000,0.000000,0.000000,0.000000,0.000000,1648357392.970049,0.000000
222.000000,-24257.364781,-44518.572929,13785.639559,-187053.412146,-187406.748522,20586.649547,20590.829324,-8053.825266,-0.028000,0.854000,0.478000,192.000000,0.000000,0.000000,0.000000,0.000000,0.000000,0.000000,0.000000,0.000000,0.000000,1648357392.976978,0.000000
223.000000,-24293.641662,-44547.160810,13765.724154,-187074.176916,-187351.651472,20572.344431,20569.863387,-8083.776603,-0.034000,0.864000,0.474000,192.000000,254.000000,240.000000,27.000000,0.000000,14.000000,208.000000,0.000000,0.000000,0.000000,1648357392.985217,0.000000
224.000000,-24324.665883,-44563.812860,13755.777628,-187111.124350,-187201.783025,20598.428917,20547.377532,-8099.199307,-0.034000,0.864000,0.474000,192.000000,0.000000,0.000000,0.000000,0.000000,0.000000,0.000000,0.000000,0.000000,0.000000,1648357392.985221,0.000000
225.000000,-24321.179011,-44549.507743,13763.176055,-187104.195309,-187044.896131,20625.385121,20551.311439,-8094.281923,-0.034000,0.864000,0.474000,192.000000,0.000000,0.000000,0.000000,0.000000,0.000000,0.000000,0.000000,0.000000,0.000000,1648357392.991683,0.000000
226.000000,-24280.185912,-44500.624478,13796.927189,-187095.969867,-187129.519836,20648.295659,20591.835152,-8049.131399,-0.034000,0.864000,0.474000,192.000000,0.000000,0.000000,0.000000,0.000000,0.000000,0.000000,0.000000,0.000000,0.000000,1648357392.991687,0.000000
227.000000,-24300.146019,-44520.673993,13776.229474,-187031.798009,-187351.338548,20621.473565,20580.815742,-8069.784411,-0.034000,0.864000,0.474000,192.000000,0.000000,0.000000,0.000000,0.000000,0.000000,0.000000,0.000000,0.000000,0.000000,1648357392.999671,0.000000
228.000000,-24306.605674,-44525.926653,13766.819390,-187039.375250,-187500.022352,20590.181123,20563.962527,-8084.514211,-0.034000,0.864000,0.474000,192.000000,0.000000,0.000000,0.000000,0.000000,0.000000,0.000000,0.000000,0.000000,0.000000,1648357392.999675,0.000000
229.000000,-24296.457982,-44511.263908,13776.855323,-187056.764907,-187492.690980,20570.533940,20567.829379,-8065.045841,-0.034000,0.864000,0.474000,192.000000,0.000000,0.000000,0.000000,0.000000,0.000000,0.000000,0.000000,0.000000,0.000000,1648357393.007686,0.000000
230.000000,-24330.276171,-44540.432935,13758.549244,-187082.804690,-187405.876804,20564.677783,20549.389189,-8093.141984,-0.034000,0.864000,0.474000,192.000000,0.000000,0.000000,0.000000,0.000000,0.000000,0.000000,0.000000,0.000000,0.000000,1648357393.007692,0.000000
231.000000,-24306.493915,-44514.594318,13777.861151,-187059.782393,-187339.760344,20560.386248,20589.063536,-8047.455018,-0.034000,0.864000,0.474000,192.000000,0.000000,0.000000,0.000000,0.000000,0.000000,0.000000,0.000000,0.000000,0.000000,1648357393.014317,0.000000
232.000000,-24303.878761,-44507.441760,13783.806715,-187054.775602,-187275.275561,20562.844940,20585.688422,-8052.372402,-0.034000,0.864000,0.474000,192.000000,0.000000,0.000000,0.000000,0.000000,0.000000,0.000000,0.000000,0.000000,0.000000,1648357393.014324,0.000000
233.000000,-24311.120726,-44504.491330,13776.497695,-187055.513210,-187174.603304,20555.915899,20583.185027,-8064.196475,-0.048000,0.872000,0.474000,192.000000,254.000000,128.000000,27.000000,64.000000,14.000000,208.000000,0.000000,0.000000,0.000000,1648357393.022324,0.000000
234.000000,-24309.578456,-44508.201719,13774.843666,-187058.307178,-187107.056332,20557.972259,20584.637890,-8052.864141,-0.048000,0.872000,0.474000,192.000000,0.000000,0.000000,0.000000,0.000000,0.000000,0.000000,0.000000,0.000000,0.000000,1648357393.022329,0.000000
235.000000,-24278.040144,-44483.972428,13803.453899,-187047.935968,-187274.157974,20557.547576,20626.815632,-7999.085843,-0.048000,0.872000,0.474000,192.000000,0.000000,0.000000,0.000000,0.000000,0.000000,0.000000,0.000000,0.000000,0.000000,1648357393.030270,0.000000
236.000000,-24304.526961,-44506.033600,13794.647312,-187079.764852,-187471.054491,20583.229731,20592.595111,-8032.926385,-0.048000,0.872000,0.474000,192.000000,0.000000,0.000000,0.000000,0.000000,0.000000,0.000000,0.000000,0.000000,0.000000,1648357393.030274,0.000000
237.000000,-24316.485145,-44515.980126,13789.282893,-187091.611277,-187499.530613,20596.484315,20564.297803,-8039.073114,-0.048000,0.872000,0.474000,192.000000,0.000000,0.000000,0.000000,0.000000,0.000000,0.000000,0.000000,0.000000,0.000000,1648357393.037537,0.000000
238.000000,-24341.206174,-44545.216208,13767.177018,-187053.635663,-187438.689165,20566.085943,20555.759437,-8062.408335,-0.048000,0.872000,0.474000,192.000000,0.000000,0.000000,0.000000,0.000000,0.000000,0.000000,0.000000,0.000000,0.000000,1648357393.037541,0.000000
239.000000,-24340.692084,-44541.662281,13763.734849,-187070.399472,-187369.465812,20542.638963,20567.918786,-8076.221714,-0.048000,0.872000,0.474000,192.000000,0.000000,0.000000,0.000000,0.000000,0.000000,0.000000,0.000000,0.000000,0.000000,1648357393.043947,0.000000
240.000000,-24322.855392,-44522.618594,13777.838800,-187070.198306,-187300.376570,20537.252192,20580.435762,-8052.350050,-0.048000,0.872000,0.474000,192.000000,0.000000,0.000000,0.000000,0.000000,0.000000,0.000000,0.000000,0.000000,0.000000,1648357393.051892,0.000000
241.000000,-24315.032281,-44516.829493,13786.846553,-187098.897946,-187175.877354,20563.515492,20582.402716,-8048.952585,-0.048000,0.872000,0.474000,192.000000,0.000000,0.000000,0.000000,0.000000,0.000000,0.000000,0.000000,0.000000,0.000000,1648357393.051896,0.000000
242.000000,-24332.332531,-44528.787676,13772.474381,-187085.710417,-187065.370329,20585.599015,20545.052951,-8068.175086,-0.048000,0.872000,0.474000,192.000000,0.000000,0.000000,0.000000,0.000000,0.000000,0.000000,0.000000,0.000000,0.000000,1648357393.059928,0.000000
243.000000,-24329.829136,-44526.440743,13775.402460,-187061.659939,-187177.173755,20593.131553,20574.289033,-8068.867990,-0.050000,0.870000,0.474000,192.000000,254.000000,112.000000,27.000000,48.000000,14.000000,208.000000,0.000000,0.000000,0.000000,1648357393.059931,0.000000
244.000000,-24342.323761,-44544.545656,13766.841741,-187082.737635,-187298.431969,20614.253952,20560.498006,-8072.690138,-0.050000,0.870000,0.474000,192.000000,0.000000,0.000000,0.000000,0.000000,0.000000,0.000000,0.000000,0.000000,0.000000,1648357393.067067,0.000000
245.000000,-24360.831006,-44569.959589,13752.044887,-187102.742446,-187441.147857,20640.226679,20539.912050,-8082.837830,-0.050000,0.870000,0.474000,192.000000,0.000000,0.000000,0.000000,0.000000,0.000000,0.000000,0.000000,0.000000,0.000000,1648357393.067071,0.000000
246.000000,-24351.800901,-44561.063595,13754.011840,-187071.584114,-187500.022352,20626.547411,20550.998515,-8071.036109,-0.050000,0.870000,0.474000,192.000000,0.000000,0.000000,0.000000,0.000000,0.000000,0.000000,0.000000,0.000000,0.000000,1648357393.074543,0.000000
247.000000,-24344.044846,-44553.866333,13768.696936,-187107.101036,-187454.089517,20640.316086,20551.311439,-8065.179952,-0.050000,0.870000,0.474000,192.000000,0.000000,0.000000,0.000000,0.000000,0.000000,0.000000,0.000000,0.000000,0.000000,1648357393.074547,0.000000
248.000000,-24339.194517,-44546.043223,13765.344175,-187052.115745,-187368.839964,20615.930333,20544.829434,-8069.069155,-0.050000,0.870000,0.474000,192.000000,0.000000,0.000000,0.000000,0.000000,0.000000,0.000000,0.000000,0.000000,0.000000,1648357393.082567,0.000000
249.000000,-24337.585191,-44543.316310,13758.549244,-187040.783410,-187315.598108,20571.293899,20538.459186,-8085.296522,-0.050000,0.870000,0.474000,192.000000,0.000000,0.000000,0.000000,0.000000,0.000000,0.000000,0.000000,0.000000,0.000000,1648357393.082570,0.000000
250.000000,-24325.224677,-44539.628272,13763.153704,-187011.547328,-187281.131718,20531.373683,20549.836224,-8076.109955,-0.050000,0.870000,0.474000,192.000000,0.000000,0.000000,0.000000,0.000000,0.000000,0.000000,0.000000,0.000000,0.000000,1648357393.090658,0.000000
251.000000,-24302.560008,-44517.544748,13781.124506,-187018.409314,-187258.310587,20506.518544,20569.483408,-8047.812646,-0.050000,0.870000,0.474000,192.000000,0.000000,0.000000,0.000000,0.000000,0.000000,0.000000,0.000000,0.000000,0.000000,1648357393.090662,0.000000
252.000000,-24330.298523,-44545.350319,13770.708593,-187082.737635,-187128.961042,20525.830451,20539.442663,-8074.098298,-0.050000,0.870000,0.474000,192.000000,0.000000,0.000000,0.000000,0.000000,0.000000,0.000000,0.000000,0.000000,0.000000,1648357393.097173,0.000000
253.000000,-24340.647380,-44554.201609,13769.747468,-187080.368350,-187058.374233,20559.693344,20547.936326,-8099.132252,-0.040000,0.864000,0.476000,192.000000,254.000000,192.000000,27.000000,0.000000,14.000000,224.000000,0.000000,0.000000,0.000000,1648357393.097177,0.000000
254.000000,-24338.948648,-44546.534961,13775.022480,-187074.914524,-187138.684051,20593.220960,20543.398922,-8079.976807,-0.040000,0.864000,0.476000,192.000000,0.000000,0.000000,0.000000,0.000000,0.000000,0.000000,0.000000,0.000000,0.000000,1648357393.104176,0.000000
255.000000,-24363.490863,-44566.986807,13744.110017,-187057.994253,-187314.122893,20570.556291,20518.543782,-8092.314970,-0.040000,0.864000,0.476000,192.000000,0.000000,0.000000,0.000000,0.000000,0.000000,0.000000,0.000000,0.000000,0.000000,1648357393.112399,0.000000
0.000000,-24342.882555,-44542.198723,13756.202311,-187026.299480,-187500.022352,20547.891623,20554.395980,-8081.027339,-0.040000,0.864000,0.476000,192.000000,0.000000,0.000000,0.000000,0.000000,0.000000,0.000000,0.000000,0.000000,0.000000,1648357393.112428,0.000000
1.000000,-24319.435575,-44522.238615,13778.554056,-187044.113820,-187500.022352,20534.055893,20581.240425,-8060.754306,-0.040000,0.864000,0.476000,192.000000,0.000000,0.000000,0.000000,0.000000,0.000000,0.000000,0.000000,0.000000,0.000000,1648357393.120167,0.000000
2.000000,-24289.730107,-44495.416521,13802.403367,-187037.073021,-187491.215764,20532.088939,20603.636873,-8025.818530,-0.040000,0.864000,0.476000,192.000000,0.000000,0.000000,0.000000,0.000000,0.000000,0.000000,0.000000,0.000000,0.000000,1648357393.120170,0.000000
3.000000,-24299.363708,-44506.145359,13794.379091,-187049.254721,-187427.334479,20527.797404,20572.165617,-8044.035202,-0.040000,0.864000,0.476000,192.000000,0.000000,0.000000,0.000000,0.000000,0.000000,0.000000,0.000000,0.000000,0.000000,1648357393.126919,0.000000
4.000000,-24316.909828,-44528.407696,13778.442297,-187045.253759,-187370.583400,20513.179363,20569.148132,-8081.317911,-0.040000,0.864000,0.476000,192.000000,0.000000,0.000000,0.000000,0.000000,0.000000,0.000000,0.000000,0.000000,0.000000,1648357393.126923,0.000000
5.000000,-24308.460868,-44522.842112,13788.947617,-187061.838753,-187300.957716,20521.762433,20591.388117,-8080.759118,-0.040000,0.864000,0.476000,192.000000,0.000000,0.000000,0.000000,0.000000,0.000000,0.000000,0.000000,0.000000,0.000000,1648357393.134877,0.000000
6.000000,-24323.414185,-44537.326042,13779.403422,-187083.855222,-187206.432188,20521.427157,20564.208396,-8078.322778,-0.040000,0.864000,0.476000,192.000000,0.000000,0.000000,0.000000,0.000000,0.000000,0.000000,0.000000,0.000000,0.000000,1648357393.134880,0.000000
7.000000,-24314.071156,-44527.357164,13788.210009,-187092.751216,-187072.500536,20544.471806,20562.643774,-8085.341225,-0.034000,0.856000,0.478000,192.000000,254.000000,240.000000,26.000000,192.000000,14.000000,240.000000,0.000000,0.000000,0.000000,1648357393.142905,0.000000
8.000000,-24279.269490,-44489.247440,13814.674475,-187077.216754,-187157.325406,20569.394001,20582.335661,-8051.478332,-0.034000,0.856000,0.478000,192.000000,0.000000,0.000000,0.000000,0.000000,0.000000,0.000000,0.000000,0.000000,0.000000,1648357393.142909,0.000000
9.000000,-24253.766150,-44458.536143,13832.734684,-187050.998157,-187324.136475,20591.857504,20603.748632,-8021.012905,-0.034000,0.856000,0.478000,192.000000,0.000000,0.000000,0.000000,0.000000,0.000000,0.000000,0.000000,0.000000,0.000000,1648357393.149975,0.000000
10.000000,-24335.975866,-44545.372670,13763.779552,-187056.876666,-187500.022352,20583.363841,20512.598218,-8098.573458,-0.034000,0.856000,0.478000,192.000000,0.000000,0.000000,0.000000,0.000000,0.000000,0.000000,0.000000,0.000000,0.000000,1648357393.149979,0.000000
11.000000,-24353.007895,-44567.232676,13749.295622,-187078.647265,-187500.022352,20569.639870,20523.505869,-8133.620993,-0.034000,0.856000,0.478000,192.000000,0.000000,0.000000,0.000000,0.000000,0.000000,0.000000,0.000000,0.000000,0.000000,1648357393.157428,0.000000
12.000000,-24310.271360,-44516.829493,13783.940826,-187067.829021,-187435.582272,20574.691364,20576.524207,-8084.558914,-0.034000,0.856000,0.478000,192.000000,0.000000,0.000000,0.000000,0.000000,0.000000,0.000000,0.000000,0.000000,0.000000,1648357393.157432,0.000000
13.000000,-24313.422956,-44515.711905,13790.668701,-187075.003931,-187355.652434,20571.405658,20567.650565,-8073.159525,-0.034000,0.856000,0.478000,192.000000,0.000000,0.000000,0.000000,0.000000,0.000000,0.000000,0.000000,0.000000,0.000000,1648357393.164451,0.000000
14.000000,-24313.758232,-44513.320269,13787.807678,-187070.555934,-187274.984989,20565.169521,20565.638908,-8075.148830,-0.034000,0.856000,0.478000,192.000000,0.000000,0.000000,0.000000,0.000000,0.000000,0.000000,0.000000,0.000000,0.000000,1648357393.172581,0.000000
15.000000,-24314.853467,-44514.415504,13778.196428,-187049.388832,-187209.270860,20549.120968,20549.277431,-8074.143001,-0.034000,0.856000,0.478000,192.000000,0.000000,0.000000,0.000000,0.000000,0.000000,0.000000,0.000000,0.000000,0.000000,1648357393.172586,0.000000
16.000000,-24338.389854,-44534.085039,13761.745544,-187052.831000,-187087.632667,20545.902317,20532.200698,-8102.417958,-0.034000,0.856000,0.478000,192.000000,0.000000,0.000000,0.000000,0.000000,0.000000,0.000000,0.000000,0.000000,0.000000,1648357393.179643,0.000000
17.000000,-24328.420976,-44508.536995,13777.011785,-187106.810463,-187102.250707,20582.760344,20563.962527,-8084.223638,-0.038000,0.854000,0.480000,192.000000,254.000000,208.000000,26.000000,176.000000,15.000000,0.000000,0.000000,0.000000,0.000000,1648357393.179648,0.000000
18.000000,-24327.057520,-44489.381550,13777.101192,-187086.805652,-187207.616831,20603.145135,20554.239518,-8092.918467,-0.038000,0.854000,0.480000,192.000000,0.000000,0.000000,0.000000,0.000000,0.000000,0.000000,0.000000,0.000000,0.000000,1648357393.187101,0.000000
19.000000,-24314.160563,-44500.400960,13783.605550,-187065.638550,-187395.527946,20601.021719,20563.560195,-8081.876705,-0.038000,0.854000,0.480000,192.000000,0.000000,0.000000,0.000000,0.000000,0.000000,0.000000,0.000000,0.000000,0.000000,1648357393.187105,0.000000
20.000000,-24327.213982,-44514.996650,13779.872808,-187084.369312,-187457.486982,20626.681522,20547.533995,-8079.619179,-0.038000,0.854000,0.480000,192.000000,0.000000,0.000000,0.000000,0.000000,0.000000,0.000000,0.000000,0.000000,0.000000,1648357393.195050,0.000000
21.000000,-24363.870843,-44548.300749,13742.724209,-187064.900942,-187384.486185,20597.065460,20515.146317,-8133.330421,-0.038000,0.854000,0.480000,192.000000,0.000000,0.000000,0.000000,0.000000,0.000000,0.000000,0.000000,0.000000,0.000000,1648357393.195054,0.000000
22.000000,-24352.247936,-44535.135571,13740.533738,-187020.152750,-187345.951777,20545.231765,20535.352294,-8129.575328,-0.038000,0.854000,0.480000,192.000000,0.000000,0.000000,0.000000,0.000000,0.000000,0.000000,0.000000,0.000000,0.000000,1648357393.202253,0.000000
23.000000,-24312.618293,-44492.935478,13774.776611,-187024.332526,-187306.925631,20516.129794,20561.392076,-8086.771737,-0.038000,0.854000,0.480000,192.000000,0.000000,0.000000,0.000000,0.000000,0.000000,0.000000,0.000000,0.000000,0.000000,1648357393.202257,0.000000
24.000000,-24305.890418,-44480.709074,13786.801849,-187025.785390,-187241.256206,20510.720672,20576.390097,-8070.790240,-0.038000,0.854000,0.480000,192.000000,0.000000,0.000000,0.000000,0.000000,0.000000,0.000000,0.000000,0.000000,0.000000,1648357393.209718,0.000000
25.000000,-24329.292694,-44505.720676,13774.933073,-187082.625876,-187092.460643,20547.243422,20551.154977,-8086.704682,-0.038000,0.854000,0.480000,192.000000,0.000000,0.000000,0.000000,0.000000,0.000000,0.000000,0.000000,0.000000,0.000000,1648357393.209722,0.000000
26.000000,-24327.191630,-44506.502987,13772.876712,-187061.905809,-187164.656778,20562.129684,20543.153053,-8100.965095,-0.038000,0.854000,0.480000,192.000000,0.000000,0.000000,0.000000,0.000000,0.000000,0.000000,0.000000,0.000000,0.000000,1648357393.217725,0.000000
27.000000,-24293.306386,-44466.739233,13803.118623,-187064.811535,-187319.286146,20585.017870,20598.406565,-8053.758210,-0.038000,0.856000,0.480000,192.000000,254.000000,208.000000,26.000000,192.000000,15.000000,0.000000,0.000000,0.000000,0.000000,1648357393.217729,0.000000
28.000000,-24322.676578,-44499.104559,13779.872808,-187056.608445,-187500.022352,20584.414373,20562.375553,-8068.912693,-0.038000,0.856000,0.480000,192.000000,0.000000,0.000000,0.000000,0.000000,0.000000,0.000000,0.000000,0.000000,0.000000,1648357393.224751,0.000000
29.000000,-24334.567706,-44506.011248,13769.099268,-187049.657053,-187500.022352,20566.465922,20546.327000,-8089.073967,-0.038000,0.856000,0.480000,192.000000,0.000000,0.000000,0.000000,0.000000,0.000000,0.000000,0.000000,0.000000,0.000000,1648357393.231979,0.000000
30.000000,-24311.344243,-44475.232896,13789.551114,-187062.665768,-187462.337311,20566.532977,20573.529073,-8057.446248,-0.038000,0.856000,0.480000,192.000000,0.000000,0.000000,0.000000,0.000000,0.000000,0.000000,0.000000,0.000000,0.000000,1648357393.231983,0.000000
31.000000,-24298.402583,-44459.877248,13798.514163,-187033.921425,-187407.419074,20560.877986,20583.341489,-8039.520149,-0.038000,0.856000,0.480000,192.000000,0.000000,0.000000,0.000000,0.000000,0.000000,0.000000,0.000000,0.000000,0.000000,1648357393.239370,0.000000
32.000000,-24307.253874,-44470.516678,13785.326634,-187039.196436,-187349.684519,20543.153053,20571.964451,-8054.652280,-0.038000,0.856000,0.480000,192.000000,0.000000,0.000000,0.000000,0.000000,0.000000,0.000000,0.000000,0.000000,0.000000,1648357393.239374,0.000000
33.000000,-24351.040942,-44523.266795,13754.995317,-187066.242047,-187249.928683,20541.051989,20534.190003,-8101.859164,-0.038000,0.856000,0.480000,192.000000,0.000000,0.000000,0.000000,0.000000,0.000000,0.000000,0.000000,0.000000,0.000000,1648357393.247399,0.000000
34.000000,-24345.698875,-44520.361068,13758.817465,-187064.431556,-187105.447007,20552.943117,20554.820663,-8107.737673,-0.038000,0.856000,0.480000,192.000000,0.000000,0.000000,0.000000,0.000000,0.000000,0.000000,0.000000,0.000000,0.000000,1648357393.247403,0.000000
35.000000,-24313.154735,-44481.111405,13773.614320,-187025.517169,-187248.654634,20521.851840,20580.815742,-8074.210057,-0.038000,0.856000,0.480000,192.000000,0.000000,0.000000,0.000000,0.000000,0.000000,0.000000,0.000000,0.000000,0.000000,1648357393.255347,0.000000
36.000000,-24310.830153,-44480.619667,13790.601646,-187071.248838,-187450.893217,20547.712809,20591.969263,-8067.281016,-0.038000,0.856000,0.480000,192.000000,0.000000,0.000000,0.000000,0.000000,0.000000,0.000000,0.000000,0.000000,0.000000,1648357393.255351,0.000000
37.000000,-24290.177141,-44461.687739,13817.870774,-187083.452890,-187500.022352,20581.910978,20598.294806,-8033.485178,-0.038000,0.856000,0.480000,192.000000,0.000000,0.000000,0.000000,0.000000,0.000000,0.000000,0.000000,0.000000,0.000000,1648357393.261979,0.000000
38.000000,-24347.799939,-44519.109371,13775.693032,-187089.063178,-187412.045886,20577.194760,20537.431006,-8090.705644,-0.044000,0.854000,0.472000,192.000000,254.000000,160.000000,26.000000,176.000000,14.000000,192.000000,0.000000,0.000000,0.000000,1648357393.261983,0.000000
39.000000,-24328.085700,-44490.610896,13782.264445,-187046.728974,-187356.658263,20548.070436,20571.495065,-8080.982635,-0.044000,0.854000,0.472000,192.000000,0.000000,0.000000,0.000000,0.000000,0.000000,0.000000,0.000000,0.000000,0.000000,1648357393.269996,0.000000
40.000000,-24321.268418,-44474.092957,13781.169210,-187050.841695,-187308.713771,20535.195832,20561.816759,-8071.438440,-0.044000,0.854000,0.472000,192.000000,0.000000,0.000000,0.000000,0.000000,0.000000,0.000000,0.000000,0.000000,0.000000,1648357393.270000,0.000000
41.000000,-24310.070194,-44466.023978,13792.501544,-187072.589943,-187220.603194,20546.572870,20587.610672,-8054.719335,-0.044000,0.854000,0.472000,192.000000,0.000000,0.000000,0.000000,0.000000,0.000000,0.000000,0.000000,0.000000,0.000000,1648357393.278010,0.000000
42.000000,-24312.037148,-44472.126004,13803.342140,-187098.897946,-187065.526791,20571.584472,20592.617463,-8039.251928,-0.044000,0.854000,0.472000,192.000000,0.000000,0.000000,0.000000,0.000000,0.000000,0.000000,0.000000,0.000000,0.000000,1648357393.278013,0.000000
43.000000,-24328.219811,-44494.075417,13788.589989,-187054.306216,-187116.421713,20570.824512,20582.134495,-8066.565760,-0.044000,0.854000,0.472000,192.000000,0.000000,0.000000,0.000000,0.000000,0.000000,0.000000,0.000000,0.000000,0.000000,1648357393.285126,0.000000
44.000000,-24309.801973,-44480.083225,13798.625922,-187040.716355,-187310.971297,20570.712754,20594.338548,-8040.458922,-0.044000,0.854000,0.472000,192.000000,0.000000,0.000000,0.000000,0.000000,0.000000,0.000000,0.000000,0.000000,0.000000,1648357393.285130,0.000000
45.000000,-24328.778604,-44491.616725,13787.137125,-187061.548181,-187497.988343,20573.126742,20579.005251,-8053.042955,-0.044000,0.854000,0.472000,192.000000,0.000000,0.000000,0.000000,0.000000,0.000000,0.000000,0.000000,0.000000,0.000000,1648357393.291656,0.000000
46.000000,-24319.301464,-44470.539030,13795.563733,-187073.059329,-187462.225552,20577.127704,20591.455172,-8044.906920,-0.044000,0.854000,0.472000,192.000000,0.000000,0.000000,0.000000,0.000000,0.000000,0.000000,0.000000,0.000000,0.000000,1648357393.299673,0.000000
47.000000,-24286.153827,-44438.084297,13818.742492,-187055.401451,-187401.071179,20565.817722,20614.700987,-8020.141187,-0.044000,0.854000,0.472000,192.000000,0.000000,0.000000,0.000000,0.000000,0.000000,0.000000,0.000000,0.000000,0.000000,1648357393.299677,0.000000
48.000000,-24306.806839,-44456.636245,13813.713350,-187105.178786,-187296.777939,20580.480466,20590.516399,-8039.676611,-0.050000,0.860000,0.474000,192.000000,254.000000,112.000000,26.000000,224.000000,14.000000,208.000000,0.000000,0.000000,0.000000,1648357393.307700,0.000000
49.000000,-24330.969075,-44478.496251,13791.763936,-187071.002969,-187170.825859,20580.771039,20555.401809,-8066.431649,-0.050000,0.860000,0.474000,192.000000,0.000000,0.000000,0.000000,0.000000,0.000000,0.000000,0.000000,0.000000,0.000000,1648357393.307704,0.000000
50.000000,-24334.008912,-44485.604106,13785.281931,-187051.780468,-187087.587963,20570.600995,20566.063591,-8069.471487,-0.050000,0.860000,0.474000,192.000000,0.000000,0.000000,0.000000,0.000000,0.000000,0.000000,0.000000,0.000000,0.000000,1648357393.314253,0.000000
51.000000,-24336.244087,-44499.663353,13779.962215,-187063.805707,-187195.010447,20575.004289,20555.915899,-8079.507420,-0.050000,0.860000,0.474000,192.000000,0.000000,0.000000,0.000000,0.000000,0.000000,0.000000,0.000000,0.000000,0.000000,1648357393.314256,0.000000
52.000000,-24310.070194,-44475.545821,13804.996169,-187070.958265,-187371.455118,20582.559178,20575.741896,-8069.851466,-0.050000,0.860000,0.474000,192.000000,0.000000,0.000000,0.000000,0.000000,0.000000,0.000000,0.000000,0.000000,0.000000,1648357393.322278,0.000000
53.000000,-24294.468676,-44447.740251,13824.889222,-187095.276963,-187494.993209,20591.701042,20590.784620,-8052.282995,-0.050000,0.860000,0.474000,192.000000,0.000000,0.000000,0.000000,0.000000,0.000000,0.000000,0.000000,0.000000,0.000000,1648357393.322283,0.000000
54.000000,-24296.837961,-44447.024995,13826.677361,-187074.534544,-187428.541473,20594.383251,20587.387155,-8048.214978,-0.050000,0.860000,0.474000,192.000000,0.000000,0.000000,0.000000,0.000000,0.000000,0.000000,0.000000,0.000000,0.000000,1648357393.330255,0.000000
55.000000,-24336.735825,-44488.956867,13795.295512,-187077.082643,-187355.943007,20578.021774,20551.669067,-8073.070118,-0.050000,0.860000,0.474000,192.000000,0.000000,0.000000,0.000000,0.000000,0.000000,0.000000,0.000000,0.000000,0.000000,1648357393.330260,0.000000
56.000000,-24349.968058,-44508.447588,13782.376204,-187094.315838,-187257.349462,20568.030544,20542.884832,-8077.898094,-0.050000,0.860000,0.474000,192.000000,0.000000,0.000000,0.000000,0.000000,0.000000,0.000000,0.000000,0.000000,0.000000,1648357393.337480,0.000000
57.000000,-24337.786357,-44505.094827,13793.730890,-187086.179803,-187090.784263,20584.749649,20543.197756,-8065.314062,-0.050000,0.860000,0.474000,192.000000,0.000000,0.000000,0.000000,0.000000,0.000000,0.000000,0.000000,0.000000,0.000000,1648357393.337484,0.000000
58.000000,-24329.560915,-44490.275620,13807.186640,-187112.957193,-187096.372199,20620.825365,20561.615594,-8058.228559,-0.044000,0.864000,0.474000,192.000000,254.000000,160.000000,27.000000,0.000000,14.000000,208.000000,0.000000,0.000000,0.000000,1648357393.344900,0.000000
59.000000,-24356.338305,-44505.273641,13789.774631,-187087.498556,-187208.197976,20627.508536,20537.945096,-8084.268342,-0.044000,0.864000,0.474000,192.000000,0.000000,0.000000,0.000000,0.000000,0.000000,0.000000,0.000000,0.000000,0.000000,1648357393.344904,0.000000
60.000000,-24369.190558,-44513.141455,13773.413154,-187060.698814,-187405.340362,20609.090699,20531.217221,-8111.850394,-0.044000,0.864000,0.474000,192.000000,0.000000,0.000000,0.000000,0.000000,0.000000,0.000000,0.000000,0.000000,0.000000,1648357393.351952,0.000000
61.000000,-24341.407340,-44489.739178,13787.070070,-187036.313061,-187500.022352,20584.369669,20554.395980,-8078.121612,-0.044000,0.864000,0.474000,192.000000,0.000000,0.000000,0.000000,0.000000,0.000000,0.000000,0.000000,0.000000,0.000000,1648357393.359940,0.000000
62.000000,-24315.412261,-44466.985103,13811.545230,-187066.063233,-187448.903912,20573.976108,20574.132571,-8050.986594,-0.044000,0.864000,0.474000,192.000000,0.000000,0.000000,0.000000,0.000000,0.000000,0.000000,0.000000,0.000000,0.000000,1648357393.359944,0.000000
63.000000,-24324.665883,-44480.574963,13807.588972,-187067.404338,-187346.488219,20575.250158,20565.705963,-8064.218827,-0.044000,0.864000,0.474000,192.000000,0.000000,0.000000,0.000000,0.000000,0.000000,0.000000,0.000000,0.000000,0.000000,1648357393.367059,0.000000
64.000000,-24324.554124,-44475.255248,13801.352835,-187019.482198,-187295.235669,20547.936326,20570.265719,-8067.862161,-0.044000,0.864000,0.474000,192.000000,0.000000,0.000000,0.000000,0.000000,0.000000,0.000000,0.000000,0.000000,0.000000,1648357393.367062,0.000000
65.000000,-24345.050674,-44496.802330,13782.487963,-187047.913617,-187237.925796,20530.278448,20544.941192,-8091.934990,-0.044000,0.864000,0.474000,192.000000,0.000000,0.000000,0.000000,0.000000,0.000000,0.000000,0.000000,0.000000,0.000000,1648357393.374553,0.000000
66.000000,-24330.499688,-44480.463204,13795.407271,-187067.091413,-187106.475187,20534.838204,20558.866329,-8071.818420,-0.044000,0.864000,0.474000,192.000000,0.000000,0.000000,0.000000,0.000000,0.000000,0.000000,0.000000,0.000000,0.000000,1648357393.374557,0.000000
67.000000,-24324.487069,-44472.885963,13805.487908,-187073.975751,-187070.511230,20557.704038,20561.705001,-8065.112897,-0.044000,0.864000,0.474000,192.000000,0.000000,0.000000,0.000000,0.000000,0.000000,0.000000,0.000000,0.000000,0.000000,1648357393.382592,0.000000
68.000000,-24325.984636,-44480.597315,13804.437376,-187040.962224,-187212.645973,20553.032524,20556.631155,-8078.635702,-0.036000,0.860000,0.474000,192.000000,254.000000,224.000000,26.000000,224.000000,14.000000,208.000000,0.000000,0.000000,0.000000,1648357393.382596,0.000000
69.000000,-24313.758232,-44464.414652,13816.552021,-187055.982596,-187417.678525,20556.720562,20576.077172,-8064.062365,-0.036000,0.860000,0.474000,192.000000,0.000000,0.000000,0.000000,0.000000,0.000000,0.000000,0.000000,0.000000,0.000000,1648357393.390613,0.000000
70.000000,-24313.534714,-44456.703300,13826.878527,-187095.522832,-187480.375168,20589.868199,20581.910978,-8050.114876,-0.036000,0.860000,0.474000,192.000000,0.000000,0.000000,0.000000,0.000000,0.000000,0.000000,0.000000,0.000000,0.000000,1648357393.390618,0.000000
71.000000,-24313.959398,-44456.815059,13823.995152,-187056.250817,-187392.264592,20587.789486,20574.467847,-8040.973013,-0.036000,0.860000,0.474000,192.000000,0.000000,0.000000,0.000000,0.000000,0.000000,0.000000,0.000000,0.000000,0.000000,1648357393.397204,0.000000
72.000000,-24336.244087,-44481.893716,13796.413099,-187029.048744,-187339.045088,20542.951887,20549.411541,-8054.831094,-0.036000,0.860000,0.474000,192.000000,0.000000,0.000000,0.000000,0.000000,0.000000,0.000000,0.000000,0.000000,0.000000,1648357393.397208,0.000000
73.000000,-24352.203232,-44499.395132,13776.698861,-187030.836884,-187290.877079,20501.712918,20530.770186,-8080.848525,-0.036000,0.860000,0.474000,192.000000,0.000000,0.000000,0.000000,0.000000,0.000000,0.000000,0.000000,0.000000,0.000000,1648357393.405190,0.000000
74.000000,-24348.001104,-44489.627420,13787.338291,-187084.503422,-187146.730679,20520.868363,20557.525224,-8093.253743,-0.036000,0.860000,0.474000,192.000000,0.000000,0.000000,0.000000,0.000000,0.000000,0.000000,0.000000,0.000000,0.000000,1648357393.405194,0.000000
75.000000,-24323.213020,-44468.147393,13804.638541,-187044.158524,-187098.182690,20540.202622,20584.324966,-8066.766926,-0.036000,0.860000,0.474000,192.000000,0.000000,0.000000,0.000000,0.000000,0.000000,0.000000,0.000000,0.000000,0.000000,1648357393.412188,0.000000
76.000000,-24292.032336,-44437.145524,13831.594745,-187019.303384,-187256.433041,20550.439721,20616.891458,-8035.608594,-0.036000,0.860000,0.474000,192.000000,0.000000,0.000000,0.000000,0.000000,0.000000,0.000000,0.000000,0.000000,0.000000,1648357393.420234,0.000000
77.000000,-24298.491990,-44439.850085,13826.923231,-187043.018585,-187469.132241,20549.299782,20603.167487,-8037.709658,-0.036000,0.860000,0.474000,192.000000,0.000000,0.000000,0.000000,0.000000,0.000000,0.000000,0.000000,0.000000,0.000000,1648357393.420239,0.000000
78.000000,-24313.244142,-44450.690681,13820.664742,-187078.401396,-187496.580183,20555.021829,20582.268606,-8055.993385,-0.042000,0.864000,0.470000,192.000000,254.000000,176.000000,27.000000,0.000000,14.000000,176.000000,0.000000,0.000000,0.000000,1648357393.426906,0.000000
79.000000,-24333.383063,-44466.314550,13804.392672,-187058.754213,-187416.650345,20544.337695,20560.341544,-8072.466621,-0.042000,0.864000,0.470000,192.000000,0.000000,0.000000,0.000000,0.000000,0.000000,0.000000,0.000000,0.000000,0.000000,1648357393.426910,0.000000
80.000000,-24340.893250,-44483.145414,13797.910666,-187067.270227,-187328.562120,20543.510681,20570.645698,-8076.579341,-0.042000,0.864000,0.470000,192.000000,0.000000,0.000000,0.000000,0.000000,0.000000,0.000000,0.000000,0.000000,0.000000,1648357393.434908,0.000000
81.000000,-24322.609523,-44470.851954,13811.187602,-187062.665768,-187234.438924,20541.655486,20582.201550,-8068.957397,-0.042000,0.864000,0.470000,192.000000,0.000000,0.000000,0.000000,0.000000,0.000000,0.000000,0.000000,0.000000,0.000000,1648357393.434912,0.000000
82.000000,-24324.151793,-44470.181402,13810.874678,-187071.025320,-187083.139966,20543.287163,20566.488274,-8080.468545,-0.042000,0.864000,0.470000,192.000000,0.000000,0.000000,0.000000,0.000000,0.000000,0.000000,0.000000,0.000000,0.000000,1648357393.442944,0.000000
83.000000,-24310.070194,-44452.232951,13817.379036,-187033.384983,-187124.177769,20542.057817,20567.471751,-8049.354917,-0.042000,0.864000,0.470000,192.000000,0.000000,0.000000,0.000000,0.000000,0.000000,0.000000,0.000000,0.000000,0.000000,1648357393.442948,0.000000
84.000000,-24327.996293,-44466.806289,13804.906762,-187042.102163,-187282.338712,20548.159843,20572.456190,-8048.617309,-0.042000,0.864000,0.470000,192.000000,0.000000,0.000000,0.000000,0.000000,0.000000,0.000000,0.000000,0.000000,0.000000,1648357393.449476,0.000000
85.000000,-24310.740746,-44456.077451,13817.133166,-187045.007890,-187490.388750,20548.361009,20592.349242,-8034.021620,-0.042000,0.864000,0.470000,192.000000,0.000000,0.000000,0.000000,0.000000,0.000000,0.000000,0.000000,0.000000,0.000000,1648357393.449480,0.000000
86.000000,-24288.433705,-44433.055154,13837.339143,-187055.177934,-187493.294477,20550.663239,20605.112088,-8009.010018,-0.042000,0.864000,0.470000,192.000000,0.000000,0.000000,0.000000,0.000000,0.000000,0.000000,0.000000,0.000000,0.000000,1648357393.457502,0.000000
87.000000,-24327.906886,-44468.505021,13812.394597,-187071.092376,-187400.154758,20551.400846,20579.675803,-8049.734896,-0.042000,0.864000,0.470000,192.000000,0.000000,0.000000,0.000000,0.000000,0.000000,0.000000,0.000000,0.000000,0.000000,1648357393.457506,0.000000
88.000000,-24337.831061,-44480.440853,13806.046701,-187055.535562,-187309.049047,20543.778902,20573.171446,-8063.391812,-0.040000,0.860000,0.472000,192.000000,254.000000,192.000000,26.000000,224.000000,14.000000,192.000000,0.000000,0.000000,0.000000,1648357393.465464,0.000000
89.000000,-24336.668770,-44480.329094,13797.977721,-187042.795067,-187246.777087,20521.024826,20579.362879,-8067.750402,-0.040000,0.860000,0.472000,192.000000,0.000000,0.000000,0.000000,0.000000,0.000000,0.000000,0.000000,0.000000,0.000000,1648357393.465468,0.000000
90.000000,-24327.236334,-44468.817946,13806.694902,-187065.638550,-187129.944519,20521.471861,20592.215132,-8065.537580,-0.040000,0.860000,0.472000,192.000000,0.000000,0.000000,0.000000,0.000000,0.000000,0.000000,0.000000,0.000000,0.000000,1648357393.472995,0.000000
91.000000,-24315.211095,-44459.989007,13820.552983,-187050.774640,-187077.864954,20544.181233,20615.393891,-8032.971088,-0.040000,0.860000,0.472000,192.000000,0.000000,0.000000,0.000000,0.000000,0.000000,0.000000,0.000000,0.000000,0.000000,1648357393.479619,0.000000
92.000000,-24313.244142,-44460.614855,13822.788158,-187056.519038,-187213.450636,20552.406675,20612.644626,-8020.431759,-0.040000,0.860000,0.472000,192.000000,0.000000,0.000000,0.000000,0.000000,0.000000,0.000000,0.000000,0.000000,0.000000,1648357393.479636,0.000000
93.000000,-24319.972017,-44460.704262,13820.754149,-187063.023396,-187340.296786,20567.762323,20588.817667,-8028.701905,-0.040000,0.860000,0.472000,192.000000,0.000000,0.000000,0.000000,0.000000,0.000000,0.000000,0.000000,0.000000,0.000000,1648357393.487410,0.000000
94.000000,-24331.729034,-44472.126004,13809.332408,-187041.833942,-187500.022352,20567.136475,20571.807989,-8040.570681,-0.040000,0.860000,0.472000,192.000000,0.000000,0.000000,0.000000,0.000000,0.000000,0.000000,0.000000,0.000000,0.000000,1648357393.487426,0.000000
95.000000,-24337.696950,-44476.305780,13801.710463,-187025.114837,-187500.022352,20528.378550,20584.235559,-8058.563835,-0.040000,0.860000,0.472000,192.000000,0.000000,0.000000,0.000000,0.000000,0.000000,0.000000,0.000000,0.000000,0.000000,1648357393.495565,0.000000
96.000000,-24311.634816,-44448.902541,13823.682228,-187057.077832,-187500.022352,20524.198773,20611.750556,-8032.702867,-0.040000,0.860000,0.472000,192.000000,0.000000,0.000000,0.000000,0.000000,0.000000,0.000000,0.000000,0.000000,0.000000,1648357393.495582,0.000000
97.000000,-24312.148906,-44449.036652,13834.187547,-187098.450911,-187410.682429,20545.969373,20605.469716,-8022.957507,-0.040000,0.860000,0.472000,192.000000,0.000000,0.000000,0.000000,0.000000,0.000000,0.000000,0.000000,0.000000,0.000000,1648357393.502749,0.000000
98.000000,-24312.931217,-44450.511867,13825.068036,-187051.780468,-187325.254062,20536.916916,20582.268606,-8025.818530,-0.040000,0.858000,0.470000,192.000000,254.000000,192.000000,26.000000,208.000000,14.000000,176.000000,0.000000,0.000000,0.000000,1648357393.502765,0.000000
99.000000,-24340.133290,-44492.801367,13808.281876,-187091.879498,-187166.288455,20553.881890,20573.529073,-8049.332565,-0.040000,0.858000,0.470000,192.000000,0.000000,0.000000,0.000000,0.000000,0.000000,0.000000,0.000000,0.000000,0.000000,1648357393.510202,0.000000
100.000000,-24310.271360,-44445.125096,13824.308076,-187048.874742,-187128.156379,20551.624364,20604.374481,-8029.215995,-0.040000,0.858000,0.470000,192.000000,0.000000,0.000000,0.000000,0.000000,0.000000,0.000000,0.000000,0.000000,0.000000,1648357393.510218,0.000000
101.000000,-24303.185857,-44426.260224,13829.158405,-187023.773733,-187321.118989,20535.262887,20605.603827,-8013.927402,-0.040000,0.858000,0.470000,192.000000,0.000000,0.000000,0.000000,0.000000,0.000000,0.000000,0.000000,0.000000,0.000000,1648357393.517875,0.000000
102.000000,-24316.462793,-44444.007509,13819.547155,-187025.964204,-187500.022352,20531.530146,20584.503780,-8019.805911,-0.040000,0.858000,0.470000,192.000000,0.000000,0.000000,0.000000,0.000000,0.000000,0.000000,0.000000,0.000000,0.000000,1648357393.517885,0.000000
103.000000,-24334.165375,-44469.287332,13802.492774,-187054.507381,-187500.022352,20504.618645,20579.720507,-8047.656184,-0.040000,0.858000,0.470000,192.000000,0.000000,0.000000,0.000000,0.000000,0.000000,0.000000,0.000000,0.000000,0.000000,1648357393.525838,0.000000
104.000000,-24328.979770,-44469.063815,13812.439300,-187090.091358,-187430.821351,20518.230858,20600.798202,-8056.663937,-0.040000,0.858000,0.470000,192.000000,0.000000,0.000000,0.000000,0.000000,0.000000,0.000000,0.000000,0.000000,0.000000,1648357393.525847,0.000000
105.000000,-24315.389909,-44459.609027,13820.664742,-187065.124460,-187347.337585,20530.278448,20605.983806,-8031.652335,-0.040000,0.858000,0.470000,192.000000,0.000000,0.000000,0.000000,0.000000,0.000000,0.000000,0.000000,0.000000,0.000000,1648357393.531978,0.000000
106.000000,-24322.140136,-44469.399091,13806.203163,-187030.211035,-187309.406675,20501.601160,20587.588321,-8037.061457,-0.040000,0.858000,0.470000,192.000000,0.000000,0.000000,0.000000,0.000000,0.000000,0.000000,0.000000,0.000000,0.000000,1648357393.531985,0.000000
107.000000,-24314.875819,-44459.541972,13821.737626,-187100.149643,-187154.509086,20527.573887,20594.405603,-8025.483254,-0.040000,0.858000,0.470000,192.000000,0.000000,0.000000,0.000000,0.000000,0.000000,0.000000,0.000000,0.000000,0.000000,1648357393.539376,0.000000
108.000000,-24292.680537,-44434.038631,13837.070923,-187053.836829,-187077.194402,20539.956753,20602.899266,-8006.439567,-0.036000,0.860000,0.474000,192.000000,254.000000,224.000000,26.000000,224.000000,14.000000,208.000000,0.000000,0.000000,0.000000,1648357393.547754,0.000000
109.000000,-24332.623104,-44480.954943,13798.357701,-187036.491875,-187239.244549,20515.548648,20558.799274,-8063.034184,-0.036000,0.860000,0.474000,192.000000,0.000000,0.000000,0.000000,0.000000,0.000000,0.000000,0.000000,0.000000,0.000000,1648357393.547770,0.000000
110.000000,-24313.691177,-44463.230009,13815.970876,-187072.187611,-187429.748467,20535.978143,20601.513457,-8034.513358,-0.036000,0.860000,0.474000,192.000000,0.000000,0.000000,0.000000,0.000000,0.000000,0.000000,0.000000,0.000000,0.000000,1648357393.555616,0.000000
111.000000,-24277.727220,-44429.478875,13847.956222,-187048.718279,-187476.195392,20546.461111,20641.187804,-7992.648541,-0.036000,0.860000,0.474000,192.000000,0.000000,0.000000,0.000000,0.000000,0.000000,0.000000,0.000000,0.000000,0.000000,1648357393.555627,0.000000
112.000000,-24298.357880,-44449.908370,13831.103007,-187034.703736,-187422.685316,20527.752701,20621.518269,-8010.574640,-0.036000,0.860000,0.474000,192.000000,0.000000,0.000000,0.000000,0.000000,0.000000,0.000000,0.000000,0.000000,0.000000,1648357393.562543,0.000000
113.000000,-24333.919505,-44483.167766,13797.687149,-187048.450059,-187357.485277,20504.506887,20586.068402,-8058.787353,-0.036000,0.860000,0.474000,192.000000,0.000000,0.000000,0.000000,0.000000,0.000000,0.000000,0.000000,0.000000,0.000000,1648357393.562559,0.000000
114.000000,-24309.287883,-44456.971521,13812.148727,-187054.127402,-187291.771149,20498.740136,20599.278283,-8033.194605,-0.036000,0.860000,0.474000,192.000000,0.000000,0.000000,0.000000,0.000000,0.000000,0.000000,0.000000,0.000000,0.000000,1648357393.570406,0.000000
115.000000,-24289.685403,-44428.785971,13831.617097,-187045.365518,-187214.523520,20507.122041,20614.924504,-7992.357968,-0.036000,0.860000,0.474000,192.000000,0.000000,0.000000,0.000000,0.000000,0.000000,0.000000,0.000000,0.000000,0.000000,1648357393.570423,0.000000
116.000000,-24272.608670,-44417.431285,13848.179739,-187063.448079,-187088.906716,20518.923762,20630.749539,-7976.577637,-0.036000,0.860000,0.474000,192.000000,0.000000,0.000000,0.000000,0.000000,0.000000,0.000000,0.000000,0.000000,0.000000,1648357393.578513,0.000000
117.000000,-24295.094525,-44449.953073,13831.997077,-187066.376158,-187111.303164,20532.938305,20598.585379,-8005.411387,-0.036000,0.860000,0.474000,192.000000,0.000000,0.000000,0.000000,0.000000,0.000000,0.000000,0.000000,0.000000,0.000000,1648357393.578529,0.000000
118.000000,-24319.055595,-44474.450585,13817.110815,-187086.984466,-187231.399087,20552.160806,20605.603827,-8033.216957,-0.034000,0.868000,0.472000,192.000000,254.000000,240.000000,27.000000,32.000000,14.000000,192.000000,0.000000,0.000000,0.000000,1648357393.585109,0.000000
119.000000,-24325.761119,-44470.226105,13814.138033,-187060.832925,-187412.269403,20564.878948,20597.221923,-8040.458922,-0.034000,0.868000,0.472000,192.000000,0.000000,0.000000,0.000000,0.000000,0.000000,0.000000,0.000000,0.000000,0.000000,1648357393.585125,0.000000
120.000000,-24330.119709,-44476.976332,13807.924248,-187039.107029,-187487.237154,20551.959640,20583.497951,-8047.902053,-0.034000,0.868000,0.472000,192.000000,0.000000,0.000000,0.000000,0.000000,0.000000,0.000000,0.000000,0.000000,0.000000,1648357393.593064,0.000000
121.000000,-24313.490011,-44461.508925,13816.596725,-187054.730899,-187427.289775,20534.234707,20599.613559,-8034.088675,-0.034000,0.868000,0.472000,192.000000,0.000000,0.000000,0.000000,0.000000,0.000000,0.000000,0.000000,0.000000,0.000000,1648357393.593080,0.000000
122.000000,-24314.205267,-44464.124079,13819.547155,-187068.119594,-187335.379402,20534.547631,20585.129629,-8028.992478,-0.034000,0.868000,0.472000,192.000000,0.000000,0.000000,0.000000,0.000000,0.000000,0.000000,0.000000,0.000000,0.000000,1648357393.600080,0.000000
123.000000,-24292.546426,-44442.219370,13836.422722,-187042.750364,-187259.763451,20524.064663,20619.059577,-8009.166480,-0.034000,0.868000,0.472000,192.000000,0.000000,0.000000,0.000000,0.000000,0.000000,0.000000,0.000000,0.000000,0.000000,1648357393.608074,0.000000
124.000000,-24297.732031,-44433.882169,13832.622925,-187066.264399,-187114.186539,20536.916916,20622.233525,-8014.642658,-0.034000,0.868000,0.472000,192.000000,0.000000,0.000000,0.000000,0.000000,0.000000,0.000000,0.000000,0.000000,0.000000,1648357393.608089,0.000000
125.000000,-24316.552200,-44455.071623,13805.420852,-187013.670744,-187158.577103,20513.402881,20602.586341,-8035.921518,-0.034000,0.868000,0.472000,192.000000,0.000000,0.000000,0.000000,0.000000,0.000000,0.000000,0.000000,0.000000,0.000000,1648357393.614714,0.000000
126.000000,-24307.879723,-44449.059003,13816.529669,-187049.791163,-187323.778847,20522.053006,20635.309295,-8016.788425,-0.034000,0.868000,0.472000,192.000000,0.000000,0.000000,0.000000,0.000000,0.000000,0.000000,0.000000,0.000000,0.000000,1648357393.614730,0.000000
127.000000,-24301.308310,-44443.426364,13827.660838,-187078.893134,-187500.022352,20537.587468,20639.690237,-8014.128567,-0.034000,0.868000,0.472000,192.000000,0.000000,0.000000,0.000000,0.000000,0.000000,0.000000,0.000000,0.000000,0.000000,1648357393.622509,0.000000
128.000000,-24293.753421,-44446.823829,13830.007771,-187041.118686,-187500.022352,20518.074395,20639.131443,-7998.817623,-0.034000,0.864000,0.468000,192.000000,254.000000,240.000000,27.000000,0.000000,14.000000,160.000000,0.000000,0.000000,0.000000,1648357393.622525,0.000000
129.000000,-24289.260720,-44432.026974,13837.875585,-187063.358672,-187468.014654,20516.375663,20634.795205,-7997.521221,-0.034000,0.864000,0.468000,192.000000,0.000000,0.000000,0.000000,0.000000,0.000000,0.000000,0.000000,0.000000,0.000000,1648357393.630692,0.000000
130.000000,-24293.149923,-44422.907462,13839.484911,-187080.502460,-187376.327798,20530.211393,20627.709702,-7992.447375,-0.034000,0.864000,0.468000,192.000000,0.000000,0.000000,0.000000,0.000000,0.000000,0.000000,0.000000,0.000000,0.000000,1648357393.630707,0.000000
131.000000,-24312.595941,-44445.415669,13829.091350,-187075.741538,-187204.509938,20556.318230,20589.778792,-8026.220861,-0.034000,0.864000,0.468000,192.000000,0.000000,0.000000,0.000000,0.000000,0.000000,0.000000,0.000000,0.000000,0.000000,1648357393.637612,0.000000
132.000000,-24272.072228,-44405.406047,13848.269146,-187001.623154,-187168.076595,20523.952904,20617.427900,-8007.154823,-0.034000,0.864000,0.468000,192.000000,0.000000,0.000000,0.000000,0.000000,0.000000,0.000000,0.000000,0.000000,0.000000,1648357393.637627,0.000000
133.000000,-24306.940950,-44436.586730,13828.711370,-187053.054518,-187322.057762,20521.650675,20603.145135,-8045.443361,-0.034000,0.864000,0.468000,192.000000,0.000000,0.000000,0.000000,0.000000,0.000000,0.000000,0.000000,0.000000,0.000000,1648357393.645343,0.000000
134.000000,-24320.307293,-44450.958902,13818.720140,-187073.148736,-187496.379017,20537.185137,20584.861408,-8056.351013,-0.034000,0.864000,0.468000,192.000000,0.000000,0.000000,0.000000,0.000000,0.000000,0.000000,0.000000,0.000000,0.000000,1648357393.645359,0.000000
135.000000,-24276.743743,-44408.088256,13844.826978,-187075.786242,-187500.022352,20524.578753,20628.268496,-8016.207280,-0.034000,0.864000,0.468000,192.000000,0.000000,0.000000,0.000000,0.000000,0.000000,0.000000,0.000000,0.000000,0.000000,1648357393.653351,0.000000
136.000000,-24249.496967,-44379.478023,13857.545120,-187044.337338,-187500.022352,20469.928738,20653.593022,-7988.558172,-0.034000,0.864000,0.468000,192.000000,0.000000,0.000000,0.000000,0.000000,0.000000,0.000000,0.000000,0.000000,0.000000,1648357393.653367,0.000000
137.000000,-24310.293711,-44454.579884,13825.984457,-187044.247931,-187401.138234,20518.052044,20611.907019,-8039.453094,-0.034000,0.864000,0.468000,192.000000,0.000000,0.000000,0.000000,0.000000,0.000000,0.000000,0.000000,0.000000,0.000000,1648357393.660400,0.000000
138.000000,-24321.648398,-44470.270809,13811.053492,-187073.305198,-187195.099854,20556.765265,20593.131553,-8050.763077,-0.034000,0.864000,0.468000,192.000000,0.000000,0.000000,0.000000,0.000000,0.000000,0.000000,0.000000,0.000000,0.000000,1648357393.667501,0.000000
139.000000,-24289.953624,-44447.717899,13822.877565,-187074.422786,-187089.353751,20557.793445,20604.039205,-8023.426893,-0.032000,0.860000,0.470000,192.000000,255.000000,0.000000,26.000000,224.000000,14.000000,176.000000,0.000000,0.000000,0.000000,1648357393.667516,0.000000
140.000000,-24241.785615,-44393.313753,13842.010658,-187051.445192,-187303.751684,20514.386358,20626.793280,-7998.325884,-0.032000,0.860000,0.470000,192.000000,0.000000,0.000000,0.000000,0.000000,0.000000,0.000000,0.000000,0.000000,0.000000,1648357393.674974,0.000000
141.000000,-24207.073356,-44358.579142,13872.140810,-187032.289747,-187500.022352,20463.536139,20695.390784,-7953.510637,-0.032000,0.860000,0.470000,192.000000,0.000000,0.000000,0.000000,0.000000,0.000000,0.000000,0.000000,0.000000,0.000000,1648357393.674990,0.000000
142.000000,-24239.237516,-44392.978477,13863.982423,-187014.833035,-187500.022352,20483.093915,20678.001127,-7966.586407,-0.032000,0.860000,0.470000,192.000000,0.000000,0.000000,0.000000,0.000000,0.000000,0.000000,0.000000,0.000000,0.000000,1648357393.682972,0.000000
143.000000,-24260.315211,-44420.560529,13852.918309,-187053.479201,-187398.836005,20511.502983,20639.198499,-7996.828317,-0.032000,0.860000,0.470000,192.000000,0.000000,0.000000,0.000000,0.000000,0.000000,0.000000,0.000000,0.000000,0.000000,1648357393.682988,0.000000
144.000000,-24228.374568,-44382.473157,13872.029051,-187067.091413,-187364.839001,20492.548703,20677.464685,-7962.160762,-0.032000,0.860000,0.470000,192.000000,0.000000,0.000000,0.000000,0.000000,0.000000,0.000000,0.000000,0.000000,0.000000,1648357393.690982,0.000000
145.000000,-24261.276336,-44410.345782,13847.330373,-187048.315948,-187301.740027,20486.334918,20630.906001,-8002.751530,-0.032000,0.860000,0.470000,192.000000,0.000000,0.000000,0.000000,0.000000,0.000000,0.000000,0.000000,0.000000,0.000000,1648357393.690998,0.000000
146.000000,-24234.588353,-44389.357494,13862.417801,-187049.433535,-187244.966596,20472.230968,20648.161548,-7973.850724,-0.032000,0.860000,0.470000,192.000000,0.000000,0.000000,0.000000,0.000000,0.000000,0.000000,0.000000,0.000000,0.000000,1648357393.697566,0.000000
147.000000,-24238.321094,-44399.996924,13862.686022,-187070.622989,-187137.655871,20480.590520,20640.964286,-7980.757413,-0.032000,0.860000,0.470000,192.000000,0.000000,0.000000,0.000000,0.000000,0.000000,0.000000,0.000000,0.000000,0.000000,1648357393.697582,0.000000
148.000000,-24254.637868,-44420.337012,13860.808475,-187109.425617,-187168.456574,20531.887774,20625.966266,-8010.306419,-0.032000,0.860000,0.470000,192.000000,0.000000,0.000000,0.000000,0.000000,0.000000,0.000000,0.000000,0.000000,0.000000,1648357393.705614,0.000000
149.000000,-24221.065548,-44378.271029,13879.405127,-187050.417012,-187348.611635,20537.520413,20641.344266,-7979.840991,-0.036000,0.862000,0.472000,192.000000,254.000000,224.000000,26.000000,240.000000,14.000000,192.000000,0.000000,0.000000,0.000000,1648357393.705631,0.000000
150.000000,-24261.119874,-44419.286480,13856.002850,-187066.845544,-187500.022352,20545.187061,20623.976961,-7997.141242,-0.036000,0.862000,0.472000,192.000000,0.000000,0.000000,0.000000,0.000000,0.000000,0.000000,0.000000,0.000000,0.000000,1648357393.713471,0.000000
151.000000,-24293.082868,-44452.367062,13840.088408,-187118.835702,-187416.672697,20567.494102,20609.023644,-8031.518225,-0.036000,0.862000,0.472000,192.000000,0.000000,0.000000,0.000000,0.000000,0.000000,0.000000,0.000000,0.000000,0.000000,1648357393.713487,0.000000
152.000000,-24271.222862,-44435.066811,13848.403257,-187081.843565,-187322.616556,20547.869271,20625.094548,-8013.167442,-0.036000,0.862000,0.472000,192.000000,0.000000,0.000000,0.000000,0.000000,0.000000,0.000000,0.000000,0.000000,0.000000,1648357393.719842,0.000000
153.000000,-24273.525092,-44440.453582,13832.488815,-187035.597805,-187297.090864,20493.442773,20618.500783,-8026.600841,-0.036000,0.862000,0.472000,192.000000,0.000000,0.000000,0.000000,0.000000,0.000000,0.000000,0.000000,0.000000,0.000000,1648357393.727303,0.000000
154.000000,-24281.638775,-44438.330166,13826.632658,-187066.599675,-187191.903554,20506.764413,20615.237429,-8034.759228,-0.036000,0.862000,0.472000,192.000000,0.000000,0.000000,0.000000,0.000000,0.000000,0.000000,0.000000,0.000000,0.000000,1648357393.727320,0.000000
155.000000,-24286.354993,-44437.816076,13820.038893,-187068.320759,-187063.805707,20511.950017,20609.448327,-8033.999268,-0.036000,0.862000,0.472000,192.000000,0.000000,0.000000,0.000000,0.000000,0.000000,0.000000,0.000000,0.000000,0.000000,1648357393.735226,0.000000
156.000000,-24268.451246,-44425.746134,13843.195300,-187100.887251,-187079.675446,20556.429989,20623.060539,-8007.378341,-0.036000,0.862000,0.472000,192.000000,0.000000,0.000000,0.000000,0.000000,0.000000,0.000000,0.000000,0.000000,0.000000,1648357393.735237,0.000000
157.000000,-24278.353069,-44439.023070,13834.142844,-187068.968960,-187197.335028,20559.916861,20611.504687,-8017.481329,-0.036000,0.862000,0.472000,192.000000,0.000000,0.000000,0.000000,0.000000,0.000000,0.000000,0.000000,0.000000,0.000000,1648357393.743355,0.000000
158.000000,-24306.113935,-44465.085204,13809.846498,-187070.734748,-187332.540731,20555.759437,20595.366728,-8039.810722,-0.036000,0.862000,0.472000,192.000000,0.000000,0.000000,0.000000,0.000000,0.000000,0.000000,0.000000,0.000000,0.000000,1648357393.743371,0.000000
159.000000,-24319.569685,-44474.629399,13793.015634,-187066.085585,-187500.022352,20547.377532,20578.602919,-8059.279091,-0.038000,0.862000,0.470000,192.000000,254.000000,208.000000,26.000000,240.000000,14.000000,176.000000,0.000000,0.000000,0.000000,1648357393.749865,0.000000
160.000000,-24275.089714,-44425.366154,13820.441225,-187020.018640,-187500.022352,20508.329035,20623.552278,-8017.190756,-0.038000,0.862000,0.470000,192.000000,0.000000,0.000000,0.000000,0.000000,0.000000,0.000000,0.000000,0.000000,0.000000,1648357393.749883,0.000000
161.000000,-24263.355048,-44415.889015,13829.314867,-187038.816457,-187494.076788,20486.245511,20627.664998,-8007.803024,-0.038000,0.862000,0.470000,192.000000,0.000000,0.000000,0.000000,0.000000,0.000000,0.000000,0.000000,0.000000,0.000000,1648357393.757541,0.000000
162.000000,-24282.801066,-44432.272843,13818.675437,-187082.514117,-187397.673714,20486.781953,20602.251065,-8031.674687,-0.038000,0.862000,0.470000,192.000000,0.000000,0.000000,0.000000,0.000000,0.000000,0.000000,0.000000,0.000000,0.000000,1648357393.757548,0.000000
163.000000,-24257.208318,-44411.441018,13840.289574,-187062.755175,-187308.490254,20488.212465,20621.250048,-8002.125681,-0.038000,0.862000,0.470000,192.000000,0.000000,0.000000,0.000000,0.000000,0.000000,0.000000,0.000000,0.000000,0.000000,1648357393.765958,0.000000
164.000000,-24288.724278,-44458.200867,13807.432509,-186997.041046,-187289.088939,20444.403046,20588.415335,-8024.991515,-0.038000,0.862000,0.470000,192.000000,0.000000,0.000000,0.000000,0.000000,0.000000,0.000000,0.000000,0.000000,0.000000,1648357393.765974,0.000000
165.000000,-24307.812668,-44460.614855,13794.133221,-187048.003024,-187200.844252,20438.837461,20588.169466,-8063.034184,-0.038000,0.862000,0.470000,192.000000,0.000000,0.000000,0.000000,0.000000,0.000000,0.000000,0.000000,0.000000,0.000000,1648357393.773035,0.000000
166.000000,-24290.244197,-44435.871474,13809.108890,-187076.009759,-187076.367387,20459.065790,20597.467792,-8052.193588,-0.038000,0.862000,0.470000,192.000000,0.000000,0.000000,0.000000,0.000000,0.000000,0.000000,0.000000,0.000000,0.000000,1648357393.773051,0.000000
167.000000,-24279.470656,-44432.004622,13822.363475,-187092.170071,-187137.141781,20488.011299,20590.717565,-8050.226635,-0.038000,0.862000,0.470000,192.000000,0.000000,0.000000,0.000000,0.000000,0.000000,0.000000,0.000000,0.000000,0.000000,1648357393.779518,0.000000
168.000000,-24231.727330,-44389.066921,13854.751152,-187034.502570,-187313.362934,20492.347538,20635.443406,-8002.237439,-0.038000,0.862000,0.470000,192.000000,0.000000,0.000000,0.000000,0.000000,0.000000,0.000000,0.000000,0.000000,0.000000,1648357393.779534,0.000000
169.000000,-24217.712786,-44375.946447,13864.742382,-187020.465674,-187500.022352,20485.217331,20655.470569,-7983.305512,-0.042000,0.862000,0.474000,192.000000,254.000000,176.000000,26.000000,240.000000,14.000000,208.000000,0.000000,0.000000,0.000000,1648357393.787281,0.000000
170.000000,-24249.228746,-44405.428398,13846.033972,-187046.393698,-187500.022352,20484.390317,20632.470624,-8013.547422,-0.042000,0.862000,0.474000,192.000000,0.000000,0.000000,0.000000,0.000000,0.000000,0.000000,0.000000,0.000000,0.000000,1648357393.795418,0.000000
171.000000,-24280.945871,-44435.536198,13820.843556,-187055.021471,-187457.196409,20470.308718,20605.067385,-8038.313155,-0.042000,0.862000,0.474000,192.000000,0.000000,0.000000,0.000000,0.000000,0.000000,0.000000,0.000000,0.000000,0.000000,1648357393.795445,0.000000
172.000000,-24272.474560,-44425.075582,13828.711370,-187086.358617,-187347.896379,20484.435020,20605.380309,-8037.732010,-0.042000,0.862000,0.474000,192.000000,0.000000,0.000000,0.000000,0.000000,0.000000,0.000000,0.000000,0.000000,0.000000,1648357393.802742,0.000000
173.000000,-24273.681554,-44426.953128,13824.464539,-187059.380062,-187248.297006,20484.770296,20603.413356,-8041.598861,-0.042000,0.862000,0.474000,192.000000,0.000000,0.000000,0.000000,0.000000,0.000000,0.000000,0.000000,0.000000,0.000000,1648357393.802759,0.000000
174.000000,-24288.768982,-44438.553684,13810.606457,-187032.446209,-187183.700464,20459.870453,20609.068347,-8041.978841,-0.042000,0.862000,0.474000,192.000000,0.000000,0.000000,0.000000,0.000000,0.000000,0.000000,0.000000,0.000000,0.000000,1648357393.810198,0.000000
175.000000,-24290.244197,-44432.786934,13811.277009,-187062.688120,-187050.484067,20469.638165,20609.895362,-8032.456998,-0.042000,0.862000,0.474000,192.000000,0.000000,0.000000,0.000000,0.000000,0.000000,0.000000,0.000000,0.000000,0.000000,1648357393.810214,0.000000
176.000000,-24287.159656,-44425.567320,13812.908687,-187059.961207,-187094.069969,20486.290215,20605.089737,-8028.053704,-0.042000,0.862000,0.474000,192.000000,0.000000,0.000000,0.000000,0.000000,0.000000,0.000000,0.000000,0.000000,0.000000,1648357393.818220,0.000000
177.000000,-24273.860368,-44411.195148,13829.672495,-187084.525774,-187202.475930,20511.368872,20614.723338,-8012.362780,-0.042000,0.862000,0.474000,192.000000,0.000000,0.000000,0.000000,0.000000,0.000000,0.000000,0.000000,0.000000,0.000000,1648357393.818236,0.000000
178.000000,-24263.422103,-44396.286535,13839.909594,-187065.459736,-187361.307426,20523.304704,20634.214060,-8008.384169,-0.042000,0.862000,0.474000,192.000000,0.000000,0.000000,0.000000,0.000000,0.000000,0.000000,0.000000,0.000000,0.000000,1648357393.826116,0.000000
179.000000,-24262.192757,-44401.449788,13844.201129,-187058.977730,-187500.022352,20525.897506,20626.055673,-8001.633942,-0.048000,0.864000,0.476000,192.000000,254.000000,128.000000,27.000000,0.000000,14.000000,224.000000,0.000000,0.000000,0.000000,1648357393.826132,0.000000
180.000000,-24273.860368,-44408.602346,13833.695809,-187035.687212,-187482.073901,20508.463145,20609.269513,-8016.944887,-0.048000,0.864000,0.476000,192.000000,0.000000,0.000000,0.000000,0.000000,0.000000,0.000000,0.000000,0.000000,0.000000,1648357393.832534,0.000000
181.000000,-24274.150941,-44400.198090,13829.493681,-187038.056497,-187424.316993,20480.367003,20610.945894,-8026.399675,-0.048000,0.864000,0.476000,192.000000,0.000000,0.000000,0.000000,0.000000,0.000000,0.000000,0.000000,0.000000,0.000000,1648357393.832549,0.000000
182.000000,-24276.475522,-44407.887090,13840.557795,-187083.855222,-187299.437797,20506.809116,20606.140269,-8023.873928,-0.048000,0.864000,0.476000,192.000000,0.000000,0.000000,0.000000,0.000000,0.000000,0.000000,0.000000,0.000000,0.000000,1648357393.840829,0.000000
183.000000,-24331.796090,-44464.437004,13800.816393,-187083.832870,-187101.356638,20522.835317,20545.656448,-8080.043862,-0.048000,0.864000,0.476000,192.000000,0.000000,0.000000,0.000000,0.000000,0.000000,0.000000,0.000000,0.000000,0.000000,1648357393.840846,0.000000
184.000000,-24319.390871,-44455.585713,13796.346044,-187041.565721,-187107.101036,20499.857724,20558.173425,-8069.024452,-0.048000,0.864000,0.476000,192.000000,0.000000,0.000000,0.000000,0.000000,0.000000,0.000000,0.000000,0.000000,0.000000,1648357393.847812,0.000000
185.000000,-24267.601880,-44405.786026,13831.795911,-186998.896241,-187376.774833,20455.914194,20615.438594,-8020.498815,-0.048000,0.864000,0.476000,192.000000,0.000000,0.000000,0.000000,0.000000,0.000000,0.000000,0.000000,0.000000,0.000000,1648357393.855837,0.000000
186.000000,-24237.203507,-44378.651008,13870.844408,-187042.929178,-187485.046683,20468.632337,20646.820443,-7974.901256,-0.048000,0.864000,0.476000,192.000000,0.000000,0.000000,0.000000,0.000000,0.000000,0.000000,0.000000,0.000000,0.000000,1648357393.855852,0.000000
187.000000,-24283.605729,-44416.648974,13847.330373,-187040.939872,-187425.792208,20456.964726,20596.327853,-8018.621268,-0.048000,0.864000,0.476000,192.000000,0.000000,0.000000,0.000000,0.000000,0.000000,0.000000,0.000000,0.000000,0.000000,1648357393.862485,0.000000
188.000000,-24324.755290,-44461.374815,13824.978629,-187056.563742,-187332.071344,20457.635278,20592.304539,-8066.185780,-0.048000,0.864000,0.476000,192.000000,0.000000,0.000000,0.000000,0.000000,0.000000,0.000000,0.000000,0.000000,0.000000,1648357393.862501,0.000000
189.000000,-24308.527924,-44449.595445,13834.276954,-187051.400489,-187251.381546,20459.244604,20602.586341,-8037.262623,-0.044000,0.860000,0.478000,192.000000,254.000000,160.000000,26.000000,224.000000,14.000000,240.000000,0.000000,0.000000,0.000000,1648357393.870517,0.000000
190.000000,-24296.614444,-44441.124134,13835.416893,-187026.277128,-187194.161081,20443.151348,20614.365711,-8024.745646,-0.044000,0.860000,0.478000,192.000000,0.000000,0.000000,0.000000,0.000000,0.000000,0.000000,0.000000,0.000000,0.000000,1648357393.870534,0.000000
191.000000,-24309.243179,-44460.614855,13830.074826,-187065.102108,-187060.944684,20450.996810,20600.507629,-8043.968146,-0.044000,0.860000,0.478000,192.000000,0.000000,0.000000,0.000000,0.000000,0.000000,0.000000,0.000000,0.000000,0.000000,1648357393.878517,0.000000
192.000000,-24285.259758,-44430.149428,13850.057286,-187035.016660,-187118.969812,20460.026915,20605.983806,-8030.020658,-0.044000,0.860000,0.478000,192.000000,0.000000,0.000000,0.000000,0.000000,0.000000,0.000000,0.000000,0.000000,0.000000,1648357393.878533,0.000000
193.000000,-24242.679684,-44375.410005,13878.958092,-186990.916668,-187366.314216,20441.631429,20643.445330,-7987.574695,-0.044000,0.860000,0.478000,192.000000,0.000000,0.000000,0.000000,0.000000,0.000000,0.000000,0.000000,0.000000,0.000000,1648357393.885130,0.000000
194.000000,-24219.433870,-44356.165154,13901.287484,-187007.524014,-187500.022352,20443.777197,20669.976851,-7961.356099,-0.044000,0.860000,0.478000,192.000000,0.000000,0.000000,0.000000,0.000000,0.000000,0.000000,0.000000,0.000000,0.000000,1648357393.885146,0.000000
195.000000,-24231.772033,-44377.734587,13898.113537,-187047.578340,-187500.022352,20460.406895,20666.489979,-7966.675814,-0.044000,0.860000,0.478000,192.000000,0.000000,0.000000,0.000000,0.000000,0.000000,0.000000,0.000000,0.000000,0.000000,1648357393.893136,0.000000
196.000000,-24255.017847,-44396.621811,13881.617949,-187049.098259,-187457.017595,20455.735380,20650.620240,-7987.529992,-0.044000,0.860000,0.478000,192.000000,0.000000,0.000000,0.000000,0.000000,0.000000,0.000000,0.000000,0.000000,0.000000,1648357393.893153,0.000000
197.000000,-24265.322002,-44407.194186,13873.191342,-187042.102163,-187397.427845,20438.345723,20637.209193,-8004.427910,-0.044000,0.860000,0.478000,192.000000,0.000000,0.000000,0.000000,0.000000,0.000000,0.000000,0.000000,0.000000,0.000000,1648357393.901126,0.000000
198.000000,-24263.802083,-44402.142692,13879.271016,-187069.036015,-187323.577681,20440.536194,20650.955516,-8012.966277,-0.044000,0.860000,0.478000,192.000000,0.000000,0.000000,0.000000,0.000000,0.000000,0.000000,0.000000,0.000000,0.000000,1648357393.901142,0.000000
199.000000,-24271.893414,-44405.227233,13872.587844,-187062.241085,-187244.296043,20452.717895,20630.347208,-8006.998361,-0.038000,0.858000,0.476000,192.000000,254.000000,208.000000,26.000000,208.000000,14.000000,224.000000,0.000000,0.000000,0.000000,1648357393.908267,0.000000
200.000000,-24255.330772,-44390.944468,13875.717089,-187017.939927,-187203.727627,20434.791796,20632.962362,-7999.197602,-0.038000,0.858000,0.476000,192.000000,0.000000,0.000000,0.000000,0.000000,0.000000,0.000000,0.000000,0.000000,0.000000,1648357393.914801,0.000000
201.000000,-24282.488141,-44417.632451,13872.140810,-187076.523850,-187035.016660,20480.523465,20618.657245,-8015.156748,-0.038000,0.858000,0.476000,192.000000,0.000000,0.000000,0.000000,0.000000,0.000000,0.000000,0.000000,0.000000,0.000000,1648357393.914817,0.000000
202.000000,-24293.418144,-44415.643146,13875.918254,-187086.068044,-186972.610590,20554.105407,20606.766117,-8031.942908,-0.038000,0.858000,0.476000,192.000000,0.000000,0.000000,0.000000,0.000000,0.000000,0.000000,0.000000,0.000000,0.000000,1648357393.922800,0.000000
203.000000,-24306.002177,-44424.762657,13854.862911,-187068.633684,-187094.137024,20548.316306,20590.829324,-8037.888472,-0.038000,0.858000,0.476000,192.000000,0.000000,0.000000,0.000000,0.000000,0.000000,0.000000,0.000000,0.000000,0.000000,1648357393.922816,0.000000
204.000000,-24314.719357,-44442.554646,13839.999001,-187067.225524,-187263.004454,20530.546669,20604.419184,-8050.114876,-0.038000,0.858000,0.476000,192.000000,0.000000,0.000000,0.000000,0.000000,0.000000,0.000000,0.000000,0.000000,0.000000,1648357393.930791,0.000000
205.000000,-24316.775717,-44447.762602,13835.886280,-187051.109916,-187466.114755,20516.018035,20598.831248,-8049.265510,-0.038000,0.858000,0.476000,192.000000,0.000000,0.000000,0.000000,0.000000,0.000000,0.000000,0.000000,0.000000,0.000000,1648357393.930808,0.000000
206.000000,-24303.476429,-44426.707259,13848.537367,-187054.172105,-187471.099194,20500.193000,20600.664091,-8036.659126,-0.038000,0.858000,0.476000,192.000000,0.000000,0.000000,0.000000,0.000000,0.000000,0.000000,0.000000,0.000000,0.000000,1648357393.937899,0.000000
207.000000,-24268.272432,-44386.921154,13867.312833,-187024.824265,-187429.010860,20458.372886,20620.892420,-8008.898259,-0.038000,0.858000,0.476000,192.000000,0.000000,0.000000,0.000000,0.000000,0.000000,0.000000,0.000000,0.000000,0.000000,1648357393.937915,0.000000
208.000000,-24249.854594,-44375.678226,13883.339034,-187022.499683,-187400.400627,20437.451653,20641.679542,-7978.231666,-0.038000,0.858000,0.476000,192.000000,0.000000,0.000000,0.000000,0.000000,0.000000,0.000000,0.000000,0.000000,0.000000,1648357393.945411,0.000000
209.000000,-24309.176124,-44436.273806,13862.507208,-187065.392681,-187168.411871,20519.214334,20602.943969,-8020.990553,-0.038000,0.860000,0.472000,192.000000,254.000000,208.000000,26.000000,224.000000,14.000000,192.000000,0.000000,0.000000,0.000000,1648357393.945427,0.000000
210.000000,-24326.789299,-44452.747041,13839.775484,-187061.391719,-187062.174030,20538.772111,20573.640832,-8060.128458,-0.038000,0.860000,0.472000,192.000000,0.000000,0.000000,0.000000,0.000000,0.000000,0.000000,0.000000,0.000000,0.000000,1648357393.953447,0.000000
211.000000,-24324.911752,-44452.568227,13825.179794,-187040.604596,-187237.255244,20484.300910,20555.424160,-8063.548274,-0.038000,0.860000,0.472000,192.000000,0.000000,0.000000,0.000000,0.000000,0.000000,0.000000,0.000000,0.000000,0.000000,1648357393.953463,0.000000
212.000000,-24302.917636,-44435.424439,13841.250699,-187039.531712,-187456.324691,20462.575014,20591.902207,-8042.247062,-0.038000,0.860000,0.472000,192.000000,0.000000,0.000000,0.000000,0.000000,0.000000,0.000000,0.000000,0.000000,0.000000,1648357393.961429,0.000000
213.000000,-24299.542522,-44436.452620,13851.510149,-187076.322684,-187500.022352,20470.107552,20604.687405,-8031.227652,-0.038000,0.860000,0.472000,192.000000,0.000000,0.000000,0.000000,0.000000,0.000000,0.000000,0.000000,0.000000,0.000000,1648357393.961445,0.000000
214.000000,-24291.026508,-44422.818055,13853.722972,-187042.325681,-187444.724136,20451.175624,20600.082946,-8026.332620,-0.038000,0.860000,0.472000,192.000000,0.000000,0.000000,0.000000,0.000000,0.000000,0.000000,0.000000,0.000000,0.000000,1648357393.967678,0.000000
215.000000,-24267.020734,-44391.637372,13871.112629,-187020.264509,-187404.043961,20437.742226,20620.579495,-8000.717521,-0.038000,0.860000,0.472000,192.000000,0.000000,0.000000,0.000000,0.000000,0.000000,0.000000,0.000000,0.000000,0.000000,1648357393.975027,0.000000
216.000000,-24278.330717,-44419.353535,13864.250644,-187036.313061,-187344.588321,20433.495394,20616.310312,-8017.548384,-0.038000,0.860000,0.472000,192.000000,0.000000,0.000000,0.000000,0.000000,0.000000,0.000000,0.000000,0.000000,0.000000,1648357393.975039,0.000000
217.000000,-24292.680537,-44371.029064,13851.398391,-187038.212960,-187283.322189,20419.056167,20610.230638,-8042.448228,-0.038000,0.860000,0.472000,192.000000,0.000000,0.000000,0.000000,0.000000,0.000000,0.000000,0.000000,0.000000,0.000000,1648357393.983115,0.000000
218.000000,-24271.714601,-44335.959177,13868.519827,-187057.256646,-187191.300057,20426.432243,20637.946801,-8016.877832,-0.038000,0.860000,0.472000,192.000000,0.000000,0.000000,0.000000,0.000000,0.000000,0.000000,0.000000,0.000000,0.000000,1648357393.983130,0.000000
219.000000,-24257.923574,-44415.821959,13885.060118,-187059.335358,-187069.997140,20457.858796,20651.626069,-7985.786556,-0.034000,0.868000,0.472000,192.000000,254.000000,240.000000,27.000000,32.000000,14.000000,192.000000,0.000000,0.000000,0.000000,1648357393.991098,0.000000
220.000000,-24274.396810,-44429.367117,13871.023222,-187065.616198,-187160.745223,20474.667308,20622.345283,-8002.729178,-0.034000,0.868000,0.472000,192.000000,0.000000,0.000000,0.000000,0.000000,0.000000,0.000000,0.000000,0.000000,0.000000,1648357393.991115,0.000000
221.000000,-24264.584394,-44412.692715,13873.727783,-187051.154620,-187383.569763,20459.021087,20635.443406,-8001.656294,-0.034000,0.868000,0.472000,192.000000,0.000000,0.000000,0.000000,0.000000,0.000000,0.000000,0.000000,0.000000,0.000000,1648357393.997678,0.000000
222.000000,-24257.633002,-44403.103817,13888.099955,-187072.612294,-187489.852308,20453.388447,20647.088664,-7996.537745,-0.034000,0.868000,0.472000,192.000000,0.000000,0.000000,0.000000,0.000000,0.000000,0.000000,0.000000,0.000000,0.000000,1648357393.997694,0.000000
223.000000,-24261.455150,-44399.080503,13888.032900,-187061.503477,-187388.464795,20467.470046,20624.759272,-8006.774844,-0.034000,0.868000,0.472000,192.000000,0.000000,0.000000,0.000000,0.000000,0.000000,0.000000,0.000000,0.000000,0.000000,1648357394.005398,0.000000
224.000000,-24281.616423,-44418.995907,13870.710298,-187059.178896,-187324.941137,20450.348610,20613.941027,-8026.422027,-0.034000,0.868000,0.472000,192.000000,0.000000,0.000000,0.000000,0.000000,0.000000,0.000000,0.000000,0.000000,0.000000,1648357394.005407,0.000000
225.000000,-24285.438572,-44425.455561,13868.542179,-187091.745388,-187200.911307,20465.391334,20622.859373,-8032.322887,-0.034000,0.868000,0.472000,192.000000,0.000000,0.000000,0.000000,0.000000,0.000000,0.000000,0.000000,0.000000,0.000000,1648357394.013508,0.000000
226.000000,-24272.340449,-44415.531387,13876.924083,-187080.055425,-187052.987463,20488.659500,20627.530888,-8016.587259,-0.034000,0.868000,0.472000,192.000000,0.000000,0.000000,0.000000,0.000000,0.000000,0.000000,0.000000,0.000000,0.000000,1648357394.013524,0.000000
227.000000,-24288.657223,-44436.720841,13854.818208,-187045.298463,-187140.941577,20485.351442,20599.166524,-8023.292783,-0.034000,0.868000,0.472000,192.000000,0.000000,0.000000,0.000000,0.000000,0.000000,0.000000,0.000000,0.000000,0.000000,1648357394.020820,0.000000
228.000000,-24304.549313,-44448.388451,13843.530577,-187059.290655,-187274.113271,20492.615758,20598.786545,-8034.692172,-0.034000,0.868000,0.472000,192.000000,0.000000,0.000000,0.000000,0.000000,0.000000,0.000000,0.000000,0.000000,0.000000,1648357394.020832,0.000000
229.000000,-24292.300557,-44426.304928,13841.295402,-187022.678497,-187500.022352,20454.371924,20596.327853,-8034.491007,-0.030000,0.864000,0.472000,192.000000,255.000000,16.000000,27.000000,0.000000,14.000000,192.000000,0.000000,0.000000,0.000000,1648357394.027378,0.000000
230.000000,-24298.134362,-44427.154294,13850.683135,-187083.966980,-187498.256564,20474.197921,20596.171391,-8046.940928,-0.030000,0.864000,0.472000,192.000000,0.000000,0.000000,0.000000,0.000000,0.000000,0.000000,0.000000,0.000000,0.000000,1648357394.027394,0.000000
231.000000,-24303.319967,-44438.665442,13857.031030,-187109.358562,-187353.976053,20498.673081,20596.305501,-8035.988574,-0.030000,0.864000,0.472000,192.000000,0.000000,0.000000,0.000000,0.000000,0.000000,0.000000,0.000000,0.000000,0.000000,1648357394.035366,0.000000
232.000000,-24289.573644,-44427.087239,13855.913443,-187052.562779,-187293.000495,20455.891842,20600.306463,-8027.338448,-0.030000,0.864000,0.472000,192.000000,0.000000,0.000000,0.000000,0.000000,0.000000,0.000000,0.000000,0.000000,0.000000,1648357394.043406,0.000000
233.000000,-24279.381249,-44417.990079,13849.967879,-187005.914689,-187298.879003,20391.384708,20617.092623,-8022.733989,-0.030000,0.864000,0.472000,192.000000,0.000000,0.000000,0.000000,0.000000,0.000000,0.000000,0.000000,0.000000,0.000000,1648357394.043423,0.000000
234.000000,-24287.137304,-44428.763620,13850.213748,-187044.516151,-187219.954994,20401.912379,20609.403623,-8030.445341,-0.030000,0.864000,0.472000,192.000000,0.000000,0.000000,0.000000,0.000000,0.000000,0.000000,0.000000,0.000000,0.000000,1648357394.050039,0.000000
235.000000,-24285.080944,-44422.438076,13847.039801,-187038.659994,-187091.521870,20405.376900,20590.851675,-8047.678536,-0.030000,0.864000,0.472000,192.000000,0.000000,0.000000,0.000000,0.000000,0.000000,0.000000,0.000000,0.000000,0.000000,1648357394.050073,0.000000
236.000000,-24253.296763,-44388.977514,13872.006699,-187043.845599,-187136.270062,20418.273856,20623.082891,-8006.193698,-0.030000,0.864000,0.472000,192.000000,0.000000,0.000000,0.000000,0.000000,0.000000,0.000000,0.000000,0.000000,0.000000,1648357394.057925,0.000000
237.000000,-24226.407615,-44368.123337,13906.495441,-187061.995216,-187262.110384,20456.070656,20668.188711,-7961.512561,-0.030000,0.864000,0.472000,192.000000,0.000000,0.000000,0.000000,0.000000,0.000000,0.000000,0.000000,0.000000,0.000000,1648357394.057941,0.000000
238.000000,-24295.161580,-44436.296157,13854.795856,-187083.587001,-187421.523025,20475.851950,20599.233580,-8022.421065,-0.030000,0.864000,0.472000,192.000000,0.000000,0.000000,0.000000,0.000000,0.000000,0.000000,0.000000,0.000000,0.000000,1648357394.065736,0.000000
239.000000,-24312.528886,-44448.030823,13823.682228,-187021.672669,-187500.022352,20430.164984,20583.497951,-8059.793181,-0.030000,0.864000,0.472000,192.000000,0.000000,0.000000,0.000000,0.000000,0.000000,0.000000,0.000000,0.000000,0.000000,1648357394.065747,0.000000
240.000000,-24286.243234,-44430.417649,13843.508225,-187044.113820,-187496.893108,20414.854040,20618.992522,-8028.768960,-0.024000,0.862000,0.472000,192.000000,255.000000,64.000000,26.000000,240.000000,14.000000,192.000000,0.000000,0.000000,0.000000,1648357394.072816,0.000000
241.000000,-24299.564874,-44441.012375,13846.592766,-187093.555879,-187348.499876,20457.903499,20610.610617,-8033.842806,-0.024000,0.862000,0.472000,192.000000,0.000000,0.000000,0.000000,0.000000,0.000000,0.000000,0.000000,0.000000,0.000000,1648357394.072827,0.000000
242.000000,-24292.769944,-44435.558550,13842.055362,-187060.452945,-187260.858686,20437.071674,20599.457097,-8035.809760,-0.024000,0.862000,0.472000,192.000000,0.000000,0.000000,0.000000,0.000000,0.000000,0.000000,0.000000,0.000000,0.000000,1648357394.080353,0.000000
243.000000,-24263.891490,-44409.161140,13859.512074,-187009.803892,-187217.406895,20413.535287,20623.664036,-8004.405559,-0.024000,0.862000,0.472000,192.000000,0.000000,0.000000,0.000000,0.000000,0.000000,0.000000,0.000000,0.000000,0.000000,1648357394.080370,0.000000
244.000000,-24264.629098,-44411.776294,13853.924138,-187001.757264,-187186.025046,20383.025155,20622.613504,-8018.464806,-0.024000,0.862000,0.472000,192.000000,0.000000,0.000000,0.000000,0.000000,0.000000,0.000000,0.000000,0.000000,0.000000,1648357394.088310,0.000000
245.000000,-24273.256871,-44425.343803,13850.169045,-187068.656036,-187062.509306,20392.189371,20611.929370,-8025.013867,-0.024000,0.862000,0.472000,192.000000,0.000000,0.000000,0.000000,0.000000,0.000000,0.000000,0.000000,0.000000,0.000000,1648357394.088320,0.000000
246.000000,-24254.727275,-44406.233061,13861.456676,-187033.362631,-187113.560690,20406.025100,20626.279190,-8007.534803,-0.024000,0.862000,0.472000,192.000000,0.000000,0.000000,0.000000,0.000000,0.000000,0.000000,0.000000,0.000000,0.000000,1648357394.095582,0.000000
247.000000,-24251.128644,-44395.012485,13871.112629,-187044.471448,-187269.642922,20415.077557,20637.924449,-7994.682550,-0.024000,0.862000,0.472000,192.000000,0.000000,0.000000,0.000000,0.000000,0.000000,0.000000,0.000000,0.000000,0.000000,1648357394.102899,0.000000
248.000000,-24254.660220,-44393.559622,13872.118458,-187067.829021,-187458.850438,20433.026008,20634.102301,-8001.835108,-0.024000,0.862000,0.472000,192.000000,0.000000,0.000000,0.000000,0.000000,0.000000,0.000000,0.000000,0.000000,0.000000,1648357394.102915,0.000000
249.000000,-24228.083995,-44365.508183,13890.335130,-187047.623044,-187500.022352,20421.067824,20659.158606,-7977.270541,-0.024000,0.862000,0.472000,192.000000,0.000000,0.000000,0.000000,0.000000,0.000000,0.000000,0.000000,0.000000,0.000000,1648357394.110272,0.000000
250.000000,-24240.511565,-44377.131090,13884.881304,-187037.028317,-187500.022352,20411.367167,20658.175130,-7990.279256,-0.032000,0.868000,0.466000,192.000000,255.000000,0.000000,27.000000,32.000000,14.000000,144.000000,0.000000,0.000000,0.000000,1648357394.110288,0.000000
251.000000,-24266.596051,-44398.968744,13870.196208,-187078.669617,-187433.660022,20419.123223,20634.526984,-8006.819547,-0.032000,0.868000,0.466000,192.000000,0.000000,0.000000,0.000000,0.000000,0.000000,0.000000,0.000000,0.000000,0.000000,1648357394.118177,0.000000
252.000000,-24261.164577,-44391.033875,13867.245778,-187046.930140,-187377.177164,20401.733566,20636.315124,-7995.487213,-0.032000,0.868000,0.466000,192.000000,0.000000,0.000000,0.000000,0.000000,0.000000,0.000000,0.000000,0.000000,0.000000,1648357394.118193,0.000000
253.000000,-24277.637813,-44410.658707,13867.402240,-187080.614219,-187261.976273,20427.326313,20628.760234,-8014.553251,-0.032000,0.868000,0.466000,192.000000,0.000000,0.000000,0.000000,0.000000,0.000000,0.000000,0.000000,0.000000,0.000000,1648357394.126228,0.000000
254.000000,-24295.988595,-44426.215521,13864.876493,-187089.934896,-187058.150716,20482.959805,20619.283094,-8024.656239,-0.032000,0.868000,0.466000,192.000000,0.000000,0.000000,0.000000,0.000000,0.000000,0.000000,0.000000,0.000000,0.000000,1648357394.126244,0.000000
255.000000,-24291.071211,-44419.979384,13850.101990,-187030.009869,-187157.615978,20453.947241,20606.050862,-8021.415236,-0.032000,0.868000,0.466000,192.000000,0.000000,0.000000,0.000000,0.000000,0.000000,0.000000,0.000000,0.000000,0.000000,1648357394.132860,0.000000
0.000000,-24284.946833,-44413.832654,13860.003812,-187002.494872,-187374.360844,20444.760674,20624.803975,-8009.814681,-0.032000,0.868000,0.466000,192.000000,0.000000,0.000000,0.000000,0.000000,0.000000,0.000000,0.000000,0.000000,0.000000,1648357394.132875,0.000000
1.000000,-24330.030302,-44455.205733,13845.363420,-187038.928215,-187332.741896,20501.399994,20584.928463,-8035.854463,-0.032000,0.868000,0.466000,192.000000,0.000000,0.000000,0.000000,0.000000,0.000000,0.000000,0.000000,0.000000,0.000000,1648357394.140701,0.000000
2.000000,-24341.764968,-44461.173649,13820.396521,-187029.316965,-187246.866494,20462.664421,20554.530091,-8063.302405,-0.032000,0.868000,0.466000,192.000000,0.000000,0.000000,0.000000,0.000000,0.000000,0.000000,0.000000,0.000000,0.000000,1648357394.140717,0.000000
3.000000,-24328.510383,-44448.679024,13829.627792,-187040.425782,-187182.672284,20423.817089,20584.593187,-8055.725164,-0.032000,0.868000,0.466000,192.000000,0.000000,0.000000,0.000000,0.000000,0.000000,0.000000,0.000000,0.000000,0.000000,1648357394.148872,0.000000
4.000000,-24329.180936,-44452.545876,13834.187547,-187073.595771,-187056.653149,20445.028895,20580.972204,-8055.546350,-0.046000,0.876000,0.460000,192.000000,254.000000,144.000000,27.000000,96.000000,14.000000,96.000000,0.000000,0.000000,0.000000,1648357394.148887,0.000000
5.000000,-24309.801973,-44431.490532,13841.407161,-187051.020509,-187173.932752,20438.636296,20589.331757,-8044.079905,-0.046000,0.876000,0.460000,192.000000,0.000000,0.000000,0.000000,0.000000,0.000000,0.000000,0.000000,0.000000,0.000000,1648357394.154984,0.000000
6.000000,-24255.554289,-44378.136918,13887.876438,-187051.445192,-187322.527149,20462.239738,20639.846699,-7995.308399,-0.046000,0.876000,0.460000,192.000000,0.000000,0.000000,0.000000,0.000000,0.000000,0.000000,0.000000,0.000000,0.000000,1648357394.162570,0.000000
7.000000,-24267.646583,-44396.733570,13880.723879,-187048.383003,-187500.022352,20458.194072,20627.843812,-8003.176213,-0.046000,0.876000,0.460000,192.000000,0.000000,0.000000,0.000000,0.000000,0.000000,0.000000,0.000000,0.000000,0.000000,1648357394.162586,0.000000
8.000000,-24318.608560,-44451.830620,13833.137015,-187019.906881,-187500.022352,20417.558601,20573.126742,-8059.122629,-0.046000,0.876000,0.460000,192.000000,0.000000,0.000000,0.000000,0.000000,0.000000,0.000000,0.000000,0.000000,0.000000,1648357394.170329,0.000000
9.000000,-24300.660110,-44442.554646,13837.272088,-186996.214032,-187500.022352,20379.605339,20585.822533,-8056.999213,-0.046000,0.876000,0.460000,192.000000,0.000000,0.000000,0.000000,0.000000,0.000000,0.000000,0.000000,0.000000,0.000000,1648357394.170340,0.000000
10.000000,-24255.174310,-44404.266108,13883.853124,-187069.170126,-187463.253732,20405.153382,20644.048827,-8001.209259,-0.046000,0.876000,0.460000,192.000000,0.000000,0.000000,0.000000,0.000000,0.000000,0.000000,0.000000,0.000000,0.000000,1648357394.178517,0.000000
11.000000,-24285.527979,-44437.681966,13875.694737,-187104.351771,-187319.666126,20459.266956,20621.384158,-8011.044027,-0.046000,0.876000,0.460000,192.000000,0.000000,0.000000,0.000000,0.000000,0.000000,0.000000,0.000000,0.000000,0.000000,1648357394.178533,0.000000
12.000000,-24329.158584,-44472.640094,13838.032048,-187072.008797,-187213.428284,20448.068732,20574.132571,-8059.077926,-0.046000,0.876000,0.460000,192.000000,0.000000,0.000000,0.000000,0.000000,0.000000,0.000000,0.000000,0.000000,0.000000,1648357394.185143,0.000000
13.000000,-24332.645456,-44475.255248,13830.857138,-187063.023396,-187065.906771,20452.494377,20578.491161,-8060.463734,-0.046000,0.876000,0.460000,192.000000,0.000000,0.000000,0.000000,0.000000,0.000000,0.000000,0.000000,0.000000,0.000000,1648357394.185159,0.000000
14.000000,-24309.913732,-44455.138678,13845.586937,-187083.184669,-187060.832925,20480.367003,20596.372556,-8042.291765,-0.040000,0.874000,0.460000,192.000000,254.000000,192.000000,27.000000,80.000000,14.000000,96.000000,0.000000,0.000000,0.000000,1648357394.193077,0.000000
15.000000,-24259.398789,-44405.942488,13874.018356,-187023.349049,-187250.018090,20461.077447,20632.157699,-7988.982855,-0.040000,0.874000,0.460000,192.000000,0.000000,0.000000,0.000000,0.000000,0.000000,0.000000,0.000000,0.000000,0.000000,1648357394.193093,0.000000
16.000000,-24294.602787,-44448.343748,13855.332298,-187033.273224,-187435.448162,20453.857834,20609.671844,-8013.078035,-0.040000,0.874000,0.460000,192.000000,0.000000,0.000000,0.000000,0.000000,0.000000,0.000000,0.000000,0.000000,0.000000,1648357394.201163,0.000000
17.000000,-24321.357825,-44478.786824,13839.619021,-187058.038957,-187341.190856,20479.227064,20579.966376,-8051.344222,-0.040000,0.874000,0.460000,192.000000,0.000000,0.000000,0.000000,0.000000,0.000000,0.000000,0.000000,0.000000,0.000000,1648357394.201179,0.000000
18.000000,-24324.934104,-44482.296047,13828.443149,-187072.724053,-187242.172628,20463.938470,20562.152035,-8048.460847,-0.040000,0.874000,0.460000,192.000000,0.000000,0.000000,0.000000,0.000000,0.000000,0.000000,0.000000,0.000000,0.000000,1648357394.208259,0.000000
19.000000,-24309.444345,-44462.894733,13838.233213,-187061.503477,-187101.401341,20453.142578,20587.163638,-8036.301498,-0.040000,0.874000,0.460000,192.000000,0.000000,0.000000,0.000000,0.000000,0.000000,0.000000,0.000000,0.000000,0.000000,1648357394.208275,0.000000
20.000000,-24314.093508,-44466.761585,13835.081617,-187016.420009,-187098.048579,20437.764578,20586.515437,-8060.866065,-0.040000,0.874000,0.460000,192.000000,0.000000,0.000000,0.000000,0.000000,0.000000,0.000000,0.000000,0.000000,0.000000,1648357394.214781,0.000000
21.000000,-24306.404508,-44463.095899,13836.310963,-187011.256756,-187272.034558,20415.971627,20591.231655,-8050.897187,-0.040000,0.874000,0.460000,192.000000,0.000000,0.000000,0.000000,0.000000,0.000000,0.000000,0.000000,0.000000,0.000000,1648357394.222834,0.000000
22.000000,-24300.525999,-44457.507963,13848.358553,-187052.205152,-187446.780496,20444.805377,20599.345338,-8028.679553,-0.040000,0.874000,0.460000,192.000000,0.000000,0.000000,0.000000,0.000000,0.000000,0.000000,0.000000,0.000000,0.000000,1648357394.222868,0.000000
23.000000,-24301.777697,-44452.344710,13844.290536,-187038.168256,-187485.001979,20437.876336,20596.596074,-8024.857405,-0.040000,0.874000,0.460000,192.000000,0.000000,0.000000,0.000000,0.000000,0.000000,0.000000,0.000000,0.000000,0.000000,1648357394.230805,0.000000
24.000000,-24340.736787,-44486.475824,13815.233268,-187056.027300,-187392.152833,20430.656723,20561.459131,-8074.143001,-0.036000,0.876000,0.456000,192.000000,254.000000,224.000000,27.000000,96.000000,14.000000,64.000000,0.000000,0.000000,0.000000,1648357394.230821,0.000000
25.000000,-24294.468676,-44436.765544,13835.886280,-186992.548346,-187370.896324,20379.337118,20605.536771,-8047.432667,-0.036000,0.876000,0.456000,192.000000,0.000000,0.000000,0.000000,0.000000,0.000000,0.000000,0.000000,0.000000,0.000000,1648357394.237973,0.000000
26.000000,-24252.290935,-44394.788968,13874.577150,-186999.477386,-187340.363841,20372.363373,20648.161548,-7997.454166,-0.036000,0.876000,0.456000,192.000000,0.000000,0.000000,0.000000,0.000000,0.000000,0.000000,0.000000,0.000000,0.000000,1648357394.237988,0.000000
27.000000,-24242.232650,-44382.115529,13886.267112,-187003.165424,-187294.743931,20379.337118,20652.140159,-7984.288989,-0.036000,0.876000,0.456000,192.000000,0.000000,0.000000,0.000000,0.000000,0.000000,0.000000,0.000000,0.000000,0.000000,1648357394.245410,0.000000
28.000000,-24209.889675,-44346.665662,13905.780185,-186978.265581,-187300.085998,20359.444065,20678.716383,-7948.861474,-0.036000,0.876000,0.456000,192.000000,0.000000,0.000000,0.000000,0.000000,0.000000,0.000000,0.000000,0.000000,0.000000,1648357394.245426,0.000000
29.000000,-24256.649525,-44402.343858,13872.453734,-187025.919500,-187257.081241,20356.292469,20646.820443,-7993.006169,-0.036000,0.876000,0.456000,192.000000,0.000000,0.000000,0.000000,0.000000,0.000000,0.000000,0.000000,0.000000,0.000000,1648357394.253464,0.000000
30.000000,-24280.342374,-44426.439038,13867.223426,-187096.215736,-187087.319742,20393.418717,20632.403568,-7994.749605,-0.036000,0.876000,0.456000,192.000000,0.000000,0.000000,0.000000,0.000000,0.000000,0.000000,0.000000,0.000000,0.000000,1648357394.253480,0.000000
31.000000,-24265.970202,-44406.635393,13878.958092,-187044.158524,-187082.581172,20419.011464,20648.295659,-7977.158782,-0.036000,0.876000,0.456000,192.000000,0.000000,0.000000,0.000000,0.000000,0.000000,0.000000,0.000000,0.000000,0.000000,1648357394.261463,0.000000
32.000000,-24269.099446,-44410.815169,13878.712222,-187068.477222,-187204.934621,20445.788854,20640.226679,-7993.788480,-0.036000,0.876000,0.456000,192.000000,0.000000,0.000000,0.000000,0.000000,0.000000,0.000000,0.000000,0.000000,0.000000,1648357394.261479,0.000000
33.000000,-24276.296708,-44416.336050,13869.995042,-187038.101201,-187405.407417,20444.157177,20622.814670,-7995.196640,-0.036000,0.876000,0.456000,192.000000,0.000000,0.000000,0.000000,0.000000,0.000000,0.000000,0.000000,0.000000,0.000000,1648357394.267888,0.000000
34.000000,-24270.060571,-44410.055209,13866.552873,-187024.645451,-187500.022352,20393.597531,20620.803013,-8007.043064,-0.046000,0.874000,0.456000,192.000000,254.000000,144.000000,27.000000,80.000000,14.000000,64.000000,0.000000,0.000000,0.000000,1648357394.267904,0.000000
35.000000,-24267.423066,-44416.067829,13872.967824,-187050.372309,-187500.022352,20391.429411,20632.537679,-8008.272410,-0.046000,0.874000,0.456000,192.000000,0.000000,0.000000,0.000000,0.000000,0.000000,0.000000,0.000000,0.000000,0.000000,1648357394.275094,0.000000
36.000000,-24249.608725,-44389.826881,13895.274865,-187078.624914,-187392.868089,20415.904572,20647.379237,-7987.060605,-0.046000,0.874000,0.456000,192.000000,0.000000,0.000000,0.000000,0.000000,0.000000,0.000000,0.000000,0.000000,0.000000,1648357394.275110,0.000000
37.000000,-24239.215164,-44368.033930,13902.472127,-187027.640584,-187342.844885,20403.074670,20655.269403,-7965.669985,-0.046000,0.874000,0.456000,192.000000,0.000000,0.000000,0.000000,0.000000,0.000000,0.000000,0.000000,0.000000,0.000000,1648357394.283124,0.000000
38.000000,-24257.968278,-44384.797738,13877.259359,-186996.817529,-187346.912902,20361.634536,20640.249031,-7991.508602,-0.046000,0.874000,0.456000,192.000000,0.000000,0.000000,0.000000,0.000000,0.000000,0.000000,0.000000,0.000000,0.000000,1648357394.291140,0.000000
39.000000,-24267.087789,-44394.073712,13877.035842,-187049.210018,-187278.382454,20378.286586,20651.022571,-7989.586352,-0.046000,0.874000,0.456000,192.000000,0.000000,0.000000,0.000000,0.000000,0.000000,0.000000,0.000000,0.000000,0.000000,1648357394.291156,0.000000
40.000000,-24278.151903,-44406.121302,13874.487743,-187086.984466,-187120.020344,20401.755917,20632.425920,-7997.275352,-0.046000,0.874000,0.456000,192.000000,0.000000,0.000000,0.000000,0.000000,0.000000,0.000000,0.000000,0.000000,0.000000,1648357394.297735,0.000000
41.000000,-24274.083885,-44404.713142,13880.321548,-187071.450004,-187089.510213,20428.332141,20641.031342,-7999.085843,-0.046000,0.874000,0.456000,192.000000,0.000000,0.000000,0.000000,0.000000,0.000000,0.000000,0.000000,0.000000,0.000000,1648357394.297751,0.000000
42.000000,-24281.057630,-44411.105741,13869.615062,-187039.710526,-187238.886921,20430.522612,20628.804937,-8015.492024,-0.046000,0.874000,0.456000,192.000000,0.000000,0.000000,0.000000,0.000000,0.000000,0.000000,0.000000,0.000000,0.000000,1648357394.305547,0.000000
43.000000,-24260.359914,-44395.861852,13878.600464,-187028.154675,-187465.064223,20424.487641,20648.742694,-7994.704902,-0.046000,0.874000,0.456000,192.000000,0.000000,0.000000,0.000000,0.000000,0.000000,0.000000,0.000000,0.000000,0.000000,1648357394.305578,0.000000
44.000000,-24239.282219,-44385.557697,13894.537257,-187037.117724,-187500.022352,20409.109641,20667.406400,-7974.342462,-0.046000,0.870000,0.464000,192.000000,254.000000,144.000000,27.000000,48.000000,14.000000,128.000000,0.000000,0.000000,0.000000,1648357394.313540,0.000000
45.000000,-24249.944001,-44384.440110,13892.749118,-187039.822285,-187471.143898,20411.233057,20653.436560,-7987.552343,-0.046000,0.870000,0.464000,192.000000,0.000000,0.000000,0.000000,0.000000,0.000000,0.000000,0.000000,0.000000,0.000000,1648357394.313556,0.000000
46.000000,-24268.004211,-44387.144671,13878.332243,-187048.874742,-187411.241223,20393.329310,20633.923487,-7997.811794,-0.046000,0.870000,0.464000,192.000000,0.000000,0.000000,0.000000,0.000000,0.000000,0.000000,0.000000,0.000000,0.000000,1648357394.320373,0.000000
47.000000,-24274.083885,-44399.996924,13872.811362,-187051.109916,-187338.732164,20395.542132,20632.135347,-7989.966332,-0.046000,0.870000,0.464000,192.000000,0.000000,0.000000,0.000000,0.000000,0.000000,0.000000,0.000000,0.000000,0.000000,1648357394.320389,0.000000
48.000000,-24250.815719,-44377.041683,13889.910446,-187020.108047,-187293.849861,20386.422621,20658.599813,-7973.828372,-0.046000,0.870000,0.464000,192.000000,0.000000,0.000000,0.000000,0.000000,0.000000,0.000000,0.000000,0.000000,0.000000,1648357394.328227,0.000000
49.000000,-24236.331789,-44363.608284,13901.399243,-187018.252852,-187256.924779,20376.520798,20672.927281,-7959.500904,-0.046000,0.870000,0.464000,192.000000,0.000000,0.000000,0.000000,0.000000,0.000000,0.000000,0.000000,0.000000,0.000000,1648357394.328243,0.000000
50.000000,-24249.966353,-44374.024197,13894.961941,-187042.102163,-187177.061996,20367.557748,20652.766008,-7982.925532,-0.046000,0.870000,0.464000,192.000000,0.000000,0.000000,0.000000,0.000000,0.000000,0.000000,0.000000,0.000000,0.000000,1648357394.336344,0.000000
51.000000,-24260.114045,-44382.719026,13895.185458,-187069.572457,-187074.109861,20388.255464,20638.483243,-8002.326846,-0.046000,0.870000,0.464000,192.000000,0.000000,0.000000,0.000000,0.000000,0.000000,0.000000,0.000000,0.000000,0.000000,1648357394.336361,0.000000
52.000000,-24260.382266,-44385.602401,13895.923066,-187081.374178,-187180.951200,20413.043548,20638.550298,-7991.910933,-0.046000,0.870000,0.464000,192.000000,0.000000,0.000000,0.000000,0.000000,0.000000,0.000000,0.000000,0.000000,0.000000,1648357394.343512,0.000000
53.000000,-24262.729199,-44390.050398,13890.916275,-187063.001044,-187390.476452,20419.525554,20649.457949,-7996.984779,-0.046000,0.870000,0.464000,192.000000,0.000000,0.000000,0.000000,0.000000,0.000000,0.000000,0.000000,0.000000,0.000000,1648357394.350021,0.000000
54.000000,-24272.206339,-44401.025105,13887.764679,-187075.138041,-187454.044813,20423.548868,20645.725208,-8006.439567,-0.042000,0.868000,0.464000,192.000000,254.000000,176.000000,27.000000,32.000000,14.000000,128.000000,0.000000,0.000000,0.000000,1648357394.350038,0.000000
55.000000,-24270.731124,-44398.700523,13887.250589,-187057.658977,-187382.429824,20411.121298,20648.116845,-7993.699073,-0.042000,0.868000,0.464000,192.000000,0.000000,0.000000,0.000000,0.000000,0.000000,0.000000,0.000000,0.000000,0.000000,1648357394.358039,0.000000
56.000000,-24248.513490,-44378.762767,13912.038673,-187085.643361,-187195.368075,20450.393313,20661.103208,-7962.294872,-0.042000,0.868000,0.464000,192.000000,0.000000,0.000000,0.000000,0.000000,0.000000,0.000000,0.000000,0.000000,0.000000,1648357394.358055,0.000000
57.000000,-24249.809891,-44378.941581,13896.370101,-187029.451076,-187266.223105,20408.282627,20651.044923,-7965.245302,-0.042000,0.868000,0.464000,192.000000,0.000000,0.000000,0.000000,0.000000,0.000000,0.000000,0.000000,0.000000,0.000000,1648357394.365994,0.000000
58.000000,-24283.873950,-44410.055209,13875.046536,-187036.670689,-187485.694884,20409.199048,20630.906001,-7987.373529,-0.042000,0.868000,0.464000,192.000000,0.000000,0.000000,0.000000,0.000000,0.000000,0.000000,0.000000,0.000000,0.000000,1648357394.366010,0.000000
59.000000,-24293.149923,-44417.431285,13862.484856,-187057.457812,-187500.022352,20395.922112,20618.769004,-8016.184928,-0.042000,0.868000,0.464000,192.000000,0.000000,0.000000,0.000000,0.000000,0.000000,0.000000,0.000000,0.000000,0.000000,1648357394.373182,0.000000
60.000000,-24257.722409,-44377.689883,13889.239894,-187056.809611,-187440.432601,20389.574217,20650.240260,-7987.306474,-0.042000,0.868000,0.464000,192.000000,0.000000,0.000000,0.000000,0.000000,0.000000,0.000000,0.000000,0.000000,0.000000,1648357394.373197,0.000000
61.000000,-24282.666955,-44403.684962,13877.639339,-187080.770681,-187345.594149,20395.788002,20628.156737,-8004.182041,-0.042000,0.868000,0.464000,192.000000,0.000000,0.000000,0.000000,0.000000,0.000000,0.000000,0.000000,0.000000,0.000000,1648357394.380443,0.000000
62.000000,-24289.752458,-44410.703410,13875.985310,-187088.526736,-187218.412723,20411.344816,20630.324856,-8009.635867,-0.042000,0.868000,0.464000,192.000000,0.000000,0.000000,0.000000,0.000000,0.000000,0.000000,0.000000,0.000000,0.000000,1648357394.380459,0.000000
63.000000,-24248.759359,-44375.477061,13904.103804,-187056.474335,-187099.210870,20425.113490,20664.031287,-7967.525180,-0.042000,0.868000,0.464000,192.000000,0.000000,0.000000,0.000000,0.000000,0.000000,0.000000,0.000000,0.000000,0.000000,1648357394.388440,0.000000
64.000000,-24273.525092,-44400.555718,13883.026109,-187056.563742,-187196.910345,20425.806394,20631.867126,-7994.079053,-0.040000,0.862000,0.468000,192.000000,254.000000,192.000000,26.000000,240.000000,14.000000,160.000000,0.000000,0.000000,0.000000,1648357394.388457,0.000000
65.000000,-24307.991482,-44433.055154,13850.124341,-187037.542407,-187404.356885,20404.438127,20604.352129,-8040.034239,-0.040000,0.862000,0.468000,192.000000,0.000000,0.000000,0.000000,0.000000,0.000000,0.000000,0.000000,0.000000,0.000000,1648357394.396631,0.000000
66.000000,-24300.905979,-44435.491495,13859.243853,-187081.150661,-187500.022352,20401.331234,20619.461908,-8028.701905,-0.040000,0.862000,0.468000,192.000000,0.000000,0.000000,0.000000,0.000000,0.000000,0.000000,0.000000,0.000000,0.000000,1648357394.396648,0.000000
67.000000,-24307.209171,-44439.827733,13854.728801,-187075.026283,-187422.640612,20404.929865,20608.956588,-8025.706771,-0.040000,0.862000,0.468000,192.000000,0.000000,0.000000,0.000000,0.000000,0.000000,0.000000,0.000000,0.000000,0.000000,1648357394.402809,0.000000
68.000000,-24316.775717,-44448.142582,13846.995097,-187085.241030,-187324.851730,20410.987188,20601.312292,-8038.737838,-0.040000,0.862000,0.468000,192.000000,0.000000,0.000000,0.000000,0.000000,0.000000,0.000000,0.000000,0.000000,0.000000,1648357394.410063,0.000000
69.000000,-24287.405525,-44416.336050,13865.949376,-187057.703681,-187235.601215,20407.299150,20633.185879,-8006.663085,-0.040000,0.862000,0.468000,192.000000,0.000000,0.000000,0.000000,0.000000,0.000000,0.000000,0.000000,0.000000,0.000000,1648357394.410078,0.000000
70.000000,-24254.436702,-44383.344875,13889.239894,-187024.243119,-187126.278833,20395.206856,20667.048772,-7969.492134,-0.040000,0.862000,0.468000,192.000000,0.000000,0.000000,0.000000,0.000000,0.000000,0.000000,0.000000,0.000000,0.000000,1648357394.418359,0.000000
71.000000,-24277.749572,-44415.553739,13871.894940,-187063.895114,-187132.582025,20403.745223,20642.841833,-7988.289951,-0.040000,0.862000,0.468000,192.000000,0.000000,0.000000,0.000000,0.000000,0.000000,0.000000,0.000000,0.000000,0.000000,1648357394.418375,0.000000
72.000000,-24292.300557,-44427.377811,13860.830827,-187078.490803,-187244.497209,20436.065845,20614.812745,-8003.578544,-0.040000,0.862000,0.468000,192.000000,0.000000,0.000000,0.000000,0.000000,0.000000,0.000000,0.000000,0.000000,0.000000,1648357394.426376,0.000000
73.000000,-24285.036240,-44410.815169,13861.076696,-187021.158579,-187478.072939,20413.021196,20617.249086,-8011.379303,-0.040000,0.862000,0.468000,192.000000,0.000000,0.000000,0.000000,0.000000,0.000000,0.000000,0.000000,0.000000,0.000000,1648357394.426391,0.000000
74.000000,-24310.003139,-44433.748059,13848.850292,-187053.792125,-187500.022352,20403.678167,20612.465812,-8037.419085,-0.040000,0.866000,0.472000,192.000000,254.000000,192.000000,27.000000,16.000000,14.000000,192.000000,0.000000,0.000000,0.000000,1648357394.432913,0.000000
75.000000,-24312.864162,-44437.212579,13848.224443,-187097.601545,-187391.147005,20414.362301,20604.508591,-8035.474483,-0.040000,0.866000,0.472000,192.000000,0.000000,0.000000,0.000000,0.000000,0.000000,0.000000,0.000000,0.000000,0.000000,1648357394.432930,0.000000
76.000000,-24312.975921,-44443.269902,13839.239042,-187053.389794,-187306.076265,20393.709289,20594.919693,-8034.133379,-0.040000,0.866000,0.472000,192.000000,0.000000,0.000000,0.000000,0.000000,0.000000,0.000000,0.000000,0.000000,0.000000,1648357394.440860,0.000000
77.000000,-24302.448249,-44430.372945,13836.288611,-187023.438456,-187272.392186,20354.772550,20606.184972,-8030.154768,-0.040000,0.866000,0.472000,192.000000,0.000000,0.000000,0.000000,0.000000,0.000000,0.000000,0.000000,0.000000,0.000000,1648357394.440877,0.000000
78.000000,-24316.954531,-44446.041518,13830.052475,-187066.711434,-187146.887141,20366.350754,20588.437687,-8050.561911,-0.040000,0.866000,0.472000,192.000000,0.000000,0.000000,0.000000,0.000000,0.000000,0.000000,0.000000,0.000000,0.000000,1648357394.448949,0.000000
79.000000,-24301.420069,-44431.356422,13841.541271,-187044.292634,-187077.417919,20377.101943,20599.054766,-8034.938042,-0.040000,0.866000,0.472000,192.000000,0.000000,0.000000,0.000000,0.000000,0.000000,0.000000,0.000000,0.000000,0.000000,1648357394.448965,0.000000
80.000000,-24269.099446,-44398.499358,13861.300213,-187012.821378,-187233.433096,20372.922167,20623.418167,-8016.654315,-0.040000,0.866000,0.472000,192.000000,0.000000,0.000000,0.000000,0.000000,0.000000,0.000000,0.000000,0.000000,0.000000,1648357394.456137,0.000000
81.000000,-24252.648563,-44389.044570,13882.802592,-187055.803782,-187419.019630,20399.677205,20651.201385,-7988.960503,-0.040000,0.866000,0.472000,192.000000,0.000000,0.000000,0.000000,0.000000,0.000000,0.000000,0.000000,0.000000,0.000000,1648357394.456153,0.000000
82.000000,-24273.927423,-44412.111570,13873.034879,-187092.080664,-187420.003107,20408.059109,20634.303467,-7992.715596,-0.040000,0.866000,0.472000,192.000000,0.000000,0.000000,0.000000,0.000000,0.000000,0.000000,0.000000,0.000000,0.000000,1648357394.462551,0.000000
83.000000,-24299.073136,-44430.171779,13846.928042,-187040.939872,-187353.573722,20384.925054,20600.440574,-8022.264602,-0.040000,0.866000,0.472000,192.000000,0.000000,0.000000,0.000000,0.000000,0.000000,0.000000,0.000000,0.000000,0.000000,1648357394.470553,0.000000
84.000000,-24295.541560,-44428.428343,13846.592766,-187033.206169,-187307.037390,20352.537376,20615.080966,-8029.752437,-0.042000,0.866000,0.466000,192.000000,254.000000,176.000000,27.000000,16.000000,14.000000,144.000000,0.000000,0.000000,0.000000,1648357394.470570,0.000000
85.000000,-24298.603749,-44430.708221,13843.709391,-187044.337338,-187226.124075,20340.020399,20611.437632,-8034.915690,-0.042000,0.866000,0.466000,192.000000,0.000000,0.000000,0.000000,0.000000,0.000000,0.000000,0.000000,0.000000,0.000000,1648357394.478347,0.000000
86.000000,-24285.907958,-44417.319526,13857.098086,-187068.812498,-187069.795974,20358.773513,20620.266571,-8015.000286,-0.042000,0.866000,0.466000,192.000000,0.000000,0.000000,0.000000,0.000000,0.000000,0.000000,0.000000,0.000000,0.000000,1648357394.478379,0.000000
87.000000,-24265.903147,-44396.890032,13875.381812,-187063.425727,-187099.568498,20386.377917,20637.008028,-7987.150012,-0.042000,0.866000,0.466000,192.000000,0.000000,0.000000,0.000000,0.000000,0.000000,0.000000,0.000000,0.000000,0.000000,1648357394.484950,0.000000
88.000000,-24315.903999,-44450.780088,13843.508225,-187073.640475,-187189.847194,20430.343798,20596.305501,-8023.382190,-0.042000,0.866000,0.466000,192.000000,0.000000,0.000000,0.000000,0.000000,0.000000,0.000000,0.000000,0.000000,0.000000,1648357394.484964,0.000000
89.000000,-24376.052544,-44508.671106,13795.899009,-187083.050559,-187247.201770,20456.942374,20544.360047,-8088.045786,-0.042000,0.866000,0.466000,192.000000,0.000000,0.000000,0.000000,0.000000,0.000000,0.000000,0.000000,0.000000,0.000000,1648357394.493150,0.000000
90.000000,-24362.529738,-44492.801367,13798.156535,-187095.813405,-187399.774778,20444.537156,20548.495120,-8088.626932,-0.042000,0.866000,0.466000,192.000000,0.000000,0.000000,0.000000,0.000000,0.000000,0.000000,0.000000,0.000000,0.000000,1648357394.493166,0.000000
91.000000,-24346.280020,-44481.826661,13808.885373,-187092.080664,-187433.369450,20434.657685,20563.247271,-8063.302405,-0.042000,0.866000,0.466000,192.000000,0.000000,0.000000,0.000000,0.000000,0.000000,0.000000,0.000000,0.000000,0.000000,1648357394.501142,0.000000
92.000000,-24335.327665,-44461.039539,13809.511222,-187057.077832,-187348.321062,20410.026063,20563.336678,-8062.162466,-0.042000,0.866000,0.466000,192.000000,0.000000,0.000000,0.000000,0.000000,0.000000,0.000000,0.000000,0.000000,0.000000,1648357394.501158,0.000000
93.000000,-24332.421938,-44451.472992,13816.909649,-187060.117669,-187244.854837,20407.545019,20572.724411,-8064.576455,-0.042000,0.866000,0.466000,192.000000,0.000000,0.000000,0.000000,0.000000,0.000000,0.000000,0.000000,0.000000,0.000000,1648357394.508371,0.000000
94.000000,-24354.371352,-44477.892754,13799.587047,-187014.207186,-187127.619937,20375.067934,20552.294916,-8075.372347,-0.042000,0.866000,0.466000,192.000000,0.000000,0.000000,0.000000,0.000000,0.000000,0.000000,0.000000,0.000000,0.000000,1648357394.508387,0.000000
95.000000,-24358.461721,-44483.234821,13788.433527,-187016.487064,-187075.026283,20346.725922,20538.436835,-8097.142946,-0.036000,0.872000,0.462000,192.000000,254.000000,224.000000,27.000000,64.000000,14.000000,112.000000,0.000000,0.000000,0.000000,1648357394.515780,0.000000
96.000000,-24345.028322,-44476.059911,13810.338236,-187055.021471,-187159.471173,20372.452780,20557.927556,-8087.911676,-0.036000,0.872000,0.462000,192.000000,0.000000,0.000000,0.000000,0.000000,0.000000,0.000000,0.000000,0.000000,0.000000,1648357394.515796,0.000000
97.000000,-24339.350979,-44475.076434,13811.500527,-187009.066285,-187350.176257,20368.027135,20564.946004,-8082.323740,-0.036000,0.872000,0.462000,192.000000,0.000000,0.000000,0.000000,0.000000,0.000000,0.000000,0.000000,0.000000,0.000000,1648357394.522717,0.000000
98.000000,-24336.288790,-44468.929704,13808.818318,-187006.764055,-187500.022352,20344.580155,20574.601957,-8084.424804,-0.036000,0.872000,0.462000,192.000000,0.000000,0.000000,0.000000,0.000000,0.000000,0.000000,0.000000,0.000000,0.000000,1648357394.522733,0.000000
99.000000,-24327.437499,-44461.643036,13818.384864,-187017.559948,-187458.783383,20323.971847,20577.194760,-8072.712490,-0.036000,0.872000,0.462000,192.000000,0.000000,0.000000,0.000000,0.000000,0.000000,0.000000,0.000000,0.000000,0.000000,1648357394.530803,0.000000
100.000000,-24323.816517,-44458.737309,13831.684152,-187076.434443,-187346.734088,20345.429521,20585.800181,-8056.328661,-0.036000,0.872000,0.462000,192.000000,0.000000,0.000000,0.000000,0.000000,0.000000,0.000000,0.000000,0.000000,0.000000,1648357394.537956,0.000000
101.000000,-24331.259648,-44469.913181,13826.543251,-187046.125477,-187232.427267,20355.867786,20584.749649,-8062.229522,-0.036000,0.872000,0.462000,192.000000,0.000000,0.000000,0.000000,0.000000,0.000000,0.000000,0.000000,0.000000,0.000000,1648357394.537973,0.000000
102.000000,-24329.203287,-44459.430213,13826.029161,-187035.128419,-187119.170978,20346.569460,20583.408544,-8046.493893,-0.036000,0.872000,0.462000,192.000000,0.000000,0.000000,0.000000,0.000000,0.000000,0.000000,0.000000,0.000000,0.000000,1648357394.545363,0.000000
103.000000,-24295.563912,-44415.352573,13838.300268,-187038.481180,-187096.483957,20311.276056,20606.654359,-8032.389943,-0.036000,0.872000,0.462000,192.000000,0.000000,0.000000,0.000000,0.000000,0.000000,0.000000,0.000000,0.000000,0.000000,1648357394.545379,0.000000
104.000000,-24237.315266,-44363.675340,13871.872589,-187053.054518,-187418.550243,20248.445302,20670.714458,-7981.830297,-0.036000,0.872000,0.462000,192.000000,0.000000,0.000000,0.000000,0.000000,0.000000,0.000000,0.000000,0.000000,0.000000,1648357394.553384,0.000000
105.000000,-24249.385208,-44380.930886,13882.847295,-187022.477331,-187476.597724,20290.712451,20668.903967,-7978.633997,-0.038000,0.866000,0.470000,192.000000,254.000000,208.000000,27.000000,16.000000,14.000000,176.000000,0.000000,0.000000,0.000000,1648357394.553400,0.000000
106.000000,-24310.785450,-44446.354442,13854.594690,-187068.991312,-187302.522338,20357.477112,20607.593132,-8035.049800,-0.038000,0.866000,0.470000,192.000000,0.000000,0.000000,0.000000,0.000000,0.000000,0.000000,0.000000,0.000000,0.000000,1648357394.561443,0.000000
107.000000,-24329.985598,-44469.533201,13842.390638,-187055.647320,-187056.899018,20422.028950,20573.462018,-8059.994347,-0.038000,0.866000,0.470000,192.000000,0.000000,0.000000,0.000000,0.000000,0.000000,0.000000,0.000000,0.000000,0.000000,1648357394.561477,0.000000
108.000000,-24325.716415,-44465.398129,13838.412027,-187059.223599,-187071.047672,20434.344761,20578.535864,-8053.869969,-0.038000,0.866000,0.470000,192.000000,0.000000,0.000000,0.000000,0.000000,0.000000,0.000000,0.000000,0.000000,0.000000,1648357394.567904,0.000000
109.000000,-24367.827102,-44500.490367,13801.576352,-187084.637533,-187183.767519,20426.879278,20537.006323,-8092.024397,-0.038000,0.866000,0.470000,192.000000,0.000000,0.000000,0.000000,0.000000,0.000000,0.000000,0.000000,0.000000,0.000000,1648357394.567919,0.000000
110.000000,-24336.668770,-44464.146431,13822.832861,-187077.596733,-187282.003436,20435.618810,20571.048030,-8081.273208,-0.038000,0.866000,0.470000,192.000000,0.000000,0.000000,0.000000,0.000000,0.000000,0.000000,0.000000,0.000000,0.000000,1648357394.576081,0.000000
111.000000,-24333.561877,-44465.353425,13826.476196,-187028.087619,-187440.611415,20430.008522,20572.478541,-8068.018623,-0.038000,0.866000,0.470000,192.000000,0.000000,0.000000,0.000000,0.000000,0.000000,0.000000,0.000000,0.000000,0.000000,1648357394.576097,0.000000
112.000000,-24357.098264,-44486.498175,13798.692977,-186998.091578,-187475.033101,20380.521760,20541.811948,-8101.635647,-0.038000,0.866000,0.470000,192.000000,0.000000,0.000000,0.000000,0.000000,0.000000,0.000000,0.000000,0.000000,0.000000,1648357394.584096,0.000000
113.000000,-24343.039017,-44471.790728,13807.656027,-187034.591977,-187387.660132,20372.050449,20561.369724,-8087.978731,-0.038000,0.866000,0.470000,192.000000,0.000000,0.000000,0.000000,0.000000,0.000000,0.000000,0.000000,0.000000,0.000000,1648357394.584113,0.000000
114.000000,-24335.618238,-44468.885001,13811.791100,-187008.060456,-187295.570945,20367.714210,20570.288070,-8072.243103,-0.038000,0.866000,0.470000,192.000000,0.000000,0.000000,0.000000,0.000000,0.000000,0.000000,0.000000,0.000000,0.000000,1648357394.591289,0.000000
115.000000,-24335.104148,-44467.320379,13808.192469,-186988.636790,-187232.717840,20334.097187,20572.746762,-8058.653242,-0.030000,0.856000,0.468000,192.000000,255.000000,16.000000,26.000000,192.000000,14.000000,160.000000,0.000000,0.000000,0.000000,1648357394.597651,0.000000
116.000000,-24337.451081,-44464.682873,13813.914515,-187053.792125,-187090.963076,20330.386797,20574.065515,-8058.541484,-0.030000,0.856000,0.468000,192.000000,0.000000,0.000000,0.000000,0.000000,0.000000,0.000000,0.000000,0.000000,0.000000,1648357394.597667,0.000000
117.000000,-24330.365578,-44458.424384,13818.474271,-187040.291672,-187014.497759,20352.805597,20560.900338,-8052.439457,-0.030000,0.856000,0.468000,192.000000,0.000000,0.000000,0.000000,0.000000,0.000000,0.000000,0.000000,0.000000,0.000000,1648357394.605676,0.000000
118.000000,-24316.239275,-44453.954036,13831.013600,-187009.043933,-187138.996975,20364.987298,20575.294861,-8050.338393,-0.030000,0.856000,0.468000,192.000000,0.000000,0.000000,0.000000,0.000000,0.000000,0.000000,0.000000,0.000000,0.000000,1648357394.605691,0.000000
119.000000,-24303.543485,-44433.837466,13833.002905,-186963.044043,-187374.249086,20339.707475,20584.637890,-8050.047821,-0.030000,0.856000,0.468000,192.000000,0.000000,0.000000,0.000000,0.000000,0.000000,0.000000,0.000000,0.000000,0.000000,1648357394.613538,0.000000
120.000000,-24259.041161,-44388.977514,13852.091295,-186989.262639,-187500.022352,20277.927253,20619.528964,-8027.003172,-0.030000,0.856000,0.468000,192.000000,0.000000,0.000000,0.000000,0.000000,0.000000,0.000000,0.000000,0.000000,0.000000,1648357394.613555,0.000000
121.000000,-24204.860533,-44335.936825,13889.686929,-187019.146922,-187500.022352,20226.160613,20672.904929,-7970.877942,-0.030000,0.856000,0.468000,192.000000,0.000000,0.000000,0.000000,0.000000,0.000000,0.000000,0.000000,0.000000,0.000000,1648357394.620352,0.000000
122.000000,-24236.085920,-44369.084462,13889.239894,-186996.638715,-187500.022352,20282.732878,20660.544415,-7974.476573,-0.030000,0.856000,0.468000,192.000000,0.000000,0.000000,0.000000,0.000000,0.000000,0.000000,0.000000,0.000000,0.000000,1648357394.620392,0.000000
123.000000,-24287.830208,-44417.252471,13856.382830,-187050.327605,-187394.790339,20321.960190,20606.654359,-8026.779655,-0.030000,0.856000,0.468000,192.000000,0.000000,0.000000,0.000000,0.000000,0.000000,0.000000,0.000000,0.000000,0.000000,1648357394.628385,0.000000
124.000000,-24304.862238,-44436.139695,13846.793931,-187062.129326,-187251.314491,20350.123388,20590.114068,-8032.255832,-0.030000,0.856000,0.468000,192.000000,0.000000,0.000000,0.000000,0.000000,0.000000,0.000000,0.000000,0.000000,0.000000,1648357394.628402,0.000000
125.000000,-24319.592037,-44456.278617,13839.596670,-187073.908695,-187044.024413,20381.572292,20582.380364,-8044.348126,-0.034000,0.866000,0.464000,192.000000,254.000000,240.000000,27.000000,16.000000,14.000000,128.000000,0.000000,0.000000,0.000000,1648357394.636327,0.000000
126.000000,-24338.523965,-44474.249419,13821.871736,-187059.536524,-187030.792180,20392.345833,20564.118989,-8077.182839,-0.034000,0.866000,0.464000,192.000000,0.000000,0.000000,0.000000,0.000000,0.000000,0.000000,0.000000,0.000000,0.000000,1648357394.636343,0.000000
127.000000,-24338.278096,-44469.197925,13815.993227,-187012.664916,-187163.069804,20385.439144,20565.147169,-8076.892266,-0.034000,0.866000,0.464000,192.000000,0.000000,0.000000,0.000000,0.000000,0.000000,0.000000,0.000000,0.000000,0.000000,1648357394.643561,0.000000
128.000000,-24327.996293,-44457.507963,13818.809547,-187018.141093,-187342.196684,20385.707365,20572.500893,-8063.101240,-0.034000,0.866000,0.464000,192.000000,0.000000,0.000000,0.000000,0.000000,0.000000,0.000000,0.000000,0.000000,0.000000,1648357394.643577,0.000000
129.000000,-24311.791278,-44444.588655,13831.572393,-187019.012811,-187434.487037,20377.951309,20576.926539,-8049.176103,-0.034000,0.866000,0.464000,192.000000,0.000000,0.000000,0.000000,0.000000,0.000000,0.000000,0.000000,0.000000,0.000000,1648357394.649932,0.000000
130.000000,-24310.696043,-44442.219370,13829.046646,-186973.661122,-187390.342342,20335.930030,20570.310422,-8059.904940,-0.034000,0.866000,0.464000,192.000000,0.000000,0.000000,0.000000,0.000000,0.000000,0.000000,0.000000,0.000000,0.000000,1648357394.658010,0.000000
131.000000,-24301.911807,-44431.155256,13832.757036,-186967.693206,-187358.267588,20294.847524,20605.045033,-8052.305347,-0.034000,0.866000,0.464000,192.000000,0.000000,0.000000,0.000000,0.000000,0.000000,0.000000,0.000000,0.000000,0.000000,1648357394.658027,0.000000
132.000000,-24307.924427,-44432.116381,13837.026219,-187016.576471,-187276.974294,20304.794050,20591.902207,-8057.200379,-0.034000,0.866000,0.464000,192.000000,0.000000,0.000000,0.000000,0.000000,0.000000,0.000000,0.000000,0.000000,0.000000,1648357394.666026,0.000000
133.000000,-24299.676633,-44418.057134,13845.475178,-187013.737799,-187187.276743,20319.590905,20592.371594,-8037.933175,-0.034000,0.866000,0.464000,192.000000,0.000000,0.000000,0.000000,0.000000,0.000000,0.000000,0.000000,0.000000,0.000000,1648357394.666042,0.000000
134.000000,-24300.034261,-44420.538178,13842.591803,-187008.753360,-187067.180820,20318.249800,20595.389079,-8033.149902,-0.034000,0.866000,0.464000,192.000000,0.000000,0.000000,0.000000,0.000000,0.000000,0.000000,0.000000,0.000000,0.000000,1648357394.672917,0.000000
135.000000,-24298.939025,-44421.096971,13854.706449,-187050.707585,-186961.859400,20357.678277,20601.178181,-8032.099370,-0.038000,0.864000,0.468000,192.000000,254.000000,208.000000,27.000000,0.000000,14.000000,160.000000,0.000000,0.000000,0.000000,1648357394.672926,0.000000
136.000000,-24306.605674,-44425.433210,13850.549024,-187008.932174,-187051.355785,20375.984356,20583.117972,-8040.391867,-0.038000,0.864000,0.468000,192.000000,0.000000,0.000000,0.000000,0.000000,0.000000,0.000000,0.000000,0.000000,0.000000,1648357394.680485,0.000000
137.000000,-24308.773793,-44426.304928,13836.333315,-186963.155802,-187239.333956,20347.374123,20574.356088,-8048.684364,-0.038000,0.864000,0.468000,192.000000,0.000000,0.000000,0.000000,0.000000,0.000000,0.000000,0.000000,0.000000,0.000000,1648357394.680494,0.000000
138.000000,-24293.865179,-44413.743247,13845.072847,-186950.817639,-187471.389767,20316.349902,20601.960492,-8038.626079,-0.038000,0.864000,0.468000,192.000000,0.000000,0.000000,0.000000,0.000000,0.000000,0.000000,0.000000,0.000000,0.000000,1648357394.688473,0.000000
139.000000,-24327.392796,-44453.551704,13831.594745,-187021.471503,-187429.010860,20327.928105,20572.746762,-8052.975899,-0.038000,0.864000,0.468000,192.000000,0.000000,0.000000,0.000000,0.000000,0.000000,0.000000,0.000000,0.000000,0.000000,1648357394.688490,0.000000
140.000000,-24324.799994,-44451.517695,13836.243908,-187046.751326,-187288.038407,20346.345943,20570.265719,-8054.138190,-0.038000,0.864000,0.468000,192.000000,0.000000,0.000000,0.000000,0.000000,0.000000,0.000000,0.000000,0.000000,0.000000,1648357394.696474,0.000000
141.000000,-24288.836037,-44416.425457,13858.394487,-187006.317020,-187205.761636,20331.839661,20603.547466,-8016.564908,-0.038000,0.864000,0.468000,192.000000,0.000000,0.000000,0.000000,0.000000,0.000000,0.000000,0.000000,0.000000,0.000000,1648357394.696489,0.000000
142.000000,-24301.084793,-44426.282576,13844.245832,-186982.802985,-187111.191405,20318.920352,20578.781733,-8032.456998,-0.038000,0.864000,0.468000,192.000000,0.000000,0.000000,0.000000,0.000000,0.000000,0.000000,0.000000,0.000000,0.000000,1648357394.703256,0.000000
143.000000,-24319.815555,-44451.495344,13827.303210,-186981.148956,-187015.660049,20311.343111,20559.894509,-8051.478332,-0.038000,0.864000,0.468000,192.000000,0.000000,0.000000,0.000000,0.000000,0.000000,0.000000,0.000000,0.000000,0.000000,1648357394.703272,0.000000
144.000000,-24327.795127,-44462.604161,13820.664742,-187017.805817,-187097.445082,20324.508288,20559.291012,-8058.340318,-0.038000,0.864000,0.468000,192.000000,0.000000,0.000000,0.000000,0.000000,0.000000,0.000000,0.000000,0.000000,0.000000,1648357394.710368,0.000000
145.000000,-24300.973034,-44437.838428,13841.183643,-187019.862177,-187217.339840,20344.758969,20579.496989,-8039.184873,-0.038000,0.856000,0.468000,192.000000,254.000000,208.000000,26.000000,192.000000,14.000000,160.000000,0.000000,0.000000,0.000000,1648357394.718383,0.000000
146.000000,-24272.049877,-44413.519730,13865.077658,-186996.616363,-187409.967173,20351.017457,20599.077117,-8017.503681,-0.038000,0.856000,0.468000,192.000000,0.000000,0.000000,0.000000,0.000000,0.000000,0.000000,0.000000,0.000000,0.000000,1648357394.718399,0.000000
147.000000,-24304.325796,-44444.253378,13834.768693,-186950.415307,-187490.612267,20308.526791,20573.752591,-8064.643510,-0.038000,0.856000,0.468000,192.000000,0.000000,0.000000,0.000000,0.000000,0.000000,0.000000,0.000000,0.000000,0.000000,1648357394.726348,0.000000
148.000000,-24317.066290,-44455.317492,13825.380960,-186991.319000,-187432.162456,20290.064250,20558.978088,-8072.533676,-0.038000,0.856000,0.468000,192.000000,0.000000,0.000000,0.000000,0.000000,0.000000,0.000000,0.000000,0.000000,0.000000,1648357394.726364,0.000000
149.000000,-24301.353014,-44444.745117,13838.836710,-186972.297665,-187373.377368,20270.059439,20563.582547,-8055.993385,-0.038000,0.856000,0.468000,192.000000,0.000000,0.000000,0.000000,0.000000,0.000000,0.000000,0.000000,0.000000,0.000000,1648357394.732876,0.000000
