%OpenBCI Raw EEG Data
%Number of channels = 8
%Sample Rate = 256 Hz
%Board = OpenBCI_GUI$BoardCytonSerial
%Channels = Fp1, Fp2, F3, F4, Fz, Pz, O1, O2
%Data recorded at AIMS Lab (http://aimsl.uiu.ac.bd) by Rana Depto (mail@ranadepto.com)
%Brainwaves were obtained via the Ultracortex Mark IV Headset using the OpenBCI Cyton Board
%Recording Application = ConcentrateToday (https://concentrate.today)
%Data type = RAW data with noise
%Day No = 7
%Subject ID = 2
%Session ID = 7
%Record starting timestamp (UTC+6) = 2022-03-15T13:37:49.824503
%Record ending timestamp (UTC+6)   = 2022-03-15T13:38:10.706017
%Recorded durations = ~20 seconds
Sample Index, EXG Channel 0, EXG Channel 1, EXG Channel 2, EXG Channel 3, EXG Channel 4, EXG Channel 5, EXG Channel 6, EXG Channel 7, Accel Channel 0, Accel Channel 1, Accel Channel 2, Other, Other, Other, Other, Other, Other, Other, Analog Channel 0, Analog Channel 1, Analog Channel 2, Timestamp, Timestamp (Formatted)
219.000000,53739.338069,65247.088998,36099.162531,15921.460500,41420.531740,37861.843450,34957.703645,33610.519303,-0.028000,0.964000,0.172000,192.000000,0.000000,0.000000,0.000000,0.000000,0.000000,0.000000,0.000000,0.000000,0.000000,1647329869.826512,0.000000
220.000000,53743.562549,65251.738161,36102.895272,15921.326389,41424.175075,37864.391549,34959.290619,33613.134457,-0.028000,0.964000,0.172000,192.000000,0.000000,0.000000,0.000000,0.000000,0.000000,0.000000,0.000000,0.000000,0.000000,1647329869.826521,0.000000
221.000000,53745.976537,65247.893661,36106.873883,15922.131052,41427.237264,37866.760834,34962.419863,33612.821533,-0.028000,0.964000,0.172000,192.000000,0.000000,0.000000,0.000000,0.000000,0.000000,0.000000,0.000000,0.000000,0.000000,1647329869.833852,0.000000
222.000000,53752.369136,65247.938364,36110.003127,15925.707331,41429.651252,37865.285619,34956.183726,33601.980937,-0.034000,0.970000,0.176000,192.000000,254.000000,240.000000,30.000000,80.000000,5.000000,128.000000,0.000000,0.000000,0.000000,1647329869.833857,0.000000
223.000000,53747.071772,65246.172577,36104.437542,15923.025122,41424.398592,37864.503308,34958.865936,33604.484332,-0.034000,0.970000,0.176000,192.000000,0.000000,0.000000,0.000000,0.000000,0.000000,0.000000,0.000000,0.000000,0.000000,1647329869.841709,0.000000
224.000000,53746.244758,65247.960716,36104.348136,15921.169927,41424.040964,37868.168994,34975.741503,33609.379364,-0.034000,0.970000,0.176000,192.000000,0.000000,0.000000,0.000000,0.000000,0.000000,0.000000,0.000000,0.000000,0.000000,1647329869.841713,0.000000
225.000000,53753.419668,65264.925690,36110.472513,15925.372055,41430.478267,37871.700570,34970.935878,33612.776829,-0.034000,0.970000,0.176000,192.000000,0.000000,0.000000,0.000000,0.000000,0.000000,0.000000,0.000000,0.000000,0.000000,1647329869.849819,0.000000
226.000000,53758.091182,65263.025792,36115.188732,15930.021218,41435.865037,37874.271020,34961.011703,33623.907998,-0.034000,0.970000,0.176000,192.000000,0.000000,0.000000,0.000000,0.000000,0.000000,0.000000,0.000000,0.000000,0.000000,1647329869.849823,0.000000
227.000000,53747.317642,65238.729446,36106.605662,15915.537288,41426.298490,37866.626724,34960.944648,33601.958585,-0.034000,0.970000,0.176000,192.000000,0.000000,0.000000,0.000000,0.000000,0.000000,0.000000,0.000000,0.000000,0.000000,1647329869.856444,0.000000
228.000000,53744.881302,65238.707094,36106.024516,15914.196183,41423.906854,37872.035846,34984.257517,33606.920672,-0.034000,0.970000,0.176000,192.000000,0.000000,0.000000,0.000000,0.000000,0.000000,0.000000,0.000000,0.000000,0.000000,1647329869.856448,0.000000
229.000000,53752.749116,65246.396094,36111.970080,15920.208802,41429.472438,37877.623782,34981.441198,33621.806934,-0.034000,0.970000,0.176000,192.000000,0.000000,0.000000,0.000000,0.000000,0.000000,0.000000,0.000000,0.000000,0.000000,1647329869.864370,0.000000
230.000000,53747.317642,65241.344600,36105.644537,15912.273933,41422.968080,37871.253535,34971.226450,33617.962434,-0.034000,0.970000,0.176000,192.000000,0.000000,0.000000,0.000000,0.000000,0.000000,0.000000,0.000000,0.000000,0.000000,1647329869.864375,0.000000
231.000000,53754.805476,65254.241556,36114.451124,15922.734549,41432.333461,37879.791901,34974.981543,33624.086812,-0.034000,0.970000,0.176000,192.000000,0.000000,0.000000,0.000000,0.000000,0.000000,0.000000,0.000000,0.000000,0.000000,1647329869.871406,0.000000
232.000000,53756.548912,65254.710943,36115.345194,15923.293343,41433.339290,37880.060122,34979.429541,33624.645606,-0.036000,0.966000,0.166000,192.000000,254.000000,224.000000,30.000000,48.000000,5.000000,48.000000,0.000000,0.000000,0.000000,1647329869.871411,0.000000
233.000000,53759.745212,65256.677897,36115.568711,15923.919192,41433.696918,37877.199099,34974.243936,33619.102373,-0.036000,0.966000,0.166000,192.000000,0.000000,0.000000,0.000000,0.000000,0.000000,0.000000,0.000000,0.000000,0.000000,1647329869.879557,0.000000
234.000000,53759.655805,65257.437856,36117.356851,15924.343875,41434.903912,37877.847299,34971.897003,33616.934254,-0.036000,0.966000,0.166000,192.000000,0.000000,0.000000,0.000000,0.000000,0.000000,0.000000,0.000000,0.000000,0.000000,1647329869.886034,0.000000
235.000000,53753.352613,65251.648754,36110.472513,15916.632523,41427.684298,37872.214660,34964.252706,33609.312309,-0.036000,0.966000,0.166000,192.000000,0.000000,0.000000,0.000000,0.000000,0.000000,0.000000,0.000000,0.000000,0.000000,1647329869.886039,0.000000
236.000000,53763.299139,65258.287222,36118.139162,15924.746206,41434.926264,37878.517852,34968.052503,33612.955643,-0.036000,0.966000,0.166000,192.000000,0.000000,0.000000,0.000000,0.000000,0.000000,0.000000,0.000000,0.000000,0.000000,1647329869.895540,0.000000
237.000000,53761.734517,65254.040391,36115.367546,15919.650009,41431.640557,37875.857994,34965.616162,33611.391021,-0.036000,0.966000,0.166000,192.000000,0.000000,0.000000,0.000000,0.000000,0.000000,0.000000,0.000000,0.000000,0.000000,1647329869.895544,0.000000
238.000000,53754.917235,65255.225033,36109.198464,15914.643218,41426.477304,37870.448872,34959.916468,33606.495989,-0.036000,0.966000,0.166000,192.000000,0.000000,0.000000,0.000000,0.000000,0.000000,0.000000,0.000000,0.000000,0.000000,1647329869.902072,0.000000
239.000000,53757.465334,65256.521434,36113.601758,15917.213668,41430.053583,37873.309895,34961.503442,33609.088792,-0.036000,0.966000,0.166000,192.000000,0.000000,0.000000,0.000000,0.000000,0.000000,0.000000,0.000000,0.000000,0.000000,1647329869.902076,0.000000
240.000000,53753.397316,65257.594318,36111.455990,15909.614075,41426.276139,37871.119424,34963.559802,33607.255948,-0.036000,0.966000,0.166000,192.000000,0.000000,0.000000,0.000000,0.000000,0.000000,0.000000,0.000000,0.000000,0.000000,1647329869.908646,0.000000
241.000000,53756.593616,65256.744952,36112.685336,15910.306979,41427.796057,37873.108729,34967.449006,33611.346318,-0.036000,0.966000,0.166000,192.000000,0.000000,0.000000,0.000000,0.000000,0.000000,0.000000,0.000000,0.000000,0.000000,1647329869.908650,0.000000
242.000000,53764.193209,65255.381495,36118.317976,15916.990151,41431.841723,37880.685971,34979.161320,33625.092641,-0.038000,0.968000,0.166000,192.000000,254.000000,208.000000,30.000000,64.000000,5.000000,48.000000,0.000000,0.000000,0.000000,1647329869.916804,0.000000
243.000000,53758.851142,65246.820777,36110.673679,15912.586857,41424.510351,37877.266154,34978.446064,33621.851638,-0.038000,0.968000,0.166000,192.000000,0.000000,0.000000,0.000000,0.000000,0.000000,0.000000,0.000000,0.000000,0.000000,1647329869.916829,0.000000
244.000000,53749.709278,65236.494271,36102.492941,15904.540229,41416.284909,37870.918259,34973.081645,33615.369632,-0.038000,0.968000,0.166000,192.000000,0.000000,0.000000,0.000000,0.000000,0.000000,0.000000,0.000000,0.000000,0.000000,1647329869.924814,0.000000
245.000000,53747.049421,65240.919917,36100.056601,15902.416814,41414.161493,37870.292410,34965.392645,33611.167504,-0.038000,0.968000,0.166000,192.000000,0.000000,0.000000,0.000000,0.000000,0.000000,0.000000,0.000000,0.000000,0.000000,1647329869.924840,0.000000
246.000000,53749.753982,65248.318344,36103.677583,15904.428471,41416.687240,37870.225354,34963.805671,33601.556254,-0.038000,0.968000,0.166000,192.000000,0.000000,0.000000,0.000000,0.000000,0.000000,0.000000,0.000000,0.000000,0.000000,1647329869.931795,0.000000
247.000000,53753.866703,65252.296955,36109.243168,15907.267142,41420.442333,37871.052369,34960.564668,33604.931367,-0.038000,0.968000,0.166000,192.000000,0.000000,0.000000,0.000000,0.000000,0.000000,0.000000,0.000000,0.000000,0.000000,1647329869.931814,0.000000
248.000000,53756.504209,65255.448551,36110.673679,15909.636427,41422.811618,37870.650038,34954.060311,33603.925539,-0.038000,0.968000,0.166000,192.000000,0.000000,0.000000,0.000000,0.000000,0.000000,0.000000,0.000000,0.000000,0.000000,1647329869.938423,0.000000
249.000000,53757.867665,65255.113274,36110.651327,15907.758881,41421.582272,37870.873555,34953.345055,33613.089754,-0.038000,0.968000,0.166000,192.000000,0.000000,0.000000,0.000000,0.000000,0.000000,0.000000,0.000000,0.000000,0.000000,1647329869.946443,0.000000
250.000000,53751.296252,65245.077341,36103.923452,15898.549962,41414.832045,37865.732654,34957.167203,33601.176274,-0.038000,0.968000,0.166000,192.000000,0.000000,0.000000,0.000000,0.000000,0.000000,0.000000,0.000000,0.000000,0.000000,1647329869.946446,0.000000
251.000000,53751.072735,65241.389303,36103.074086,15894.347834,41413.222720,37864.659770,34954.619104,33595.789504,-0.038000,0.968000,0.166000,192.000000,0.000000,0.000000,0.000000,0.000000,0.000000,0.000000,0.000000,0.000000,0.000000,1647329869.954359,0.000000
252.000000,53752.726764,65244.138568,36104.146970,15892.246770,41412.909795,37861.239953,34954.082662,33581.931422,-0.034000,0.970000,0.162000,192.000000,254.000000,240.000000,30.000000,80.000000,5.000000,16.000000,0.000000,0.000000,0.000000,1647329869.954362,0.000000
253.000000,53747.630566,65241.188138,36100.414228,15888.715194,41409.266461,37861.172898,34965.526756,33579.919765,-0.034000,0.970000,0.162000,192.000000,0.000000,0.000000,0.000000,0.000000,0.000000,0.000000,0.000000,0.000000,0.000000,1647329869.961454,0.000000
254.000000,53746.825903,65239.087074,36102.336479,15890.570389,41411.792208,37873.444006,34982.581137,33627.886609,-0.034000,0.970000,0.162000,192.000000,0.000000,0.000000,0.000000,0.000000,0.000000,0.000000,0.000000,0.000000,0.000000,1647329869.961479,0.000000
255.000000,53752.480895,65246.664315,36109.377278,15899.913418,41420.375278,37881.267116,34989.487826,33637.453155,-0.034000,0.970000,0.162000,192.000000,0.000000,0.000000,0.000000,0.000000,0.000000,0.000000,0.000000,0.000000,0.000000,1647329869.969002,0.000000
0.000000,53756.705374,65251.827568,36111.679508,15900.539267,41422.453990,37880.529509,34988.727866,33633.318082,-0.034000,0.970000,0.162000,192.000000,0.000000,0.000000,0.000000,0.000000,0.000000,0.000000,0.000000,0.000000,0.000000,1647329869.969007,0.000000
1.000000,53752.056211,65260.388286,36108.259691,15896.739471,41419.168284,37877.266154,34984.793959,33630.166487,-0.034000,0.970000,0.162000,192.000000,0.000000,0.000000,0.000000,0.000000,0.000000,0.000000,0.000000,0.000000,0.000000,1647329869.976899,0.000000
2.000000,53749.329299,65254.487426,36106.203330,15891.732680,41417.916586,37875.902698,34979.161320,33624.690309,-0.034000,0.970000,0.162000,192.000000,0.000000,0.000000,0.000000,0.000000,0.000000,0.000000,0.000000,0.000000,0.000000,1647329869.976903,0.000000
3.000000,53746.468275,65235.711960,36101.375354,15890.145706,41414.496769,37871.365293,34969.058331,33616.978957,-0.034000,0.970000,0.162000,192.000000,0.000000,0.000000,0.000000,0.000000,0.000000,0.000000,0.000000,0.000000,0.000000,1647329869.985016,0.000000
4.000000,53745.641261,65233.990876,36104.169322,15891.978549,41417.491903,37871.030017,34970.488843,33612.732126,-0.034000,0.970000,0.162000,192.000000,0.000000,0.000000,0.000000,0.000000,0.000000,0.000000,0.000000,0.000000,0.000000,1647329869.985020,0.000000
5.000000,53743.093162,65233.320324,36102.671755,15886.927055,41415.435543,37872.281715,34970.444139,33612.463905,-0.034000,0.970000,0.162000,192.000000,0.000000,0.000000,0.000000,0.000000,0.000000,0.000000,0.000000,0.000000,0.000000,1647329869.991576,0.000000
6.000000,53746.848255,65237.880079,36105.085743,15886.904703,41417.022516,37876.103863,34970.846471,33614.252044,-0.032000,0.966000,0.170000,192.000000,255.000000,0.000000,30.000000,48.000000,5.000000,80.000000,0.000000,0.000000,0.000000,1647329869.991579,0.000000
7.000000,53749.776334,65240.405827,36106.806827,15886.792944,41417.804827,37877.176747,34971.159395,33614.833190,-0.032000,0.966000,0.170000,192.000000,0.000000,0.000000,0.000000,0.000000,0.000000,0.000000,0.000000,0.000000,0.000000,1647329869.998748,0.000000
8.000000,53754.045517,65245.390266,36111.053659,15890.682148,41420.867016,37879.858956,34973.260459,33617.493047,-0.032000,0.966000,0.170000,192.000000,0.000000,0.000000,0.000000,0.000000,0.000000,0.000000,0.000000,0.000000,0.000000,1647329870.006638,0.000000
9.000000,53760.773392,65254.107446,36116.015746,15891.196238,41424.689165,37881.870613,34975.495634,33619.638815,-0.032000,0.966000,0.170000,192.000000,0.000000,0.000000,0.000000,0.000000,0.000000,0.000000,0.000000,0.000000,0.000000,1647329870.006643,0.000000
10.000000,53763.567360,65259.516568,36115.166380,15886.770593,41423.705688,37878.786073,34973.506328,33616.822495,-0.032000,0.966000,0.170000,192.000000,0.000000,0.000000,0.000000,0.000000,0.000000,0.000000,0.000000,0.000000,0.000000,1647329870.014711,0.000000
11.000000,53764.014395,65261.729391,36109.824313,15886.032985,41419.123580,37872.996971,34967.493709,33610.474600,-0.032000,0.966000,0.170000,192.000000,0.000000,0.000000,0.000000,0.000000,0.000000,0.000000,0.000000,0.000000,0.000000,1647329870.014715,0.000000
12.000000,53763.612063,65257.706077,36107.767952,15882.233188,41416.687240,37870.582982,34964.632686,33610.049917,-0.032000,0.966000,0.170000,192.000000,0.000000,0.000000,0.000000,0.000000,0.000000,0.000000,0.000000,0.000000,0.000000,1647329870.021255,0.000000
13.000000,53750.558645,65240.785806,36105.085743,15875.572369,41412.663926,37871.521756,34969.527718,33610.273434,-0.032000,0.966000,0.170000,192.000000,0.000000,0.000000,0.000000,0.000000,0.000000,0.000000,0.000000,0.000000,0.000000,1647329870.021258,0.000000
14.000000,53740.478008,65227.665332,36098.067295,15868.240996,41406.405438,37866.738482,34964.900907,33600.058687,-0.032000,0.966000,0.170000,192.000000,0.000000,0.000000,0.000000,0.000000,0.000000,0.000000,0.000000,0.000000,0.000000,1647329870.029207,0.000000
15.000000,53744.769543,65230.325190,36098.939013,15867.346927,41406.159569,37869.688913,34970.466491,33613.022699,-0.032000,0.966000,0.170000,192.000000,0.000000,0.000000,0.000000,0.000000,0.000000,0.000000,0.000000,0.000000,0.000000,1647329870.029210,0.000000
16.000000,53751.564473,65240.115254,36104.504598,15871.929034,41410.093476,37872.035846,34965.705569,33615.503742,-0.028000,0.980000,0.168000,192.000000,255.000000,32.000000,30.000000,160.000000,5.000000,64.000000,0.000000,0.000000,0.000000,1647329870.037205,0.000000
17.000000,53756.347746,65247.401923,36107.924415,15875.639424,41412.686278,37872.885212,34967.806633,33617.917731,-0.028000,0.980000,0.168000,192.000000,0.000000,0.000000,0.000000,0.000000,0.000000,0.000000,0.000000,0.000000,0.000000,1647329870.037209,0.000000
18.000000,53753.039688,65254.263908,36105.510426,15871.616110,41410.875787,37873.041674,34970.444139,33618.476524,-0.028000,0.980000,0.168000,192.000000,0.000000,0.000000,0.000000,0.000000,0.000000,0.000000,0.000000,0.000000,0.000000,1647329870.044354,0.000000
19.000000,53756.079525,65265.193911,36107.946766,15872.778401,41412.574519,37873.265192,34971.427616,33620.577588,-0.028000,0.980000,0.168000,192.000000,0.000000,0.000000,0.000000,0.000000,0.000000,0.000000,0.000000,0.000000,0.000000,1647329870.044358,0.000000
20.000000,53755.721898,65248.452455,36106.091572,15870.833799,41410.495807,37869.107767,34964.252706,33611.234559,-0.028000,0.980000,0.168000,192.000000,0.000000,0.000000,0.000000,0.000000,0.000000,0.000000,0.000000,0.000000,0.000000,1647329870.051955,0.000000
21.000000,53751.944453,65235.935478,36103.185845,15868.553921,41407.031287,37867.744311,34969.505366,33608.507646,-0.028000,0.980000,0.168000,192.000000,0.000000,0.000000,0.000000,0.000000,0.000000,0.000000,0.000000,0.000000,0.000000,1647329870.051959,0.000000
22.000000,53751.877398,65239.198832,36101.822388,15867.257520,41405.332554,37866.045578,34978.468416,33605.221940,-0.028000,0.980000,0.168000,192.000000,0.000000,0.000000,0.000000,0.000000,0.000000,0.000000,0.000000,0.000000,0.000000,1647329870.058930,0.000000
23.000000,53757.845313,65244.138568,36105.868054,15868.509217,41408.171226,37866.962000,34975.875613,33606.026603,-0.028000,0.980000,0.168000,192.000000,0.000000,0.000000,0.000000,0.000000,0.000000,0.000000,0.000000,0.000000,0.000000,1647329870.066884,0.000000
24.000000,53757.152409,65234.639077,36104.705763,15861.915453,41405.913699,37866.894945,34973.886308,33612.285091,-0.028000,0.980000,0.168000,192.000000,0.000000,0.000000,0.000000,0.000000,0.000000,0.000000,0.000000,0.000000,0.000000,1647329870.066888,0.000000
25.000000,53761.846276,65241.903393,36108.952595,15868.978604,41412.038077,37874.829814,34977.551994,33617.180123,-0.028000,0.980000,0.168000,192.000000,0.000000,0.000000,0.000000,0.000000,0.000000,0.000000,0.000000,0.000000,0.000000,1647329870.073873,0.000000
26.000000,53765.780183,65250.397056,36111.076011,15872.286662,41412.865092,37875.880346,34974.914488,33611.100449,-0.030000,0.970000,0.164000,192.000000,255.000000,16.000000,30.000000,80.000000,5.000000,32.000000,0.000000,0.000000,0.000000,1647329870.073878,0.000000
27.000000,53763.232084,65249.972373,36108.282043,15871.593758,41410.719324,37875.053331,34972.053465,33613.089754,-0.030000,0.970000,0.164000,192.000000,0.000000,0.000000,0.000000,0.000000,0.000000,0.000000,0.000000,0.000000,0.000000,1647329870.081518,0.000000
28.000000,53770.719918,65260.120065,36117.379203,15877.852247,41419.145932,37883.792863,34979.586003,33625.606731,-0.030000,0.970000,0.164000,192.000000,0.000000,0.000000,0.000000,0.000000,0.000000,0.000000,0.000000,0.000000,0.000000,1647329870.081522,0.000000
29.000000,53769.982311,65264.545711,36119.815543,15877.092287,41420.777609,37884.396360,34979.273078,33627.439574,-0.030000,0.970000,0.164000,192.000000,0.000000,0.000000,0.000000,0.000000,0.000000,0.000000,0.000000,0.000000,0.000000,1647329870.089536,0.000000
30.000000,53768.484744,65269.127818,36116.731002,15873.381898,41417.827179,37881.982372,34977.395532,33623.639777,-0.030000,0.970000,0.164000,192.000000,0.000000,0.000000,0.000000,0.000000,0.000000,0.000000,0.000000,0.000000,0.000000,1647329870.089541,0.000000
31.000000,53774.787936,65261.528225,36119.368508,15877.516970,41420.934072,37883.390532,34979.138968,33622.902170,-0.030000,0.970000,0.164000,192.000000,0.000000,0.000000,0.000000,0.000000,0.000000,0.000000,0.000000,0.000000,0.000000,1647329870.096602,0.000000
32.000000,53762.405069,65243.289202,36106.762124,15866.698726,41409.132351,37872.795805,34973.260459,33615.883722,-0.030000,0.970000,0.164000,192.000000,0.000000,0.000000,0.000000,0.000000,0.000000,0.000000,0.000000,0.000000,0.000000,1647329870.096605,0.000000
33.000000,53762.561531,65248.497158,36106.829179,15868.933900,41409.534682,37872.773453,34968.320724,33616.129591,-0.030000,0.970000,0.164000,192.000000,0.000000,0.000000,0.000000,0.000000,0.000000,0.000000,0.000000,0.000000,0.000000,1647329870.104508,0.000000
34.000000,53754.201979,65245.457321,36100.391877,15860.641403,41403.991449,37867.833718,34961.391683,33613.067402,-0.030000,0.970000,0.164000,192.000000,0.000000,0.000000,0.000000,0.000000,0.000000,0.000000,0.000000,0.000000,0.000000,1647329870.104512,0.000000
35.000000,53764.528485,65257.169635,36109.354926,15870.453819,41413.557996,37874.427482,34966.040846,33619.437649,-0.030000,0.970000,0.164000,192.000000,0.000000,0.000000,0.000000,0.000000,0.000000,0.000000,0.000000,0.000000,0.000000,1647329870.112153,0.000000
36.000000,53766.517790,65259.337754,36107.902063,15869.827970,41413.915624,37871.857032,34957.323665,33617.493047,-0.030000,0.970000,0.164000,192.000000,0.000000,0.000000,0.000000,0.000000,0.000000,0.000000,0.000000,0.000000,0.000000,1647329870.112156,0.000000
37.000000,53767.993005,65258.778961,36108.483208,15867.279871,41414.161493,37875.187442,34968.611296,33628.110126,-0.030000,0.974000,0.160000,192.000000,255.000000,16.000000,30.000000,112.000000,5.000000,0.000000,0.000000,0.000000,0.000000,1647329870.119121,0.000000
38.000000,53770.854029,65259.784789,36109.042002,15869.202121,41415.748467,37880.037770,34999.434352,33629.674748,-0.030000,0.974000,0.160000,192.000000,0.000000,0.000000,0.000000,0.000000,0.000000,0.000000,0.000000,0.000000,0.000000,1647329870.119126,0.000000
39.000000,53767.747136,65258.711905,36107.410325,15869.827970,41415.144970,37876.528546,34992.415904,33627.394870,-0.030000,0.974000,0.160000,192.000000,0.000000,0.000000,0.000000,0.000000,0.000000,0.000000,0.000000,0.000000,0.000000,1647329870.126237,0.000000
40.000000,53762.717994,65254.196853,36103.387011,15865.916415,41410.361697,37869.174822,34976.568517,33613.581492,-0.030000,0.974000,0.160000,192.000000,0.000000,0.000000,0.000000,0.000000,0.000000,0.000000,0.000000,0.000000,0.000000,1647329870.135203,0.000000
41.000000,53763.165028,65254.755647,36103.096438,15868.129238,41410.942842,37860.703511,34957.860107,33596.415352,-0.030000,0.974000,0.160000,192.000000,0.000000,0.000000,0.000000,0.000000,0.000000,0.000000,0.000000,0.000000,0.000000,1647329870.135207,0.000000
42.000000,53761.063964,65255.113274,36100.481284,15866.855188,41407.478321,37857.440157,34949.165279,33607.345355,-0.030000,0.974000,0.160000,192.000000,0.000000,0.000000,0.000000,0.000000,0.000000,0.000000,0.000000,0.000000,0.000000,1647329870.141822,0.000000
43.000000,53759.700508,65262.824626,36100.771856,15868.151589,41409.422923,37869.845375,34985.084532,33630.457059,-0.030000,0.974000,0.160000,192.000000,0.000000,0.000000,0.000000,0.000000,0.000000,0.000000,0.000000,0.000000,0.000000,1647329870.141826,0.000000
44.000000,53765.802534,65255.493254,36102.805865,15873.448953,41413.736810,37872.706398,34986.380933,33633.318082,-0.030000,0.974000,0.160000,192.000000,0.000000,0.000000,0.000000,0.000000,0.000000,0.000000,0.000000,0.000000,0.000000,1647329870.149779,0.000000
45.000000,53770.474049,65247.893661,36103.029383,15872.979566,41413.222720,37871.924087,34984.279869,33630.233542,-0.030000,0.974000,0.160000,192.000000,0.000000,0.000000,0.000000,0.000000,0.000000,0.000000,0.000000,0.000000,0.000000,1647329870.149783,0.000000
46.000000,53768.060061,65251.536995,36100.861263,15871.146723,41410.629917,37870.404168,34982.916413,33624.578550,-0.030000,0.974000,0.160000,192.000000,0.000000,0.000000,0.000000,0.000000,0.000000,0.000000,0.000000,0.000000,0.000000,1647329870.156355,0.000000
47.000000,53764.506133,65252.520472,36098.648441,15868.173941,41409.355868,37870.180651,34982.111750,33625.897303,-0.028000,0.966000,0.168000,192.000000,255.000000,32.000000,30.000000,48.000000,5.000000,64.000000,0.000000,0.000000,0.000000,1647329870.156358,0.000000
48.000000,53763.768526,65251.425237,36096.860301,15862.653060,41408.037115,37869.398340,34974.601564,33622.745707,-0.028000,0.966000,0.168000,192.000000,0.000000,0.000000,0.000000,0.000000,0.000000,0.000000,0.000000,0.000000,0.000000,1647329870.164478,0.000000
49.000000,53767.009529,65252.989859,36099.542510,15867.570444,41413.155665,37874.628648,34976.456759,33628.177181,-0.028000,0.966000,0.168000,192.000000,0.000000,0.000000,0.000000,0.000000,0.000000,0.000000,0.000000,0.000000,0.000000,1647329870.164481,0.000000
50.000000,53768.887075,65255.672068,36099.140179,15870.006784,41414.474418,37877.064988,34984.905718,33629.495934,-0.028000,0.966000,0.168000,192.000000,0.000000,0.000000,0.000000,0.000000,0.000000,0.000000,0.000000,0.000000,0.000000,1647329870.172421,0.000000
51.000000,53770.228180,65255.605013,36097.106170,15870.923206,41413.893272,37876.014456,34983.832834,33628.177181,-0.028000,0.966000,0.168000,192.000000,0.000000,0.000000,0.000000,0.000000,0.000000,0.000000,0.000000,0.000000,0.000000,1647329870.172426,0.000000
52.000000,53770.250531,65256.543786,36101.129484,15869.358584,41415.614356,37875.098035,34983.318744,33628.199533,-0.028000,0.966000,0.168000,192.000000,0.000000,0.000000,0.000000,0.000000,0.000000,0.000000,0.000000,0.000000,0.000000,1647329870.179593,0.000000
53.000000,53763.254435,65249.525338,36093.686353,15864.061220,41410.339345,37866.112633,34971.181747,33617.694213,-0.028000,0.966000,0.168000,192.000000,0.000000,0.000000,0.000000,0.000000,0.000000,0.000000,0.000000,0.000000,0.000000,1647329870.179596,0.000000
54.000000,53759.633453,65245.837301,36087.919603,15859.479113,41405.779589,37859.183593,34963.783319,33611.681594,-0.028000,0.966000,0.168000,192.000000,0.000000,0.000000,0.000000,0.000000,0.000000,0.000000,0.000000,0.000000,0.000000,1647329870.186001,0.000000
55.000000,53765.377851,65254.666240,36093.105208,15860.462589,41410.987545,37865.039750,34977.484939,33622.343376,-0.028000,0.966000,0.168000,192.000000,0.000000,0.000000,0.000000,0.000000,0.000000,0.000000,0.000000,0.000000,0.000000,1647329870.194030,0.000000
56.000000,53767.389508,65255.537958,36091.473531,15857.489807,41409.422923,37865.956171,34977.641401,33622.097507,-0.028000,0.966000,0.168000,192.000000,0.000000,0.000000,0.000000,0.000000,0.000000,0.000000,0.000000,0.000000,0.000000,1647329870.194033,0.000000
57.000000,53771.323415,65256.163806,36094.178092,15857.601566,41412.328650,37868.928953,34978.043732,33618.767097,-0.028000,0.970000,0.170000,192.000000,255.000000,32.000000,30.000000,80.000000,5.000000,80.000000,0.000000,0.000000,0.000000,1647329870.202048,0.000000
58.000000,53758.739383,65250.866443,36081.929336,15850.203139,41402.717400,37859.295351,34965.280886,33609.938158,-0.028000,0.970000,0.170000,192.000000,0.000000,0.000000,0.000000,0.000000,0.000000,0.000000,0.000000,0.000000,0.000000,1647329870.202052,0.000000
59.000000,53764.193209,65244.227975,36087.249051,15857.802732,41408.573557,37865.039750,34968.007799,33610.496951,-0.028000,0.970000,0.170000,192.000000,0.000000,0.000000,0.000000,0.000000,0.000000,0.000000,0.000000,0.000000,0.000000,1647329870.209058,0.000000
60.000000,53764.349671,65239.958792,36085.863243,15855.232281,41407.746542,37861.619933,34947.734767,33601.399791,-0.028000,0.970000,0.170000,192.000000,0.000000,0.000000,0.000000,0.000000,0.000000,0.000000,0.000000,0.000000,0.000000,1647329870.209083,0.000000
61.000000,53759.097011,65237.790673,36079.716513,15851.745409,41401.644516,37862.201078,34948.695892,33616.263701,-0.028000,0.970000,0.170000,192.000000,0.000000,0.000000,0.000000,0.000000,0.000000,0.000000,0.000000,0.000000,0.000000,1647329870.216606,0.000000
62.000000,53761.198075,65244.049161,36081.057618,15853.153569,41404.662002,37874.829814,34992.706477,33635.933237,-0.028000,0.970000,0.170000,192.000000,0.000000,0.000000,0.000000,0.000000,0.000000,0.000000,0.000000,0.000000,0.000000,1647329870.216609,0.000000
63.000000,53763.276787,65245.904356,36085.438560,15851.656002,41409.713496,37876.215622,34998.741448,33628.713623,-0.028000,0.970000,0.170000,192.000000,0.000000,0.000000,0.000000,0.000000,0.000000,0.000000,0.000000,0.000000,0.000000,1647329870.224782,0.000000
64.000000,53754.939587,65241.903393,36079.537699,15847.029191,41403.812635,37864.123328,34981.105921,33618.834152,-0.028000,0.970000,0.170000,192.000000,0.000000,0.000000,0.000000,0.000000,0.000000,0.000000,0.000000,0.000000,0.000000,1647329870.224785,0.000000
65.000000,53762.717994,65257.840187,36081.079970,15852.617127,41406.673659,37858.781261,34973.372218,33614.587321,-0.028000,0.970000,0.170000,192.000000,0.000000,0.000000,0.000000,0.000000,0.000000,0.000000,0.000000,0.000000,0.000000,1647329870.232606,0.000000
66.000000,53774.229142,65266.959699,36083.538661,15851.790112,41407.455970,37852.880401,34959.983523,33600.259852,-0.028000,0.970000,0.170000,192.000000,0.000000,0.000000,0.000000,0.000000,0.000000,0.000000,0.000000,0.000000,0.000000,1647329870.232609,0.000000
67.000000,53764.863761,65252.162844,36082.197557,15842.603545,41403.633821,37856.411976,34971.584078,33611.301614,-0.028000,0.970000,0.168000,192.000000,255.000000,32.000000,30.000000,80.000000,5.000000,64.000000,0.000000,0.000000,0.000000,1647329870.239305,0.000000
68.000000,53753.889055,65247.066646,36082.242260,15845.889252,41407.545377,37869.308933,34986.827968,33627.394870,-0.028000,0.970000,0.168000,192.000000,0.000000,0.000000,0.000000,0.000000,0.000000,0.000000,0.000000,0.000000,0.000000,1647329870.239309,0.000000
69.000000,53754.134924,65237.835376,36082.219909,15849.331421,41408.752371,37869.152471,34983.005820,33625.114992,-0.028000,0.970000,0.168000,192.000000,0.000000,0.000000,0.000000,0.000000,0.000000,0.000000,0.000000,0.000000,0.000000,1647329870.246351,0.000000
70.000000,53762.829752,65233.923821,36087.740789,15851.499540,41412.775685,37871.097072,34984.704552,33626.254931,-0.028000,0.970000,0.168000,192.000000,0.000000,0.000000,0.000000,0.000000,0.000000,0.000000,0.000000,0.000000,0.000000,1647329870.254350,0.000000
71.000000,53760.058136,65230.459300,36085.371504,15847.342115,41409.713496,37871.119424,34980.368314,33622.455135,-0.028000,0.970000,0.168000,192.000000,0.000000,0.000000,0.000000,0.000000,0.000000,0.000000,0.000000,0.000000,0.000000,1647329870.254354,0.000000
72.000000,53754.961938,65227.620629,36079.202423,15838.960211,41402.270365,37866.783186,34975.920317,33617.314233,-0.028000,0.970000,0.168000,192.000000,0.000000,0.000000,0.000000,0.000000,0.000000,0.000000,0.000000,0.000000,0.000000,1647329870.262401,0.000000
73.000000,53753.620834,65231.688646,36077.257821,15837.864976,41399.454045,37866.291447,34976.635573,33619.281187,-0.028000,0.970000,0.168000,192.000000,0.000000,0.000000,0.000000,0.000000,0.000000,0.000000,0.000000,0.000000,0.000000,1647329870.262405,0.000000
74.000000,53750.804514,65230.526356,36073.055693,15832.232336,41393.933164,37859.742386,34969.974753,33614.028527,-0.028000,0.970000,0.168000,192.000000,0.000000,0.000000,0.000000,0.000000,0.000000,0.000000,0.000000,0.000000,0.000000,1647329870.268981,0.000000
75.000000,53750.089258,65229.900507,36072.005161,15830.779473,41393.061446,37859.295351,34971.338209,33614.274396,-0.028000,0.970000,0.168000,192.000000,0.000000,0.000000,0.000000,0.000000,0.000000,0.000000,0.000000,0.000000,0.000000,1647329870.268984,0.000000
76.000000,53751.653880,65230.906335,36072.541603,15831.047694,41394.313144,37860.323532,34970.131215,33614.788486,-0.028000,0.970000,0.168000,192.000000,0.000000,0.000000,0.000000,0.000000,0.000000,0.000000,0.000000,0.000000,0.000000,1647329870.277002,0.000000
77.000000,53749.664575,65235.734312,36071.692237,15830.645362,41394.179034,37859.563572,34968.276020,33614.654376,-0.030000,0.968000,0.168000,192.000000,255.000000,16.000000,30.000000,64.000000,5.000000,64.000000,0.000000,0.000000,0.000000,1647329870.277005,0.000000
78.000000,53761.175723,65245.703190,36081.102321,15839.094322,41404.885519,37868.236049,34977.149663,33620.823457,-0.030000,0.968000,0.168000,192.000000,0.000000,0.000000,0.000000,0.000000,0.000000,0.000000,0.000000,0.000000,0.000000,1647329870.285011,0.000000
79.000000,53765.243741,65245.077341,36085.550318,15840.994220,41409.132351,37866.805538,34972.522852,33615.257873,-0.030000,0.968000,0.168000,192.000000,0.000000,0.000000,0.000000,0.000000,0.000000,0.000000,0.000000,0.000000,0.000000,1647329870.285014,0.000000
80.000000,53758.091182,65239.958792,36078.062484,15834.378104,41401.353944,37858.244819,34966.510232,33609.066440,-0.030000,0.968000,0.168000,192.000000,0.000000,0.000000,0.000000,0.000000,0.000000,0.000000,0.000000,0.000000,0.000000,1647329870.291609,0.000000
81.000000,53756.906540,65249.458283,36076.788435,15832.947592,41399.454045,37862.692817,34976.657924,33619.907036,-0.030000,0.968000,0.168000,192.000000,0.000000,0.000000,0.000000,0.000000,0.000000,0.000000,0.000000,0.000000,0.000000,1647329870.291612,0.000000
82.000000,53758.940549,65241.523414,36077.257821,15834.176938,41400.795150,37863.050444,34975.920317,33615.034356,-0.030000,0.968000,0.168000,192.000000,0.000000,0.000000,0.000000,0.000000,0.000000,0.000000,0.000000,0.000000,0.000000,1647329870.299692,0.000000
83.000000,53758.158238,65227.665332,36073.681542,15830.354790,41397.576499,37858.736558,34964.722093,33611.167504,-0.030000,0.968000,0.168000,192.000000,0.000000,0.000000,0.000000,0.000000,0.000000,0.000000,0.000000,0.000000,0.000000,1647329870.299695,0.000000
84.000000,53758.314700,65230.906335,36072.385141,15825.996199,41394.916641,37849.751157,34941.230409,33598.427009,-0.030000,0.968000,0.168000,192.000000,0.000000,0.000000,0.000000,0.000000,0.000000,0.000000,0.000000,0.000000,0.000000,1647329870.306798,0.000000
85.000000,53758.828790,65234.124986,36071.334609,15825.437406,41392.256784,37848.298293,34942.951494,33600.550425,-0.030000,0.968000,0.168000,192.000000,0.000000,0.000000,0.000000,0.000000,0.000000,0.000000,0.000000,0.000000,0.000000,1647329870.315242,0.000000
86.000000,53760.482819,65238.796501,36070.976981,15826.823214,41390.759217,37855.339093,34978.066084,33617.493047,-0.030000,0.968000,0.168000,192.000000,0.000000,0.000000,0.000000,0.000000,0.000000,0.000000,0.000000,0.000000,0.000000,1647329870.315259,0.000000
87.000000,53760.438116,65241.478710,36073.279211,15825.549164,41392.368542,37858.066005,34986.693858,33615.548446,-0.028000,0.964000,0.174000,192.000000,255.000000,32.000000,30.000000,32.000000,5.000000,112.000000,0.000000,0.000000,0.000000,1647329870.321804,0.000000
88.000000,53751.877398,65231.576888,36065.836080,15817.457833,41384.612487,37848.790032,34969.483014,33602.919710,-0.028000,0.964000,0.174000,192.000000,0.000000,0.000000,0.000000,0.000000,0.000000,0.000000,0.000000,0.000000,0.000000,1647329870.321820,0.000000
89.000000,53754.626662,65231.867460,36070.127615,15821.078816,41388.367580,37857.931895,34984.905718,33624.824420,-0.028000,0.964000,0.174000,192.000000,0.000000,0.000000,0.000000,0.000000,0.000000,0.000000,0.000000,0.000000,0.000000,1647329870.329694,0.000000
90.000000,53758.337052,65235.086111,36074.307391,15824.364522,41391.943859,37861.709340,34980.033038,33624.533847,-0.028000,0.964000,0.174000,192.000000,0.000000,0.000000,0.000000,0.000000,0.000000,0.000000,0.000000,0.000000,0.000000,1647329870.329710,0.000000
91.000000,53758.873494,65239.131777,36072.966286,15824.297467,41392.122673,37861.932857,34976.523814,33621.494010,-0.028000,0.964000,0.174000,192.000000,0.000000,0.000000,0.000000,0.000000,0.000000,0.000000,0.000000,0.000000,0.000000,1647329870.337705,0.000000
92.000000,53762.539180,65245.189100,36073.748597,15823.023417,41392.010914,37859.988255,34973.551032,33619.527056,-0.028000,0.964000,0.174000,192.000000,0.000000,0.000000,0.000000,0.000000,0.000000,0.000000,0.000000,0.000000,0.000000,1647329870.337720,0.000000
93.000000,53760.505171,65247.088998,36074.709722,15819.827118,41390.938031,37858.513040,34971.964058,33618.655338,-0.028000,0.964000,0.174000,192.000000,0.000000,0.000000,0.000000,0.000000,0.000000,0.000000,0.000000,0.000000,0.000000,1647329870.344815,0.000000
94.000000,53753.687889,65238.528280,36067.087778,15814.105071,41383.271382,37848.544162,34964.319761,33608.105315,-0.028000,0.964000,0.174000,192.000000,0.000000,0.000000,0.000000,0.000000,0.000000,0.000000,0.000000,0.000000,0.000000,1647329870.344832,0.000000
95.000000,53751.296252,65240.785806,36063.623257,15807.846583,41378.421054,37842.866819,34955.736691,33600.662184,-0.028000,0.964000,0.174000,192.000000,0.000000,0.000000,0.000000,0.000000,0.000000,0.000000,0.000000,0.000000,0.000000,1647329870.352368,0.000000
96.000000,53755.028993,65241.724580,36068.361827,15812.987484,41383.897231,37847.068947,34956.362540,33602.405620,-0.028000,0.964000,0.174000,192.000000,0.000000,0.000000,0.000000,0.000000,0.000000,0.000000,0.000000,0.000000,0.000000,1647329870.352383,0.000000
97.000000,53763.388546,65233.454434,36076.900193,15820.072987,41392.882632,37853.595657,34959.469433,33606.808914,-0.026000,0.962000,0.172000,192.000000,255.000000,48.000000,30.000000,16.000000,5.000000,96.000000,0.000000,0.000000,0.000000,1647329870.360320,0.000000
98.000000,53764.953168,65237.008361,36079.001257,15822.151699,41394.335496,37856.836660,34967.158433,33612.352146,-0.026000,0.962000,0.172000,192.000000,0.000000,0.000000,0.000000,0.000000,0.000000,0.000000,0.000000,0.000000,0.000000,1647329870.360336,0.000000
99.000000,53761.846276,65235.711960,36075.335571,15818.463661,41389.708685,37855.339093,34966.443177,33612.352146,-0.026000,0.962000,0.172000,192.000000,0.000000,0.000000,0.000000,0.000000,0.000000,0.000000,0.000000,0.000000,0.000000,1647329870.367413,0.000000
100.000000,53762.181552,65238.550632,36073.547432,15817.837813,41388.680504,37855.830831,34963.135119,33608.664108,-0.026000,0.962000,0.172000,192.000000,0.000000,0.000000,0.000000,0.000000,0.000000,0.000000,0.000000,0.000000,0.000000,1647329870.367429,0.000000
101.000000,53754.649014,65236.360161,36068.317123,15817.413129,41386.400626,37853.886229,34959.156508,33605.356050,-0.026000,0.962000,0.172000,192.000000,0.000000,0.000000,0.000000,0.000000,0.000000,0.000000,0.000000,0.000000,0.000000,1647329870.374511,0.000000
102.000000,53757.912369,65239.310591,36073.659190,15820.721188,41392.547356,37859.183593,34968.745407,33612.352146,-0.026000,0.962000,0.172000,192.000000,0.000000,0.000000,0.000000,0.000000,0.000000,0.000000,0.000000,0.000000,0.000000,1647329870.382006,0.000000
103.000000,53755.788953,65237.164824,36070.194670,15813.769795,41387.652324,37853.260380,34962.621029,33606.071306,-0.026000,0.962000,0.172000,192.000000,0.000000,0.000000,0.000000,0.000000,0.000000,0.000000,0.000000,0.000000,0.000000,1647329870.382022,0.000000
104.000000,53758.091182,65246.418446,36072.005161,15815.937914,41388.255821,37854.377968,34968.477186,33603.456152,-0.026000,0.962000,0.172000,192.000000,0.000000,0.000000,0.000000,0.000000,0.000000,0.000000,0.000000,0.000000,0.000000,1647329870.390069,0.000000
105.000000,53758.582921,65256.320269,36072.832176,15811.735786,41388.904022,37854.735596,34961.414035,33606.697155,-0.026000,0.962000,0.172000,192.000000,0.000000,0.000000,0.000000,0.000000,0.000000,0.000000,0.000000,0.000000,0.000000,1647329870.390085,0.000000
106.000000,53760.147543,65242.305725,36074.665019,15813.769795,41390.356885,37856.210811,34958.485956,33607.054783,-0.026000,0.962000,0.172000,192.000000,0.000000,0.000000,0.000000,0.000000,0.000000,0.000000,0.000000,0.000000,0.000000,1647329870.398009,0.000000
107.000000,53760.728688,65237.410693,36076.654324,15815.401472,41391.250955,37853.774471,34950.349921,33599.969280,-0.030000,0.968000,0.172000,192.000000,255.000000,16.000000,30.000000,64.000000,5.000000,96.000000,0.000000,0.000000,0.000000,1647329870.398026,0.000000
108.000000,53756.861837,65243.602126,36072.608658,15813.546278,41387.451158,37849.862915,34938.123517,33602.427972,-0.030000,0.968000,0.172000,192.000000,0.000000,0.000000,0.000000,0.000000,0.000000,0.000000,0.000000,0.000000,0.000000,1647329870.404626,0.000000
109.000000,53757.845313,65240.025847,36072.720417,15814.820327,41388.345228,37850.064081,34942.213886,33602.897358,-0.030000,0.968000,0.172000,192.000000,0.000000,0.000000,0.000000,0.000000,0.000000,0.000000,0.000000,0.000000,0.000000,1647329870.404642,0.000000
110.000000,53762.673290,65242.752760,36078.867147,15824.431577,41394.961345,37861.709340,34978.758988,33613.894417,-0.030000,0.968000,0.172000,192.000000,0.000000,0.000000,0.000000,0.000000,0.000000,0.000000,0.000000,0.000000,0.000000,1647329870.412672,0.000000
111.000000,53766.383680,65249.458283,36082.152853,15825.012723,41396.615374,37865.039750,34988.705515,33604.283166,-0.030000,0.968000,0.172000,192.000000,0.000000,0.000000,0.000000,0.000000,0.000000,0.000000,0.000000,0.000000,0.000000,1647329870.412688,0.000000
112.000000,53764.103802,65251.492292,36079.068313,15819.894173,41394.849586,37865.330322,34978.557823,33616.218998,-0.030000,0.968000,0.172000,192.000000,0.000000,0.000000,0.000000,0.000000,0.000000,0.000000,0.000000,0.000000,0.000000,1647329870.420641,0.000000
113.000000,53768.037709,65265.596243,36082.398722,15823.045769,41399.208176,37872.572288,34982.290564,33625.651434,-0.030000,0.968000,0.172000,192.000000,0.000000,0.000000,0.000000,0.000000,0.000000,0.000000,0.000000,0.000000,0.000000,1647329870.420658,0.000000
114.000000,53754.671366,65253.414542,36068.853565,15808.114804,41385.014818,37857.261343,34958.821232,33605.110181,-0.030000,0.968000,0.172000,192.000000,0.000000,0.000000,0.000000,0.000000,0.000000,0.000000,0.000000,0.000000,0.000000,1647329870.427795,0.000000
115.000000,53747.094124,65232.850937,36065.523155,15803.555048,41380.365655,37856.859011,34958.664770,33610.541655,-0.030000,0.968000,0.172000,192.000000,0.000000,0.000000,0.000000,0.000000,0.000000,0.000000,0.000000,0.000000,0.000000,1647329870.427811,0.000000
116.000000,53754.738421,65233.141510,36074.217984,15815.133252,41388.456987,37866.336151,34974.400398,33622.231617,-0.030000,0.968000,0.172000,192.000000,0.000000,0.000000,0.000000,0.000000,0.000000,0.000000,0.000000,0.000000,0.000000,1647329870.434328,0.000000
117.000000,53754.291386,65235.331981,36072.698065,15813.702740,41387.562917,37861.776395,34966.398474,33614.207341,-0.024000,0.966000,0.170000,192.000000,255.000000,64.000000,30.000000,48.000000,5.000000,80.000000,0.000000,0.000000,0.000000,1647329870.442322,0.000000
118.000000,53758.404107,65243.982106,36077.302525,15815.893211,41391.876804,37867.319628,34978.736636,33619.057670,-0.024000,0.966000,0.170000,192.000000,0.000000,0.000000,0.000000,0.000000,0.000000,0.000000,0.000000,0.000000,0.000000,1647329870.442338,0.000000
119.000000,53758.091182,65245.323210,36075.626144,15814.976789,41390.580403,37866.671427,34978.982506,33619.080021,-0.024000,0.966000,0.170000,192.000000,0.000000,0.000000,0.000000,0.000000,0.000000,0.000000,0.000000,0.000000,0.000000,1647329870.450229,0.000000
120.000000,53757.532389,65244.697362,36072.429844,15812.674560,41388.479339,37865.173860,34974.042770,33617.358937,-0.024000,0.966000,0.170000,192.000000,0.000000,0.000000,0.000000,0.000000,0.000000,0.000000,0.000000,0.000000,0.000000,1647329870.450245,0.000000
121.000000,53755.476028,65240.674048,36069.859394,15809.478260,41385.931240,37863.385721,34972.187575,33615.995481,-0.024000,0.966000,0.170000,192.000000,0.000000,0.000000,0.000000,0.000000,0.000000,0.000000,0.000000,0.000000,0.000000,1647329870.457410,0.000000
122.000000,53754.067868,65246.083170,36067.087778,15807.578362,41383.070217,37860.792918,34969.281849,33612.977995,-0.024000,0.966000,0.170000,192.000000,0.000000,0.000000,0.000000,0.000000,0.000000,0.000000,0.000000,0.000000,0.000000,1647329870.457427,0.000000
123.000000,53760.505171,65255.761475,36075.134406,15813.255705,41390.759217,37866.894945,34975.093302,33619.795277,-0.024000,0.966000,0.170000,192.000000,0.000000,0.000000,0.000000,0.000000,0.000000,0.000000,0.000000,0.000000,0.000000,1647329870.464843,0.000000
124.000000,53759.208770,65244.652658,36077.123711,15817.860164,41394.603717,37871.141776,34979.384837,33623.416260,-0.024000,0.966000,0.170000,192.000000,0.000000,0.000000,0.000000,0.000000,0.000000,0.000000,0.000000,0.000000,0.000000,1647329870.464860,0.000000
125.000000,53754.783124,65239.020018,36073.189804,15813.300409,41389.842795,37864.995046,34964.766796,33615.190818,-0.024000,0.966000,0.170000,192.000000,0.000000,0.000000,0.000000,0.000000,0.000000,0.000000,0.000000,0.000000,0.000000,1647329870.472875,0.000000
126.000000,53749.664575,65235.264925,36067.780682,15804.650283,41382.623182,37858.893020,34957.368369,33607.770039,-0.024000,0.966000,0.170000,192.000000,0.000000,0.000000,0.000000,0.000000,0.000000,0.000000,0.000000,0.000000,0.000000,1647329870.472891,0.000000
127.000000,53746.624738,65231.018094,36064.584382,15798.727071,41377.906964,37855.674369,34961.615200,33603.143227,-0.024000,0.972000,0.170000,192.000000,255.000000,64.000000,30.000000,96.000000,5.000000,80.000000,0.000000,0.000000,0.000000,1647329870.479957,0.000000
128.000000,53750.938624,65237.656562,36064.271458,15797.743594,41376.409397,37855.652017,34962.732787,33606.853617,-0.024000,0.972000,0.170000,192.000000,0.000000,0.000000,0.000000,0.000000,0.000000,0.000000,0.000000,0.000000,0.000000,1647329870.479972,0.000000
129.000000,53761.063964,65249.368876,36073.592135,15808.315970,41385.864185,37862.446947,34959.245915,33611.726297,-0.024000,0.972000,0.170000,192.000000,0.000000,0.000000,0.000000,0.000000,0.000000,0.000000,0.000000,0.000000,0.000000,1647329870.487412,0.000000
130.000000,53759.387584,65244.607955,36073.882708,15810.327627,41385.774778,37861.843450,34956.496651,33610.921635,-0.024000,0.972000,0.170000,192.000000,0.000000,0.000000,0.000000,0.000000,0.000000,0.000000,0.000000,0.000000,0.000000,1647329870.487429,0.000000
131.000000,53755.900712,65240.115254,36071.312257,15806.706644,41382.377312,37863.385721,34976.076779,33617.604806,-0.024000,0.972000,0.170000,192.000000,0.000000,0.000000,0.000000,0.000000,0.000000,0.000000,0.000000,0.000000,0.000000,1647329870.494511,0.000000
132.000000,53758.985252,65243.825644,36071.446368,15806.773699,41383.718417,37866.403206,34984.570442,33618.096545,-0.024000,0.972000,0.170000,192.000000,0.000000,0.000000,0.000000,0.000000,0.000000,0.000000,0.000000,0.000000,0.000000,1647329870.502375,0.000000
133.000000,53750.983328,65237.053065,36066.417225,15798.145926,41377.839908,37861.307008,34969.058331,33609.938158,-0.024000,0.972000,0.170000,192.000000,0.000000,0.000000,0.000000,0.000000,0.000000,0.000000,0.000000,0.000000,0.000000,1647329870.502391,0.000000
134.000000,53752.167970,65240.718751,36069.680580,15797.296559,41379.896269,37865.106805,34973.126349,33616.822495,-0.024000,0.972000,0.170000,192.000000,0.000000,0.000000,0.000000,0.000000,0.000000,0.000000,0.000000,0.000000,0.000000,1647329870.509641,0.000000
135.000000,53751.676232,65240.227013,36068.250068,15796.290731,41377.147004,37863.810404,34968.656000,33610.072268,-0.024000,0.972000,0.170000,192.000000,0.000000,0.000000,0.000000,0.000000,0.000000,0.000000,0.000000,0.000000,0.000000,1647329870.509657,0.000000
136.000000,53745.127171,65233.767359,36061.231620,15791.909789,41369.927391,37857.909543,34950.707549,33605.400754,-0.024000,0.972000,0.170000,192.000000,0.000000,0.000000,0.000000,0.000000,0.000000,0.000000,0.000000,0.000000,0.000000,1647329870.517107,0.000000
137.000000,53750.536293,65242.238670,36065.120824,15798.414147,41373.034283,37864.458604,34956.295485,33614.319100,-0.028000,0.968000,0.176000,192.000000,255.000000,32.000000,30.000000,64.000000,5.000000,128.000000,0.000000,0.000000,0.000000,1647329870.517124,0.000000
138.000000,53748.368174,65248.050123,36062.438615,15794.033205,41370.262667,37865.665599,34975.808558,33610.228730,-0.028000,0.968000,0.176000,192.000000,0.000000,0.000000,0.000000,0.000000,0.000000,0.000000,0.000000,0.000000,0.000000,1647329870.525152,0.000000
139.000000,53754.827828,65247.737199,36068.451234,15801.208115,41377.728150,37869.443043,34980.792997,33610.049917,-0.028000,0.968000,0.176000,192.000000,0.000000,0.000000,0.000000,0.000000,0.000000,0.000000,0.000000,0.000000,0.000000,1647329870.525168,0.000000
140.000000,53756.079525,65236.427216,36068.227716,15801.319873,41376.543507,37867.073758,34975.003895,33609.960510,-0.028000,0.968000,0.176000,192.000000,0.000000,0.000000,0.000000,0.000000,0.000000,0.000000,0.000000,0.000000,0.000000,1647329870.533156,0.000000
141.000000,53747.071772,65228.224126,36058.795280,15792.245065,41368.094548,37856.970770,34956.139023,33600.796294,-0.028000,0.968000,0.176000,192.000000,0.000000,0.000000,0.000000,0.000000,0.000000,0.000000,0.000000,0.000000,0.000000,1647329870.533171,0.000000
142.000000,53755.386621,65236.650734,36066.171356,15799.062347,41374.956533,37862.938686,34961.570497,33602.584434,-0.028000,0.968000,0.176000,192.000000,0.000000,0.000000,0.000000,0.000000,0.000000,0.000000,0.000000,0.000000,0.000000,1647329870.539806,0.000000
143.000000,53752.547950,65234.437911,36061.097510,15793.474411,41370.866164,37861.150546,34973.483977,33602.897358,-0.028000,0.968000,0.176000,192.000000,0.000000,0.000000,0.000000,0.000000,0.000000,0.000000,0.000000,0.000000,0.000000,1647329870.539821,0.000000
144.000000,53756.034822,65241.009324,36061.745711,15795.128440,41372.430786,37859.742386,34976.389703,33608.284129,-0.028000,0.968000,0.176000,192.000000,0.000000,0.000000,0.000000,0.000000,0.000000,0.000000,0.000000,0.000000,0.000000,1647329870.547822,0.000000
145.000000,53761.153371,65254.420370,36062.304504,15801.208115,41373.838946,37858.177764,34972.791072,33612.508608,-0.028000,0.968000,0.176000,192.000000,0.000000,0.000000,0.000000,0.000000,0.000000,0.000000,0.000000,0.000000,0.000000,1647329870.547839,0.000000
146.000000,53762.606235,65256.096751,36062.058635,15798.257684,41372.877821,37854.780299,34959.156508,33607.658280,-0.028000,0.968000,0.176000,192.000000,0.000000,0.000000,0.000000,0.000000,0.000000,0.000000,0.000000,0.000000,0.000000,1647329870.554636,0.000000
147.000000,53755.453677,65244.719713,36063.958533,15792.312120,41373.168394,37858.021302,34951.333398,33606.697155,-0.028000,0.964000,0.168000,192.000000,255.000000,32.000000,30.000000,32.000000,5.000000,64.000000,0.000000,0.000000,0.000000,1647329870.562826,0.000000
148.000000,53756.571264,65247.066646,36068.697103,15795.888400,41376.699969,37862.335189,34946.416014,33604.886664,-0.028000,0.964000,0.168000,192.000000,0.000000,0.000000,0.000000,0.000000,0.000000,0.000000,0.000000,0.000000,0.000000,1647329870.562843,0.000000
149.000000,53753.777296,65236.315457,36062.684484,15787.752365,41368.698045,37855.897886,34949.880534,33595.700097,-0.028000,0.964000,0.168000,192.000000,0.000000,0.000000,0.000000,0.000000,0.000000,0.000000,0.000000,0.000000,0.000000,1647329870.569283,0.000000
150.000000,53748.301118,65226.681856,36059.175260,15785.696004,41363.892420,37852.008683,34959.223564,33590.201567,-0.028000,0.964000,0.168000,192.000000,0.000000,0.000000,0.000000,0.000000,0.000000,0.000000,0.000000,0.000000,0.000000,1647329870.569299,0.000000
151.000000,53749.776334,65230.660466,36058.080024,15782.969091,41361.769004,37848.275941,34962.241049,33592.660259,-0.028000,0.964000,0.168000,192.000000,0.000000,0.000000,0.000000,0.000000,0.000000,0.000000,0.000000,0.000000,0.000000,1647329870.577130,0.000000
152.000000,53762.785049,65255.359144,36067.177184,15789.182876,41369.972094,37855.093223,34962.710436,33606.987728,-0.028000,0.964000,0.168000,192.000000,0.000000,0.000000,0.000000,0.000000,0.000000,0.000000,0.000000,0.000000,0.000000,1647329870.577139,0.000000
153.000000,53759.253473,65253.325135,36066.551336,15786.612426,41371.089682,37857.730729,34960.698779,33611.748649,-0.028000,0.964000,0.168000,192.000000,0.000000,0.000000,0.000000,0.000000,0.000000,0.000000,0.000000,0.000000,0.000000,1647329870.585425,0.000000
154.000000,53763.701470,65249.704152,36073.569783,15799.509382,41380.253897,37867.878421,34974.400398,33614.095582,-0.028000,0.964000,0.168000,192.000000,0.000000,0.000000,0.000000,0.000000,0.000000,0.000000,0.000000,0.000000,0.000000,1647329870.585441,0.000000
155.000000,53760.862799,65240.763455,36067.355998,15799.509382,41375.515327,37862.715168,34963.492747,33613.559140,-0.028000,0.964000,0.168000,192.000000,0.000000,0.000000,0.000000,0.000000,0.000000,0.000000,0.000000,0.000000,0.000000,1647329870.592504,0.000000
156.000000,53766.204866,65246.753722,36071.759292,15807.935990,41382.153795,37865.620895,34955.177898,33618.275358,-0.028000,0.964000,0.168000,192.000000,0.000000,0.000000,0.000000,0.000000,0.000000,0.000000,0.000000,0.000000,0.000000,1647329870.592520,0.000000
157.000000,53768.350633,65250.352353,36077.190766,15808.472432,41386.825310,37872.594639,34974.132177,33622.902170,-0.028000,0.964000,0.168000,192.000000,0.000000,0.000000,0.000000,0.000000,0.000000,0.000000,0.000000,0.000000,0.000000,1647329870.599839,0.000000
158.000000,53756.437153,65238.997667,36065.947839,15790.613388,41373.838946,37864.212735,34977.306125,33610.809876,-0.030000,0.962000,0.168000,192.000000,255.000000,16.000000,30.000000,16.000000,5.000000,64.000000,0.000000,0.000000,0.000000,1647329870.599855,0.000000
159.000000,53761.063964,65243.579774,36070.865222,15797.184801,41378.063426,37869.174822,34973.908660,33610.921635,-0.030000,0.962000,0.168000,192.000000,0.000000,0.000000,0.000000,0.000000,0.000000,0.000000,0.000000,0.000000,0.000000,1647329870.608018,0.000000
160.000000,53763.790877,65245.636135,36074.419150,15800.515211,41381.147967,37875.835642,34975.003895,33613.849713,-0.030000,0.962000,0.168000,192.000000,0.000000,0.000000,0.000000,0.000000,0.000000,0.000000,0.000000,0.000000,0.000000,1647329870.608034,0.000000
161.000000,53758.582921,65244.652658,36069.077083,15795.486068,41375.090644,37870.515927,34967.985447,33607.188893,-0.030000,0.962000,0.168000,192.000000,0.000000,0.000000,0.000000,0.000000,0.000000,0.000000,0.000000,0.000000,0.000000,1647329870.615116,0.000000
162.000000,53763.030918,65252.587527,36074.888536,15800.761080,41379.516289,37875.634477,34974.892136,33614.341451,-0.030000,0.962000,0.168000,192.000000,0.000000,0.000000,0.000000,0.000000,0.000000,0.000000,0.000000,0.000000,0.000000,1647329870.615133,0.000000
163.000000,53766.450735,65250.084132,36075.894365,15797.587132,41379.136310,37876.260325,34971.941706,33612.665071,-0.030000,0.962000,0.168000,192.000000,0.000000,0.000000,0.000000,0.000000,0.000000,0.000000,0.000000,0.000000,0.000000,1647329870.622391,0.000000
164.000000,53757.465334,65240.584641,36065.478452,15783.259664,41367.871030,37866.112633,34963.470395,33602.047992,-0.030000,0.962000,0.168000,192.000000,0.000000,0.000000,0.000000,0.000000,0.000000,0.000000,0.000000,0.000000,0.000000,1647329870.629597,0.000000
165.000000,53758.247645,65253.861577,36064.942010,15782.656167,41366.932257,37866.067930,34963.380988,33602.115047,-0.030000,0.962000,0.168000,192.000000,0.000000,0.000000,0.000000,0.000000,0.000000,0.000000,0.000000,0.000000,0.000000,1647329870.629613,0.000000
166.000000,53758.024127,65256.052048,36062.617429,15780.845676,41364.339455,37864.570363,34964.878555,33603.858483,-0.030000,0.962000,0.168000,192.000000,0.000000,0.000000,0.000000,0.000000,0.000000,0.000000,0.000000,0.000000,0.000000,1647329870.637788,0.000000
167.000000,53760.147543,65238.058893,36064.718493,15782.410298,41364.786490,37866.179689,34965.772625,33607.367707,-0.030000,0.962000,0.168000,192.000000,0.000000,0.000000,0.000000,0.000000,0.000000,0.000000,0.000000,0.000000,0.000000,1647329870.637803,0.000000
168.000000,53760.169895,65233.432082,36065.210231,15786.500667,41368.407472,37867.207869,34960.788186,33607.434762,-0.030000,0.974000,0.170000,192.000000,255.000000,16.000000,30.000000,112.000000,5.000000,80.000000,0.000000,0.000000,0.000000,1647329870.645595,0.000000
169.000000,53763.947340,65242.618649,36068.697103,15791.060423,41370.866164,37865.173860,34954.216773,33602.897358,-0.030000,0.974000,0.170000,192.000000,0.000000,0.000000,0.000000,0.000000,0.000000,0.000000,0.000000,0.000000,0.000000,1647329870.645611,0.000000
170.000000,53780.845258,65269.731315,36074.933240,15802.839792,41376.856432,37862.044616,34948.673540,33589.955698,-0.030000,0.974000,0.170000,192.000000,0.000000,0.000000,0.000000,0.000000,0.000000,0.000000,0.000000,0.000000,0.000000,1647329870.652349,0.000000
171.000000,53785.561476,65273.955795,36063.198574,15787.305330,41362.685426,37841.011624,34936.558895,33572.968372,-0.030000,0.974000,0.170000,192.000000,0.000000,0.000000,0.000000,0.000000,0.000000,0.000000,0.000000,0.000000,0.000000,1647329870.652365,0.000000
172.000000,53778.431270,65252.699286,36066.394873,15780.756269,41363.378330,37850.622875,34949.724072,33592.526149,-0.030000,0.974000,0.170000,192.000000,0.000000,0.000000,0.000000,0.000000,0.000000,0.000000,0.000000,0.000000,0.000000,1647329870.660361,0.000000
173.000000,53750.603348,65217.942323,36064.204402,15770.116838,41360.539658,37860.457642,34955.669636,33599.164617,-0.030000,0.974000,0.170000,192.000000,0.000000,0.000000,0.000000,0.000000,0.000000,0.000000,0.000000,0.000000,0.000000,1647329870.660377,0.000000
174.000000,53752.391488,65222.345617,36065.120824,15770.966205,41359.600885,37859.608276,34956.586058,33596.616518,-0.030000,0.974000,0.170000,192.000000,0.000000,0.000000,0.000000,0.000000,0.000000,0.000000,0.000000,0.000000,0.000000,1647329870.668366,0.000000
175.000000,53759.722860,65230.906335,36068.183013,15773.737821,41361.523135,37856.099052,34951.668674,33587.362896,-0.030000,0.974000,0.170000,192.000000,0.000000,0.000000,0.000000,0.000000,0.000000,0.000000,0.000000,0.000000,0.000000,1647329870.668382,0.000000
176.000000,53752.167970,65224.938419,36061.589248,15765.378268,41355.510516,37849.527639,34946.773642,33576.075265,-0.030000,0.974000,0.170000,192.000000,0.000000,0.000000,0.000000,0.000000,0.000000,0.000000,0.000000,0.000000,0.000000,1647329870.675563,0.000000
177.000000,53748.256415,65225.877193,36055.733091,15759.186835,41348.223847,37842.263322,34940.425746,33566.084035,-0.030000,0.974000,0.170000,192.000000,0.000000,0.000000,0.000000,0.000000,0.000000,0.000000,0.000000,0.000000,0.000000,1647329870.675578,0.000000
178.000000,53754.000813,65233.096806,36063.667961,15768.820437,41356.628103,37864.793881,34969.304200,33615.995481,-0.026000,0.964000,0.164000,192.000000,255.000000,48.000000,30.000000,32.000000,5.000000,32.000000,0.000000,0.000000,0.000000,1647329870.681940,0.000000
179.000000,53752.078563,65232.046274,36064.405568,15772.240254,41358.036263,37872.438177,34981.172977,33625.383213,-0.026000,0.964000,0.164000,192.000000,0.000000,0.000000,0.000000,0.000000,0.000000,0.000000,0.000000,0.000000,0.000000,1647329870.689941,0.000000
180.000000,53757.644148,65241.121082,36065.612562,15774.587187,41358.729167,37868.906602,34976.076779,33618.208303,-0.026000,0.964000,0.164000,192.000000,0.000000,0.000000,0.000000,0.000000,0.000000,0.000000,0.000000,0.000000,0.000000,1647329870.689957,0.000000
181.000000,53759.856970,65249.838263,36066.461929,15774.207207,41359.377367,37866.827889,34973.193404,33613.626196,-0.026000,0.964000,0.164000,192.000000,0.000000,0.000000,0.000000,0.000000,0.000000,0.000000,0.000000,0.000000,0.000000,1647329870.697993,0.000000
182.000000,53754.246682,65239.936440,36059.398777,15767.993423,41353.141231,37860.234125,34963.962133,33604.126704,-0.026000,0.964000,0.164000,192.000000,0.000000,0.000000,0.000000,0.000000,0.000000,0.000000,0.000000,0.000000,0.000000,1647329870.698009,0.000000
183.000000,53757.487685,65229.319361,36058.169431,15767.121704,41352.157754,37858.088357,34964.252706,33601.109219,-0.026000,0.964000,0.164000,192.000000,0.000000,0.000000,0.000000,0.000000,0.000000,0.000000,0.000000,0.000000,0.000000,1647329870.704396,0.000000
184.000000,53750.513941,65222.703245,36052.223867,15759.723277,41344.468754,37854.825003,34963.112767,33598.158788,-0.026000,0.964000,0.164000,192.000000,0.000000,0.000000,0.000000,0.000000,0.000000,0.000000,0.000000,0.000000,0.000000,1647329870.704412,0.000000
185.000000,53747.228235,65222.323265,36052.045053,15761.757286,41345.184010,37855.562610,34963.045712,33598.024678,-0.026000,0.964000,0.164000,192.000000,0.000000,0.000000,0.000000,0.000000,0.000000,0.000000,0.000000,0.000000,0.000000,1647329870.712644,0.000000
186.000000,53745.618909,65223.463204,36051.530963,15760.706754,41344.088774,37854.087395,34960.698779,33594.515454,-0.026000,0.964000,0.164000,192.000000,0.000000,0.000000,0.000000,0.000000,0.000000,0.000000,0.000000,0.000000,0.000000,1647329870.712660,0.000000
187.000000,53752.682060,65235.220222,36056.224830,15764.081867,41349.028510,37857.842488,34961.749311,33598.449361,-0.026000,0.964000,0.164000,192.000000,0.000000,0.000000,0.000000,0.000000,0.000000,0.000000,0.000000,0.000000,0.000000,1647329870.720658,0.000000
188.000000,53757.241816,65243.199795,36059.801109,15765.534731,41352.247161,37861.865802,34962.464567,33599.812818,-0.020000,0.970000,0.168000,192.000000,255.000000,96.000000,30.000000,80.000000,5.000000,64.000000,0.000000,0.000000,0.000000,1647329870.720674,0.000000
189.000000,53758.649976,65237.164824,36062.662132,15767.658146,41355.063481,37862.938686,34957.390721,33597.801161,-0.020000,0.970000,0.168000,192.000000,0.000000,0.000000,0.000000,0.000000,0.000000,0.000000,0.000000,0.000000,0.000000,1647329870.727844,0.000000
190.000000,53759.856970,65235.197870,36063.220926,15765.825303,41355.085832,37864.592715,34963.895078,33600.572777,-0.020000,0.970000,0.168000,192.000000,0.000000,0.000000,0.000000,0.000000,0.000000,0.000000,0.000000,0.000000,0.000000,1647329870.727861,0.000000
191.000000,53755.900712,65236.673085,36062.036283,15764.707716,41353.029472,37865.732654,34968.812462,33599.656355,-0.020000,0.970000,0.168000,192.000000,0.000000,0.000000,0.000000,0.000000,0.000000,0.000000,0.000000,0.000000,0.000000,1647329870.735270,0.000000
192.000000,53755.811305,65244.026809,36061.835118,15761.779638,41351.442498,37863.765700,34959.603543,33594.806027,-0.020000,0.970000,0.168000,192.000000,0.000000,0.000000,0.000000,0.000000,0.000000,0.000000,0.000000,0.000000,0.000000,1647329870.735285,0.000000
193.000000,53759.924026,65252.699286,36062.751539,15763.880702,41352.738899,37863.899811,34951.154584,33592.883777,-0.020000,0.970000,0.168000,192.000000,0.000000,0.000000,0.000000,0.000000,0.000000,0.000000,0.000000,0.000000,0.000000,1647329870.742318,0.000000
194.000000,53756.660671,65236.181347,36059.175260,15763.679536,41349.989635,37856.166107,34941.051595,33580.925593,-0.020000,0.970000,0.168000,192.000000,0.000000,0.000000,0.000000,0.000000,0.000000,0.000000,0.000000,0.000000,0.000000,1647329870.750290,0.000000
195.000000,53760.147543,65234.974353,36064.003237,15769.938024,41354.795260,37861.686988,34952.339226,33586.468826,-0.020000,0.970000,0.168000,192.000000,0.000000,0.000000,0.000000,0.000000,0.000000,0.000000,0.000000,0.000000,0.000000,1647329870.750305,0.000000
196.000000,53759.946377,65239.802330,36065.053769,15772.776696,41356.873972,37865.330322,34961.905773,33594.090771,-0.020000,0.970000,0.168000,192.000000,0.000000,0.000000,0.000000,0.000000,0.000000,0.000000,0.000000,0.000000,0.000000,1647329870.757206,0.000000
197.000000,53766.026052,65247.781902,36073.189804,15778.789315,41363.601847,37872.862860,34978.580174,33603.500855,-0.020000,0.970000,0.168000,192.000000,0.000000,0.000000,0.000000,0.000000,0.000000,0.000000,0.000000,0.000000,0.000000,1647329870.757216,0.000000
198.000000,53765.020223,65246.261984,36073.994467,15777.850542,41363.601847,37873.846337,34972.366389,33606.205416,-0.020000,0.970000,0.160000,192.000000,255.000000,96.000000,30.000000,80.000000,5.000000,0.000000,0.000000,0.000000,0.000000,1647329870.764889,0.000000
199.000000,53765.623720,65244.406789,36074.352094,15772.977862,41361.813708,37870.538279,34964.587982,33597.443533,-0.020000,0.970000,0.160000,192.000000,0.000000,0.000000,0.000000,0.000000,0.000000,0.000000,0.000000,0.000000,0.000000,1647329870.764906,0.000000
200.000000,53767.948302,65248.899490,36074.106225,15773.983690,41362.461908,37868.906602,34963.157471,33592.190873,-0.020000,0.970000,0.160000,192.000000,0.000000,0.000000,0.000000,0.000000,0.000000,0.000000,0.000000,0.000000,0.000000,1647329870.772901,0.000000
201.000000,53773.022148,65255.984993,36078.084836,15778.051708,41367.915734,37871.007666,34959.067101,33590.425085,-0.020000,0.970000,0.160000,192.000000,0.000000,0.000000,0.000000,0.000000,0.000000,0.000000,0.000000,0.000000,0.000000,1647329870.772917,0.000000
202.000000,53774.385604,65258.644850,36079.761217,15779.862199,41369.435652,37869.286581,34960.162337,33587.094675,-0.020000,0.970000,0.160000,192.000000,0.000000,0.000000,0.000000,0.000000,0.000000,0.000000,0.000000,0.000000,0.000000,1647329870.780947,0.000000
203.000000,53772.329244,65257.907243,36079.940031,15778.252873,41367.848679,37870.404168,34964.029189,33600.751591,-0.020000,0.970000,0.160000,192.000000,0.000000,0.000000,0.000000,0.000000,0.000000,0.000000,0.000000,0.000000,0.000000,1647329870.780964,0.000000
204.000000,53768.708261,65252.989859,36077.302525,15777.448210,41366.328760,37869.755968,34967.381950,33598.650527,-0.020000,0.970000,0.160000,192.000000,0.000000,0.000000,0.000000,0.000000,0.000000,0.000000,0.000000,0.000000,0.000000,1647329870.787409,0.000000
205.000000,53772.664520,65251.291126,36080.945859,15782.209132,41369.592115,37873.891041,34972.232279,33600.908053,-0.020000,0.970000,0.160000,192.000000,0.000000,0.000000,0.000000,0.000000,0.000000,0.000000,0.000000,0.000000,0.000000,1647329870.787425,0.000000
206.000000,53774.452659,65256.543786,36081.057618,15778.968129,41366.954609,37874.785110,34972.433445,33601.600957,-0.020000,0.970000,0.160000,192.000000,0.000000,0.000000,0.000000,0.000000,0.000000,0.000000,0.000000,0.000000,0.000000,1647329870.795512,0.000000
207.000000,53769.445869,65250.128835,36073.234507,15769.625100,41358.863277,37869.353636,34967.337247,33597.421181,-0.020000,0.970000,0.160000,192.000000,0.000000,0.000000,0.000000,0.000000,0.000000,0.000000,0.000000,0.000000,0.000000,1647329870.795528,0.000000
208.000000,53766.920122,65235.019056,36070.597001,15766.831132,41354.951722,37866.023227,34966.867860,33596.661222,-0.026000,0.970000,0.168000,192.000000,255.000000,48.000000,30.000000,80.000000,5.000000,64.000000,0.000000,0.000000,0.000000,1647329870.802550,0.000000
209.000000,53767.367156,65234.616725,36070.373484,15767.233463,41354.661149,37863.452776,34965.683218,33594.671916,-0.026000,0.970000,0.168000,192.000000,0.000000,0.000000,0.000000,0.000000,0.000000,0.000000,0.000000,0.000000,0.000000,1647329870.810798,0.000000
210.000000,53770.608159,65244.227975,36073.882708,15770.675632,41357.276303,37866.045578,34964.185651,33597.510588,-0.026000,0.970000,0.168000,192.000000,0.000000,0.000000,0.000000,0.000000,0.000000,0.000000,0.000000,0.000000,0.000000,1647329870.810814,0.000000
211.000000,53772.351595,65246.284335,36074.866185,15771.234425,41358.729167,37867.163165,34966.085549,33601.109219,-0.026000,0.970000,0.168000,192.000000,0.000000,0.000000,0.000000,0.000000,0.000000,0.000000,0.000000,0.000000,0.000000,1647329870.817181,0.000000
212.000000,53767.143639,65236.158995,36066.528984,15764.975937,41351.040167,37860.457642,34955.736691,33595.834207,-0.026000,0.970000,0.168000,192.000000,0.000000,0.000000,0.000000,0.000000,0.000000,0.000000,0.000000,0.000000,0.000000,1647329870.817197,0.000000
213.000000,53770.362290,65240.450530,36066.350170,15762.763114,41350.704891,37856.322569,34950.998122,33589.441608,-0.026000,0.970000,0.168000,192.000000,0.000000,0.000000,0.000000,0.000000,0.000000,0.000000,0.000000,0.000000,0.000000,1647329870.824948,0.000000
214.000000,53773.692700,65242.126911,36067.847737,15763.210149,41353.029472,37860.725863,34966.800805,33596.996498,-0.026000,0.970000,0.168000,192.000000,0.000000,0.000000,0.000000,0.000000,0.000000,0.000000,0.000000,0.000000,0.000000,1647329870.824965,0.000000
215.000000,53767.590674,65235.689609,36061.768062,15759.164483,41347.173315,37853.595657,34956.854279,33590.961527,-0.026000,0.970000,0.168000,192.000000,0.000000,0.000000,0.000000,0.000000,0.000000,0.000000,0.000000,0.000000,0.000000,1647329870.833009,0.000000
216.000000,53768.775316,65237.433045,36061.991580,15763.768943,41347.463888,37853.260380,34962.375160,33591.341506,-0.026000,0.970000,0.168000,192.000000,0.000000,0.000000,0.000000,0.000000,0.000000,0.000000,0.000000,0.000000,0.000000,1647329870.833026,0.000000
217.000000,53773.111555,65246.105521,36066.953667,15772.150847,41354.504687,37861.463471,34974.288639,33610.139323,-0.026000,0.970000,0.168000,192.000000,0.000000,0.000000,0.000000,0.000000,0.000000,0.000000,0.000000,0.000000,0.000000,1647329870.840331,0.000000
218.000000,53779.146526,65259.158940,36070.105263,15776.889417,41359.846754,37865.844413,34978.937802,33615.883722,-0.020000,0.970000,0.160000,192.000000,255.000000,96.000000,30.000000,80.000000,5.000000,0.000000,0.000000,0.000000,0.000000,1647329870.840348,0.000000
219.000000,53775.123212,65238.349466,36063.936182,15769.401582,41354.504687,37855.048520,34951.981598,33604.909015,-0.020000,0.970000,0.160000,192.000000,0.000000,0.000000,0.000000,0.000000,0.000000,0.000000,0.000000,0.000000,0.000000,1647329870.847872,0.000000
220.000000,53767.255398,65221.071568,36060.181088,15770.206245,41353.700024,37854.065043,34946.773642,33606.741858,-0.020000,0.970000,0.160000,192.000000,0.000000,0.000000,0.000000,0.000000,0.000000,0.000000,0.000000,0.000000,0.000000,1647329870.847888,0.000000
221.000000,53773.111555,65229.252306,36066.394873,15779.705737,41360.919638,37860.725863,34966.890212,33608.887626,-0.020000,0.970000,0.160000,192.000000,0.000000,0.000000,0.000000,0.000000,0.000000,0.000000,0.000000,0.000000,0.000000,1647329870.855809,0.000000
222.000000,53777.693662,65235.041408,36067.579516,15782.209132,41363.199516,37858.647151,34961.883421,33602.159751,-0.020000,0.970000,0.160000,192.000000,0.000000,0.000000,0.000000,0.000000,0.000000,0.000000,0.000000,0.000000,0.000000,1647329870.855825,0.000000
223.000000,53776.307854,65235.600202,36066.104301,15781.739745,41362.126632,37856.166107,34972.344038,33582.199643,-0.020000,0.970000,0.160000,192.000000,0.000000,0.000000,0.000000,0.000000,0.000000,0.000000,0.000000,0.000000,0.000000,1647329870.862927,0.000000
224.000000,53766.137810,65224.558440,36056.381292,15771.524998,41351.509553,37847.225409,34964.833851,33593.688440,-0.020000,0.970000,0.160000,192.000000,0.000000,0.000000,0.000000,0.000000,0.000000,0.000000,0.000000,0.000000,0.000000,1647329870.862943,0.000000
225.000000,53765.422555,65221.853879,36053.833193,15770.072135,41350.995463,37846.756023,34958.195383,33606.160713,-0.020000,0.970000,0.160000,192.000000,0.000000,0.000000,0.000000,0.000000,0.000000,0.000000,0.000000,0.000000,0.000000,1647329870.869942,0.000000
226.000000,53771.681043,65227.195946,36059.577591,15776.934120,41357.298655,37854.869706,34970.846471,33612.620367,-0.020000,0.970000,0.160000,192.000000,0.000000,0.000000,0.000000,0.000000,0.000000,0.000000,0.000000,0.000000,0.000000,1647329870.877534,0.000000
227.000000,53774.854991,65226.883021,36061.566897,15780.420992,41360.360844,37858.066005,34969.594773,33613.916768,-0.020000,0.970000,0.160000,192.000000,0.000000,0.000000,0.000000,0.000000,0.000000,0.000000,0.000000,0.000000,0.000000,1647329870.877550,0.000000
228.000000,53777.716014,65225.474861,36059.734054,15780.957434,41360.562010,37860.569401,34969.393607,33614.073231,-0.020000,0.966000,0.166000,192.000000,255.000000,96.000000,30.000000,48.000000,5.000000,48.000000,0.000000,0.000000,0.000000,1647329870.885421,0.000000
229.000000,53778.252456,65228.581754,36061.857469,15785.874818,41363.758309,37866.716131,34981.329439,33616.375460,-0.020000,0.966000,0.166000,192.000000,0.000000,0.000000,0.000000,0.000000,0.000000,0.000000,0.000000,0.000000,0.000000,1647329870.885437,0.000000
230.000000,53779.928837,65231.554536,36064.740844,15786.008929,41365.658208,37864.503308,34976.814386,33611.569835,-0.020000,0.966000,0.166000,192.000000,0.000000,0.000000,0.000000,0.000000,0.000000,0.000000,0.000000,0.000000,0.000000,1647329870.892540,0.000000
231.000000,53781.225238,65236.606030,36065.433748,15783.594940,41366.552277,37861.061139,34972.947535,33606.205416,-0.020000,0.966000,0.166000,192.000000,0.000000,0.000000,0.000000,0.000000,0.000000,0.000000,0.000000,0.000000,0.000000,1647329870.892556,0.000000
232.000000,53769.915255,65217.383530,36056.135423,15777.716431,41360.204382,37851.673407,34961.257572,33595.700097,-0.020000,0.966000,0.166000,192.000000,0.000000,0.000000,0.000000,0.000000,0.000000,0.000000,0.000000,0.000000,0.000000,1647329870.899901,0.000000
233.000000,53770.429345,65210.633303,36055.822498,15780.041013,41361.545487,37852.656883,34958.597715,33598.337602,-0.020000,0.966000,0.166000,192.000000,0.000000,0.000000,0.000000,0.000000,0.000000,0.000000,0.000000,0.000000,0.000000,1647329870.899918,0.000000
234.000000,53777.000758,65221.228030,36061.097510,15782.030318,41363.937123,37851.807517,34957.122500,33599.611652,-0.020000,0.966000,0.166000,192.000000,0.000000,0.000000,0.000000,0.000000,0.000000,0.000000,0.000000,0.000000,0.000000,1647329870.908003,0.000000
235.000000,53783.818040,65223.776129,36059.532888,15782.700870,41360.629065,37848.030072,34957.524831,33599.835169,-0.020000,0.966000,0.166000,192.000000,0.000000,0.000000,0.000000,0.000000,0.000000,0.000000,0.000000,0.000000,0.000000,1647329870.908020,0.000000
236.000000,53792.669331,65221.898582,36064.606734,15784.891341,41365.859373,37852.813346,34970.175918,33603.366745,-0.020000,0.966000,0.166000,192.000000,0.000000,0.000000,0.000000,0.000000,0.000000,0.000000,0.000000,0.000000,0.000000,1647329870.915916,0.000000
237.000000,53780.465279,65201.625550,36065.500804,15783.282016,41368.139251,37861.709340,34974.422750,33608.664108,-0.020000,0.966000,0.166000,192.000000,0.000000,0.000000,0.000000,0.000000,0.000000,0.000000,0.000000,0.000000,0.000000,1647329870.915932,0.000000
238.000000,53769.512924,65194.696509,36064.539679,15783.326719,41367.468699,37866.805538,34983.005820,33613.179161,-0.020000,0.960000,0.168000,192.000000,255.000000,96.000000,30.000000,0.000000,5.000000,64.000000,0.000000,0.000000,0.000000,1647329870.922753,0.000000
239.000000,53768.261226,65192.796611,36060.292847,15776.330623,41360.047920,37858.133061,34973.931011,33605.937196,-0.020000,0.960000,0.168000,192.000000,0.000000,0.000000,0.000000,0.000000,0.000000,0.000000,0.000000,0.000000,0.000000,1647329870.922769,0.000000
240.000000,53761.510999,65184.481762,36051.530963,15764.774771,41350.861353,37842.531543,34950.036997,33583.451341,-0.020000,0.960000,0.168000,192.000000,0.000000,0.000000,0.000000,0.000000,0.000000,0.000000,0.000000,0.000000,0.000000,1647329870.929805,0.000000
241.000000,53762.986215,65185.375832,36050.905115,15763.925405,41350.749594,37840.251665,34949.925238,33582.959602,-0.020000,0.960000,0.168000,192.000000,0.000000,0.000000,0.000000,0.000000,0.000000,0.000000,0.000000,0.000000,0.000000,1647329870.937602,0.000000
242.000000,53768.820020,65189.756774,36056.381292,15770.183893,41357.142193,37853.886229,34974.065122,33610.273434,-0.020000,0.960000,0.168000,192.000000,0.000000,0.000000,0.000000,0.000000,0.000000,0.000000,0.000000,0.000000,0.000000,1647329870.937618,0.000000
243.000000,53765.646072,65191.008471,36056.738920,15771.122667,41358.572705,37851.405186,34965.124424,33596.460056,-0.020000,0.960000,0.168000,192.000000,0.000000,0.000000,0.000000,0.000000,0.000000,0.000000,0.000000,0.000000,0.000000,1647329870.945794,0.000000
244.000000,53764.282616,65197.110498,36054.324931,15767.948719,41355.823440,37851.159316,34970.242974,33605.825437,-0.020000,0.960000,0.168000,192.000000,0.000000,0.000000,0.000000,0.000000,0.000000,0.000000,0.000000,0.000000,0.000000,1647329870.945811,0.000000
245.000000,53763.902636,65194.249474,36048.558181,15761.734934,41349.520248,37846.197229,34968.253668,33605.825437,-0.020000,0.960000,0.168000,192.000000,0.000000,0.000000,0.000000,0.000000,0.000000,0.000000,0.000000,0.000000,0.000000,1647329870.952338,0.000000
246.000000,53757.375927,65174.915215,36043.327873,15759.343297,41345.832210,37843.805593,34967.672523,33601.533902,-0.020000,0.960000,0.168000,192.000000,0.000000,0.000000,0.000000,0.000000,0.000000,0.000000,0.000000,0.000000,0.000000,1647329870.952354,0.000000
247.000000,53766.473087,65181.173704,36052.425033,15770.116838,41354.817612,37850.667578,34971.897003,33606.853617,-0.020000,0.960000,0.168000,192.000000,0.000000,0.000000,0.000000,0.000000,0.000000,0.000000,0.000000,0.000000,0.000000,1647329870.960331,0.000000
248.000000,53763.165028,65178.267977,36049.988693,15764.148922,41351.598960,37846.487802,34960.654075,33600.237501,-0.024000,0.958000,0.170000,192.000000,255.000000,64.000000,29.000000,240.000000,5.000000,80.000000,0.000000,0.000000,0.000000,1647329870.960346,0.000000
249.000000,53757.398278,65170.713087,36043.216114,15754.381210,41343.641739,37837.949435,34942.750328,33588.234614,-0.024000,0.958000,0.170000,192.000000,0.000000,0.000000,0.000000,0.000000,0.000000,0.000000,0.000000,0.000000,0.000000,1647329870.968374,0.000000
250.000000,53757.085354,65173.976442,36043.596094,15755.856425,41344.133478,37845.951360,34965.437349,33598.203492,-0.024000,0.958000,0.170000,192.000000,0.000000,0.000000,0.000000,0.000000,0.000000,0.000000,0.000000,0.000000,0.000000,1647329870.968389,0.000000
251.000000,53758.739383,65181.307814,36048.066443,15763.835998,41350.079042,37851.963979,34968.052503,33601.757419,-0.024000,0.958000,0.170000,192.000000,0.000000,0.000000,0.000000,0.000000,0.000000,0.000000,0.000000,0.000000,0.000000,1647329870.975529,0.000000
252.000000,53767.769488,65183.610044,36056.090719,15771.860274,41359.019740,37859.205944,34976.434407,33607.166541,-0.024000,0.958000,0.170000,192.000000,0.000000,0.000000,0.000000,0.000000,0.000000,0.000000,0.000000,0.000000,0.000000,1647329870.975545,0.000000
253.000000,53772.306892,65181.039593,36058.102376,15773.670766,41361.009045,37856.166107,34970.332381,33604.014946,-0.024000,0.958000,0.170000,192.000000,0.000000,0.000000,0.000000,0.000000,0.000000,0.000000,0.000000,0.000000,0.000000,1647329870.982814,0.000000
254.000000,53770.183476,65182.134829,36057.700045,15771.681460,41360.249085,37851.181668,34959.581191,33594.537806,-0.024000,0.958000,0.170000,192.000000,0.000000,0.000000,0.000000,0.000000,0.000000,0.000000,0.000000,0.000000,0.000000,1647329870.982829,0.000000
255.000000,53771.211656,65184.481762,36058.527059,15771.904978,41361.925466,37849.237066,34959.223564,33592.503797,-0.024000,0.958000,0.170000,192.000000,0.000000,0.000000,0.000000,0.000000,0.000000,0.000000,0.000000,0.000000,0.000000,1647329870.990021,0.000000
0.000000,53770.027014,65191.321396,36057.141251,15772.530827,41362.216039,37847.963017,34959.380026,33591.967355,-0.024000,0.958000,0.170000,192.000000,0.000000,0.000000,0.000000,0.000000,0.000000,0.000000,0.000000,0.000000,0.000000,1647329870.998044,0.000000
1.000000,53768.417688,65185.800515,36056.135423,15772.307309,41360.539658,37849.326473,34967.650171,33597.979975,-0.024000,0.958000,0.170000,192.000000,0.000000,0.000000,0.000000,0.000000,0.000000,0.000000,0.000000,0.000000,0.000000,1647329870.998061,0.000000
2.000000,53767.210694,65172.054192,36054.906077,15771.055611,41357.075138,37848.320645,34965.079721,33601.735068,-0.028000,0.954000,0.170000,192.000000,255.000000,32.000000,29.000000,208.000000,5.000000,80.000000,0.000000,0.000000,0.000000,1647329871.004916,0.000000
3.000000,53757.264168,65161.213596,36045.630103,15760.237367,41346.569818,37839.536409,34943.130308,33591.520320,-0.028000,0.954000,0.170000,192.000000,0.000000,0.000000,0.000000,0.000000,0.000000,0.000000,0.000000,0.000000,0.000000,1647329871.004926,0.000000
4.000000,53762.293310,65168.142637,36049.251085,15763.970109,41349.587303,37843.358558,34948.114747,33590.268623,-0.028000,0.954000,0.170000,192.000000,0.000000,0.000000,0.000000,0.000000,0.000000,0.000000,0.000000,0.000000,0.000000,1647329871.012524,0.000000
5.000000,53763.209732,65168.500265,36048.602885,15765.691193,41349.184972,37848.410052,34969.974753,33592.526149,-0.028000,0.954000,0.170000,192.000000,0.000000,0.000000,0.000000,0.000000,0.000000,0.000000,0.000000,0.000000,0.000000,1647329871.012535,0.000000
6.000000,53761.578055,65164.007564,36046.568876,15761.891396,41345.608693,37844.029110,34957.480128,33585.328887,-0.028000,0.954000,0.170000,192.000000,0.000000,0.000000,0.000000,0.000000,0.000000,0.000000,0.000000,0.000000,0.000000,1647329871.020568,0.000000
7.000000,53762.338014,65165.102800,36049.295789,15764.774771,41346.659225,37840.810459,34947.488898,33567.112215,-0.028000,0.954000,0.170000,192.000000,0.000000,0.000000,0.000000,0.000000,0.000000,0.000000,0.000000,0.000000,0.000000,1647329871.020584,0.000000
8.000000,53758.046479,65163.828750,36047.865277,15762.316079,41346.011024,37845.303159,34945.879572,33588.726352,-0.028000,0.954000,0.170000,192.000000,0.000000,0.000000,0.000000,0.000000,0.000000,0.000000,0.000000,0.000000,0.000000,1647329871.028652,0.000000
9.000000,53769.870552,65177.016279,36061.589248,15769.535693,41359.064443,37860.122366,34978.826043,33604.283166,-0.028000,0.954000,0.170000,192.000000,0.000000,0.000000,0.000000,0.000000,0.000000,0.000000,0.000000,0.000000,0.000000,1647329871.028668,0.000000
10.000000,53766.853066,65177.038631,36057.677693,15766.540559,41354.348225,37851.069909,34962.553974,33591.810893,-0.028000,0.954000,0.170000,192.000000,0.000000,0.000000,0.000000,0.000000,0.000000,0.000000,0.000000,0.000000,0.000000,1647329871.035242,0.000000
11.000000,53770.272883,65177.798590,36059.242315,15773.044917,41356.203420,37855.339093,34964.744444,33597.868216,-0.028000,0.954000,0.170000,192.000000,0.000000,0.000000,0.000000,0.000000,0.000000,0.000000,0.000000,0.000000,0.000000,1647329871.035258,0.000000
12.000000,53770.027014,65170.869550,36057.744748,15771.033260,41354.124707,37854.668540,34963.224526,33593.196701,-0.028000,0.954000,0.170000,192.000000,0.000000,0.000000,0.000000,0.000000,0.000000,0.000000,0.000000,0.000000,0.000000,1647329871.043246,0.000000
13.000000,53769.401165,65177.820942,36054.839022,15766.384097,41349.296731,37856.836660,34964.297410,33602.249158,-0.030000,0.962000,0.166000,192.000000,255.000000,16.000000,30.000000,16.000000,5.000000,48.000000,0.000000,0.000000,0.000000,1647329871.043262,0.000000
14.000000,53762.852104,65167.583843,36049.340492,15758.069248,41342.255931,37853.103918,34955.982561,33597.734105,-0.030000,0.962000,0.166000,192.000000,0.000000,0.000000,0.000000,0.000000,0.000000,0.000000,0.000000,0.000000,0.000000,1647329871.050149,0.000000
15.000000,53772.172781,65156.027991,36056.358940,15762.517245,41347.553295,37860.882325,34963.850375,33604.260815,-0.030000,0.962000,0.166000,192.000000,0.000000,0.000000,0.000000,0.000000,0.000000,0.000000,0.000000,0.000000,0.000000,1647329871.058265,0.000000
16.000000,53766.718956,65151.825863,36051.821536,15758.963318,41344.491106,37857.015473,34963.179822,33599.991632,-0.030000,0.962000,0.166000,192.000000,0.000000,0.000000,0.000000,0.000000,0.000000,0.000000,0.000000,0.000000,0.000000,1647329871.058281,0.000000
17.000000,53764.461430,65155.916233,36051.106280,15757.555158,41344.200533,37854.556782,34963.448043,33598.605823,-0.030000,0.962000,0.166000,192.000000,0.000000,0.000000,0.000000,0.000000,0.000000,0.000000,0.000000,0.000000,0.000000,1647329871.064942,0.000000
18.000000,53767.054232,65159.917195,36053.319103,15758.963318,41346.055728,37854.176802,34964.833851,33595.990669,-0.030000,0.962000,0.166000,192.000000,0.000000,0.000000,0.000000,0.000000,0.000000,0.000000,0.000000,0.000000,0.000000,1647329871.064958,0.000000
19.000000,53761.712165,65156.117398,36049.541658,15754.448265,41342.367690,37848.231238,34959.715302,33591.453265,-0.030000,0.962000,0.166000,192.000000,0.000000,0.000000,0.000000,0.000000,0.000000,0.000000,0.000000,0.000000,0.000000,1647329871.072802,0.000000
20.000000,53767.747136,65161.101837,36051.039225,15758.292765,41344.647568,37847.515982,34960.229392,33592.526149,-0.030000,0.962000,0.166000,192.000000,0.000000,0.000000,0.000000,0.000000,0.000000,0.000000,0.000000,0.000000,0.000000,1647329871.072819,0.000000
21.000000,53770.496401,65164.700468,36053.520269,15763.210149,41348.894399,37853.595657,34965.459700,33597.488236,-0.030000,0.962000,0.166000,192.000000,0.000000,0.000000,0.000000,0.000000,0.000000,0.000000,0.000000,0.000000,0.000000,1647329871.080939,0.000000
22.000000,53765.646072,65160.990079,36047.731167,15760.505588,41343.798202,37849.840564,34959.648247,33594.448399,-0.030000,0.962000,0.166000,192.000000,0.000000,0.000000,0.000000,0.000000,0.000000,0.000000,0.000000,0.000000,0.000000,1647329871.080956,0.000000
23.000000,53759.097011,65155.357439,36042.366748,15753.420085,41338.031451,37843.067985,34951.936895,33588.569890,-0.022000,0.966000,0.166000,192.000000,255.000000,80.000000,30.000000,48.000000,5.000000,48.000000,0.000000,0.000000,0.000000,1647329871.087750,0.000000
24.000000,53762.427421,65169.103762,36046.390062,15757.778675,41344.267588,37848.946494,34959.380026,33596.817684,-0.022000,0.966000,0.166000,192.000000,0.000000,0.000000,0.000000,0.000000,0.000000,0.000000,0.000000,0.000000,0.000000,1647329871.087767,0.000000
25.000000,53764.148505,65177.977404,36046.054786,15754.828245,41343.261760,37847.068947,34960.743482,33595.275413,-0.022000,0.966000,0.166000,192.000000,0.000000,0.000000,0.000000,0.000000,0.000000,0.000000,0.000000,0.000000,0.000000,1647329871.095568,0.000000
26.000000,53757.890017,65152.183491,36040.533905,15751.833111,41339.149039,37845.459622,34959.380026,33594.314288,-0.022000,0.966000,0.166000,192.000000,0.000000,0.000000,0.000000,0.000000,0.000000,0.000000,0.000000,0.000000,0.000000,1647329871.095584,0.000000
27.000000,53760.974558,65145.142692,36043.886667,15757.041068,41341.518324,37848.521811,34956.429596,33596.638870,-0.022000,0.966000,0.166000,192.000000,0.000000,0.000000,0.000000,0.000000,0.000000,0.000000,0.000000,0.000000,0.000000,1647329871.103472,0.000000
28.000000,53754.000813,65144.069808,36036.130611,15748.994440,41333.158771,37837.971787,34931.641511,33584.457169,-0.022000,0.966000,0.166000,192.000000,0.000000,0.000000,0.000000,0.000000,0.000000,0.000000,0.000000,0.000000,0.000000,1647329871.103488,0.000000
29.000000,53755.476028,65142.862814,36036.756460,15748.301536,41333.091716,37837.770622,34934.860162,33569.883832,-0.022000,0.966000,0.166000,192.000000,0.000000,0.000000,0.000000,0.000000,0.000000,0.000000,0.000000,0.000000,0.000000,1647329871.110644,0.000000
30.000000,53765.467258,65149.925965,36047.574705,15757.823379,41343.373518,37849.795860,34973.796901,33569.928535,-0.022000,0.966000,0.166000,192.000000,0.000000,0.000000,0.000000,0.000000,0.000000,0.000000,0.000000,0.000000,0.000000,1647329871.110659,0.000000
31.000000,53769.982311,65158.933718,36055.062539,15765.244158,41350.526077,37862.938686,34981.552956,33608.485294,-0.022000,0.966000,0.166000,192.000000,0.000000,0.000000,0.000000,0.000000,0.000000,0.000000,0.000000,0.000000,0.000000,1647329871.117246,0.000000
32.000000,53762.941511,65155.648012,36052.961475,15764.104219,41347.888571,37863.408072,34969.505366,33620.063498,-0.022000,0.966000,0.166000,192.000000,0.000000,0.000000,0.000000,0.000000,0.000000,0.000000,0.000000,0.000000,0.000000,1647329871.125201,0.000000
33.000000,53759.432287,65153.591651,36050.771004,15761.824341,41344.200533,37858.222468,34959.491785,33610.273434,-0.026000,0.970000,0.166000,192.000000,255.000000,48.000000,30.000000,80.000000,5.000000,48.000000,0.000000,0.000000,0.000000,1647329871.125217,0.000000
34.000000,53758.538217,65154.642183,36048.289960,15758.024544,41341.071289,37852.545125,34949.902886,33600.416315,-0.026000,0.970000,0.166000,192.000000,0.000000,0.000000,0.000000,0.000000,0.000000,0.000000,0.000000,0.000000,0.000000,1647329871.133186,0.000000
35.000000,53756.817133,65152.407009,36045.294827,15756.325812,41339.461963,37852.120441,34950.640494,33595.186006,-0.026000,0.970000,0.166000,192.000000,0.000000,0.000000,0.000000,0.000000,0.000000,0.000000,0.000000,0.000000,0.000000,1647329871.133201,0.000000
36.000000,53759.588749,65164.186378,36047.015911,15758.382172,41341.652434,37857.484860,34963.850375,33590.156864,-0.026000,0.970000,0.166000,192.000000,0.000000,0.000000,0.000000,0.000000,0.000000,0.000000,0.000000,0.000000,0.000000,1647329871.140128,0.000000
37.000000,53762.136848,65166.153332,36047.395891,15759.186835,41342.546504,37857.686026,34963.403340,33593.844902,-0.026000,0.970000,0.166000,192.000000,0.000000,0.000000,0.000000,0.000000,0.000000,0.000000,0.000000,0.000000,0.000000,1647329871.140168,0.000000
38.000000,53759.365232,65146.304982,36046.613580,15756.772847,41342.233579,37861.619933,34961.682255,33610.541655,-0.026000,0.970000,0.166000,192.000000,0.000000,0.000000,0.000000,0.000000,0.000000,0.000000,0.000000,0.000000,0.000000,1647329871.147835,0.000000
39.000000,53761.265130,65143.622773,36046.747690,15755.811722,41341.183047,37862.424596,34961.168165,33606.808914,-0.026000,0.970000,0.166000,192.000000,0.000000,0.000000,0.000000,0.000000,0.000000,0.000000,0.000000,0.000000,0.000000,1647329871.147851,0.000000
40.000000,53759.365232,65137.476043,36042.500859,15753.867120,41336.824457,37858.177764,34961.414035,33601.578605,-0.026000,0.970000,0.166000,192.000000,0.000000,0.000000,0.000000,0.000000,0.000000,0.000000,0.000000,0.000000,0.000000,1647329871.155713,0.000000
41.000000,53751.944453,65132.759825,36035.393004,15747.698039,41330.901245,37851.584000,34959.067101,33596.795332,-0.026000,0.970000,0.166000,192.000000,0.000000,0.000000,0.000000,0.000000,0.000000,0.000000,0.000000,0.000000,0.000000,1647329871.155729,0.000000
42.000000,53753.598482,65140.605288,36038.186972,15746.602803,41331.392983,37855.473203,34959.536488,33598.762286,-0.026000,0.970000,0.166000,192.000000,0.000000,0.000000,0.000000,0.000000,0.000000,0.000000,0.000000,0.000000,0.000000,1647329871.163843,0.000000
43.000000,53756.750078,65140.605288,36041.159754,15745.596975,41330.789486,37855.920238,34963.828023,33599.276376,-0.026000,0.960000,0.176000,192.000000,255.000000,48.000000,30.000000,0.000000,5.000000,128.000000,0.000000,0.000000,0.000000,1647329871.163860,0.000000
44.000000,53762.025090,65142.616945,36045.384234,15749.173254,41333.516399,37854.422671,34962.352808,33597.599995,-0.026000,0.960000,0.176000,192.000000,0.000000,0.000000,0.000000,0.000000,0.000000,0.000000,0.000000,0.000000,0.000000,1647329871.170354,0.000000
45.000000,53759.745212,65139.241831,36042.187934,15745.641678,41330.700079,37846.934837,34957.435424,33594.046067,-0.026000,0.960000,0.176000,192.000000,0.000000,0.000000,0.000000,0.000000,0.000000,0.000000,0.000000,0.000000,0.000000,1647329871.170370,0.000000
46.000000,53755.096049,65134.458558,36039.975111,15740.970163,41328.219036,37842.866819,34951.221639,33590.380381,-0.026000,0.960000,0.176000,192.000000,0.000000,0.000000,0.000000,0.000000,0.000000,0.000000,0.000000,0.000000,0.000000,1647329871.177357,0.000000
47.000000,53759.834619,65136.738436,36043.909019,15743.697076,41330.789486,37844.766718,34954.730863,33590.402733,-0.026000,0.960000,0.176000,192.000000,0.000000,0.000000,0.000000,0.000000,0.000000,0.000000,0.000000,0.000000,0.000000,1647329871.185469,0.000000
48.000000,53762.360366,65146.573203,36045.674806,15746.759265,41334.432821,37844.811421,34956.876630,33588.636945,-0.026000,0.960000,0.176000,192.000000,0.000000,0.000000,0.000000,0.000000,0.000000,0.000000,0.000000,0.000000,0.000000,1647329871.185484,0.000000
49.000000,53761.376889,65150.395352,36045.563048,15749.285012,41337.338547,37842.844468,34955.177898,33589.240442,-0.026000,0.960000,0.176000,192.000000,0.000000,0.000000,0.000000,0.000000,0.000000,0.000000,0.000000,0.000000,0.000000,1647329871.193352,0.000000
50.000000,53761.287482,65140.582936,36047.306484,15754.023582,41340.177219,37840.765755,34949.277037,33590.380381,-0.026000,0.960000,0.176000,192.000000,0.000000,0.000000,0.000000,0.000000,0.000000,0.000000,0.000000,0.000000,0.000000,1647329871.193368,0.000000
51.000000,53766.853066,65142.304020,36054.012007,15760.304422,41345.563989,37847.024244,34958.128328,33596.594166,-0.026000,0.960000,0.176000,192.000000,0.000000,0.000000,0.000000,0.000000,0.000000,0.000000,0.000000,0.000000,0.000000,1647329871.199910,0.000000
52.000000,53765.958997,65141.275840,36052.313274,15759.209187,41345.094603,37850.332302,34963.448043,33596.951794,-0.026000,0.960000,0.176000,192.000000,0.000000,0.000000,0.000000,0.000000,0.000000,0.000000,0.000000,0.000000,0.000000,1647329871.199926,0.000000
53.000000,53758.918197,65144.494491,36044.467812,15755.923481,41337.070326,37846.733671,34966.912564,33593.487274,-0.022000,0.970000,0.176000,192.000000,255.000000,80.000000,30.000000,80.000000,5.000000,128.000000,0.000000,0.000000,0.000000,1647329871.208082,0.000000
54.000000,53771.032843,65153.926927,36049.631065,15762.584300,41340.423088,37848.655921,34964.342113,33596.594166,-0.022000,0.970000,0.176000,192.000000,0.000000,0.000000,0.000000,0.000000,0.000000,0.000000,0.000000,0.000000,0.000000,1647329871.208098,0.000000
55.000000,53770.921084,65140.270011,36054.436690,15759.879739,41343.373518,37851.069909,34958.240087,33595.767152,-0.022000,0.970000,0.176000,192.000000,0.000000,0.000000,0.000000,0.000000,0.000000,0.000000,0.000000,0.000000,0.000000,1647329871.215980,0.000000
56.000000,53756.683023,65122.120395,36052.492088,15750.626117,41339.417260,37856.277866,34965.079721,33599.276376,-0.022000,0.970000,0.176000,192.000000,0.000000,0.000000,0.000000,0.000000,0.000000,0.000000,0.000000,0.000000,0.000000,1647329871.215996,0.000000
57.000000,53755.654842,65127.820090,36051.374501,15749.173254,41337.003271,37858.714206,34968.074854,33598.650527,-0.022000,0.970000,0.176000,192.000000,0.000000,0.000000,0.000000,0.000000,0.000000,0.000000,0.000000,0.000000,0.000000,1647329871.223231,0.000000
58.000000,53764.260264,65134.413854,36052.112109,15747.832149,41335.438649,37855.182630,34958.105976,33585.083018,-0.022000,0.970000,0.176000,192.000000,0.000000,0.000000,0.000000,0.000000,0.000000,0.000000,0.000000,0.000000,0.000000,1647329871.223247,0.000000
59.000000,53762.606235,65128.222421,36052.335626,15743.764132,41334.969262,37857.887192,34963.783319,33588.882815,-0.022000,0.970000,0.176000,192.000000,0.000000,0.000000,0.000000,0.000000,0.000000,0.000000,0.000000,0.000000,0.000000,1647329871.230808,0.000000
60.000000,53741.863816,65106.965912,36037.717585,15727.603820,41322.251120,37848.588866,34951.959247,33579.025695,-0.022000,0.970000,0.176000,192.000000,0.000000,0.000000,0.000000,0.000000,0.000000,0.000000,0.000000,0.000000,0.000000,1647329871.230824,0.000000
61.000000,53756.392450,65122.992113,36053.095585,15743.764132,41336.690347,37865.039750,34970.041808,33592.079114,-0.022000,0.970000,0.176000,192.000000,0.000000,0.000000,0.000000,0.000000,0.000000,0.000000,0.000000,0.000000,0.000000,1647329871.237777,0.000000
62.000000,53757.577092,65118.611171,36055.196649,15751.341373,41340.758364,37868.571325,34966.040846,33594.426047,-0.022000,0.970000,0.176000,192.000000,0.000000,0.000000,0.000000,0.000000,0.000000,0.000000,0.000000,0.000000,0.000000,1647329871.245796,0.000000
63.000000,53760.751040,65108.061148,36059.555240,15758.136303,41348.626178,37876.148567,34967.225488,33606.943024,-0.020000,0.974000,0.162000,192.000000,255.000000,96.000000,30.000000,112.000000,5.000000,16.000000,0.000000,0.000000,0.000000,1647329871.245812,0.000000
64.000000,53765.914293,65113.738491,36064.763196,15761.399658,41352.180106,37876.707360,34966.845508,33605.087829,-0.020000,0.974000,0.162000,192.000000,0.000000,0.000000,0.000000,0.000000,0.000000,0.000000,0.000000,0.000000,0.000000,1647329871.252943,0.000000
65.000000,53770.406994,65124.914363,36069.322952,15762.919577,41354.214114,37876.997933,34967.516061,33604.752553,-0.020000,0.974000,0.162000,192.000000,0.000000,0.000000,0.000000,0.000000,0.000000,0.000000,0.000000,0.000000,0.000000,1647329871.252961,0.000000
66.000000,53768.261226,65127.127186,36066.685446,15759.767981,41351.353091,37871.454700,34963.649209,33598.561120,-0.020000,0.974000,0.162000,192.000000,0.000000,0.000000,0.000000,0.000000,0.000000,0.000000,0.000000,0.000000,0.000000,1647329871.260414,0.000000
67.000000,53765.243741,65120.332255,36060.941048,15751.833111,41344.245236,37863.296314,34953.255648,33591.743838,-0.020000,0.974000,0.162000,192.000000,0.000000,0.000000,0.000000,0.000000,0.000000,0.000000,0.000000,0.000000,0.000000,1647329871.260430,0.000000
68.000000,53763.232084,65110.922171,36058.080024,15748.994440,41339.976053,37859.205944,34957.524831,33588.614594,-0.020000,0.974000,0.162000,192.000000,0.000000,0.000000,0.000000,0.000000,0.000000,0.000000,0.000000,0.000000,0.000000,1647329871.268341,0.000000
69.000000,53766.674252,65111.659779,36060.359902,15752.615422,41342.300635,37863.877459,34964.029189,33595.409524,-0.020000,0.974000,0.162000,192.000000,0.000000,0.000000,0.000000,0.000000,0.000000,0.000000,0.000000,0.000000,0.000000,1647329871.268357,0.000000
70.000000,53759.499342,65104.015482,36052.536792,15745.440512,41334.790449,37860.904677,34964.789148,33597.108256,-0.020000,0.974000,0.162000,192.000000,0.000000,0.000000,0.000000,0.000000,0.000000,0.000000,0.000000,0.000000,0.000000,1647329871.276445,0.000000
71.000000,53757.085354,65103.590799,36050.279266,15740.925460,41330.789486,37857.842488,34966.532584,33593.241405,-0.020000,0.974000,0.162000,192.000000,0.000000,0.000000,0.000000,0.000000,0.000000,0.000000,0.000000,0.000000,0.000000,1647329871.276461,0.000000
72.000000,53759.074659,65113.894953,36054.079062,15743.071227,41333.918730,37854.825003,34957.457776,33588.994573,-0.020000,0.974000,0.162000,192.000000,0.000000,0.000000,0.000000,0.000000,0.000000,0.000000,0.000000,0.000000,0.000000,1647329871.282712,0.000000
73.000000,53769.199999,65126.344875,36064.003237,15754.157693,41344.424050,37860.301180,34959.424729,33595.945966,-0.022000,0.966000,0.166000,192.000000,255.000000,80.000000,30.000000,48.000000,5.000000,48.000000,0.000000,0.000000,0.000000,1647329871.282728,0.000000
74.000000,53765.891941,65115.571334,36061.052807,15754.023582,41341.987710,37857.104880,34955.379064,33593.353163,-0.022000,0.966000,0.166000,192.000000,0.000000,0.000000,0.000000,0.000000,0.000000,0.000000,0.000000,0.000000,0.000000,1647329871.290848,0.000000
75.000000,53761.108668,65093.264293,36056.582458,15750.335544,41337.159733,37852.545125,34952.674502,33590.894472,-0.022000,0.966000,0.166000,192.000000,0.000000,0.000000,0.000000,0.000000,0.000000,0.000000,0.000000,0.000000,0.000000,1647329871.290864,0.000000
76.000000,53757.465334,65087.698708,36053.877897,15745.172291,41333.114068,37850.309950,34944.806688,33592.302631,-0.022000,0.966000,0.166000,192.000000,0.000000,0.000000,0.000000,0.000000,0.000000,0.000000,0.000000,0.000000,0.000000,1647329871.298012,0.000000
77.000000,53763.053270,65093.152534,36057.342417,15747.496873,41336.288015,37855.383796,34967.247840,33591.855597,-0.022000,0.966000,0.166000,192.000000,0.000000,0.000000,0.000000,0.000000,0.000000,0.000000,0.000000,0.000000,0.000000,1647329871.305137,0.000000
78.000000,53766.026052,65098.941636,36058.638818,15751.229614,41337.517361,37854.512078,34975.361523,33586.669992,-0.022000,0.966000,0.166000,192.000000,0.000000,0.000000,0.000000,0.000000,0.000000,0.000000,0.000000,0.000000,0.000000,1647329871.305153,0.000000
79.000000,53758.873494,65097.153496,36054.660208,15749.262661,41333.650510,37853.550953,34969.393607,33597.488236,-0.022000,0.966000,0.166000,192.000000,0.000000,0.000000,0.000000,0.000000,0.000000,0.000000,0.000000,0.000000,0.000000,1647329871.312564,0.000000
80.000000,53753.464371,65092.169057,36050.480431,15744.300573,41329.671899,37849.594694,34960.587020,33590.335678,-0.022000,0.966000,0.166000,192.000000,0.000000,0.000000,0.000000,0.000000,0.000000,0.000000,0.000000,0.000000,0.000000,1647329871.312580,0.000000
81.000000,53767.545970,65100.416851,36060.605772,15751.676649,41339.238446,37856.344921,34955.088491,33590.603899,-0.022000,0.966000,0.166000,192.000000,0.000000,0.000000,0.000000,0.000000,0.000000,0.000000,0.000000,0.000000,0.000000,1647329871.320802,0.000000
82.000000,53767.814191,65098.092270,36061.410434,15748.882681,41337.763231,37856.322569,34955.848450,33589.955698,-0.022000,0.966000,0.166000,192.000000,0.000000,0.000000,0.000000,0.000000,0.000000,0.000000,0.000000,0.000000,0.000000,1647329871.320818,0.000000
83.000000,53760.572226,65090.827953,36054.749615,15742.534786,41331.728260,37847.940665,34954.037959,33572.610745,-0.022000,0.970000,0.172000,192.000000,255.000000,80.000000,30.000000,80.000000,5.000000,96.000000,0.000000,0.000000,0.000000,1647329871.328656,0.000000
84.000000,53758.851142,65086.469363,36052.492088,15740.858405,41330.565969,37848.857087,34952.562744,33581.238518,-0.022000,0.970000,0.172000,192.000000,0.000000,0.000000,0.000000,0.000000,0.000000,0.000000,0.000000,0.000000,0.000000,1647329871.328673,0.000000
85.000000,53757.755906,65083.630691,36053.095585,15742.311268,41331.795315,37850.466412,34952.428633,33577.416370,-0.022000,0.970000,0.172000,192.000000,0.000000,0.000000,0.000000,0.000000,0.000000,0.000000,0.000000,0.000000,0.000000,1647329871.335259,0.000000
86.000000,53757.934720,65091.677319,36055.286056,15748.837978,41336.377422,37856.724901,34952.294523,33588.815759,-0.022000,0.970000,0.172000,192.000000,0.000000,0.000000,0.000000,0.000000,0.000000,0.000000,0.000000,0.000000,0.000000,1647329871.335275,0.000000
87.000000,53761.890979,65102.093232,36056.113071,15751.475483,41338.389079,37862.044616,34948.025340,33589.151035,-0.022000,0.970000,0.172000,192.000000,0.000000,0.000000,0.000000,0.000000,0.000000,0.000000,0.000000,0.000000,0.000000,1647329871.343203,0.000000
88.000000,53767.165991,65092.258464,36061.656304,15756.638736,41343.239408,37870.113596,34955.177898,33602.807951,-0.022000,0.970000,0.172000,192.000000,0.000000,0.000000,0.000000,0.000000,0.000000,0.000000,0.000000,0.000000,0.000000,1647329871.343218,0.000000
89.000000,53766.830715,65080.590854,36063.600905,15759.276242,41344.625216,37870.538279,34967.158433,33601.824475,-0.022000,0.970000,0.172000,192.000000,0.000000,0.000000,0.000000,0.000000,0.000000,0.000000,0.000000,0.000000,0.000000,1647329871.351246,0.000000
90.000000,53765.243741,65080.434392,36065.232583,15762.472542,41346.167486,37872.751102,34972.656962,33608.082963,-0.022000,0.970000,0.172000,192.000000,0.000000,0.000000,0.000000,0.000000,0.000000,0.000000,0.000000,0.000000,0.000000,1647329871.351262,0.000000
91.000000,53766.808363,65082.848380,36067.735978,15761.734934,41347.665053,37877.266154,34974.512157,33609.781696,-0.022000,0.970000,0.172000,192.000000,0.000000,0.000000,0.000000,0.000000,0.000000,0.000000,0.000000,0.000000,0.000000,1647329871.358246,0.000000
92.000000,53770.071718,65088.123392,36071.021685,15762.137265,41348.670882,37878.070817,34975.830910,33609.558178,-0.022000,0.970000,0.172000,192.000000,0.000000,0.000000,0.000000,0.000000,0.000000,0.000000,0.000000,0.000000,0.000000,1647329871.358261,0.000000
93.000000,53769.490572,65091.029118,36069.501766,15760.349126,41346.770984,37874.829814,34966.957267,33604.037297,-0.024000,0.966000,0.168000,192.000000,255.000000,64.000000,30.000000,48.000000,5.000000,64.000000,0.000000,0.000000,0.000000,1647329871.364923,0.000000
94.000000,53773.558590,65093.353700,36071.982810,15763.232501,41348.737937,37872.102901,34961.794014,33598.896396,-0.024000,0.966000,0.168000,192.000000,0.000000,0.000000,0.000000,0.000000,0.000000,0.000000,0.000000,0.000000,0.000000,1647329871.372962,0.000000
95.000000,53775.860819,65087.899874,36070.552298,15762.181969,41347.486239,37866.738482,34954.596752,33593.040239,-0.024000,0.966000,0.168000,192.000000,0.000000,0.000000,0.000000,0.000000,0.000000,0.000000,0.000000,0.000000,0.000000,1647329871.372979,0.000000
96.000000,53775.458488,65088.145743,36067.870089,15761.287899,41344.446402,37861.865802,34948.762947,33589.195739,-0.024000,0.966000,0.168000,192.000000,0.000000,0.000000,0.000000,0.000000,0.000000,0.000000,0.000000,0.000000,0.000000,1647329871.380907,0.000000
97.000000,53765.064927,65079.160342,36057.901211,15751.587242,41333.561103,37855.093223,34951.601619,33583.406637,-0.024000,0.966000,0.168000,192.000000,0.000000,0.000000,0.000000,0.000000,0.000000,0.000000,0.000000,0.000000,0.000000,1647329871.380923,0.000000
98.000000,53760.147543,65073.304185,36053.207344,15748.681515,41328.934291,37855.942590,34959.424729,33586.088846,-0.024000,0.966000,0.168000,192.000000,0.000000,0.000000,0.000000,0.000000,0.000000,0.000000,0.000000,0.000000,0.000000,1647329871.387990,0.000000
99.000000,53757.688851,65076.098153,36054.168469,15742.758303,41329.314271,37855.808479,34953.814441,33583.317230,-0.024000,0.966000,0.168000,192.000000,0.000000,0.000000,0.000000,0.000000,0.000000,0.000000,0.000000,0.000000,0.000000,1647329871.388006,0.000000
100.000000,53757.979424,65079.026232,36055.956609,15740.076094,41329.828361,37855.562610,34956.697816,33581.394980,-0.024000,0.966000,0.168000,192.000000,0.000000,0.000000,0.000000,0.000000,0.000000,0.000000,0.000000,0.000000,0.000000,1647329871.395530,0.000000
101.000000,53759.789915,65068.699726,36056.873030,15744.546443,41330.275396,37861.575229,34969.728883,33594.761323,-0.024000,0.966000,0.168000,192.000000,0.000000,0.000000,0.000000,0.000000,0.000000,0.000000,0.000000,0.000000,0.000000,1647329871.395546,0.000000
102.000000,53762.516828,65062.374182,36060.270495,15747.988611,41333.270530,37863.452776,34968.432482,33594.537806,-0.024000,0.966000,0.168000,192.000000,0.000000,0.000000,0.000000,0.000000,0.000000,0.000000,0.000000,0.000000,0.000000,1647329871.403437,0.000000
103.000000,53763.813229,65060.362525,36062.550373,15752.794236,41336.153905,37864.056273,34960.542317,33598.851693,-0.024000,0.966000,0.166000,192.000000,255.000000,64.000000,30.000000,48.000000,5.000000,48.000000,0.000000,0.000000,0.000000,1647329871.403453,0.000000
104.000000,53766.093107,65061.815388,36064.293809,15753.040105,41337.338547,37866.269096,34967.493709,33599.946928,-0.024000,0.966000,0.166000,192.000000,0.000000,0.000000,0.000000,0.000000,0.000000,0.000000,0.000000,0.000000,0.000000,1647329871.411588,0.000000
105.000000,53771.569284,65068.632670,36070.038208,15760.460885,41343.261760,37872.348770,34968.164261,33606.495989,-0.024000,0.966000,0.166000,192.000000,0.000000,0.000000,0.000000,0.000000,0.000000,0.000000,0.000000,0.000000,0.000000,1647329871.411604,0.000000
106.000000,53769.110592,65071.158418,36066.551336,15756.705792,41340.288978,37868.750139,34961.123462,33596.415352,-0.024000,0.966000,0.166000,192.000000,0.000000,0.000000,0.000000,0.000000,0.000000,0.000000,0.000000,0.000000,0.000000,1647329871.418169,0.000000
107.000000,53765.064927,65072.253653,36063.019760,15751.296669,41337.182085,37870.560631,34974.534509,33595.096599,-0.024000,0.966000,0.166000,192.000000,0.000000,0.000000,0.000000,0.000000,0.000000,0.000000,0.000000,0.000000,0.000000,1647329871.418185,0.000000
108.000000,53760.281653,65070.890197,36058.638818,15747.206300,41332.197646,37867.476090,34978.088436,33587.027620,-0.024000,0.966000,0.166000,192.000000,0.000000,0.000000,0.000000,0.000000,0.000000,0.000000,0.000000,0.000000,0.000000,1647329871.425044,0.000000
109.000000,53762.717994,65070.264348,36059.689350,15748.860329,41332.756440,37868.034884,34974.601564,33594.984841,-0.024000,0.966000,0.166000,192.000000,0.000000,0.000000,0.000000,0.000000,0.000000,0.000000,0.000000,0.000000,0.000000,1647329871.433149,0.000000
110.000000,53766.853066,65078.199217,36063.176222,15754.492969,41337.740879,37876.282677,34982.558785,33613.201512,-0.024000,0.966000,0.166000,192.000000,0.000000,0.000000,0.000000,0.000000,0.000000,0.000000,0.000000,0.000000,0.000000,1647329871.433160,0.000000
111.000000,53770.496401,65070.286700,36066.327818,15757.957489,41340.758364,37878.853128,34980.949459,33618.722393,-0.024000,0.966000,0.166000,192.000000,0.000000,0.000000,0.000000,0.000000,0.000000,0.000000,0.000000,0.000000,0.000000,1647329871.441125,0.000000
112.000000,53770.921084,65059.379048,36066.037246,15759.365649,41339.573722,37875.053331,34975.585041,33610.049917,-0.024000,0.966000,0.166000,192.000000,0.000000,0.000000,0.000000,0.000000,0.000000,0.000000,0.000000,0.000000,0.000000,1647329871.441141,0.000000
113.000000,53767.165991,65060.988374,36062.393911,15757.555158,41336.712699,37870.203003,34968.857165,33600.393963,-0.022000,0.964000,0.166000,192.000000,255.000000,80.000000,30.000000,32.000000,5.000000,48.000000,0.000000,0.000000,0.000000,1647329871.447808,0.000000
114.000000,53771.524581,65071.359583,36069.859394,15763.098390,41343.284111,37875.053331,34972.008761,33600.908053,-0.022000,0.964000,0.166000,192.000000,0.000000,0.000000,0.000000,0.000000,0.000000,0.000000,0.000000,0.000000,0.000000,1647329871.447824,0.000000
115.000000,53767.881247,65069.638499,36067.534812,15761.466713,41339.104335,37872.594639,34971.695837,33603.076172,-0.022000,0.964000,0.166000,192.000000,0.000000,0.000000,0.000000,0.000000,0.000000,0.000000,0.000000,0.000000,0.000000,1647329871.455792,0.000000
116.000000,53770.049366,65074.734697,36068.183013,15759.432704,41339.238446,37873.622820,34972.165224,33605.154884,-0.022000,0.964000,0.166000,192.000000,0.000000,0.000000,0.000000,0.000000,0.000000,0.000000,0.000000,0.000000,0.000000,1647329871.455807,0.000000
117.000000,53764.059098,65069.996127,36062.908001,15752.749533,41335.036318,37872.706398,34968.097206,33604.193759,-0.022000,0.964000,0.166000,192.000000,0.000000,0.000000,0.000000,0.000000,0.000000,0.000000,0.000000,0.000000,0.000000,1647329871.463856,0.000000
118.000000,53763.679119,65065.950461,36063.489147,15753.531844,41335.304539,37876.439139,34975.562689,33607.211245,-0.022000,0.964000,0.166000,192.000000,0.000000,0.000000,0.000000,0.000000,0.000000,0.000000,0.000000,0.000000,0.000000,1647329871.463872,0.000000
119.000000,53761.153371,65061.994202,36058.012969,15748.301536,41330.029527,37871.253535,34969.103035,33600.662184,-0.022000,0.964000,0.166000,192.000000,0.000000,0.000000,0.000000,0.000000,0.000000,0.000000,0.000000,0.000000,0.000000,1647329871.470965,0.000000
120.000000,53763.612063,65063.245900,36061.097510,15750.000268,41332.667033,37872.862860,34971.382913,33601.735068,-0.022000,0.964000,0.166000,192.000000,0.000000,0.000000,0.000000,0.000000,0.000000,0.000000,0.000000,0.000000,0.000000,1647329871.470981,0.000000
121.000000,53760.616930,65060.183711,36059.823461,15747.675687,41329.493085,37867.900773,34965.794976,33596.549463,-0.022000,0.964000,0.166000,192.000000,0.000000,0.000000,0.000000,0.000000,0.000000,0.000000,0.000000,0.000000,0.000000,1647329871.478458,0.000000
122.000000,53763.254435,65070.331403,36060.091681,15742.333620,41326.788524,37864.056273,34966.934915,33593.286108,-0.022000,0.964000,0.166000,192.000000,0.000000,0.000000,0.000000,0.000000,0.000000,0.000000,0.000000,0.000000,0.000000,1647329871.478474,0.000000
123.000000,53767.300101,65067.470380,36064.137347,15743.518262,41330.789486,37864.190383,34965.124424,33595.722448,-0.016000,0.958000,0.164000,192.000000,255.000000,128.000000,29.000000,240.000000,5.000000,32.000000,0.000000,0.000000,0.000000,1647329871.485349,0.000000
124.000000,53764.819058,65049.164301,36062.729187,15746.982783,41330.856541,37865.822061,34970.555898,33602.852655,-0.016000,0.958000,0.164000,192.000000,0.000000,0.000000,0.000000,0.000000,0.000000,0.000000,0.000000,0.000000,0.000000,1647329871.493498,0.000000
125.000000,53762.360366,65051.690048,36059.152908,15748.212129,41327.615539,37860.904677,34962.173994,33594.627213,-0.016000,0.958000,0.164000,192.000000,0.000000,0.000000,0.000000,0.000000,0.000000,0.000000,0.000000,0.000000,0.000000,1647329871.493514,0.000000
126.000000,53765.355499,65061.569519,36062.952705,15750.000268,41329.761306,37863.765700,34969.952401,33595.901262,-0.016000,0.958000,0.164000,192.000000,0.000000,0.000000,0.000000,0.000000,0.000000,0.000000,0.000000,0.000000,0.000000,1647329871.500526,0.000000
127.000000,53762.136848,65064.050563,36060.203440,15746.066361,41327.146152,37860.859974,34962.621029,33591.386210,-0.016000,0.958000,0.164000,192.000000,0.000000,0.000000,0.000000,0.000000,0.000000,0.000000,0.000000,0.000000,0.000000,1647329871.500542,0.000000
128.000000,53767.076584,65071.493694,36068.764158,15752.905995,41335.885684,37869.599506,34964.632686,33602.472675,-0.016000,0.958000,0.164000,192.000000,0.000000,0.000000,0.000000,0.000000,0.000000,0.000000,0.000000,0.000000,0.000000,1647329871.508050,0.000000
129.000000,53770.116421,65075.829932,36070.172318,15754.604728,41337.137382,37871.655866,34967.091378,33602.427972,-0.016000,0.958000,0.164000,192.000000,0.000000,0.000000,0.000000,0.000000,0.000000,0.000000,0.000000,0.000000,0.000000,1647329871.508067,0.000000
130.000000,53765.400203,65065.101095,36065.769025,15746.356934,41330.767135,37862.066968,34943.175011,33591.743838,-0.016000,0.958000,0.164000,192.000000,0.000000,0.000000,0.000000,0.000000,0.000000,0.000000,0.000000,0.000000,0.000000,1647329871.515842,0.000000
131.000000,53761.399241,65055.445141,36064.114995,15741.171329,41327.324966,37859.898849,34948.830002,33589.039277,-0.016000,0.958000,0.164000,192.000000,0.000000,0.000000,0.000000,0.000000,0.000000,0.000000,0.000000,0.000000,0.000000,1647329871.515857,0.000000
132.000000,53768.417688,65065.503426,36070.753464,15748.323887,41333.650510,37868.839546,34970.220622,33591.408562,-0.016000,0.958000,0.164000,192.000000,0.000000,0.000000,0.000000,0.000000,0.000000,0.000000,0.000000,0.000000,0.000000,1647329871.524092,0.000000
133.000000,53778.587732,65084.524761,36077.570746,15759.790332,41341.093640,37877.668485,34987.252651,33603.769076,-0.016000,0.958000,0.164000,192.000000,0.000000,0.000000,0.000000,0.000000,0.000000,0.000000,0.000000,0.000000,0.000000,1647329871.524108,0.000000
134.000000,53785.293255,65090.671491,36080.252955,15764.193626,41343.127649,37878.182575,34979.988334,33609.222902,-0.018000,0.974000,0.168000,192.000000,255.000000,112.000000,30.000000,112.000000,5.000000,64.000000,0.000000,0.000000,0.000000,1647329871.530836,0.000000
135.000000,53775.033805,65071.091362,36077.414283,15758.672745,41340.065460,37876.014456,34966.979619,33602.226806,-0.018000,0.974000,0.168000,192.000000,0.000000,0.000000,0.000000,0.000000,0.000000,0.000000,0.000000,0.000000,0.000000,1647329871.530852,0.000000
136.000000,53761.846276,65064.318784,36068.138309,15748.569757,41332.219998,37869.308933,34972.008761,33590.380381,-0.018000,0.974000,0.168000,192.000000,0.000000,0.000000,0.000000,0.000000,0.000000,0.000000,0.000000,0.000000,0.000000,1647329871.538638,0.000000
137.000000,53765.690776,65072.723040,36067.534812,15747.228652,41331.057707,37866.783186,34970.354732,33595.498931,-0.018000,0.974000,0.168000,192.000000,0.000000,0.000000,0.000000,0.000000,0.000000,0.000000,0.000000,0.000000,0.000000,1647329871.538654,0.000000
138.000000,53766.741308,65056.741542,36069.412359,15749.195605,41332.577626,37872.102901,34973.014590,33604.238463,-0.018000,0.974000,0.168000,192.000000,0.000000,0.000000,0.000000,0.000000,0.000000,0.000000,0.000000,0.000000,0.000000,1647329871.545637,0.000000
139.000000,53763.924988,65050.483054,36063.444443,15745.574623,41326.743821,37868.928953,34971.069988,33604.104352,-0.018000,0.974000,0.168000,192.000000,0.000000,0.000000,0.000000,0.000000,0.000000,0.000000,0.000000,0.000000,0.000000,1647329871.552821,0.000000
140.000000,53763.366194,65058.753199,36059.488184,15745.038181,41324.307480,37864.100976,34968.164261,33599.835169,-0.018000,0.974000,0.168000,192.000000,0.000000,0.000000,0.000000,0.000000,0.000000,0.000000,0.000000,0.000000,0.000000,1647329871.552838,0.000000
141.000000,53764.036747,65068.699726,36063.511498,15750.022620,41328.084925,37862.737520,34962.889250,33594.738972,-0.018000,0.974000,0.168000,192.000000,0.000000,0.000000,0.000000,0.000000,0.000000,0.000000,0.000000,0.000000,0.000000,1647329871.560475,0.000000
142.000000,53774.139735,65080.613206,36074.150929,15761.489065,41339.193742,37870.091244,34969.706532,33600.349259,-0.018000,0.974000,0.168000,192.000000,0.000000,0.000000,0.000000,0.000000,0.000000,0.000000,0.000000,0.000000,0.000000,1647329871.560491,0.000000
143.000000,53778.252456,65082.893083,36074.732074,15762.092562,41340.959530,37870.605334,34970.242974,33607.300652,-0.018000,0.974000,0.168000,192.000000,0.000000,0.000000,0.000000,0.000000,0.000000,0.000000,0.000000,0.000000,0.000000,1647329871.568305,0.000000
144.000000,53781.001721,65083.742450,36075.067350,15761.645527,41340.244274,37868.683084,34970.153567,33603.322041,-0.022000,0.968000,0.172000,192.000000,255.000000,80.000000,30.000000,64.000000,5.000000,96.000000,0.000000,0.000000,0.000000,1647329871.568321,0.000000
145.000000,53774.430308,65076.276967,36066.663094,15756.482274,41334.343414,37861.329360,34967.717226,33600.662184,-0.022000,0.968000,0.172000,192.000000,0.000000,0.000000,0.000000,0.000000,0.000000,0.000000,0.000000,0.000000,0.000000,1647329871.576433,0.000000
146.000000,53776.017282,65076.500485,36067.065426,15757.510454,41336.086850,37860.591753,34967.650171,33602.293861,-0.022000,0.968000,0.172000,192.000000,0.000000,0.000000,0.000000,0.000000,0.000000,0.000000,0.000000,0.000000,0.000000,1647329871.576449,0.000000
147.000000,53776.687834,65082.826028,36066.841908,15756.705792,41336.489181,37857.484860,34960.922296,33596.840036,-0.022000,0.968000,0.172000,192.000000,0.000000,0.000000,0.000000,0.000000,0.000000,0.000000,0.000000,0.000000,0.000000,1647329871.583019,0.000000
148.000000,53775.391433,65082.915435,36067.691275,15761.891396,41338.567893,37860.189421,34963.626857,33599.678707,-0.022000,0.968000,0.172000,192.000000,0.000000,0.000000,0.000000,0.000000,0.000000,0.000000,0.000000,0.000000,0.000000,1647329871.583036,0.000000
149.000000,53769.781145,65075.405249,36063.287981,15759.410353,41333.874027,37856.680197,34962.621029,33602.852655,-0.022000,0.968000,0.172000,192.000000,0.000000,0.000000,0.000000,0.000000,0.000000,0.000000,0.000000,0.000000,0.000000,1647329871.590836,0.000000
150.000000,53777.604255,65089.151572,36067.758330,15766.227635,41339.059632,37861.351712,34969.974753,33605.758382,-0.022000,0.968000,0.172000,192.000000,0.000000,0.000000,0.000000,0.000000,0.000000,0.000000,0.000000,0.000000,0.000000,1647329871.590852,0.000000
151.000000,53773.402127,65070.957252,36061.991580,15759.767981,41334.477524,37856.881363,34960.207040,33603.098524,-0.022000,0.968000,0.172000,192.000000,0.000000,0.000000,0.000000,0.000000,0.000000,0.000000,0.000000,0.000000,0.000000,1647329871.598934,0.000000
152.000000,53766.763659,65059.311993,36056.023664,15753.107161,41328.889588,37853.372139,34965.347942,33598.114085,-0.022000,0.968000,0.172000,192.000000,0.000000,0.000000,0.000000,0.000000,0.000000,0.000000,0.000000,0.000000,0.000000,1647329871.598950,0.000000
153.000000,53774.631473,65071.046659,36063.936182,15763.590129,41336.355071,37861.865802,34979.742465,33601.019812,-0.022000,0.968000,0.172000,192.000000,0.000000,0.000000,0.000000,0.000000,0.000000,0.000000,0.000000,0.000000,0.000000,1647329871.606038,0.000000
154.000000,53778.543029,65074.444124,36068.183013,15767.322870,41340.132515,37862.871631,34974.981543,33597.264719,-0.020000,0.962000,0.172000,192.000000,255.000000,96.000000,30.000000,16.000000,5.000000,96.000000,0.000000,0.000000,0.000000,1647329871.606054,0.000000
155.000000,53775.413784,65072.074839,36063.958533,15762.293728,41335.595111,37856.724901,34965.035017,33592.570852,-0.020000,0.962000,0.172000,192.000000,0.000000,0.000000,0.000000,0.000000,0.000000,0.000000,0.000000,0.000000,0.000000,1647329871.612695,0.000000
156.000000,53774.631473,65074.555883,36063.846775,15765.512379,41336.288015,37860.211773,34957.815404,33614.654376,-0.020000,0.962000,0.172000,192.000000,0.000000,0.000000,0.000000,0.000000,0.000000,0.000000,0.000000,0.000000,0.000000,1647329871.620698,0.000000
157.000000,53770.116421,65067.671545,36057.275362,15758.158655,41329.694251,37851.584000,34947.801822,33597.197663,-0.020000,0.962000,0.172000,192.000000,0.000000,0.000000,0.000000,0.000000,0.000000,0.000000,0.000000,0.000000,0.000000,1647329871.620714,0.000000
158.000000,53768.417688,65062.932976,36055.084891,15753.129512,41326.967338,37853.863878,34984.838663,33596.303594,-0.020000,0.962000,0.172000,192.000000,0.000000,0.000000,0.000000,0.000000,0.000000,0.000000,0.000000,0.000000,0.000000,1647329871.628619,0.000000
159.000000,53770.004662,65065.458723,36057.409472,15753.196568,41329.649547,37853.483898,34983.318744,33598.203492,-0.020000,0.962000,0.172000,192.000000,0.000000,0.000000,0.000000,0.000000,0.000000,0.000000,0.000000,0.000000,0.000000,1647329871.628635,0.000000
160.000000,53775.860819,65072.030136,36063.399740,15759.388001,41335.706870,37859.943552,34982.670544,33607.434762,-0.020000,0.962000,0.172000,192.000000,0.000000,0.000000,0.000000,0.000000,0.000000,0.000000,0.000000,0.000000,0.000000,1647329871.635662,0.000000
