%OpenBCI Raw EEG Data
%Number of channels = 8
%Sample Rate = 256 Hz
%Board = OpenBCI_GUI$BoardCytonSerial
%Channels = Fp1, Fp2, F3, F4, Fz, Pz, O1, O2
%Data recorded at AIMS Lab (http://aimsl.uiu.ac.bd) by Rana Depto (mail@ranadepto.com)
%Brainwaves were obtained via the Ultracortex Mark IV Headset using the OpenBCI Cyton Board
%Recording Application = ConcentrateToday (https://concentrate.today)
%Data type = RAW data with noise
%Day No = 7
%Subject ID = 9
%Session ID = 7
%Record starting timestamp (UTC+6) = 2022-03-28T16:34:04.521264
%Record ending timestamp (UTC+6)   = 2022-03-28T16:34:40.386756
%Recorded durations = ~35 seconds
Sample Index, EXG Channel 0, EXG Channel 1, EXG Channel 2, EXG Channel 3, EXG Channel 4, EXG Channel 5, EXG Channel 6, EXG Channel 7, Accel Channel 0, Accel Channel 1, Accel Channel 2, Other, Other, Other, Other, Other, Other, Other, Analog Channel 0, Analog Channel 1, Analog Channel 2, Timestamp, Timestamp (Formatted)
219.000000,-50730.525044,-35643.857496,4680.432937,10154.553968,-47005.025685,45294.983124,34872.074112,28344.001275,0.026000,0.978000,-0.186000,192.000000,0.000000,0.000000,0.000000,0.000000,0.000000,0.000000,0.000000,0.000000,0.000000,1648463644.523588,0.000000
220.000000,-50728.446332,-35638.358967,4678.443632,10153.883416,-47006.255031,45295.161938,34883.540557,28348.896307,0.026000,0.978000,-0.186000,192.000000,0.000000,0.000000,0.000000,0.000000,0.000000,0.000000,0.000000,0.000000,0.000000,1648463644.523597,0.000000
221.000000,-50706.943954,-35629.910008,4686.289094,10163.896997,-47001.471758,45300.615764,34898.315060,28352.092606,0.026000,0.978000,-0.186000,192.000000,0.000000,0.000000,0.000000,0.000000,0.000000,0.000000,0.000000,0.000000,0.000000,1648463644.531557,0.000000
222.000000,-50713.515367,-35623.271540,4677.795431,10172.703585,-46999.057770,45302.962697,34882.624135,28356.227679,0.026000,0.978000,-0.186000,192.000000,0.000000,0.000000,0.000000,0.000000,0.000000,0.000000,0.000000,0.000000,0.000000,1648463644.531562,0.000000
223.000000,-50703.725303,-35611.447467,4665.591379,10174.603483,-46998.610735,45300.369895,34887.072132,28356.451196,0.028000,0.974000,-0.182000,192.000000,0.000000,224.000000,30.000000,112.000000,250.000000,80.000000,0.000000,0.000000,0.000000,1648463644.538554,0.000000
224.000000,-50693.711721,-35607.848836,4672.654530,10170.446059,-46995.213270,45297.598278,34889.374362,28361.301525,0.028000,0.974000,-0.182000,192.000000,0.000000,0.000000,0.000000,0.000000,0.000000,0.000000,0.000000,0.000000,0.000000,1648463644.538559,0.000000
225.000000,-50725.227681,-35622.064545,4687.987827,10166.959186,-46996.576726,45294.312572,34889.955508,28356.495900,0.028000,0.974000,-0.182000,192.000000,0.000000,0.000000,0.000000,0.000000,0.000000,0.000000,0.000000,0.000000,0.000000,1648463644.546055,0.000000
226.000000,-50757.391841,-35631.228761,4695.185089,10160.633643,-47003.192842,45282.980237,34875.717446,28340.380292,0.028000,0.974000,-0.182000,192.000000,0.000000,0.000000,0.000000,0.000000,0.000000,0.000000,0.000000,0.000000,0.000000,1648463644.546060,0.000000
227.000000,-50749.658138,-35612.006260,4703.298772,10170.647224,-47000.108302,45285.953019,34877.460882,28335.060577,0.028000,0.974000,-0.182000,192.000000,0.000000,0.000000,0.000000,0.000000,0.000000,0.000000,0.000000,0.000000,0.000000,1648463644.554193,0.000000
228.000000,-50725.853530,-35615.537836,4692.592286,10173.910579,-46993.335723,45292.815005,34883.182929,28345.454138,0.028000,0.974000,-0.182000,192.000000,0.000000,0.000000,0.000000,0.000000,0.000000,0.000000,0.000000,0.000000,0.000000,1648463644.554198,0.000000
229.000000,-50721.025553,-35630.111173,4690.781795,10171.407184,-46992.799281,45297.128892,34886.826263,28346.929353,0.028000,0.974000,-0.182000,192.000000,0.000000,0.000000,0.000000,0.000000,0.000000,0.000000,0.000000,0.000000,0.000000,1648463644.561277,0.000000
230.000000,-50722.679582,-35630.267636,4689.552449,10173.061213,-46991.547584,45302.470959,34883.831130,28348.113996,0.028000,0.974000,-0.182000,192.000000,0.000000,0.000000,0.000000,0.000000,0.000000,0.000000,0.000000,0.000000,0.000000,1648463644.568259,0.000000
231.000000,-50710.676695,-35611.313356,4699.253106,10186.695777,-46982.405720,45317.088999,34895.185816,28353.366656,0.028000,0.974000,-0.182000,192.000000,0.000000,0.000000,0.000000,0.000000,0.000000,0.000000,0.000000,0.000000,0.000000,1648463644.568264,0.000000
232.000000,-50695.589268,-35595.175397,4698.515498,10191.657864,-46977.689502,45325.001517,34904.662955,28356.495900,0.028000,0.974000,-0.182000,192.000000,0.000000,0.000000,0.000000,0.000000,0.000000,0.000000,0.000000,0.000000,0.000000,1648463644.575693,0.000000
233.000000,-50699.322009,-35596.404743,4681.215248,10180.392585,-46984.506784,45320.374706,34900.371420,28355.400664,0.028000,0.978000,-0.182000,192.000000,0.000000,224.000000,30.000000,144.000000,250.000000,80.000000,0.000000,0.000000,0.000000,1648463644.575697,0.000000
234.000000,-50731.441466,-35612.721516,4677.706024,10157.839675,-47001.024723,45313.713886,34893.151807,28350.595039,0.028000,0.978000,-0.182000,192.000000,0.000000,0.000000,0.000000,0.000000,0.000000,0.000000,0.000000,0.000000,0.000000,1648463644.583860,0.000000
235.000000,-50712.554242,-35596.650612,4701.890612,10167.830904,-46990.117072,45324.018040,34902.941871,28350.975019,0.028000,0.978000,-0.182000,192.000000,0.000000,0.000000,0.000000,0.000000,0.000000,0.000000,0.000000,0.000000,0.000000,1648463644.583872,0.000000
236.000000,-50727.596966,-35614.867284,4707.567955,10168.322643,-46991.480528,45322.542825,34901.533711,28360.429807,0.028000,0.978000,-0.182000,192.000000,0.000000,0.000000,0.000000,0.000000,0.000000,0.000000,0.000000,0.000000,0.000000,1648463644.591718,0.000000
237.000000,-50734.190730,-35647.545534,4699.186051,10162.287672,-47001.561165,45311.590470,34898.784447,28351.354999,0.028000,0.978000,-0.182000,192.000000,0.000000,0.000000,0.000000,0.000000,0.000000,0.000000,0.000000,0.000000,0.000000,1648463644.591722,0.000000
238.000000,-50724.065390,-35635.699110,4689.373635,10174.245855,-46993.492185,45317.536034,34902.427781,28359.513385,0.028000,0.978000,-0.182000,192.000000,0.000000,0.000000,0.000000,0.000000,0.000000,0.000000,0.000000,0.000000,0.000000,1648463644.598353,0.000000
239.000000,-50733.251957,-35624.456182,4681.081138,10167.875608,-46999.013066,45305.242575,34892.056571,28356.652362,0.028000,0.978000,-0.182000,192.000000,0.000000,0.000000,0.000000,0.000000,0.000000,0.000000,0.000000,0.000000,0.000000,1648463644.598357,0.000000
240.000000,-50731.016783,-35616.923644,4685.573838,10176.324567,-46995.749711,45304.952002,34892.391848,28342.838984,0.028000,0.978000,-0.182000,192.000000,0.000000,0.000000,0.000000,0.000000,0.000000,0.000000,0.000000,0.000000,0.000000,1648463644.606479,0.000000
241.000000,-50726.077047,-35610.620452,4694.000446,10185.667597,-46986.809014,45312.395133,34907.345165,28356.495900,0.028000,0.978000,-0.182000,192.000000,0.000000,0.000000,0.000000,0.000000,0.000000,0.000000,0.000000,0.000000,0.000000,1648463644.606483,0.000000
242.000000,-50725.182977,-35629.239455,4674.710891,10176.816306,-46999.236584,45297.397113,34892.056571,28348.516327,0.028000,0.978000,-0.182000,192.000000,0.000000,0.000000,0.000000,0.000000,0.000000,0.000000,0.000000,0.000000,0.000000,1648463644.614522,0.000000
243.000000,-50721.226719,-35626.691357,4677.527210,10173.999986,-47001.717627,45294.044351,34897.577452,28354.551298,0.024000,0.974000,-0.184000,192.000000,0.000000,192.000000,30.000000,112.000000,250.000000,64.000000,0.000000,0.000000,0.000000,1648463644.614550,0.000000
244.000000,-50722.947803,-35624.456182,4681.662283,10172.278902,-47001.650572,45298.648810,34902.360726,28363.559051,0.024000,0.974000,-0.184000,192.000000,0.000000,0.000000,0.000000,0.000000,0.000000,0.000000,0.000000,0.000000,0.000000,1648463644.620562,0.000000
245.000000,-50716.085817,-35630.938188,4682.310484,10169.306120,-47006.076217,45295.564269,34902.718354,28361.659153,0.024000,0.974000,-0.184000,192.000000,0.000000,0.000000,0.000000,0.000000,0.000000,0.000000,0.000000,0.000000,0.000000,1648463644.620566,0.000000
246.000000,-50725.831178,-35625.149086,4690.200650,10164.120515,-47003.081084,45297.955906,34904.730011,28359.982772,0.024000,0.974000,-0.184000,192.000000,0.000000,0.000000,0.000000,0.000000,0.000000,0.000000,0.000000,0.000000,0.000000,1648463644.628008,0.000000
247.000000,-50728.312222,-35623.204484,4696.056807,10171.228370,-46997.180223,45300.124025,34906.607557,28362.441464,0.024000,0.974000,-0.184000,192.000000,0.000000,0.000000,0.000000,0.000000,0.000000,0.000000,0.000000,0.000000,0.000000,1648463644.636035,0.000000
248.000000,-50715.057637,-35620.566979,4700.773025,10176.235160,-46991.011142,45310.137607,34905.735839,28362.821443,0.024000,0.974000,-0.184000,192.000000,0.000000,0.000000,0.000000,0.000000,0.000000,0.000000,0.000000,0.000000,0.000000,1648463644.636039,0.000000
249.000000,-50710.497881,-35619.225874,4703.790510,10174.894056,-46987.524270,45312.193967,34907.255758,28366.800054,0.024000,0.974000,-0.184000,192.000000,0.000000,0.000000,0.000000,0.000000,0.000000,0.000000,0.000000,0.000000,0.000000,1648463644.644078,0.000000
250.000000,-50713.962402,-35623.428002,4677.862487,10161.438306,-46998.811900,45299.587583,34897.532749,28352.316124,0.024000,0.974000,-0.184000,192.000000,0.000000,0.000000,0.000000,0.000000,0.000000,0.000000,0.000000,0.000000,0.000000,1648463644.644083,0.000000
251.000000,-50720.958498,-35609.167589,4680.231771,10166.489800,-46996.084988,45304.124988,34899.566758,28359.021647,0.024000,0.974000,-0.184000,192.000000,0.000000,0.000000,0.000000,0.000000,0.000000,0.000000,0.000000,0.000000,0.000000,1648463644.650805,0.000000
252.000000,-50731.374411,-35618.935301,4685.015045,10171.518942,-46997.716665,45303.253270,34897.465694,28359.982772,0.024000,0.974000,-0.184000,192.000000,0.000000,0.000000,0.000000,0.000000,0.000000,0.000000,0.000000,0.000000,0.000000,1648463644.650811,0.000000
253.000000,-50728.871015,-35613.012089,4686.445556,10180.951378,-46997.537851,45306.494273,34902.047801,28348.918658,0.024000,0.978000,-0.176000,192.000000,0.000000,192.000000,30.000000,144.000000,250.000000,128.000000,0.000000,0.000000,0.000000,1648463644.658633,0.000000
254.000000,-50718.969192,-35607.155932,4695.833289,10188.573323,-46988.485395,45318.228938,34913.603653,28359.848661,0.024000,0.978000,-0.176000,192.000000,0.000000,0.000000,0.000000,0.000000,0.000000,0.000000,0.000000,0.000000,0.000000,1648463644.658638,0.000000
255.000000,-50718.388047,-35601.277423,4686.222039,10176.190457,-46992.598116,45316.172578,34914.296557,28366.777702,0.024000,0.978000,-0.176000,192.000000,0.000000,0.000000,0.000000,0.000000,0.000000,0.000000,0.000000,0.000000,0.000000,1648463644.666743,0.000000
0.000000,-50703.099454,-35610.374583,4682.310484,10161.125381,-47001.270592,45307.634211,34905.534673,28369.415208,0.024000,0.978000,-0.176000,192.000000,0.000000,0.000000,0.000000,0.000000,0.000000,0.000000,0.000000,0.000000,0.000000,1648463644.666747,0.000000
1.000000,-50713.761236,-35620.119944,4674.576780,10160.924215,-47005.003334,45299.520528,34902.830112,28369.035228,0.024000,0.978000,-0.176000,192.000000,0.000000,0.000000,0.000000,0.000000,0.000000,0.000000,0.000000,0.000000,0.000000,1648463644.673704,0.000000
2.000000,-50730.905024,-35626.266673,4685.529135,10172.234198,-46998.811900,45306.538976,34916.867008,28363.849624,0.024000,0.978000,-0.176000,192.000000,0.000000,0.000000,0.000000,0.000000,0.000000,0.000000,0.000000,0.000000,0.000000,1648463644.673708,0.000000
3.000000,-50729.139236,-35628.703014,4697.107339,10175.564608,-46992.374598,45305.980182,34918.677499,28363.313182,0.024000,0.978000,-0.176000,192.000000,0.000000,0.000000,0.000000,0.000000,0.000000,0.000000,0.000000,0.000000,0.000000,1648463644.681283,0.000000
4.000000,-50732.201425,-35637.531953,4674.733242,10165.819247,-47001.225889,45290.468072,34908.552159,28357.278211,0.024000,0.978000,-0.176000,192.000000,0.000000,0.000000,0.000000,0.000000,0.000000,0.000000,0.000000,0.000000,0.000000,1648463644.681287,0.000000
5.000000,-50741.097419,-35625.238493,4680.477641,10155.760962,-47011.552395,45277.839336,34897.242176,28355.378313,0.024000,0.978000,-0.176000,192.000000,0.000000,0.000000,0.000000,0.000000,0.000000,0.000000,0.000000,0.000000,0.000000,1648463644.688309,0.000000
6.000000,-50731.687335,-35609.838141,4673.012158,10152.587015,-47015.039267,45275.537106,34897.577452,28346.169394,0.024000,0.978000,-0.176000,192.000000,0.000000,0.000000,0.000000,0.000000,0.000000,0.000000,0.000000,0.000000,0.000000,1648463644.696231,0.000000
7.000000,-50717.046942,-35608.944071,4668.899437,10161.170085,-47009.451331,45280.879173,34902.003098,28347.286981,0.026000,0.974000,-0.180000,192.000000,0.000000,208.000000,30.000000,112.000000,250.000000,96.000000,0.000000,0.000000,0.000000,1648463644.696235,0.000000
8.000000,-50736.872940,-35630.781726,4663.602074,10155.023355,-47013.027610,45275.827679,34898.315060,28341.766100,0.026000,0.974000,-0.180000,192.000000,0.000000,0.000000,0.000000,0.000000,0.000000,0.000000,0.000000,0.000000,0.000000,1648463644.703440,0.000000
9.000000,-50741.812675,-35636.012034,4680.790565,10163.069983,-47000.689447,45290.155147,34910.228540,28357.166452,0.026000,0.974000,-0.180000,192.000000,0.000000,0.000000,0.000000,0.000000,0.000000,0.000000,0.000000,0.000000,0.000000,1648463644.703444,0.000000
10.000000,-50739.443390,-35639.454203,4680.745862,10165.573378,-47000.912964,45293.105578,34912.329604,28365.213080,0.026000,0.974000,-0.180000,192.000000,0.000000,0.000000,0.000000,0.000000,0.000000,0.000000,0.000000,0.000000,0.000000,1648463644.710962,0.000000
11.000000,-50728.602794,-35627.987758,4680.164716,10164.813419,-47004.869223,45287.249421,34906.585205,28364.095493,0.026000,0.974000,-0.180000,192.000000,0.000000,0.000000,0.000000,0.000000,0.000000,0.000000,0.000000,0.000000,0.000000,1648463644.710966,0.000000
12.000000,-50692.683541,-35602.462066,4706.360961,10180.750213,-46990.832328,45304.437912,34923.416069,28376.590118,0.026000,0.974000,-0.180000,192.000000,0.000000,0.000000,0.000000,0.000000,0.000000,0.000000,0.000000,0.000000,0.000000,1648463644.718880,0.000000
13.000000,-50696.796262,-35597.745847,4701.443577,10193.401300,-46981.489299,45316.016116,34929.048709,28376.970098,0.026000,0.974000,-0.180000,192.000000,0.000000,0.000000,0.000000,0.000000,0.000000,0.000000,0.000000,0.000000,0.000000,1648463644.718884,0.000000
14.000000,-50728.893367,-35617.527141,4693.374597,10182.471297,-46990.050017,45310.472883,34916.844656,28374.310240,0.026000,0.974000,-0.180000,192.000000,0.000000,0.000000,0.000000,0.000000,0.000000,0.000000,0.000000,0.000000,0.000000,1648463644.726902,0.000000
15.000000,-50734.973041,-35620.231702,4685.171507,10175.050518,-46996.062636,45307.835377,34918.431630,28359.692199,0.026000,0.974000,-0.180000,192.000000,0.000000,0.000000,0.000000,0.000000,0.000000,0.000000,0.000000,0.000000,0.000000,1648463644.726906,0.000000
16.000000,-50727.462855,-35611.961557,4684.702120,10173.262378,-46996.397912,45304.057932,34921.471467,28350.639743,0.026000,0.974000,-0.180000,192.000000,0.000000,0.000000,0.000000,0.000000,0.000000,0.000000,0.000000,0.000000,0.000000,1648463644.733558,0.000000
17.000000,-50721.673753,-35602.350307,4690.066539,10176.033995,-46994.363903,45308.349467,34915.280034,28360.206289,0.024000,0.970000,-0.172000,192.000000,0.000000,192.000000,30.000000,80.000000,250.000000,160.000000,0.000000,0.000000,0.000000,1648463644.733562,0.000000
18.000000,-50740.002184,-35614.420249,4677.862487,10164.366384,-47006.858528,45295.430159,34908.082772,28354.774815,0.024000,0.970000,-0.172000,192.000000,0.000000,0.000000,0.000000,0.000000,0.000000,0.000000,0.000000,0.000000,0.000000,1648463644.741581,0.000000
19.000000,-50722.947803,-35613.347365,4689.306580,10180.280826,-46994.721531,45302.046275,34915.011813,28360.765083,0.024000,0.970000,-0.172000,192.000000,0.000000,0.000000,0.000000,0.000000,0.000000,0.000000,0.000000,0.000000,0.000000,1648463644.741585,0.000000
20.000000,-50720.734980,-35621.282234,4695.028626,10180.146716,-46991.391121,45300.995743,34920.309176,28369.124635,0.024000,0.970000,-0.172000,192.000000,0.000000,0.000000,0.000000,0.000000,0.000000,0.000000,0.000000,0.000000,0.000000,1648463644.748514,0.000000
21.000000,-50719.192710,-35617.415383,4691.050016,10183.678291,-46989.334761,45302.940345,34931.306235,28371.002182,0.024000,0.970000,-0.172000,192.000000,0.000000,0.000000,0.000000,0.000000,0.000000,0.000000,0.000000,0.000000,0.000000,1648463644.755621,0.000000
22.000000,-50720.377352,-35620.276406,4688.948952,10169.775506,-47002.589345,45288.143490,34918.074002,28358.731074,0.024000,0.970000,-0.172000,192.000000,0.000000,0.000000,0.000000,0.000000,0.000000,0.000000,0.000000,0.000000,0.000000,1648463644.755630,0.000000
23.000000,-50703.188861,-35617.258920,4674.397966,10162.466486,-47010.032476,45280.298028,34909.423877,28350.684446,0.024000,0.970000,-0.172000,192.000000,0.000000,0.000000,0.000000,0.000000,0.000000,0.000000,0.000000,0.000000,0.000000,1648463644.763291,0.000000
24.000000,-50725.965288,-35614.152028,4683.159850,10164.813419,-47001.628220,45292.367970,34915.637662,28357.859356,0.024000,0.970000,-0.172000,192.000000,0.000000,0.000000,0.000000,0.000000,0.000000,0.000000,0.000000,0.000000,0.000000,1648463644.763296,0.000000
25.000000,-50747.422963,-35631.139354,4679.024777,10165.752192,-47004.086912,45290.311610,34904.126513,28361.100359,0.024000,0.970000,-0.172000,192.000000,0.000000,0.000000,0.000000,0.000000,0.000000,0.000000,0.000000,0.000000,0.000000,1648463644.771258,0.000000
26.000000,-50737.029402,-35626.646653,4668.139478,10159.404297,-47012.133540,45284.477804,34888.077961,28355.847699,0.024000,0.970000,-0.172000,192.000000,0.000000,0.000000,0.000000,0.000000,0.000000,0.000000,0.000000,0.000000,0.000000,1648463644.771262,0.000000
27.000000,-50740.538626,-35619.605854,4667.558332,10161.080678,-47012.401761,45291.809176,34900.550234,28361.279173,0.024000,0.970000,-0.172000,192.000000,0.000000,0.000000,0.000000,0.000000,0.000000,0.000000,0.000000,0.000000,0.000000,1648463644.779102,0.000000
28.000000,-50745.657175,-35621.528104,4683.025740,10162.175913,-47005.003334,45304.236746,34912.798990,28361.100359,0.020000,0.976000,-0.176000,192.000000,0.000000,160.000000,30.000000,128.000000,250.000000,128.000000,0.000000,0.000000,0.000000,1648463644.779106,0.000000
29.000000,-50745.925396,-35618.600025,4681.237600,10153.302271,-47004.131616,45306.538976,34919.795086,28362.441464,0.020000,0.976000,-0.176000,192.000000,0.000000,0.000000,0.000000,0.000000,0.000000,0.000000,0.000000,0.000000,0.000000,1648463644.785834,0.000000
30.000000,-50729.206291,-35613.012089,4677.504859,10159.024317,-47000.823557,45307.768322,34922.991386,28360.742731,0.020000,0.976000,-0.176000,192.000000,0.000000,0.000000,0.000000,0.000000,0.000000,0.000000,0.000000,0.000000,0.000000,1648463644.785838,0.000000
31.000000,-50724.959460,-35612.721516,4675.068519,10166.646262,-46999.102473,45310.048200,34929.272226,28364.453121,0.020000,0.976000,-0.176000,192.000000,0.000000,0.000000,0.000000,0.000000,0.000000,0.000000,0.000000,0.000000,0.000000,1648463644.793863,0.000000
32.000000,-50724.065390,-35626.266673,4685.015045,10162.310024,-47000.309467,45306.963659,34916.688194,28366.017743,0.020000,0.976000,-0.176000,192.000000,0.000000,0.000000,0.000000,0.000000,0.000000,0.000000,0.000000,0.000000,0.000000,1648463644.793867,0.000000
33.000000,-50720.802035,-35623.271540,4699.878955,10176.436326,-46988.619505,45318.005421,34929.898075,28364.900156,0.020000,0.976000,-0.176000,192.000000,0.000000,0.000000,0.000000,0.000000,0.000000,0.000000,0.000000,0.000000,0.000000,1648463644.801799,0.000000
34.000000,-50727.619317,-35614.956691,4699.856603,10185.444079,-46981.601057,45318.295994,34935.016624,28370.868071,0.020000,0.976000,-0.176000,192.000000,0.000000,0.000000,0.000000,0.000000,0.000000,0.000000,0.000000,0.000000,0.000000,1648463644.801805,0.000000
35.000000,-50735.196559,-35614.241435,4695.274496,10186.271094,-46985.870240,45306.986011,34924.086621,28367.694124,0.020000,0.976000,-0.176000,192.000000,0.000000,0.000000,0.000000,0.000000,0.000000,0.000000,0.000000,0.000000,0.000000,1648463644.808988,0.000000
36.000000,-50730.189768,-35610.128714,4692.569934,10184.594713,-46988.373636,45300.571060,34919.772735,28364.944859,0.020000,0.976000,-0.176000,192.000000,0.000000,0.000000,0.000000,0.000000,0.000000,0.000000,0.000000,0.000000,0.000000,1648463644.815508,0.000000
37.000000,-50719.013896,-35617.080106,4671.693405,10176.548085,-47000.041246,45286.288296,34909.803857,28357.859356,0.020000,0.976000,-0.176000,192.000000,0.000000,0.000000,0.000000,0.000000,0.000000,0.000000,0.000000,0.000000,0.000000,1648463644.815539,0.000000
38.000000,-50680.703006,-35605.636013,4679.203591,10185.153506,-46994.162738,45291.295086,34914.676537,28354.439539,0.022000,0.974000,-0.182000,192.000000,0.000000,176.000000,30.000000,112.000000,250.000000,80.000000,0.000000,0.000000,0.000000,1648463644.823623,0.000000
39.000000,-50683.429919,-35597.902310,4689.910077,10183.298312,-46989.111243,45294.938421,34923.661938,28354.171318,0.022000,0.974000,-0.182000,192.000000,0.000000,0.000000,0.000000,0.000000,0.000000,0.000000,0.000000,0.000000,0.000000,1648463644.823628,0.000000
40.000000,-50706.742788,-35598.259938,4696.973228,10184.393547,-46984.484432,45295.027828,34930.322758,28360.876842,0.022000,0.974000,-0.182000,192.000000,0.000000,0.000000,0.000000,0.000000,0.000000,0.000000,0.000000,0.000000,0.000000,1648463644.831465,0.000000
41.000000,-50711.101378,-35601.947975,4696.861469,10185.265265,-46980.997560,45296.346581,34931.261531,28368.141159,0.022000,0.974000,-0.182000,192.000000,0.000000,0.000000,0.000000,0.000000,0.000000,0.000000,0.000000,0.000000,0.000000,1648463644.831469,0.000000
42.000000,-50722.098437,-35602.126789,4692.547583,10179.051480,-46982.986865,45288.746987,34928.065232,28364.944859,0.022000,0.974000,-0.182000,192.000000,0.000000,0.000000,0.000000,0.000000,0.000000,0.000000,0.000000,0.000000,0.000000,1648463644.838589,0.000000
43.000000,-50739.130466,-35608.273519,4702.494109,10167.003890,-46990.787624,45274.888906,34913.000156,28350.572687,0.022000,0.974000,-0.182000,192.000000,0.000000,0.000000,0.000000,0.000000,0.000000,0.000000,0.000000,0.000000,0.000000,1648463644.838598,0.000000
44.000000,-50745.098382,-35597.857606,4702.136481,10167.897960,-46994.453310,45268.876287,34908.730973,28342.704873,0.022000,0.974000,-0.182000,192.000000,0.000000,0.000000,0.000000,0.000000,0.000000,0.000000,0.000000,0.000000,0.000000,1648463644.846136,0.000000
45.000000,-50738.281100,-35590.325068,4680.030606,10168.009718,-46999.817729,45262.640150,34901.801932,28338.748615,0.022000,0.974000,-0.182000,192.000000,0.000000,0.000000,0.000000,0.000000,0.000000,0.000000,0.000000,0.000000,0.000000,1648463644.846139,0.000000
46.000000,-50736.738829,-35603.043211,4659.712870,10157.057364,-47014.055790,45253.185362,34893.263566,28334.814708,0.022000,0.974000,-0.182000,192.000000,0.000000,0.000000,0.000000,0.000000,0.000000,0.000000,0.000000,0.000000,0.000000,1648463644.854089,0.000000
47.000000,-50734.123675,-35616.968348,4667.446574,10166.556855,-47008.512558,45263.958903,34905.445266,28339.530926,0.022000,0.974000,-0.182000,192.000000,0.000000,0.000000,0.000000,0.000000,0.000000,0.000000,0.000000,0.000000,0.000000,1648463644.854093,0.000000
48.000000,-50718.678620,-35622.913912,4680.097661,10176.726899,-46997.470796,45275.067720,34917.090525,28343.978923,0.024000,0.970000,-0.180000,192.000000,0.000000,192.000000,30.000000,80.000000,250.000000,96.000000,0.000000,0.000000,0.000000,1648463644.862166,0.000000
49.000000,-50711.950745,-35624.277368,4682.958684,10176.212809,-46993.894517,45278.509888,34910.317947,28352.740807,0.024000,0.970000,-0.180000,192.000000,0.000000,0.000000,0.000000,0.000000,0.000000,0.000000,0.000000,0.000000,0.000000,1648463644.862169,0.000000
50.000000,-50708.866204,-35620.432868,4693.173432,10177.911541,-46992.531060,45279.806290,34915.794124,28355.400664,0.024000,0.970000,-0.180000,192.000000,0.000000,0.000000,0.000000,0.000000,0.000000,0.000000,0.000000,0.000000,0.000000,1648463644.868338,0.000000
51.000000,-50702.004218,-35620.835199,4678.421280,10169.082602,-47001.382351,45275.268886,34924.421897,28355.892403,0.024000,0.970000,-0.180000,192.000000,0.000000,0.000000,0.000000,0.000000,0.000000,0.000000,0.000000,0.000000,0.000000,1648463644.868342,0.000000
52.000000,-50731.307355,-35620.790496,4668.586513,10168.769678,-47005.875052,45275.760624,34922.454944,28361.256821,0.024000,0.970000,-0.180000,192.000000,0.000000,0.000000,0.000000,0.000000,0.000000,0.000000,0.000000,0.000000,0.000000,1648463644.875861,0.000000
53.000000,-50752.340347,-35623.226836,4676.364920,10166.512152,-47007.305563,45276.252362,34920.666804,28356.071217,0.024000,0.970000,-0.180000,192.000000,0.000000,0.000000,0.000000,0.000000,0.000000,0.000000,0.000000,0.000000,0.000000,1648463644.883660,0.000000
54.000000,-50743.466704,-35613.459124,4673.615655,10166.154524,-47005.629183,45280.789766,34923.192552,28355.043036,0.024000,0.970000,-0.180000,192.000000,0.000000,0.000000,0.000000,0.000000,0.000000,0.000000,0.000000,0.000000,0.000000,1648463644.883663,0.000000
55.000000,-50732.089666,-35609.726382,4678.086004,10168.747326,-47005.584479,45286.422406,34919.660976,28362.709685,0.024000,0.970000,-0.180000,192.000000,0.000000,0.000000,0.000000,0.000000,0.000000,0.000000,0.000000,0.000000,0.000000,1648463644.890737,0.000000
56.000000,-50719.483283,-35610.374583,4678.957722,10180.638454,-46998.186052,45293.507909,34924.466601,28367.112978,0.024000,0.970000,-0.180000,192.000000,0.000000,0.000000,0.000000,0.000000,0.000000,0.000000,0.000000,0.000000,0.000000,1648463644.890741,0.000000
57.000000,-50723.059562,-35623.048022,4684.478603,10180.325530,-46995.526194,45297.263002,34936.514191,28375.673696,0.024000,0.970000,-0.180000,192.000000,0.000000,0.000000,0.000000,0.000000,0.000000,0.000000,0.000000,0.000000,0.000000,1648463644.898462,0.000000
58.000000,-50727.127579,-35622.623339,4681.528173,10167.741497,-47000.331819,45293.038522,34933.295540,28374.042019,0.018000,0.970000,-0.190000,192.000000,0.000000,144.000000,30.000000,80.000000,250.000000,16.000000,0.000000,0.000000,0.000000,1648463644.898466,0.000000
59.000000,-50738.616376,-35633.575694,4670.620521,10154.285747,-47014.413418,45279.403958,34923.393717,28362.016781,0.018000,0.970000,-0.190000,192.000000,0.000000,0.000000,0.000000,0.000000,0.000000,0.000000,0.000000,0.000000,0.000000,1648463644.906337,0.000000
60.000000,-50734.123675,-35629.261807,4677.840135,10167.093297,-47009.294869,45283.427272,34918.744554,28356.920583,0.018000,0.970000,-0.190000,192.000000,0.000000,0.000000,0.000000,0.000000,0.000000,0.000000,0.000000,0.000000,0.000000,1648463644.906340,0.000000
61.000000,-50728.871015,-35622.556284,4686.981998,10175.251684,-47005.025685,45288.501118,34923.684290,28360.474510,0.018000,0.970000,-0.190000,192.000000,0.000000,0.000000,0.000000,0.000000,0.000000,0.000000,0.000000,0.000000,0.000000,1648463644.914408,0.000000
62.000000,-50715.258803,-35627.361909,4684.545658,10170.893093,-47007.104398,45285.930668,34928.355804,28367.336496,0.018000,0.970000,-0.190000,192.000000,0.000000,0.000000,0.000000,0.000000,0.000000,0.000000,0.000000,0.000000,0.000000,1648463644.914412,0.000000
63.000000,-50738.214044,-35632.681624,4673.369786,10159.180779,-47016.246261,45274.777147,34919.817438,28371.695086,0.018000,0.970000,-0.190000,192.000000,0.000000,0.000000,0.000000,0.000000,0.000000,0.000000,0.000000,0.000000,0.000000,1648463644.921065,0.000000
64.000000,-50748.920530,-35629.932359,4652.426201,10156.565625,-47019.353154,45267.848106,34913.961281,28364.319010,0.018000,0.970000,-0.190000,192.000000,0.000000,0.000000,0.000000,0.000000,0.000000,0.000000,0.000000,0.000000,0.000000,1648463644.921099,0.000000
65.000000,-50741.902082,-35625.238493,4657.231826,10167.048593,-47017.699125,45266.261133,34910.943796,28354.305429,0.018000,0.970000,-0.190000,192.000000,0.000000,0.000000,0.000000,0.000000,0.000000,0.000000,0.000000,0.000000,0.000000,1648463644.928963,0.000000
66.000000,-50730.614451,-35613.190903,4679.449460,10185.846410,-47001.561165,45277.101729,34921.762040,28367.023571,0.018000,0.970000,-0.190000,192.000000,0.000000,0.000000,0.000000,0.000000,0.000000,0.000000,0.000000,0.000000,0.000000,1648463644.928967,0.000000
67.000000,-50725.741771,-35604.898406,4682.086966,10174.871704,-47004.444540,45273.212525,34926.187685,28373.572633,0.018000,0.970000,-0.190000,192.000000,0.000000,0.000000,0.000000,0.000000,0.000000,0.000000,0.000000,0.000000,0.000000,1648463644.936039,0.000000
68.000000,-50712.308373,-35597.924661,4684.456251,10170.557817,-47001.739979,45273.279580,34934.055499,28376.746580,0.022000,0.974000,-0.184000,192.000000,0.000000,176.000000,30.000000,112.000000,250.000000,64.000000,0.000000,0.000000,0.000000,1648463644.944135,0.000000
69.000000,-50704.574669,-35596.091818,4683.003388,10171.518942,-47000.510633,45268.541010,34934.211962,28368.364676,0.022000,0.974000,-0.184000,192.000000,0.000000,0.000000,0.000000,0.000000,0.000000,0.000000,0.000000,0.000000,0.000000,1648463644.944138,0.000000
70.000000,-50728.625146,-35631.340519,4672.878048,10153.391678,-47015.262784,45252.358347,34921.158543,28358.820481,0.022000,0.974000,-0.184000,192.000000,0.000000,0.000000,0.000000,0.000000,0.000000,0.000000,0.000000,0.000000,0.000000,1648463644.950736,0.000000
71.000000,-50748.160571,-35649.981874,4668.899437,10144.406276,-47023.689392,45244.848161,34909.803857,28355.959458,0.022000,0.974000,-0.184000,192.000000,0.000000,0.000000,0.000000,0.000000,0.000000,0.000000,0.000000,0.000000,0.000000,1648463644.950740,0.000000
72.000000,-50738.146989,-35631.072298,4691.541754,10163.762887,-47008.914889,45255.800516,34917.515208,28361.390932,0.022000,0.974000,-0.184000,192.000000,0.000000,0.000000,0.000000,0.000000,0.000000,0.000000,0.000000,0.000000,0.000000,1648463644.958813,0.000000
73.000000,-50743.846684,-35639.878886,4698.560202,10163.941701,-47012.737037,45247.552722,34903.768886,28356.630010,0.022000,0.974000,-0.184000,192.000000,0.000000,0.000000,0.000000,0.000000,0.000000,0.000000,0.000000,0.000000,0.000000,1648463644.958832,0.000000
74.000000,-50727.373448,-35637.487249,4683.897458,10167.093297,-47008.333744,45259.265036,34915.838828,28357.144100,0.022000,0.974000,-0.184000,192.000000,0.000000,0.000000,0.000000,0.000000,0.000000,0.000000,0.000000,0.000000,0.000000,1648463644.966744,0.000000
75.000000,-50706.183995,-35618.890598,4673.705062,10175.475201,-47005.919755,45262.751909,34920.175066,28361.413284,0.022000,0.974000,-0.184000,192.000000,0.000000,0.000000,0.000000,0.000000,0.000000,0.000000,0.000000,0.000000,0.000000,1648463644.966749,0.000000
76.000000,-50723.238376,-35615.202560,4667.334815,10169.551989,-47013.631107,45251.508981,34905.266452,28350.013894,0.022000,0.974000,-0.184000,192.000000,0.000000,0.000000,0.000000,0.000000,0.000000,0.000000,0.000000,0.000000,0.000000,1648463644.973716,0.000000
77.000000,-50723.059562,-35611.961557,4684.053920,10176.101050,-47002.790511,45260.717900,34908.038069,28352.025551,0.022000,0.974000,-0.184000,192.000000,0.000000,0.000000,0.000000,0.000000,0.000000,0.000000,0.000000,0.000000,0.000000,1648463644.973720,0.000000
78.000000,-50721.003201,-35623.673871,4688.121937,10173.351785,-47003.952802,45256.247551,34911.927272,28355.601830,0.026000,0.976000,-0.184000,192.000000,0.000000,208.000000,30.000000,128.000000,250.000000,64.000000,0.000000,0.000000,0.000000,1648463644.981400,0.000000
79.000000,-50712.442483,-35633.419232,4679.203591,10176.458678,-47005.673886,45257.342786,34911.524941,28350.505632,0.026000,0.976000,-0.184000,192.000000,0.000000,0.000000,0.000000,0.000000,0.000000,0.000000,0.000000,0.000000,0.000000,1648463644.981405,0.000000
80.000000,-50713.783588,-35625.484362,4686.736129,10179.342053,-47001.225889,45266.641112,34924.198380,28347.041112,0.026000,0.976000,-0.184000,192.000000,0.000000,0.000000,0.000000,0.000000,0.000000,0.000000,0.000000,0.000000,0.000000,1648463644.989232,0.000000
81.000000,-50719.125655,-35621.461048,4697.912001,10178.984425,-46998.744845,45273.100766,34919.929197,28357.859356,0.026000,0.976000,-0.184000,192.000000,0.000000,0.000000,0.000000,0.000000,0.000000,0.000000,0.000000,0.000000,0.000000,1648463644.989265,0.000000
82.000000,-50734.436600,-35628.144220,4684.389196,10168.434402,-47004.399837,45269.368025,34912.150790,28363.827272,0.026000,0.976000,-0.184000,192.000000,0.000000,0.000000,0.000000,0.000000,0.000000,0.000000,0.000000,0.000000,0.000000,1648463644.996415,0.000000
83.000000,-50741.253882,-35637.554304,4692.212307,10159.426649,-47012.558223,45260.181458,34905.624080,28349.164528,0.026000,0.976000,-0.184000,192.000000,0.000000,0.000000,0.000000,0.000000,0.000000,0.000000,0.000000,0.000000,0.000000,1648463645.003500,0.000000
84.000000,-50725.250033,-35630.289987,4688.948952,10166.892131,-47007.238508,45262.595446,34919.549217,28353.701932,0.026000,0.976000,-0.184000,192.000000,0.000000,0.000000,0.000000,0.000000,0.000000,0.000000,0.000000,0.000000,0.000000,1648463645.003504,0.000000
85.000000,-50714.364733,-35618.287101,4689.619504,10177.509210,-47001.047075,45265.791746,34927.797011,28369.683429,0.026000,0.976000,-0.184000,192.000000,0.000000,0.000000,0.000000,0.000000,0.000000,0.000000,0.000000,0.000000,0.000000,1648463645.011405,0.000000
86.000000,-50721.740809,-35621.393993,4689.351283,10175.475201,-47004.332781,45261.209638,34928.154639,28361.860318,0.026000,0.976000,-0.184000,192.000000,0.000000,0.000000,0.000000,0.000000,0.000000,0.000000,0.000000,0.000000,0.000000,1648463645.011440,0.000000
87.000000,-50735.978870,-35633.709804,4672.252199,10165.819247,-47016.380372,45247.843295,34910.250891,28347.912830,0.026000,0.976000,-0.184000,192.000000,0.000000,0.000000,0.000000,0.000000,0.000000,0.000000,0.000000,0.000000,0.000000,1648463645.019007,0.000000
88.000000,-50740.739791,-35640.951769,4660.383422,10159.672518,-47024.583462,45242.277711,34899.924386,28347.421091,0.034000,0.974000,-0.178000,192.000000,1.000000,16.000000,30.000000,112.000000,250.000000,112.000000,0.000000,0.000000,0.000000,1648463645.019019,0.000000
89.000000,-50701.288963,-35624.031499,4670.352300,10169.887265,-47015.799226,45256.493420,34916.062345,28363.447292,0.034000,0.974000,-0.178000,192.000000,0.000000,0.000000,0.000000,0.000000,0.000000,0.000000,0.000000,0.000000,0.000000,1648463645.026468,0.000000
90.000000,-50703.300620,-35610.978080,4662.059803,10164.589902,-47009.384276,45267.378720,34930.479220,28379.764066,0.034000,0.974000,-0.178000,192.000000,0.000000,0.000000,0.000000,0.000000,0.000000,0.000000,0.000000,0.000000,0.000000,1648463645.026485,0.000000
91.000000,-50729.094533,-35614.286138,4664.943178,10156.096239,-47013.519348,45265.232952,34927.305272,28362.039132,0.034000,0.974000,-0.178000,192.000000,0.000000,0.000000,0.000000,0.000000,0.000000,0.000000,0.000000,0.000000,0.000000,1648463645.033812,0.000000
92.000000,-50748.674661,-35638.180153,4671.715757,10153.794009,-47021.834197,45253.431231,34908.775676,28363.089664,0.034000,0.974000,-0.178000,192.000000,0.000000,0.000000,0.000000,0.000000,0.000000,0.000000,0.000000,0.000000,0.000000,1648463645.033829,0.000000
93.000000,-50738.996355,-35637.241380,4686.132632,10167.093297,-47013.407590,45256.538124,34909.803857,28366.665943,0.034000,0.974000,-0.178000,192.000000,0.000000,0.000000,0.000000,0.000000,0.000000,0.000000,0.000000,0.000000,0.000000,1648463645.041671,0.000000
94.000000,-50720.332649,-35613.950862,4698.426091,10183.678291,-46996.442616,45273.257229,34931.574456,28369.459912,0.034000,0.974000,-0.178000,192.000000,0.000000,0.000000,0.000000,0.000000,0.000000,0.000000,0.000000,0.000000,0.000000,1648463645.041683,0.000000
95.000000,-50715.147044,-35605.814827,4705.556298,10187.723957,-46990.385293,45278.174612,34935.463659,28374.936089,0.034000,0.974000,-0.178000,192.000000,0.000000,0.000000,0.000000,0.000000,0.000000,0.000000,0.000000,0.000000,0.000000,1648463645.049923,0.000000
96.000000,-50730.770913,-35631.184057,4682.109318,10169.686099,-47008.937241,45256.739289,34912.083735,28365.391894,0.034000,0.974000,-0.178000,192.000000,0.000000,0.000000,0.000000,0.000000,0.000000,0.000000,0.000000,0.000000,0.000000,1648463645.049941,0.000000
97.000000,-50711.369599,-35636.973159,4677.147231,10174.625835,-47013.005258,45250.391394,34912.173142,28355.512423,0.034000,0.974000,-0.178000,192.000000,0.000000,0.000000,0.000000,0.000000,0.000000,0.000000,0.000000,0.000000,0.000000,1648463645.055810,0.000000
98.000000,-50721.226719,-35631.809906,4678.644798,10177.598617,-47008.490206,45260.337920,34924.019566,28355.937106,0.030000,0.978000,-0.172000,192.000000,0.000000,240.000000,30.000000,144.000000,250.000000,160.000000,0.000000,0.000000,0.000000,1648463645.063728,0.000000
99.000000,-50719.550338,-35624.120906,4691.184126,10181.577227,-47001.248241,45269.569191,34929.585150,28364.341362,0.030000,0.978000,-0.172000,192.000000,0.000000,0.000000,0.000000,0.000000,0.000000,0.000000,0.000000,0.000000,0.000000,1648463645.063745,0.000000
100.000000,-50721.271422,-35623.696223,4684.679769,10178.805611,-47003.282249,45267.088147,34930.367461,28371.918603,0.030000,0.978000,-0.172000,192.000000,0.000000,0.000000,0.000000,0.000000,0.000000,0.000000,0.000000,0.000000,0.000000,1648463645.071689,0.000000
101.000000,-50719.438579,-35616.789534,4690.155946,10185.757004,-46996.017932,45276.028845,34945.074909,28376.456008,0.030000,0.978000,-0.172000,192.000000,0.000000,0.000000,0.000000,0.000000,0.000000,0.000000,0.000000,0.000000,0.000000,1648463645.071704,0.000000
102.000000,-50728.714553,-35621.215179,4685.372673,10177.576265,-46999.258935,45270.418557,34946.192497,28375.092551,0.030000,0.978000,-0.172000,192.000000,0.000000,0.000000,0.000000,0.000000,0.000000,0.000000,0.000000,0.000000,0.000000,1648463645.079446,0.000000
103.000000,-50729.720381,-35616.118981,4691.742920,10174.737594,-46999.616563,45268.943342,34943.242066,28372.745618,0.030000,0.978000,-0.172000,192.000000,0.000000,0.000000,0.000000,0.000000,0.000000,0.000000,0.000000,0.000000,0.000000,1648463645.079463,0.000000
104.000000,-50724.467722,-35633.843915,4692.860507,10179.274998,-47004.131616,45261.187287,34930.166296,28364.587231,0.030000,0.978000,-0.172000,192.000000,0.000000,0.000000,0.000000,0.000000,0.000000,0.000000,0.000000,0.000000,0.000000,1648463645.086182,0.000000
105.000000,-50723.596003,-35635.922627,4693.821632,10181.510172,-47002.924621,45261.343749,34926.768831,28364.654286,0.030000,0.978000,-0.172000,192.000000,0.000000,0.000000,0.000000,0.000000,0.000000,0.000000,0.000000,0.000000,0.000000,1648463645.086198,0.000000
106.000000,-50741.969137,-35637.219028,4685.707949,10174.022338,-47005.942107,45258.236856,34934.837810,28366.487130,0.030000,0.978000,-0.172000,192.000000,0.000000,0.000000,0.000000,0.000000,0.000000,0.000000,0.000000,0.000000,0.000000,1648463645.093990,0.000000
107.000000,-50743.019669,-35637.710767,4674.822649,10164.858122,-47011.574747,45253.632397,34931.127421,28365.257784,0.030000,0.978000,-0.172000,192.000000,0.000000,0.000000,0.000000,0.000000,0.000000,0.000000,0.000000,0.000000,0.000000,1648463645.094013,0.000000
108.000000,-50718.611564,-35614.979042,4676.543734,10169.104954,-47005.651534,45264.093013,34931.842677,28370.801016,0.026000,0.976000,-0.172000,192.000000,0.000000,208.000000,30.000000,128.000000,250.000000,160.000000,0.000000,0.000000,0.000000,1648463645.102275,0.000000
109.000000,-50719.371524,-35614.017917,4670.285245,10159.203131,-47017.319145,45251.419574,34923.192552,28357.009990,0.026000,0.976000,-0.172000,192.000000,0.000000,0.000000,0.000000,0.000000,0.000000,0.000000,0.000000,0.000000,0.000000,1648463645.102292,0.000000
110.000000,-50729.675678,-35626.758412,4675.493202,10164.724012,-47017.587366,45259.466202,34932.379118,28361.390932,0.026000,0.976000,-0.172000,192.000000,0.000000,0.000000,0.000000,0.000000,0.000000,0.000000,0.000000,0.000000,0.000000,1648463645.109079,0.000000
111.000000,-50747.802943,-35645.131546,4664.294978,10157.325585,-47025.656346,45251.978368,34918.051650,28353.970153,0.026000,0.976000,-0.172000,192.000000,0.000000,0.000000,0.000000,0.000000,0.000000,0.000000,0.000000,0.000000,0.000000,1648463645.109096,0.000000
112.000000,-50746.059507,-35646.562057,4677.616617,10159.292538,-47019.934299,45249.542028,34919.079831,28355.355961,0.026000,0.976000,-0.172000,192.000000,0.000000,0.000000,0.000000,0.000000,0.000000,0.000000,0.000000,0.000000,0.000000,1648463645.115477,0.000000
113.000000,-50747.244149,-35641.622322,4669.458231,10154.151637,-47022.102418,45249.206751,34919.079831,28356.652362,0.026000,0.976000,-0.172000,192.000000,0.000000,0.000000,0.000000,0.000000,0.000000,0.000000,0.000000,0.000000,0.000000,1648463645.115484,0.000000
114.000000,-50742.684393,-35629.060641,4670.486411,10162.086506,-47019.822540,45252.447754,34922.052613,28347.778719,0.026000,0.976000,-0.172000,192.000000,0.000000,0.000000,0.000000,0.000000,0.000000,0.000000,0.000000,0.000000,0.000000,1648463645.123554,0.000000
115.000000,-50715.638782,-35618.756487,4701.957667,10188.327454,-46999.370694,45268.518659,34938.950531,28364.631935,0.026000,0.976000,-0.172000,192.000000,0.000000,0.000000,0.000000,0.000000,0.000000,0.000000,0.000000,0.000000,0.000000,1648463645.131455,0.000000
116.000000,-50706.876899,-35626.870170,4689.597152,10185.309969,-47001.561165,45263.623627,34937.408261,28370.890423,0.026000,0.976000,-0.172000,192.000000,0.000000,0.000000,0.000000,0.000000,0.000000,0.000000,0.000000,0.000000,0.000000,1648463645.131459,0.000000
117.000000,-50720.399704,-35626.378432,4676.968417,10180.660806,-46999.996543,45262.461336,34934.726052,28361.390932,0.026000,0.976000,-0.172000,192.000000,0.000000,0.000000,0.000000,0.000000,0.000000,0.000000,0.000000,0.000000,0.000000,1648463645.138481,0.000000
118.000000,-50718.388047,-35633.240418,4670.039376,10168.166181,-47006.590308,45249.005586,34921.315005,28357.412321,0.026000,0.976000,-0.172000,192.000000,0.000000,0.000000,0.000000,0.000000,0.000000,0.000000,0.000000,0.000000,0.000000,1648463645.138486,0.000000
119.000000,-50701.043093,-35613.727345,4681.461117,10175.586960,-46998.722493,45253.230065,34927.417031,28364.408417,0.024000,0.974000,-0.174000,192.000000,0.000000,192.000000,30.000000,112.000000,250.000000,144.000000,0.000000,0.000000,0.000000,1648463645.146033,0.000000
120.000000,-50708.597983,-35607.290042,4685.395024,10179.252646,-46997.694313,45259.779127,34939.822249,28362.083836,0.024000,0.974000,-0.174000,192.000000,0.000000,0.000000,0.000000,0.000000,0.000000,0.000000,0.000000,0.000000,0.000000,1648463645.146038,0.000000
121.000000,-50723.551300,-35613.772048,4683.718644,10178.783259,-47001.292944,45261.679025,34944.337302,28370.152816,0.024000,0.974000,-0.174000,192.000000,0.000000,0.000000,0.000000,0.000000,0.000000,0.000000,0.000000,0.000000,0.000000,1648463645.154141,0.000000
122.000000,-50751.267463,-35647.165554,4660.718699,10156.990308,-47026.148084,45239.997833,34920.979729,28353.657228,0.024000,0.974000,-0.174000,192.000000,0.000000,0.000000,0.000000,0.000000,0.000000,0.000000,0.000000,0.000000,0.000000,1648463645.154146,0.000000
123.000000,-50750.127524,-35650.093633,4663.020928,10160.052497,-47023.689392,45242.121248,34921.471467,28348.851603,0.024000,0.974000,-0.174000,192.000000,0.000000,0.000000,0.000000,0.000000,0.000000,0.000000,0.000000,0.000000,0.000000,1648463645.161162,0.000000
124.000000,-50740.560978,-35637.330787,4672.431013,10167.897960,-47013.608755,45253.252417,34926.031223,28367.247089,0.024000,0.974000,-0.174000,192.000000,0.000000,0.000000,0.000000,0.000000,0.000000,0.000000,0.000000,0.000000,0.000000,1648463645.161167,0.000000
125.000000,-50741.343289,-35632.279293,4676.253161,10167.272111,-47016.559186,45252.380699,34928.512267,28365.548356,0.024000,0.974000,-0.174000,192.000000,0.000000,0.000000,0.000000,0.000000,0.000000,0.000000,0.000000,0.000000,0.000000,1648463645.168772,0.000000
126.000000,-50720.332649,-35613.861455,4667.424222,10175.385794,-47012.804093,45262.707205,34940.939837,28367.314144,0.024000,0.974000,-0.174000,192.000000,0.000000,0.000000,0.000000,0.000000,0.000000,0.000000,0.000000,0.000000,0.000000,1648463645.168776,0.000000
127.000000,-50731.285004,-35631.117002,4660.919864,10158.733744,-47020.962479,45251.665443,34931.663863,28362.597926,0.024000,0.974000,-0.174000,192.000000,0.000000,0.000000,0.000000,0.000000,0.000000,0.000000,0.000000,0.000000,0.000000,1648463645.176689,0.000000
128.000000,-50732.760219,-35636.414365,4661.903341,10156.476218,-47016.827407,45252.134830,34932.043842,28362.709685,0.024000,0.974000,-0.174000,192.000000,0.000000,0.000000,0.000000,0.000000,0.000000,0.000000,0.000000,0.000000,0.000000,1648463645.176693,0.000000
129.000000,-50716.152873,-35631.698147,4672.431013,10164.321681,-47009.630145,45256.225199,34942.683273,28373.997316,0.028000,0.980000,-0.172000,192.000000,0.000000,224.000000,30.000000,160.000000,250.000000,160.000000,0.000000,0.000000,0.000000,1648463645.183842,0.000000
130.000000,-50716.041114,-35626.534894,4673.034510,10167.942663,-47009.876014,45254.951150,34945.253723,28375.874862,0.028000,0.980000,-0.172000,192.000000,0.000000,0.000000,0.000000,0.000000,0.000000,0.000000,0.000000,0.000000,0.000000,1648463645.190836,0.000000
131.000000,-50730.323879,-35633.463935,4659.534056,10164.768715,-47022.460046,45243.842333,34935.977749,28368.744656,0.028000,0.980000,-0.172000,192.000000,0.000000,0.000000,0.000000,0.000000,0.000000,0.000000,0.000000,0.000000,0.000000,1648463645.190839,0.000000
132.000000,-50727.239338,-35639.789479,4658.885856,10166.758021,-47023.354116,45239.684908,34925.427726,28363.536699,0.028000,0.980000,-0.172000,192.000000,0.000000,0.000000,0.000000,0.000000,0.000000,0.000000,0.000000,0.000000,0.000000,1648463645.198368,0.000000
133.000000,-50739.733963,-35642.672854,4657.857675,10167.339166,-47024.404648,45241.294234,34919.638624,28354.439539,0.028000,0.980000,-0.172000,192.000000,0.000000,0.000000,0.000000,0.000000,0.000000,0.000000,0.000000,0.000000,0.000000,1648463645.198372,0.000000
134.000000,-50720.712628,-35626.177266,4672.788641,10183.700643,-47009.876014,45256.493420,34936.469488,28362.508519,0.028000,0.980000,-0.172000,192.000000,0.000000,0.000000,0.000000,0.000000,0.000000,0.000000,0.000000,0.000000,0.000000,1648463645.206435,0.000000
135.000000,-50734.257786,-35623.025670,4667.603036,10175.072870,-47014.480473,45250.301987,34932.893209,28366.822406,0.028000,0.980000,-0.172000,192.000000,0.000000,0.000000,0.000000,0.000000,0.000000,0.000000,0.000000,0.000000,0.000000,1648463645.206461,0.000000
136.000000,-50731.910852,-35610.285176,4683.293960,10186.561666,-47007.707895,45257.342786,34942.325645,28372.745618,0.028000,0.980000,-0.172000,192.000000,0.000000,0.000000,0.000000,0.000000,0.000000,0.000000,0.000000,0.000000,0.000000,1648463645.214528,0.000000
137.000000,-50705.401683,-35598.125827,4686.959647,10193.915390,-47000.108302,45258.616836,34951.847488,28383.787380,0.028000,0.980000,-0.172000,192.000000,0.000000,0.000000,0.000000,0.000000,0.000000,0.000000,0.000000,0.000000,0.000000,1648463645.214532,0.000000
138.000000,-50712.420131,-35613.570883,4672.520420,10169.909617,-47012.155892,45246.256321,34933.675520,28380.166397,0.028000,0.980000,-0.172000,192.000000,0.000000,0.000000,0.000000,0.000000,0.000000,0.000000,0.000000,0.000000,0.000000,1648463645.221085,0.000000
139.000000,-50726.367620,-35621.282234,4685.640894,10166.847428,-47010.233642,45259.488554,34934.413127,28370.555147,0.024000,0.980000,-0.184000,192.000000,0.000000,192.000000,30.000000,160.000000,250.000000,64.000000,0.000000,0.000000,0.000000,1648463645.221088,0.000000
140.000000,-50739.868073,-35623.092726,4677.549562,10168.009718,-47011.485340,45261.701377,34938.592903,28370.041057,0.024000,0.980000,-0.184000,192.000000,0.000000,0.000000,0.000000,0.000000,0.000000,0.000000,0.000000,0.000000,0.000000,1648463645.229020,0.000000
141.000000,-50745.701879,-35622.198656,4671.246370,10163.964053,-47017.810883,45256.895752,34936.715357,28368.923470,0.024000,0.980000,-0.184000,192.000000,0.000000,0.000000,0.000000,0.000000,0.000000,0.000000,0.000000,0.000000,0.000000,1648463645.229024,0.000000
142.000000,-50725.250033,-35614.621414,4676.521382,10174.581131,-47011.977078,45261.969598,34938.592903,28364.274307,0.024000,0.980000,-0.184000,192.000000,0.000000,0.000000,0.000000,0.000000,0.000000,0.000000,0.000000,0.000000,0.000000,1648463645.237066,0.000000
143.000000,-50720.086780,-35617.102458,4668.072423,10174.737594,-47011.977078,45263.645978,34936.961226,28372.611507,0.024000,0.980000,-0.184000,192.000000,0.000000,0.000000,0.000000,0.000000,0.000000,0.000000,0.000000,0.000000,0.000000,1648463645.237070,0.000000
144.000000,-50706.519271,-35615.023746,4676.320216,10188.573323,-47000.376523,45276.855859,34951.646322,28386.402534,0.024000,0.980000,-0.184000,192.000000,0.000000,0.000000,0.000000,0.000000,0.000000,0.000000,0.000000,0.000000,0.000000,1648463645.244070,0.000000
145.000000,-50696.460986,-35614.040269,4674.621484,10193.133079,-46995.302677,45281.236801,34960.743482,28398.070144,0.024000,0.980000,-0.184000,192.000000,0.000000,0.000000,0.000000,0.000000,0.000000,0.000000,0.000000,0.000000,0.000000,1648463645.250787,0.000000
146.000000,-50716.935184,-35610.933377,4670.128783,10183.700643,-47000.778854,45270.910295,34954.976732,28392.392801,0.024000,0.980000,-0.184000,192.000000,0.000000,0.000000,0.000000,0.000000,0.000000,0.000000,0.000000,0.000000,0.000000,1648463645.250791,0.000000
147.000000,-50711.436655,-35610.218121,4673.883876,10176.726899,-47006.165624,45258.125098,34943.353825,28383.049772,0.024000,0.980000,-0.184000,192.000000,0.000000,0.000000,0.000000,0.000000,0.000000,0.000000,0.000000,0.000000,0.000000,1648463645.258726,0.000000
148.000000,-50712.107207,-35634.358005,4664.674957,10160.723050,-47025.030497,45233.694641,34922.164371,28365.905984,0.024000,0.980000,-0.184000,192.000000,0.000000,0.000000,0.000000,0.000000,0.000000,0.000000,0.000000,0.000000,0.000000,1648463645.258753,0.000000
149.000000,-50710.833157,-35634.268598,4683.785699,10162.019451,-47025.812808,45241.182475,34935.240142,28352.360827,0.024000,0.980000,-0.190000,192.000000,0.000000,192.000000,30.000000,160.000000,250.000000,16.000000,0.000000,0.000000,0.000000,1648463645.266887,0.000000
150.000000,-50715.817596,-35620.410516,4678.801260,10169.976672,-47016.961517,45252.514810,34945.052558,28363.827272,0.024000,0.980000,-0.190000,192.000000,0.000000,0.000000,0.000000,0.000000,0.000000,0.000000,0.000000,0.000000,0.000000,1648463645.266899,0.000000
151.000000,-50717.471626,-35611.827446,4675.806126,10179.610274,-47009.652497,45259.197981,34953.076834,28370.130464,0.024000,0.980000,-0.190000,192.000000,0.000000,0.000000,0.000000,0.000000,0.000000,0.000000,0.000000,0.000000,0.000000,1648463645.273844,0.000000
152.000000,-50721.249070,-35622.355118,4675.202629,10182.359538,-47004.355133,45260.248513,34944.761985,28373.080894,0.024000,0.980000,-0.190000,192.000000,0.000000,0.000000,0.000000,0.000000,0.000000,0.000000,0.000000,0.000000,0.000000,1648463645.273848,0.000000
153.000000,-50737.208216,-35641.085880,4664.116164,10174.089393,-47015.262784,45246.211618,34932.177953,28362.888499,0.024000,0.980000,-0.190000,192.000000,0.000000,0.000000,0.000000,0.000000,0.000000,0.000000,0.000000,0.000000,0.000000,1648463645.281353,0.000000
154.000000,-50732.447294,-35634.246246,4674.152097,10188.014530,-47006.970287,45255.398185,34940.559857,28367.738827,0.024000,0.980000,-0.190000,192.000000,0.000000,0.000000,0.000000,0.000000,0.000000,0.000000,0.000000,0.000000,0.000000,1648463645.281357,0.000000
155.000000,-50733.967213,-35636.481421,4663.244446,10173.798820,-47018.593194,45242.255359,34924.913636,28357.792301,0.024000,0.980000,-0.190000,192.000000,0.000000,0.000000,0.000000,0.000000,0.000000,0.000000,0.000000,0.000000,0.000000,1648463645.289303,0.000000
156.000000,-50701.735997,-35611.961557,4668.608864,10173.642358,-47010.993601,45254.481763,34940.358691,28364.229603,0.024000,0.980000,-0.190000,192.000000,0.000000,0.000000,0.000000,0.000000,0.000000,0.000000,0.000000,0.000000,0.000000,1648463645.289309,0.000000
157.000000,-50720.399704,-35614.107324,4660.294015,10158.286710,-47018.101456,45248.893827,34935.396604,28366.353019,0.024000,0.980000,-0.190000,192.000000,0.000000,0.000000,0.000000,0.000000,0.000000,0.000000,0.000000,0.000000,0.000000,1648463645.297351,0.000000
158.000000,-50729.139236,-35617.482438,4665.904303,10152.497608,-47019.330802,45246.546894,34937.922351,28368.677600,0.024000,0.980000,-0.190000,192.000000,0.000000,0.000000,0.000000,0.000000,0.000000,0.000000,0.000000,0.000000,0.000000,1648463645.297355,0.000000
159.000000,-50731.217948,-35613.906159,4678.533039,10163.874646,-47016.693296,45252.783031,34948.360616,28366.732999,0.026000,0.972000,-0.186000,192.000000,0.000000,208.000000,30.000000,96.000000,250.000000,48.000000,0.000000,0.000000,0.000000,1648463645.303570,0.000000
160.000000,-50717.717495,-35615.269615,4676.633141,10178.023300,-47006.970287,45267.557534,34952.652151,28361.703856,0.026000,0.972000,-0.186000,192.000000,0.000000,0.000000,0.000000,0.000000,0.000000,0.000000,0.000000,0.000000,0.000000,1648463645.310944,0.000000
161.000000,-50716.935184,-35612.497999,4679.605923,10184.371195,-47005.852700,45269.770356,34954.172069,28369.236394,0.026000,0.972000,-0.186000,192.000000,0.000000,0.000000,0.000000,0.000000,0.000000,0.000000,0.000000,0.000000,0.000000,1648463645.310948,0.000000
162.000000,-50715.482320,-35611.849798,4674.934408,10178.515038,-47012.848796,45265.076490,34951.400453,28370.465740,0.026000,0.972000,-0.186000,192.000000,0.000000,0.000000,0.000000,0.000000,0.000000,0.000000,0.000000,0.000000,0.000000,1648463645.319169,0.000000
163.000000,-50716.935184,-35617.035403,4665.054937,10174.804649,-47010.725380,45266.685816,34957.413072,28381.328688,0.026000,0.972000,-0.186000,192.000000,0.000000,0.000000,0.000000,0.000000,0.000000,0.000000,0.000000,0.000000,0.000000,1648463645.319173,0.000000
164.000000,-50723.305431,-35629.261807,4660.115201,10170.669576,-47010.837139,45269.077452,34964.140947,28382.960365,0.026000,0.972000,-0.186000,192.000000,0.000000,0.000000,0.000000,0.000000,0.000000,0.000000,0.000000,0.000000,0.000000,1648463645.326197,0.000000
165.000000,-50734.458951,-35640.169458,4653.722603,10158.107896,-47025.231662,45253.364176,34948.718244,28374.086723,0.026000,0.972000,-0.186000,192.000000,0.000000,0.000000,0.000000,0.000000,0.000000,0.000000,0.000000,0.000000,0.000000,1648463645.326201,0.000000
166.000000,-50709.156777,-35616.230740,4667.446574,10174.044689,-47015.866281,45258.683891,34957.658941,28378.378258,0.026000,0.972000,-0.186000,192.000000,0.000000,0.000000,0.000000,0.000000,0.000000,0.000000,0.000000,0.000000,0.000000,1648463645.333767,0.000000
167.000000,-50718.432751,-35619.270577,4658.997614,10163.584073,-47019.509616,45256.895752,34960.452910,28383.005069,0.026000,0.972000,-0.186000,192.000000,0.000000,0.000000,0.000000,0.000000,0.000000,0.000000,0.000000,0.000000,0.000000,1648463645.333777,0.000000
168.000000,-50753.547341,-35634.358005,4659.198780,10148.116666,-47036.094610,45240.668385,34947.868877,28379.697010,0.026000,0.972000,-0.186000,192.000000,0.000000,0.000000,0.000000,0.000000,0.000000,0.000000,0.000000,0.000000,0.000000,1648463645.342146,0.000000
169.000000,-50754.620225,-35630.692319,4666.172524,10160.298367,-47029.322032,45247.932702,34954.306180,28372.700914,0.022000,0.970000,-0.186000,192.000000,0.000000,176.000000,30.000000,80.000000,250.000000,48.000000,0.000000,0.000000,0.000000,1648463645.342164,0.000000
170.000000,-50733.117847,-35639.096575,4665.613731,10164.433439,-47028.495017,45245.965749,34952.719206,28367.112978,0.022000,0.970000,-0.186000,192.000000,0.000000,0.000000,0.000000,0.000000,0.000000,0.000000,0.000000,0.000000,0.000000,1648463645.349918,0.000000
171.000000,-50708.821500,-35625.417307,4681.774042,10179.342053,-47012.334706,45261.231990,34966.242011,28381.663964,0.022000,0.970000,-0.186000,192.000000,0.000000,0.000000,0.000000,0.000000,0.000000,0.000000,0.000000,0.000000,0.000000,1648463645.349953,0.000000
172.000000,-50733.564882,-35623.137429,4673.213324,10180.392585,-47007.953764,45260.472031,34957.189555,28385.553168,0.022000,0.970000,-0.186000,192.000000,0.000000,0.000000,0.000000,0.000000,0.000000,0.000000,0.000000,0.000000,0.000000,1648463645.356304,0.000000
173.000000,-50743.801980,-35616.498961,4671.961626,10179.856143,-47009.719552,45257.409842,34946.125441,28376.232490,0.022000,0.970000,-0.186000,192.000000,0.000000,0.000000,0.000000,0.000000,0.000000,0.000000,0.000000,0.000000,0.000000,1648463645.356315,0.000000
174.000000,-50723.260727,-35610.307528,4678.041301,10188.461565,-46999.773025,45270.686778,34955.691988,28382.870958,0.022000,0.970000,-0.186000,192.000000,0.000000,0.000000,0.000000,0.000000,0.000000,0.000000,0.000000,0.000000,0.000000,1648463645.363569,0.000000
175.000000,-50727.887538,-35633.910970,4661.076326,10173.083564,-47013.072313,45257.767470,34940.649264,28379.071162,0.022000,0.970000,-0.186000,192.000000,0.000000,0.000000,0.000000,0.000000,0.000000,0.000000,0.000000,0.000000,0.000000,1648463645.363585,0.000000
176.000000,-50734.123675,-35631.564037,4667.848905,10169.619044,-47018.682601,45257.163973,34940.381043,28370.979830,0.022000,0.970000,-0.186000,192.000000,0.000000,0.000000,0.000000,0.000000,0.000000,0.000000,0.000000,0.000000,0.000000,1648463645.371585,0.000000
177.000000,-50730.569748,-35627.831295,4666.418393,10174.491724,-47012.133540,45261.120231,34960.095282,28375.271365,0.022000,0.970000,-0.186000,192.000000,0.000000,0.000000,0.000000,0.000000,0.000000,0.000000,0.000000,0.000000,0.000000,1648463645.379619,0.000000
178.000000,-50727.440504,-35627.138391,4676.141402,10178.157410,-47006.567956,45261.142583,34957.100148,28372.142121,0.022000,0.970000,-0.186000,192.000000,0.000000,0.000000,0.000000,0.000000,0.000000,0.000000,0.000000,0.000000,0.000000,1648463645.379636,0.000000
179.000000,-50732.939033,-35627.205447,4676.566085,10172.703585,-47011.395933,45250.525504,34959.335322,28371.069237,0.022000,0.974000,-0.184000,192.000000,0.000000,176.000000,30.000000,112.000000,250.000000,64.000000,0.000000,0.000000,0.000000,1648463645.386307,0.000000
180.000000,-50736.001222,-35628.323034,4656.851847,10154.106933,-47025.477532,45240.556626,34944.784337,28367.850586,0.022000,0.974000,-0.184000,192.000000,0.000000,0.000000,0.000000,0.000000,0.000000,0.000000,0.000000,0.000000,0.000000,1648463645.386323,0.000000
181.000000,-50734.235434,-35628.501848,4643.194931,10147.759038,-47032.473628,45239.573150,34934.882514,28356.518251,0.022000,0.974000,-0.184000,192.000000,0.000000,0.000000,0.000000,0.000000,0.000000,0.000000,0.000000,0.000000,0.000000,1648463645.394350,0.000000
182.000000,-50729.541568,-35617.504790,4658.572931,10159.381945,-47023.309412,45245.608121,34948.852354,28359.692199,0.022000,0.974000,-0.184000,192.000000,0.000000,0.000000,0.000000,0.000000,0.000000,0.000000,0.000000,0.000000,0.000000,1648463645.394366,0.000000
183.000000,-50725.585309,-35612.609757,4673.369786,10170.490762,-47015.978040,45246.524542,34958.597715,28368.655249,0.022000,0.974000,-0.184000,192.000000,0.000000,0.000000,0.000000,0.000000,0.000000,0.000000,0.000000,0.000000,0.000000,1648463645.402296,0.000000
184.000000,-50733.564882,-35649.803060,4662.730356,10153.816361,-47028.874997,45235.594539,34953.188593,28364.609583,0.022000,0.974000,-0.184000,192.000000,0.000000,0.000000,0.000000,0.000000,0.000000,0.000000,0.000000,0.000000,0.000000,1648463645.402313,0.000000
185.000000,-50735.688297,-35650.250095,4662.372728,10156.789143,-47023.778799,45247.664481,34959.491785,28380.859301,0.022000,0.974000,-0.184000,192.000000,0.000000,0.000000,0.000000,0.000000,0.000000,0.000000,0.000000,0.000000,0.000000,1648463645.409215,0.000000
186.000000,-50742.282062,-35640.907066,4665.881952,10163.494666,-47016.380372,45251.129002,34959.961171,28387.564825,0.022000,0.974000,-0.184000,192.000000,0.000000,0.000000,0.000000,0.000000,0.000000,0.000000,0.000000,0.000000,0.000000,1648463645.409231,0.000000
187.000000,-50750.507504,-35652.686435,4653.454382,10155.068058,-47024.449351,45233.158199,34945.477241,28373.550281,0.022000,0.974000,-0.184000,192.000000,0.000000,0.000000,0.000000,0.000000,0.000000,0.000000,0.000000,0.000000,0.000000,1648463645.416748,0.000000
188.000000,-50746.707707,-35643.097537,4665.725489,10153.771657,-47024.359944,45228.509036,34946.952456,28366.732999,0.022000,0.974000,-0.184000,192.000000,0.000000,0.000000,0.000000,0.000000,0.000000,0.000000,0.000000,0.000000,0.000000,1648463645.416764,0.000000
189.000000,-50738.035230,-35632.636921,4665.658434,10160.879512,-47019.621375,45227.346745,34942.482107,28368.141159,0.022000,0.976000,-0.184000,192.000000,0.000000,176.000000,30.000000,128.000000,250.000000,64.000000,0.000000,0.000000,0.000000,1648463645.424931,0.000000
190.000000,-50726.032344,-35628.703014,4662.864466,10160.901864,-47019.934299,45222.049382,34938.771717,28361.770911,0.022000,0.976000,-0.184000,192.000000,0.000000,0.000000,0.000000,0.000000,0.000000,0.000000,0.000000,0.000000,0.000000,1648463645.424947,0.000000
191.000000,-50732.559053,-35626.892522,4660.115201,10171.273073,-47016.380372,45230.543045,34948.785299,28363.961382,0.022000,0.976000,-0.184000,192.000000,0.000000,0.000000,0.000000,0.000000,0.000000,0.000000,0.000000,0.000000,0.000000,1648463645.431830,0.000000
192.000000,-50729.832140,-35627.361909,4654.437858,10177.240989,-47012.893499,45237.539141,34951.668674,28363.559051,0.022000,0.976000,-0.184000,192.000000,0.000000,0.000000,0.000000,0.000000,0.000000,0.000000,0.000000,0.000000,0.000000,1648463645.438588,0.000000
193.000000,-50724.355963,-35629.060641,4650.593358,10174.804649,-47016.045095,45235.371022,34956.697816,28362.150891,0.022000,0.976000,-0.184000,192.000000,0.000000,0.000000,0.000000,0.000000,0.000000,0.000000,0.000000,0.000000,0.000000,1648463645.438623,0.000000
194.000000,-50735.084800,-35625.797287,4664.607902,10174.469373,-47014.145197,45235.885112,34956.630761,28364.967211,0.022000,0.976000,-0.184000,192.000000,0.000000,0.000000,0.000000,0.000000,0.000000,0.000000,0.000000,0.000000,0.000000,1648463645.446587,0.000000
195.000000,-50748.317033,-35619.002356,4660.517533,10167.205056,-47018.503787,45232.711164,34950.595790,28366.822406,0.022000,0.976000,-0.184000,192.000000,0.000000,0.000000,0.000000,0.000000,0.000000,0.000000,0.000000,0.000000,0.000000,1648463645.446604,0.000000
196.000000,-50748.048812,-35625.238493,4656.449515,10157.839675,-47022.191825,45236.935644,34943.443232,28365.347191,0.022000,0.976000,-0.184000,192.000000,0.000000,0.000000,0.000000,0.000000,0.000000,0.000000,0.000000,0.000000,0.000000,1648463645.454232,0.000000
197.000000,-50743.019669,-35642.024653,4663.982053,10151.290614,-47028.785590,45238.477914,34936.268322,28364.631935,0.022000,0.976000,-0.184000,192.000000,0.000000,0.000000,0.000000,0.000000,0.000000,0.000000,0.000000,0.000000,0.000000,1648463645.454243,0.000000
198.000000,-50732.402591,-35626.981929,4675.336739,10152.587015,-47022.661212,45254.302949,34944.694930,28362.955554,0.022000,0.976000,-0.184000,192.000000,0.000000,0.000000,0.000000,0.000000,0.000000,0.000000,0.000000,0.000000,0.000000,1648463645.461702,0.000000
199.000000,-50734.905986,-35612.743868,4668.295940,10157.549102,-47019.509616,45255.107612,34950.327569,28374.176130,0.024000,0.968000,-0.186000,192.000000,0.000000,192.000000,30.000000,64.000000,250.000000,48.000000,0.000000,0.000000,0.000000,1648463645.461719,0.000000
200.000000,-50722.143140,-35612.743868,4685.953818,10177.822134,-47006.925584,45260.606141,34958.038921,28386.581348,0.024000,0.968000,-0.186000,192.000000,0.000000,0.000000,0.000000,0.000000,0.000000,0.000000,0.000000,0.000000,0.000000,1648463645.470609,0.000000
201.000000,-50721.606698,-35620.879903,4674.777946,10179.744384,-47002.388180,45258.661539,34965.593811,28384.681449,0.024000,0.968000,-0.186000,192.000000,0.000000,0.000000,0.000000,0.000000,0.000000,0.000000,0.000000,0.000000,0.000000,1648463645.470626,0.000000
202.000000,-50722.053733,-35622.779801,4668.675920,10177.308044,-47003.036380,45253.520638,34958.396549,28379.227624,0.024000,0.968000,-0.186000,192.000000,0.000000,0.000000,0.000000,0.000000,0.000000,0.000000,0.000000,0.000000,0.000000,1648463645.477208,0.000000
203.000000,-50719.662096,-35618.488266,4671.983978,10180.526695,-47004.958630,45248.200923,34959.201212,28374.176130,0.024000,0.968000,-0.186000,192.000000,0.000000,0.000000,0.000000,0.000000,0.000000,0.000000,0.000000,0.000000,0.000000,1648463645.477225,0.000000
204.000000,-50718.320992,-35616.655423,4675.090870,10187.276922,-47003.394008,45243.641167,34954.641456,28374.220833,0.024000,0.968000,-0.186000,192.000000,0.000000,0.000000,0.000000,0.000000,0.000000,0.000000,0.000000,0.000000,0.000000,1648463645.484910,0.000000
205.000000,-50709.872032,-35617.929473,4677.102527,10195.234143,-46996.599078,45249.787897,34964.073892,28380.747542,0.024000,0.968000,-0.186000,192.000000,0.000000,0.000000,0.000000,0.000000,0.000000,0.000000,0.000000,0.000000,0.000000,1648463645.484922,0.000000
206.000000,-50705.647553,-35629.507676,4670.933446,10184.862934,-47000.108302,45238.656728,34951.489860,28375.159606,0.024000,0.968000,-0.186000,192.000000,0.000000,0.000000,0.000000,0.000000,0.000000,0.000000,0.000000,0.000000,0.000000,1648463645.491319,0.000000
207.000000,-50734.749524,-35632.815734,4669.145306,10174.625835,-47007.104398,45228.509036,34949.433500,28369.415208,0.024000,0.968000,-0.186000,192.000000,0.000000,0.000000,0.000000,0.000000,0.000000,0.000000,0.000000,0.000000,0.000000,1648463645.498831,0.000000
208.000000,-50754.553170,-35624.433830,4679.918847,10168.009718,-47010.926546,45227.436152,34926.858238,28366.800054,0.024000,0.968000,-0.186000,192.000000,0.000000,0.000000,0.000000,0.000000,0.000000,0.000000,0.000000,0.000000,0.000000,1648463645.498848,0.000000
209.000000,-50721.047905,-35625.126734,4677.393100,10176.793954,-47007.551433,45235.773353,34934.636645,28362.575574,0.014000,0.972000,-0.184000,192.000000,0.000000,112.000000,30.000000,96.000000,250.000000,64.000000,0.000000,0.000000,0.000000,1648463645.506833,0.000000
210.000000,-50708.955611,-35618.309452,4673.481545,10188.036881,-47002.566994,45246.703356,34957.837755,28371.113941,0.014000,0.972000,-0.184000,192.000000,0.000000,0.000000,0.000000,0.000000,0.000000,0.000000,0.000000,0.000000,0.000000,1648463645.506850,0.000000
211.000000,-50719.013896,-35608.228816,4682.198725,10192.820155,-46994.922697,45255.889923,34964.230354,28390.470551,0.014000,0.972000,-0.184000,192.000000,0.000000,0.000000,0.000000,0.000000,0.000000,0.000000,0.000000,0.000000,0.000000,1648463645.514770,0.000000
212.000000,-50735.643594,-35623.740926,4684.120975,10184.773527,-46999.951839,45249.229103,34954.194421,28386.067258,0.014000,0.972000,-0.184000,192.000000,0.000000,0.000000,0.000000,0.000000,0.000000,0.000000,0.000000,0.000000,0.000000,1648463645.514786,0.000000
213.000000,-50744.852512,-35636.749642,4676.923713,10171.027204,-47010.881842,45238.992004,34942.347997,28362.843795,0.014000,0.972000,-0.184000,192.000000,0.000000,0.000000,0.000000,0.000000,0.000000,0.000000,0.000000,0.000000,0.000000,1648463645.521225,0.000000
214.000000,-50727.596966,-35630.826429,4678.175411,10166.422745,-47012.222947,45241.741269,34949.500555,28366.174205,0.014000,0.972000,-0.184000,192.000000,0.000000,0.000000,0.000000,0.000000,0.000000,0.000000,0.000000,0.000000,0.000000,1648463645.521248,0.000000
215.000000,-50710.319067,-35621.438697,4680.164716,10167.093297,-47009.943069,45247.999757,34954.619104,28378.981755,0.014000,0.972000,-0.184000,192.000000,0.000000,0.000000,0.000000,0.000000,0.000000,0.000000,0.000000,0.000000,0.000000,1648463645.529348,0.000000
216.000000,-50726.926413,-35630.960540,4676.186106,10172.658881,-47009.741904,45246.748060,34943.175011,28376.634821,0.014000,0.972000,-0.184000,192.000000,0.000000,0.000000,0.000000,0.000000,0.000000,0.000000,0.000000,0.000000,0.000000,1648463645.529359,0.000000
217.000000,-50715.772893,-35632.055775,4688.792490,10195.368254,-46998.811900,45256.783993,34956.876630,28384.301470,0.014000,0.972000,-0.184000,192.000000,0.000000,0.000000,0.000000,0.000000,0.000000,0.000000,0.000000,0.000000,0.000000,1648463645.537323,0.000000
218.000000,-50734.704820,-35653.781671,4686.669074,10180.280826,-47015.083970,45243.395298,34948.695892,28372.097417,0.014000,0.972000,-0.184000,192.000000,0.000000,0.000000,0.000000,0.000000,0.000000,0.000000,0.000000,0.000000,0.000000,1648463645.537335,0.000000
219.000000,-50734.905986,-35633.732156,4669.681748,10176.995120,-47013.742866,45245.295196,34952.965075,28372.991487,0.014000,0.972000,-0.184000,192.000000,0.000000,0.000000,0.000000,0.000000,0.000000,0.000000,0.000000,0.000000,0.000000,1648463645.544442,0.000000
220.000000,-50736.202387,-35624.925569,4658.885856,10167.138000,-47022.772971,45235.102801,34941.252761,28373.818502,0.012000,0.970000,-0.186000,192.000000,0.000000,96.000000,30.000000,80.000000,250.000000,48.000000,0.000000,0.000000,0.000000,1648463645.544459,0.000000
221.000000,-50746.059507,-35638.001339,4648.984033,10165.014585,-47029.634956,45229.671327,34942.169183,28367.381199,0.012000,0.970000,-0.186000,192.000000,0.000000,0.000000,0.000000,0.000000,0.000000,0.000000,0.000000,0.000000,0.000000,1648463645.551003,0.000000
222.000000,-50753.413231,-35651.747662,4655.913074,10165.618082,-47026.997450,45228.889016,34946.505421,28367.492958,0.012000,0.970000,-0.186000,192.000000,0.000000,0.000000,0.000000,0.000000,0.000000,0.000000,0.000000,0.000000,0.000000,1648463645.559129,0.000000
223.000000,-50747.132390,-35650.004226,4660.003443,10172.636530,-47022.281232,45229.693679,34940.403395,28366.822406,0.012000,0.970000,-0.186000,192.000000,0.000000,0.000000,0.000000,0.000000,0.000000,0.000000,0.000000,0.000000,0.000000,1648463645.559146,0.000000
224.000000,-50728.871015,-35633.933322,4666.798373,10175.117573,-47017.922642,45232.867626,34943.867915,28364.766045,0.012000,0.970000,-0.186000,192.000000,0.000000,0.000000,0.000000,0.000000,0.000000,0.000000,0.000000,0.000000,0.000000,1648463645.566999,0.000000
225.000000,-50732.916681,-35640.482383,4667.044242,10166.489800,-47024.337593,45222.943452,34938.212924,28352.249068,0.012000,0.970000,-0.186000,192.000000,0.000000,0.000000,0.000000,0.000000,0.000000,0.000000,0.000000,0.000000,0.000000,1648463645.567016,0.000000
226.000000,-50725.808826,-35631.117002,4688.636027,10181.688986,-47011.775912,45225.715068,34935.955398,28361.614449,0.012000,0.970000,-0.186000,192.000000,0.000000,0.000000,0.000000,0.000000,0.000000,0.000000,0.000000,0.000000,0.000000,1648463645.573600,0.000000
227.000000,-50719.617393,-35631.921665,4694.000446,10185.689948,-47006.657363,45228.106705,34946.192497,28376.612470,0.012000,0.970000,-0.186000,192.000000,0.000000,0.000000,0.000000,0.000000,0.000000,0.000000,0.000000,0.000000,0.000000,1648463645.573612,0.000000
228.000000,-50732.514350,-35645.064490,4657.030661,10175.497553,-47020.984831,45222.317603,34942.459755,28358.954592,0.012000,0.970000,-0.186000,192.000000,0.000000,0.000000,0.000000,0.000000,0.000000,0.000000,0.000000,0.000000,0.000000,1648463645.581779,0.000000
229.000000,-50729.228643,-35642.471688,4652.470905,10174.134096,-47023.488226,45220.440056,34938.928180,28357.725246,0.012000,0.970000,-0.186000,192.000000,0.000000,0.000000,0.000000,0.000000,0.000000,0.000000,0.000000,0.000000,0.000000,1648463645.581796,0.000000
230.000000,-50706.943954,-35624.880865,4674.777946,10185.265265,-47009.473683,45243.663519,34954.663808,28372.544452,0.014000,0.972000,-0.172000,192.000000,0.000000,112.000000,30.000000,96.000000,250.000000,160.000000,0.000000,0.000000,0.000000,1648463645.589709,0.000000
231.000000,-50718.388047,-35632.234589,4678.980074,10178.515038,-47014.301659,45239.327280,34956.295485,28375.494883,0.014000,0.972000,-0.172000,192.000000,0.000000,0.000000,0.000000,0.000000,0.000000,0.000000,0.000000,0.000000,0.000000,1648463645.589726,0.000000
232.000000,-50721.137312,-35623.249188,4667.223056,10184.482954,-47014.391066,45236.265091,34953.657979,28376.388952,0.014000,0.972000,-0.172000,192.000000,0.000000,0.000000,0.000000,0.000000,0.000000,0.000000,0.000000,0.000000,0.000000,1648463645.596657,0.000000
233.000000,-50700.193727,-35619.985833,4663.445611,10189.087413,-47012.200595,45237.159161,34967.761930,28377.819464,0.014000,0.972000,-0.172000,192.000000,0.000000,0.000000,0.000000,0.000000,0.000000,0.000000,0.000000,0.000000,0.000000,1648463645.596673,0.000000
234.000000,-50724.199501,-35632.502810,4669.011196,10183.343015,-47013.675811,45230.543045,34956.787223,28373.572633,0.014000,0.972000,-0.172000,192.000000,0.000000,0.000000,0.000000,0.000000,0.000000,0.000000,0.000000,0.000000,0.000000,1648463645.604406,0.000000
235.000000,-50737.498789,-35627.853647,4671.134612,10173.731765,-47017.833235,45225.089219,34940.246933,28365.481301,0.014000,0.972000,-0.172000,192.000000,0.000000,0.000000,0.000000,0.000000,0.000000,0.000000,0.000000,0.000000,0.000000,1648463645.604441,0.000000
236.000000,-50719.952669,-35613.883807,4691.809975,10190.026187,-47000.778854,45243.484705,34959.670598,28376.858339,0.014000,0.972000,-0.172000,192.000000,0.000000,0.000000,0.000000,0.000000,0.000000,0.000000,0.000000,0.000000,0.000000,1648463645.611435,0.000000
237.000000,-50720.869091,-35627.138391,4694.469833,10196.329379,-46994.922697,45248.715013,34964.923258,28379.965231,0.014000,0.972000,-0.172000,192.000000,0.000000,0.000000,0.000000,0.000000,0.000000,0.000000,0.000000,0.000000,0.000000,1648463645.611451,0.000000
238.000000,-50727.239338,-35637.151973,4664.227922,10181.644283,-47010.948898,45232.398240,34944.270247,28367.582365,0.014000,0.972000,-0.172000,192.000000,0.000000,0.000000,0.000000,0.000000,0.000000,0.000000,0.000000,0.000000,0.000000,1648463645.619408,0.000000
239.000000,-50726.389972,-35634.737985,4661.992748,10172.815343,-47020.783665,45230.386583,34950.327569,28365.190728,0.014000,0.972000,-0.172000,192.000000,0.000000,0.000000,0.000000,0.000000,0.000000,0.000000,0.000000,0.000000,0.000000,1648463645.626181,0.000000
240.000000,-50734.816579,-35640.035348,4661.858638,10173.642358,-47021.789494,45237.069754,34963.962133,28375.830159,0.016000,0.968000,-0.176000,192.000000,0.000000,128.000000,30.000000,64.000000,250.000000,128.000000,0.000000,0.000000,0.000000,1648463645.626197,0.000000
241.000000,-50758.062393,-35649.266618,4660.092850,10173.709413,-47023.555282,45235.751001,34962.464567,28374.936089,0.016000,0.968000,-0.176000,192.000000,0.000000,0.000000,0.000000,0.000000,0.000000,0.000000,0.000000,0.000000,0.000000,1648463645.634005,0.000000
242.000000,-50758.911760,-35649.020749,4671.022853,10182.605408,-47016.849758,45237.941472,34961.078758,28375.114903,0.016000,0.968000,-0.176000,192.000000,0.000000,0.000000,0.000000,0.000000,0.000000,0.000000,0.000000,0.000000,0.000000,1648463645.634021,0.000000
243.000000,-50749.568731,-35656.083900,4656.047184,10178.626797,-47023.689392,45233.314661,34959.827061,28382.669792,0.016000,0.968000,-0.176000,192.000000,0.000000,0.000000,0.000000,0.000000,0.000000,0.000000,0.000000,0.000000,0.000000,1648463645.641965,0.000000
244.000000,-50753.077954,-35662.007113,4646.234768,10163.651128,-47033.233587,45223.859873,34956.675465,28383.563862,0.016000,0.968000,-0.176000,192.000000,0.000000,0.000000,0.000000,0.000000,0.000000,0.000000,0.000000,0.000000,0.000000,1648463645.641983,0.000000
245.000000,-50746.417135,-35647.433775,4657.857675,10167.026242,-47027.109209,45229.134885,34957.591886,28380.009935,0.016000,0.968000,-0.176000,192.000000,0.000000,0.000000,0.000000,0.000000,0.000000,0.000000,0.000000,0.000000,0.000000,1648463645.649908,0.000000
246.000000,-50716.935184,-35646.874982,4667.893609,10169.887265,-47020.023706,45230.006603,34964.856203,28383.876787,0.016000,0.968000,-0.176000,192.000000,0.000000,0.000000,0.000000,0.000000,0.000000,0.000000,0.000000,0.000000,0.000000,1648463645.649920,0.000000
247.000000,-50710.609640,-35647.545534,4667.804202,10173.463544,-47015.687468,45231.548873,34966.934915,28382.133351,0.016000,0.968000,-0.176000,192.000000,0.000000,0.000000,0.000000,0.000000,0.000000,0.000000,0.000000,0.000000,0.000000,1648463645.656514,0.000000
248.000000,-50739.152818,-35641.018825,4665.211399,10175.810477,-47014.346363,45232.085315,34967.940744,28376.590118,0.016000,0.968000,-0.176000,192.000000,0.000000,0.000000,0.000000,0.000000,0.000000,0.000000,0.000000,0.000000,0.000000,1648463645.656530,0.000000
249.000000,-50743.980794,-35640.840011,4671.156963,10177.062175,-47014.927508,45226.273862,34960.609372,28376.143083,0.016000,0.968000,-0.176000,192.000000,0.000000,0.000000,0.000000,0.000000,0.000000,0.000000,0.000000,0.000000,0.000000,1648463645.664528,0.000000
250.000000,-50738.392858,-35641.667025,4679.538867,10180.571399,-47009.205462,45230.386583,34955.334360,28378.199444,0.018000,0.972000,-0.180000,192.000000,0.000000,144.000000,30.000000,96.000000,250.000000,96.000000,0.000000,0.000000,0.000000,1648463645.664545,0.000000
251.000000,-50748.428792,-35656.821508,4668.608864,10155.962128,-47018.079104,45217.221405,34941.386872,28366.777702,0.018000,0.972000,-0.180000,192.000000,0.000000,0.000000,0.000000,0.000000,0.000000,0.000000,0.000000,0.000000,0.000000,1648463645.672364,0.000000
252.000000,-50750.842780,-35656.150956,4657.410640,10156.029183,-47023.868206,45211.298193,34942.839735,28359.155757,0.018000,0.972000,-0.180000,192.000000,0.000000,0.000000,0.000000,0.000000,0.000000,0.000000,0.000000,0.000000,0.000000,1648463645.672375,0.000000
253.000000,-50740.583329,-35630.602912,4667.156001,10181.465469,-47008.043171,45225.513902,34957.144851,28366.934164,0.018000,0.972000,-0.180000,192.000000,0.000000,0.000000,0.000000,0.000000,0.000000,0.000000,0.000000,0.000000,0.000000,1648463645.679609,0.000000
254.000000,-50734.704820,-35639.610665,4684.568010,10182.583056,-47005.204499,45227.302042,34954.306180,28375.137255,0.018000,0.972000,-0.180000,192.000000,0.000000,0.000000,0.000000,0.000000,0.000000,0.000000,0.000000,0.000000,0.000000,1648463645.686367,0.000000
255.000000,-50734.861283,-35644.595104,4685.886763,10178.447983,-47005.025685,45225.692716,34951.936895,28379.205272,0.018000,0.972000,-0.180000,192.000000,0.000000,0.000000,0.000000,0.000000,0.000000,0.000000,0.000000,0.000000,0.000000,1648463645.686378,0.000000
0.000000,-50738.258748,-35637.911932,4673.749766,10168.210884,-47012.759389,45221.691754,34963.202174,28370.443388,0.018000,0.972000,-0.180000,192.000000,0.000000,0.000000,0.000000,0.000000,0.000000,0.000000,0.000000,0.000000,0.000000,1648463645.694381,0.000000
1.000000,-50707.055713,-35632.346348,4671.939274,10170.669576,-47014.771046,45223.658708,34966.867860,28378.154740,0.018000,0.972000,-0.180000,192.000000,0.000000,0.000000,0.000000,0.000000,0.000000,0.000000,0.000000,0.000000,0.000000,1648463645.694416,0.000000
2.000000,-50701.892460,-35632.636921,4663.557370,10177.844486,-47010.948898,45225.200978,34958.553011,28372.410342,0.018000,0.972000,-0.180000,192.000000,0.000000,0.000000,0.000000,0.000000,0.000000,0.000000,0.000000,0.000000,0.000000,1648463645.702369,0.000000
3.000000,-50732.134370,-35630.915836,4674.196800,10187.321626,-47004.936278,45228.665498,34957.860107,28368.163510,0.018000,0.972000,-0.180000,192.000000,0.000000,0.000000,0.000000,0.000000,0.000000,0.000000,0.000000,0.000000,0.000000,1648463645.702386,0.000000
4.000000,-50744.897216,-35640.370624,4683.383367,10181.711338,-47008.467854,45229.201940,34967.247840,28374.712571,0.018000,0.966000,-0.180000,192.000000,0.000000,144.000000,30.000000,48.000000,250.000000,96.000000,0.000000,0.000000,0.000000,1648463645.708749,0.000000
5.000000,-50755.804867,-35669.517299,4670.888742,10168.657919,-47020.023706,45223.993984,34960.698779,28369.996353,0.018000,0.966000,-0.180000,192.000000,0.000000,0.000000,0.000000,0.000000,0.000000,0.000000,0.000000,0.000000,0.000000,1648463645.708765,0.000000
6.000000,-50746.171265,-35665.449281,4663.825591,10163.695832,-47022.594157,45225.312737,34957.256610,28368.543490,0.018000,0.966000,-0.180000,192.000000,0.000000,0.000000,0.000000,0.000000,0.000000,0.000000,0.000000,0.000000,0.000000,1648463645.716908,0.000000
7.000000,-50734.503655,-35643.052833,4664.585550,10154.866893,-47025.097552,45229.045478,34955.110843,28376.277194,0.018000,0.966000,-0.180000,192.000000,0.000000,0.000000,0.000000,0.000000,0.000000,0.000000,0.000000,0.000000,0.000000,1648463645.716925,0.000000
8.000000,-50755.760164,-35647.478479,4654.884893,10143.579262,-47034.641747,45220.171835,34953.680331,28379.674659,0.018000,0.966000,-0.180000,192.000000,0.000000,0.000000,0.000000,0.000000,0.000000,0.000000,0.000000,0.000000,0.000000,1648463645.724893,0.000000
9.000000,-50769.886466,-35666.164537,4646.972376,10139.377134,-47042.196636,45209.934736,34950.260514,28368.588193,0.018000,0.966000,-0.180000,192.000000,0.000000,0.000000,0.000000,0.000000,0.000000,0.000000,0.000000,0.000000,0.000000,1648463645.724909,0.000000
10.000000,-50756.877751,-35665.561040,4648.894626,10152.184683,-47036.385183,45215.455617,34955.893154,28363.559051,0.018000,0.966000,-0.180000,192.000000,0.000000,0.000000,0.000000,0.000000,0.000000,0.000000,0.000000,0.000000,0.000000,1648463645.731757,0.000000
11.000000,-50741.455047,-35658.050854,4663.043280,10164.880474,-47025.969270,45225.826827,34959.156508,28368.454083,0.018000,0.966000,-0.180000,192.000000,0.000000,0.000000,0.000000,0.000000,0.000000,0.000000,0.000000,0.000000,0.000000,1648463645.731773,0.000000
12.000000,-50743.913739,-35665.024598,4662.283321,10163.517018,-47024.605814,45227.369097,34962.129290,28375.226662,0.018000,0.966000,-0.180000,192.000000,0.000000,0.000000,0.000000,0.000000,0.000000,0.000000,0.000000,0.000000,0.000000,1648463645.738358,0.000000
13.000000,-50748.339385,-35664.465805,4657.410640,10154.598672,-47030.126694,45224.642184,34956.317837,28367.805882,0.018000,0.966000,-0.180000,192.000000,0.000000,0.000000,0.000000,0.000000,0.000000,0.000000,0.000000,0.000000,0.000000,1648463645.746647,0.000000
14.000000,-50729.429809,-35650.495964,4656.963606,10157.884378,-47029.143218,45230.990080,34968.544241,28370.376333,0.014000,0.964000,-0.180000,192.000000,0.000000,112.000000,30.000000,32.000000,250.000000,96.000000,0.000000,0.000000,0.000000,1648463645.746664,0.000000
15.000000,-50725.518254,-35659.213145,4646.391230,10149.994212,-47036.452238,45223.569301,34953.725034,28376.456008,0.014000,0.964000,-0.180000,192.000000,0.000000,0.000000,0.000000,0.000000,0.000000,0.000000,0.000000,0.000000,0.000000,1648463645.754591,0.000000
16.000000,-50752.563864,-35659.682531,4644.647794,10147.066134,-47036.273424,45227.682022,34959.648247,28374.421999,0.014000,0.964000,-0.180000,192.000000,0.000000,0.000000,0.000000,0.000000,0.000000,0.000000,0.000000,0.000000,0.000000,1648463645.754607,0.000000
17.000000,-50758.978815,-35648.506659,4659.288187,10157.437343,-47028.785590,45232.398240,34967.985447,28373.483226,0.014000,0.964000,-0.180000,192.000000,0.000000,0.000000,0.000000,0.000000,0.000000,0.000000,0.000000,0.000000,0.000000,1648463645.761638,0.000000
18.000000,-50758.598835,-35646.271485,4666.686614,10159.314890,-47030.305508,45226.162103,34961.011703,28368.096455,0.014000,0.964000,-0.180000,192.000000,0.000000,0.000000,0.000000,0.000000,0.000000,0.000000,0.000000,0.000000,0.000000,1648463645.761654,0.000000
19.000000,-50751.580388,-35640.638845,4657.835324,10161.348899,-47028.226796,45225.804475,34955.647284,28374.556109,0.014000,0.964000,-0.180000,192.000000,0.000000,0.000000,0.000000,0.000000,0.000000,0.000000,0.000000,0.000000,0.000000,1648463645.769298,0.000000
20.000000,-50728.915719,-35640.057700,4660.182257,10172.971806,-47021.118941,45230.498341,34964.990314,28376.835987,0.014000,0.964000,-0.180000,192.000000,0.000000,0.000000,0.000000,0.000000,0.000000,0.000000,0.000000,0.000000,0.000000,1648463645.769315,0.000000
21.000000,-50720.489111,-35637.464897,4663.669129,10173.888227,-47017.252090,45230.788914,34957.748348,28376.567766,0.014000,0.964000,-0.180000,192.000000,0.000000,0.000000,0.000000,0.000000,0.000000,0.000000,0.000000,0.000000,0.000000,1648463645.777173,0.000000
22.000000,-50730.234472,-35633.240418,4675.403795,10178.939721,-47012.245299,45233.292309,34966.018494,28381.395743,0.014000,0.964000,-0.180000,192.000000,0.000000,0.000000,0.000000,0.000000,0.000000,0.000000,0.000000,0.000000,0.000000,1648463645.777209,0.000000
23.000000,-50731.888501,-35634.737985,4681.550524,10175.966939,-47014.100494,45233.739344,34968.723055,28380.524025,0.014000,0.964000,-0.180000,192.000000,0.000000,0.000000,0.000000,0.000000,0.000000,0.000000,0.000000,0.000000,0.000000,1648463645.785073,0.000000
24.000000,-50733.698992,-35639.767127,4652.046222,10161.840637,-47022.974136,45230.207769,34957.614238,28375.405476,0.016000,0.972000,-0.178000,192.000000,0.000000,128.000000,30.000000,96.000000,250.000000,112.000000,0.000000,0.000000,0.000000,1648463645.785085,0.000000
25.000000,-50739.443390,-35643.633979,4647.888797,10154.755134,-47026.125732,45229.313699,34960.452910,28376.120731,0.016000,0.972000,-0.178000,192.000000,0.000000,0.000000,0.000000,0.000000,0.000000,0.000000,0.000000,0.000000,0.000000,1648463645.791768,0.000000
26.000000,-50744.092553,-35651.702959,4656.896550,10158.219654,-47022.124770,45229.872493,34962.509270,28378.937051,0.016000,0.972000,-0.178000,192.000000,0.000000,0.000000,0.000000,0.000000,0.000000,0.000000,0.000000,0.000000,0.000000,1648463645.791779,0.000000
27.000000,-50746.484190,-35660.308380,4657.343585,10163.338204,-47024.181130,45226.810304,34955.513174,28379.160569,0.016000,0.972000,-0.178000,192.000000,0.000000,0.000000,0.000000,0.000000,0.000000,0.000000,0.000000,0.000000,0.000000,1648463645.798634,0.000000
28.000000,-50745.791286,-35653.066415,4670.888742,10170.289596,-47015.329840,45236.175684,34966.331418,28385.173188,0.016000,0.972000,-0.178000,192.000000,0.000000,0.000000,0.000000,0.000000,0.000000,0.000000,0.000000,0.000000,0.000000,1648463645.806530,0.000000
29.000000,-50741.298585,-35647.433775,4682.936333,10180.280826,-47003.595174,45246.479839,34978.647230,28385.463761,0.016000,0.972000,-0.178000,192.000000,0.000000,0.000000,0.000000,0.000000,0.000000,0.000000,0.000000,0.000000,0.000000,1648463645.806539,0.000000
30.000000,-50739.108114,-35657.514412,4678.533039,10172.770640,-47008.981944,45243.194132,34969.885346,28387.989508,0.016000,0.972000,-0.178000,192.000000,0.000000,0.000000,0.000000,0.000000,0.000000,0.000000,0.000000,0.000000,0.000000,1648463645.814550,0.000000
31.000000,-50742.013841,-35653.580505,4670.665225,10169.328471,-47014.636936,45236.935644,34958.083625,28383.653269,0.016000,0.972000,-0.178000,192.000000,0.000000,0.000000,0.000000,0.000000,0.000000,0.000000,0.000000,0.000000,0.000000,1648463645.814557,0.000000
32.000000,-50747.825294,-35650.451261,4667.580684,10174.335262,-47012.848796,45236.443905,34961.570497,28383.943842,0.016000,0.972000,-0.178000,192.000000,0.000000,0.000000,0.000000,0.000000,0.000000,0.000000,0.000000,0.000000,0.000000,1648463645.821606,0.000000
33.000000,-50723.551300,-35636.481421,4673.816821,10189.713262,-47000.041246,45250.749022,34978.468416,28394.426810,0.016000,0.972000,-0.178000,192.000000,0.000000,0.000000,0.000000,0.000000,0.000000,0.000000,0.000000,0.000000,0.000000,1648463645.821622,0.000000
34.000000,-50718.477454,-35646.025615,4659.399946,10178.157410,-47011.574747,45240.556626,34975.093302,28388.078915,0.014000,0.974000,-0.172000,192.000000,0.000000,112.000000,30.000000,112.000000,250.000000,160.000000,0.000000,0.000000,0.000000,1648463645.829487,0.000000
35.000000,-50717.270460,-35649.601895,4668.899437,10172.949454,-47017.743828,45243.305891,34967.203136,28388.168322,0.014000,0.974000,-0.172000,192.000000,0.000000,0.000000,0.000000,0.000000,0.000000,0.000000,0.000000,0.000000,0.000000,1648463645.829504,0.000000
36.000000,-50726.188806,-35635.810868,4682.310484,10174.827000,-47013.072313,45250.346690,34972.165224,28394.873845,0.014000,0.974000,-0.172000,192.000000,0.000000,0.000000,0.000000,0.000000,0.000000,0.000000,0.000000,0.000000,0.000000,1648463645.837501,0.000000
37.000000,-50744.539588,-35640.638845,4655.868370,10163.025279,-47025.030497,45232.197074,34954.037959,28386.424886,0.014000,0.974000,-0.172000,192.000000,0.000000,0.000000,0.000000,0.000000,0.000000,0.000000,0.000000,0.000000,0.000000,1648463645.837518,0.000000
38.000000,-50732.089666,-35640.772956,4668.787678,10169.239064,-47018.324973,45239.439039,34967.538413,28379.249976,0.014000,0.974000,-0.172000,192.000000,0.000000,0.000000,0.000000,0.000000,0.000000,0.000000,0.000000,0.000000,0.000000,1648463645.844576,0.000000
39.000000,-50724.132445,-35638.671892,4682.623408,10173.709413,-47011.999430,45244.624644,34977.082607,28387.140141,0.014000,0.974000,-0.172000,192.000000,0.000000,0.000000,0.000000,0.000000,0.000000,0.000000,0.000000,0.000000,0.000000,1648463645.844592,0.000000
40.000000,-50737.767009,-35644.282179,4675.135574,10172.860047,-47010.613622,45241.808324,34963.850375,28379.384086,0.014000,0.974000,-0.172000,192.000000,0.000000,0.000000,0.000000,0.000000,0.000000,0.000000,0.000000,0.000000,0.000000,1648463645.852142,0.000000
41.000000,-50737.990527,-35641.644674,4673.995635,10171.831867,-47010.524215,45246.010452,34965.482052,28386.201368,0.014000,0.974000,-0.172000,192.000000,0.000000,0.000000,0.000000,0.000000,0.000000,0.000000,0.000000,0.000000,0.000000,1648463645.852158,0.000000
42.000000,-50740.873902,-35644.528049,4663.803239,10165.685137,-47021.364811,45239.394336,34962.956305,28392.057525,0.014000,0.974000,-0.172000,192.000000,0.000000,0.000000,0.000000,0.000000,0.000000,0.000000,0.000000,0.000000,0.000000,1648463645.859088,0.000000
43.000000,-50743.064373,-35646.204429,4657.365937,10154.509265,-47034.082953,45234.186379,34963.582154,28385.039077,0.014000,0.974000,-0.172000,192.000000,0.000000,0.000000,0.000000,0.000000,0.000000,0.000000,0.000000,0.000000,0.000000,1648463645.859124,0.000000
44.000000,-50732.983736,-35639.811830,4667.915960,10170.289596,-47020.448389,45244.982272,34970.287677,28375.941917,0.014000,0.976000,-0.170000,192.000000,0.000000,112.000000,30.000000,128.000000,250.000000,176.000000,0.000000,0.000000,0.000000,1648463645.867096,0.000000
45.000000,-50730.614451,-35645.556229,4678.510687,10186.919294,-47007.573784,45252.134830,34978.937802,28380.881653,0.014000,0.976000,-0.170000,192.000000,0.000000,0.000000,0.000000,0.000000,0.000000,0.000000,0.000000,0.000000,0.000000,1648463645.873493,0.000000
46.000000,-50717.873957,-35646.852630,4676.364920,10179.453812,-47011.060656,45250.927836,34982.536433,28387.073086,0.014000,0.976000,-0.170000,192.000000,0.000000,0.000000,0.000000,0.000000,0.000000,0.000000,0.000000,0.000000,0.000000,1648463645.873504,0.000000
47.000000,-50734.883634,-35657.603819,4658.058841,10165.707489,-47024.985793,45238.120286,34971.606430,28385.329650,0.014000,0.976000,-0.170000,192.000000,0.000000,0.000000,0.000000,0.000000,0.000000,0.000000,0.000000,0.000000,0.000000,1648463645.881725,0.000000
48.000000,-50744.651347,-35646.606761,4658.014138,10161.795933,-47030.104343,45229.738382,34963.917430,28378.512368,0.014000,0.976000,-0.170000,192.000000,0.000000,0.000000,0.000000,0.000000,0.000000,0.000000,0.000000,0.000000,0.000000,1648463645.881742,0.000000
49.000000,-50725.585309,-35639.320092,4658.237655,10162.578245,-47024.404648,45234.476952,34962.062235,28382.446275,0.014000,0.976000,-0.170000,192.000000,0.000000,0.000000,0.000000,0.000000,0.000000,0.000000,0.000000,0.000000,0.000000,1648463645.889459,0.000000
50.000000,-50744.897216,-35655.659217,4661.791582,10163.025279,-47022.370639,45234.119324,34962.799843,28384.949670,0.014000,0.976000,-0.170000,192.000000,0.000000,0.000000,0.000000,0.000000,0.000000,0.000000,0.000000,0.000000,0.000000,1648463645.889471,0.000000
51.000000,-50758.174152,-35657.559116,4660.673995,10161.348899,-47023.130598,45232.979385,34964.051540,28379.138217,0.014000,0.976000,-0.170000,192.000000,0.000000,0.000000,0.000000,0.000000,0.000000,0.000000,0.000000,0.000000,0.000000,1648463645.896861,0.000000
52.000000,-50751.267463,-35645.198601,4663.713832,10166.713317,-47021.051886,45233.359365,34963.895078,28381.798074,0.014000,0.976000,-0.170000,192.000000,0.000000,0.000000,0.000000,0.000000,0.000000,0.000000,0.000000,0.000000,0.000000,1648463645.896878,0.000000
53.000000,-50736.872940,-35646.182078,4677.214286,10174.447021,-47018.056752,45237.449734,34979.518948,28387.542473,0.014000,0.976000,-0.170000,192.000000,0.000000,0.000000,0.000000,0.000000,0.000000,0.000000,0.000000,0.000000,0.000000,1648463645.904318,0.000000
54.000000,-50731.173245,-35642.382281,4674.241504,10182.225428,-47010.054828,45242.925911,34993.935823,28398.405421,0.016000,0.976000,-0.168000,192.000000,0.000000,128.000000,30.000000,128.000000,250.000000,192.000000,0.000000,0.000000,0.000000,1648463645.904334,0.000000
55.000000,-50739.868073,-35647.500831,4656.136591,10172.748288,-47016.983869,45233.314661,34979.116616,28392.236339,0.016000,0.976000,-0.168000,192.000000,0.000000,0.000000,0.000000,0.000000,0.000000,0.000000,0.000000,0.000000,0.000000,1648463645.912421,0.000000
56.000000,-50740.069239,-35646.606761,4663.982053,10165.506323,-47017.877938,45232.957033,34973.148700,28392.348098,0.016000,0.976000,-0.168000,192.000000,0.000000,0.000000,0.000000,0.000000,0.000000,0.000000,0.000000,0.000000,0.000000,1648463645.912437,0.000000
57.000000,-50734.011916,-35640.728252,4672.565123,10171.742460,-47012.178244,45237.092106,34973.931011,28388.034211,0.016000,0.976000,-0.168000,192.000000,0.000000,0.000000,0.000000,0.000000,0.000000,0.000000,0.000000,0.000000,0.000000,1648463645.920442,0.000000
58.000000,-50730.659155,-35646.427947,4676.186106,10175.944588,-47006.411494,45237.561493,34975.495634,28385.754333,0.016000,0.976000,-0.168000,192.000000,0.000000,0.000000,0.000000,0.000000,0.000000,0.000000,0.000000,0.000000,0.000000,1648463645.920458,0.000000
59.000000,-50730.636803,-35654.340464,4660.986920,10153.525788,-47019.174340,45228.553740,34964.073892,28387.967156,0.016000,0.976000,-0.168000,192.000000,0.000000,0.000000,0.000000,0.000000,0.000000,0.000000,0.000000,0.000000,0.000000,1648463645.926553,0.000000
60.000000,-50721.338477,-35656.977970,4649.811047,10147.155541,-47027.779761,45225.357440,34964.789148,28385.016726,0.016000,0.976000,-0.168000,192.000000,0.000000,0.000000,0.000000,0.000000,0.000000,0.000000,0.000000,0.000000,0.000000,1648463645.933832,0.000000
61.000000,-50739.175169,-35645.667988,4648.514646,10166.132172,-47021.118941,45233.247606,34969.393607,28383.541511,0.016000,0.976000,-0.168000,192.000000,0.000000,0.000000,0.000000,0.000000,0.000000,0.000000,0.000000,0.000000,0.000000,1648463645.933848,0.000000
62.000000,-50747.534722,-35654.742796,4647.665280,10166.176875,-47025.857511,45228.374926,34963.179822,28376.388952,0.016000,0.976000,-0.168000,192.000000,0.000000,0.000000,0.000000,0.000000,0.000000,0.000000,0.000000,0.000000,0.000000,1648463645.941946,0.000000
63.000000,-50751.960367,-35660.844822,4666.753670,10162.958224,-47022.907081,45228.799609,34968.208965,28383.809731,0.016000,0.976000,-0.168000,192.000000,0.000000,0.000000,0.000000,0.000000,0.000000,0.000000,0.000000,0.000000,0.000000,1648463645.941963,0.000000
64.000000,-50759.224684,-35660.666008,4660.182257,10160.812457,-47021.007183,45222.474065,34960.229392,28387.229548,0.016000,0.976000,-0.168000,192.000000,0.000000,0.000000,0.000000,0.000000,0.000000,0.000000,0.000000,0.000000,0.000000,1648463645.949943,0.000000
65.000000,-50759.179981,-35666.656276,4659.623463,10169.529637,-47018.839064,45222.429362,34970.421788,28387.922452,0.012000,0.978000,-0.174000,192.000000,0.000000,96.000000,30.000000,144.000000,250.000000,144.000000,0.000000,0.000000,0.000000,1648463645.949978,0.000000
66.000000,-50738.728134,-35649.713653,4672.028681,10183.700643,-47004.958630,45240.355461,34984.704552,28390.247034,0.012000,0.978000,-0.174000,192.000000,0.000000,0.000000,0.000000,0.000000,0.000000,0.000000,0.000000,0.000000,0.000000,1648463645.956680,0.000000
67.000000,-50733.855454,-35654.295761,4663.512667,10163.517018,-47018.168511,45223.792818,34961.257572,28376.277194,0.012000,0.978000,-0.174000,192.000000,0.000000,0.000000,0.000000,0.000000,0.000000,0.000000,0.000000,0.000000,0.000000,1648463645.956697,0.000000
68.000000,-50719.125655,-35636.257903,4666.910132,10166.780372,-47012.491168,45223.189321,34969.930049,28383.496807,0.012000,0.978000,-0.174000,192.000000,0.000000,0.000000,0.000000,0.000000,0.000000,0.000000,0.000000,0.000000,0.000000,1648463645.964613,0.000000
69.000000,-50724.847701,-35613.615586,4673.615655,10173.955282,-47003.729284,45228.397277,34970.444139,28394.225644,0.012000,0.978000,-0.174000,192.000000,0.000000,0.000000,0.000000,0.000000,0.000000,0.000000,0.000000,0.000000,0.000000,1648463645.964629,0.000000
70.000000,-50730.860320,-35620.432868,4672.475716,10174.536428,-47001.002371,45232.666461,34972.388741,28392.437505,0.012000,0.978000,-0.174000,192.000000,0.000000,0.000000,0.000000,0.000000,0.000000,0.000000,0.000000,0.000000,0.000000,1648463645.972715,0.000000
71.000000,-50723.327783,-35628.814772,4671.715757,10168.970843,-47009.652497,45226.005641,34973.148700,28382.222758,0.012000,0.978000,-0.174000,192.000000,0.000000,0.000000,0.000000,0.000000,0.000000,0.000000,0.000000,0.000000,0.000000,1648463645.972730,0.000000
72.000000,-50716.644611,-35628.725365,4673.570952,10173.083564,-47013.161720,45221.781161,34967.493709,28381.999240,0.012000,0.978000,-0.174000,192.000000,0.000000,0.000000,0.000000,0.000000,0.000000,0.000000,0.000000,0.000000,0.000000,1648463645.979522,0.000000
73.000000,-50712.129559,-35613.190903,4680.209420,10185.913466,-47003.841043,45235.907464,34975.517985,28394.091534,0.012000,0.978000,-0.174000,192.000000,0.000000,0.000000,0.000000,0.000000,0.000000,0.000000,0.000000,0.000000,0.000000,1648463645.979533,0.000000
74.000000,-50733.743695,-35620.432868,4662.395079,10175.497553,-47008.780779,45227.659670,34964.118596,28393.443333,0.012000,0.978000,-0.174000,192.000000,0.000000,0.000000,0.000000,0.000000,0.000000,0.000000,0.000000,0.000000,0.000000,1648463645.986286,0.000000
75.000000,-50736.112980,-35634.939150,4669.793507,10177.442155,-47004.757464,45229.738382,34972.679314,28389.799999,0.014000,0.986000,-0.178000,192.000000,0.000000,112.000000,30.000000,208.000000,250.000000,112.000000,0.000000,0.000000,0.000000,1648463645.994198,0.000000
76.000000,-50746.908873,-35653.938133,4669.033548,10170.110782,-47010.278345,45228.441981,34980.904756,28381.418095,0.014000,0.986000,-0.178000,192.000000,0.000000,0.000000,0.000000,0.000000,0.000000,0.000000,0.000000,0.000000,0.000000,1648463645.994215,0.000000
77.000000,-50740.002184,-35659.459014,4669.346472,10171.563646,-47012.401761,45227.994946,34974.310991,28378.490016,0.014000,0.986000,-0.178000,192.000000,0.000000,0.000000,0.000000,0.000000,0.000000,0.000000,0.000000,0.000000,0.000000,1648463646.002101,0.000000
78.000000,-50743.690222,-35650.898296,4670.911094,10175.966939,-47010.121883,45226.430324,34970.600602,28379.518197,0.014000,0.986000,-0.178000,192.000000,0.000000,0.000000,0.000000,0.000000,0.000000,0.000000,0.000000,0.000000,0.000000,1648463646.002113,0.000000
79.000000,-50731.977908,-35639.990644,4681.103490,10184.259437,-47003.192842,45229.112533,34970.466491,28387.073086,0.014000,0.986000,-0.178000,192.000000,0.000000,0.000000,0.000000,0.000000,0.000000,0.000000,0.000000,0.000000,0.000000,1648463646.008872,0.000000
80.000000,-50725.473550,-35646.271485,4685.216211,10179.789088,-47003.952802,45229.380754,34972.858128,28389.665889,0.014000,0.986000,-0.178000,192.000000,0.000000,0.000000,0.000000,0.000000,0.000000,0.000000,0.000000,0.000000,0.000000,1648463646.008883,0.000000
81.000000,-50750.216931,-35651.613552,4679.784737,10179.319701,-47009.294869,45224.284556,34977.194366,28383.317993,0.014000,0.986000,-0.178000,192.000000,0.000000,0.000000,0.000000,0.000000,0.000000,0.000000,0.000000,0.000000,0.000000,1648463646.016738,0.000000
82.000000,-50756.765992,-35653.379339,4666.239579,10179.297349,-47012.893499,45220.909443,34966.398474,28376.813635,0.014000,0.986000,-0.178000,192.000000,0.000000,0.000000,0.000000,0.000000,0.000000,0.000000,0.000000,0.000000,0.000000,1648463646.016756,0.000000
83.000000,-50738.392858,-35651.322979,4670.866391,10183.097146,-47012.692334,45222.965803,34968.767758,28380.971060,0.014000,0.986000,-0.178000,192.000000,0.000000,0.000000,0.000000,0.000000,0.000000,0.000000,0.000000,0.000000,0.000000,1648463646.025000,0.000000
84.000000,-50747.646481,-35653.066415,4647.575873,10173.709413,-47022.504750,45214.114513,34964.073892,28378.959403,0.014000,0.986000,-0.178000,192.000000,0.000000,0.000000,0.000000,0.000000,0.000000,0.000000,0.000000,0.000000,0.000000,1648463646.025017,0.000000
85.000000,-50739.443390,-35661.403616,4633.807198,10165.707489,-47034.082953,45208.325411,34964.967962,28365.660115,0.016000,0.982000,-0.174000,192.000000,0.000000,128.000000,30.000000,176.000000,250.000000,144.000000,0.000000,0.000000,0.000000,1648463646.032173,0.000000
86.000000,-50721.494940,-35656.687398,4645.206588,10172.256550,-47025.924566,45219.881263,34971.226450,28376.232490,0.016000,0.982000,-0.174000,192.000000,0.000000,0.000000,0.000000,0.000000,0.000000,0.000000,0.000000,0.000000,0.000000,1648463646.032208,0.000000
87.000000,-50743.354946,-35647.612589,4660.361071,10164.880474,-47027.288023,45219.076600,34971.472320,28375.897214,0.016000,0.982000,-0.174000,192.000000,0.000000,0.000000,0.000000,0.000000,0.000000,0.000000,0.000000,0.000000,0.000000,1648463646.039626,0.000000
88.000000,-50749.971062,-35637.084918,4677.728376,10159.672518,-47024.404648,45223.122266,34978.580174,28380.814598,0.016000,0.982000,-0.174000,192.000000,0.000000,0.000000,0.000000,0.000000,0.000000,0.000000,0.000000,0.000000,0.000000,1648463646.039643,0.000000
89.000000,-50747.087687,-35632.100479,4675.739071,10170.893093,-47019.554319,45230.453638,34981.620012,28394.359755,0.016000,0.982000,-0.174000,192.000000,0.000000,0.000000,0.000000,0.000000,0.000000,0.000000,0.000000,0.000000,0.000000,1648463646.046509,0.000000
90.000000,-50775.116774,-35639.320092,4649.922806,10155.537445,-47034.529988,45219.501283,34972.187575,28391.722249,0.016000,0.982000,-0.174000,192.000000,0.000000,0.000000,0.000000,0.000000,0.000000,0.000000,0.000000,0.000000,0.000000,1648463646.054699,0.000000
91.000000,-50765.974911,-35647.590238,4649.900454,10157.414992,-47032.965366,45224.306908,34980.725942,28387.922452,0.016000,0.982000,-0.174000,192.000000,0.000000,0.000000,0.000000,0.000000,0.000000,0.000000,0.000000,0.000000,0.000000,1648463646.054715,0.000000
92.000000,-50747.914701,-35661.023636,4657.947082,10168.479105,-47026.639822,45230.990080,34983.810482,28386.179016,0.016000,0.982000,-0.174000,192.000000,0.000000,0.000000,0.000000,0.000000,0.000000,0.000000,0.000000,0.000000,0.000000,1648463646.061887,0.000000
93.000000,-50728.222815,-35673.853537,4650.794524,10172.971806,-47027.064505,45228.330222,34985.620974,28390.269386,0.016000,0.982000,-0.174000,192.000000,0.000000,0.000000,0.000000,0.000000,0.000000,0.000000,0.000000,0.000000,0.000000,1648463646.061903,0.000000
94.000000,-50716.242280,-35661.358912,4649.140495,10178.112707,-47025.298718,45226.206806,34980.368314,28390.135275,0.016000,0.982000,-0.174000,192.000000,0.000000,0.000000,0.000000,0.000000,0.000000,0.000000,0.000000,0.000000,0.000000,1648463646.069285,0.000000
95.000000,-50740.717440,-35656.642694,4636.735277,10166.646262,-47031.847779,45213.533367,34969.952401,28374.757275,0.016000,0.970000,-0.180000,192.000000,0.000000,128.000000,30.000000,80.000000,250.000000,96.000000,0.000000,0.000000,0.000000,1648463646.069301,0.000000
96.000000,-50742.840855,-35659.503717,4638.746934,10156.096239,-47035.379354,45210.717048,34972.187575,28370.689257,0.016000,0.970000,-0.180000,192.000000,0.000000,0.000000,0.000000,0.000000,0.000000,0.000000,0.000000,0.000000,0.000000,1648463646.077276,0.000000
97.000000,-50732.134370,-35651.725310,4647.777039,10153.257567,-47037.413363,45209.778274,34976.322648,28371.292755,0.016000,0.970000,-0.180000,192.000000,0.000000,0.000000,0.000000,0.000000,0.000000,0.000000,0.000000,0.000000,0.000000,1648463646.077292,0.000000
98.000000,-50742.483228,-35642.181115,4667.491277,10168.255588,-47019.040229,45224.016335,34991.141855,28380.233452,0.016000,0.970000,-0.180000,192.000000,0.000000,0.000000,0.000000,0.000000,0.000000,0.000000,0.000000,0.000000,0.000000,1648463646.085067,0.000000
99.000000,-50741.276233,-35639.767127,4685.082100,10183.521829,-47009.630145,45225.066867,34980.591831,28383.675621,0.016000,0.970000,-0.180000,192.000000,0.000000,0.000000,0.000000,0.000000,0.000000,0.000000,0.000000,0.000000,0.000000,1648463646.085083,0.000000
100.000000,-50756.542475,-35666.388055,4658.282358,10171.742460,-47024.024668,45208.146597,34951.981598,28376.165435,0.016000,0.970000,-0.180000,192.000000,0.000000,0.000000,0.000000,0.000000,0.000000,0.000000,0.000000,0.000000,0.000000,1648463646.091931,0.000000
101.000000,-50740.158646,-35658.788462,4644.312518,10172.390660,-47023.063543,45210.068847,34969.550070,28372.432694,0.016000,0.970000,-0.180000,192.000000,0.000000,0.000000,0.000000,0.000000,0.000000,0.000000,0.000000,0.000000,0.000000,1648463646.091947,0.000000
102.000000,-50730.346230,-35655.748624,4652.470905,10168.322643,-47021.968308,45208.660687,34974.176881,28372.253880,0.016000,0.970000,-0.180000,192.000000,0.000000,0.000000,0.000000,0.000000,0.000000,0.000000,0.000000,0.000000,0.000000,1648463646.099772,0.000000
103.000000,-50730.703858,-35655.256886,4646.994727,10165.953358,-47025.142255,45211.521710,34976.210889,28376.388952,0.016000,0.970000,-0.180000,192.000000,0.000000,0.000000,0.000000,0.000000,0.000000,0.000000,0.000000,0.000000,0.000000,1648463646.099787,0.000000
104.000000,-50748.406440,-35643.231647,4648.782867,10160.521884,-47028.383258,45211.812283,34976.769683,28373.237356,0.016000,0.970000,-0.180000,192.000000,0.000000,0.000000,0.000000,0.000000,0.000000,0.000000,0.000000,0.000000,0.000000,1648463646.106775,0.000000
105.000000,-50751.781553,-35644.349235,4663.333853,10153.637547,-47026.975098,45213.131036,34980.837700,28375.114903,0.014000,0.980000,-0.180000,192.000000,0.000000,112.000000,30.000000,160.000000,250.000000,96.000000,0.000000,0.000000,0.000000,1648463646.106791,0.000000
106.000000,-50773.149821,-35683.330677,4661.031623,10149.435419,-47036.765163,45201.888108,34961.324628,28370.801016,0.014000,0.980000,-0.180000,192.000000,0.000000,0.000000,0.000000,0.000000,0.000000,0.000000,0.000000,0.000000,0.000000,1648463646.115121,0.000000
107.000000,-50784.482155,-35697.054648,4648.246425,10146.239119,-47044.856494,45200.390542,34965.862032,28373.147949,0.014000,0.980000,-0.180000,192.000000,0.000000,0.000000,0.000000,0.000000,0.000000,0.000000,0.000000,0.000000,0.000000,1648463646.121499,0.000000
108.000000,-50762.443335,-35663.974066,4645.318347,10169.708451,-47031.691317,45217.824902,34980.167148,28391.096400,0.014000,0.980000,-0.180000,192.000000,0.000000,0.000000,0.000000,0.000000,0.000000,0.000000,0.000000,0.000000,0.000000,1648463646.121515,0.000000
109.000000,-50756.609530,-35660.397787,4651.710946,10177.263341,-47026.818636,45217.489626,34972.724017,28399.321842,0.014000,0.980000,-0.180000,192.000000,0.000000,0.000000,0.000000,0.000000,0.000000,0.000000,0.000000,0.000000,0.000000,1648463646.129603,0.000000
110.000000,-50767.651292,-35679.106197,4630.789713,10161.684175,-47045.594102,45197.462463,34965.660866,28391.364621,0.014000,0.980000,-0.180000,192.000000,0.000000,0.000000,0.000000,0.000000,0.000000,0.000000,0.000000,0.000000,0.000000,1648463646.129619,0.000000
111.000000,-50754.888446,-35674.993476,4642.323213,10165.931006,-47042.867189,45200.345838,34972.522852,28386.670755,0.014000,0.980000,-0.180000,192.000000,0.000000,0.000000,0.000000,0.000000,0.000000,0.000000,0.000000,0.000000,0.000000,1648463646.137555,0.000000
112.000000,-50730.726210,-35649.400729,4685.596190,10199.615085,-47013.809921,45227.167931,34991.410076,28393.823313,0.014000,0.980000,-0.180000,192.000000,0.000000,0.000000,0.000000,0.000000,0.000000,0.000000,0.000000,0.000000,0.000000,1648463646.137573,0.000000
113.000000,-50730.279175,-35641.398804,4686.020873,10190.875553,-47009.540738,45237.606196,35009.559692,28409.223665,0.014000,0.980000,-0.180000,192.000000,0.000000,0.000000,0.000000,0.000000,0.000000,0.000000,0.000000,0.000000,0.000000,1648463646.144195,0.000000
114.000000,-50744.405478,-35657.715578,4638.389306,10160.968919,-47034.082953,45214.181568,34975.808558,28399.701822,0.014000,0.980000,-0.180000,192.000000,0.000000,0.000000,0.000000,0.000000,0.000000,0.000000,0.000000,0.000000,0.000000,1648463646.144212,0.000000
115.000000,-50748.428792,-35655.279238,4645.653623,10156.722087,-47039.693241,45202.893937,34964.677389,28380.009935,0.014000,0.984000,-0.178000,192.000000,0.000000,112.000000,30.000000,192.000000,250.000000,112.000000,0.000000,0.000000,0.000000,1648463646.152188,0.000000
116.000000,-50754.262597,-35650.339502,4648.313480,10158.487875,-47040.408497,45204.816187,34979.921279,28373.527929,0.014000,0.984000,-0.178000,192.000000,0.000000,0.000000,0.000000,0.000000,0.000000,0.000000,0.000000,0.000000,0.000000,1648463646.152204,0.000000
117.000000,-50751.021594,-35657.380302,4641.786771,10157.817323,-47041.079049,45198.647106,34965.794976,28377.037153,0.014000,0.984000,-0.178000,192.000000,0.000000,0.000000,0.000000,0.000000,0.000000,0.000000,0.000000,0.000000,0.000000,1648463646.159994,0.000000
118.000000,-50737.811713,-35655.033368,4645.832437,10164.433439,-47032.138351,45207.721914,34975.629744,28383.094476,0.014000,0.984000,-0.178000,192.000000,0.000000,0.000000,0.000000,0.000000,0.000000,0.000000,0.000000,0.000000,0.000000,1648463646.160011,0.000000
119.000000,-50704.999352,-35654.474575,4653.029698,10178.515038,-47026.550415,45218.562510,34989.219605,28389.218854,0.014000,0.984000,-0.178000,192.000000,0.000000,0.000000,0.000000,0.000000,0.000000,0.000000,0.000000,0.000000,0.000000,1648463646.167263,0.000000
120.000000,-50738.616376,-35660.129566,4649.118143,10184.304140,-47024.359944,45219.188359,34986.425637,28397.533703,0.014000,0.984000,-0.178000,192.000000,0.000000,0.000000,0.000000,0.000000,0.000000,0.000000,0.000000,0.000000,0.000000,1648463646.167279,0.000000
121.000000,-50758.241207,-35667.706808,4654.817838,10187.254570,-47025.164607,45222.004678,34984.704552,28387.318955,0.014000,0.984000,-0.178000,192.000000,0.000000,0.000000,0.000000,0.000000,0.000000,0.000000,0.000000,0.000000,0.000000,1648463646.173709,0.000000
122.000000,-50757.995338,-35673.160633,4665.434917,10177.330396,-47028.450314,45222.250548,34983.005820,28387.251900,0.014000,0.984000,-0.178000,192.000000,0.000000,0.000000,0.000000,0.000000,0.000000,0.000000,0.000000,0.000000,0.000000,1648463646.181922,0.000000
123.000000,-50772.702786,-35675.641677,4661.880989,10162.421782,-47038.329785,45210.158254,34963.224526,28379.629955,0.014000,0.984000,-0.178000,192.000000,0.000000,0.000000,0.000000,0.000000,0.000000,0.000000,0.000000,0.000000,0.000000,1648463646.181937,0.000000
124.000000,-50750.686318,-35665.739854,4676.610789,10176.771602,-47027.288023,45222.496417,34983.922241,28388.615357,0.014000,0.984000,-0.178000,192.000000,0.000000,0.000000,0.000000,0.000000,0.000000,0.000000,0.000000,0.000000,0.000000,1648463646.189923,0.000000
125.000000,-50740.739791,-35663.079996,4666.261931,10169.127306,-47028.629128,45220.440056,34981.284735,28389.017688,0.014000,0.980000,-0.174000,192.000000,0.000000,112.000000,30.000000,160.000000,250.000000,144.000000,0.000000,0.000000,0.000000,1648463646.189939,0.000000
126.000000,-50773.485097,-35664.488156,4661.478658,10155.537445,-47040.363793,45210.337068,34963.738616,28383.005069,0.014000,0.980000,-0.174000,192.000000,0.000000,0.000000,0.000000,0.000000,0.000000,0.000000,0.000000,0.000000,0.000000,1648463646.196979,0.000000
127.000000,-50769.841763,-35657.804985,4668.832382,10173.508248,-47029.590253,45222.004678,34971.069988,28397.198426,0.014000,0.980000,-0.174000,192.000000,0.000000,0.000000,0.000000,0.000000,0.000000,0.000000,0.000000,0.000000,0.000000,1648463646.196996,0.000000
128.000000,-50758.822353,-35672.266563,4663.155039,10172.971806,-47031.870131,45216.930832,34978.557823,28385.799037,0.014000,0.980000,-0.174000,192.000000,0.000000,0.000000,0.000000,0.000000,0.000000,0.000000,0.000000,0.000000,0.000000,1648463646.204389,0.000000
129.000000,-50744.181960,-35677.698037,4663.937350,10171.585998,-47030.819599,45211.007620,34976.501462,28385.195540,0.014000,0.980000,-0.174000,192.000000,0.000000,0.000000,0.000000,0.000000,0.000000,0.000000,0.000000,0.000000,0.000000,1648463646.204424,0.000000
130.000000,-50734.771876,-35679.396770,4662.551542,10170.379003,-47031.534854,45211.789931,34968.991276,28376.143083,0.014000,0.980000,-0.174000,192.000000,0.000000,0.000000,0.000000,0.000000,0.000000,0.000000,0.000000,0.000000,0.000000,1648463646.212409,0.000000
131.000000,-50747.534722,-35673.764130,4671.201667,10176.011643,-47028.271500,45218.674269,34974.020418,28383.161531,0.014000,0.980000,-0.174000,192.000000,0.000000,0.000000,0.000000,0.000000,0.000000,0.000000,0.000000,0.000000,0.000000,1648463646.212425,0.000000
132.000000,-50769.886466,-35684.984706,4650.571007,10161.348899,-47041.615491,45207.408989,34967.560764,28389.308261,0.014000,0.980000,-0.174000,192.000000,0.000000,0.000000,0.000000,0.000000,0.000000,0.000000,0.000000,0.000000,0.000000,1648463646.220196,0.000000
133.000000,-50776.882562,-35680.559061,4655.086059,10160.410125,-47043.984776,45200.748170,34965.616162,28389.956461,0.014000,0.980000,-0.174000,192.000000,0.000000,0.000000,0.000000,0.000000,0.000000,0.000000,0.000000,0.000000,0.000000,1648463646.220206,0.000000
134.000000,-50755.424888,-35654.586334,4663.669129,10169.216713,-47029.724363,45219.322469,34996.081590,28398.740697,0.014000,0.980000,-0.174000,192.000000,0.000000,0.000000,0.000000,0.000000,0.000000,0.000000,0.000000,0.000000,0.000000,1648463646.226676,0.000000
135.000000,-50749.613434,-35653.871078,4662.015100,10165.305157,-47032.406572,45219.702449,34998.897910,28395.857322,0.018000,0.978000,-0.168000,192.000000,0.000000,144.000000,30.000000,144.000000,250.000000,192.000000,0.000000,0.000000,0.000000,1648463646.226681,0.000000
136.000000,-50759.448202,-35660.777767,4667.983016,10157.035012,-47040.855532,45210.873510,34990.113674,28392.057525,0.018000,0.978000,-0.168000,192.000000,0.000000,0.000000,0.000000,0.000000,0.000000,0.000000,0.000000,0.000000,0.000000,1648463646.233615,0.000000
137.000000,-50760.655196,-35660.844822,4674.420318,10170.893093,-47032.004241,45215.522673,34980.882404,28396.729040,0.018000,0.978000,-0.168000,192.000000,0.000000,0.000000,0.000000,0.000000,0.000000,0.000000,0.000000,0.000000,0.000000,1648463646.241807,0.000000
138.000000,-50768.344196,-35671.551308,4675.113222,10172.949454,-47034.462933,45208.325411,34978.401360,28395.231473,0.018000,0.978000,-0.168000,192.000000,0.000000,0.000000,0.000000,0.000000,0.000000,0.000000,0.000000,0.000000,0.000000,1648463646.241812,0.000000
139.000000,-50754.933149,-35664.689322,4685.171507,10178.850314,-47026.662174,45218.987193,34983.676372,28406.809677,0.018000,0.978000,-0.168000,192.000000,0.000000,0.000000,0.000000,0.000000,0.000000,0.000000,0.000000,0.000000,0.000000,1648463646.250060,0.000000
140.000000,-50761.951597,-35686.124645,4670.776984,10166.065117,-47036.809866,45213.421609,34992.326497,28390.515255,0.018000,0.978000,-0.168000,192.000000,0.000000,0.000000,0.000000,0.000000,0.000000,0.000000,0.000000,0.000000,0.000000,1648463646.250078,0.000000
141.000000,-50765.170248,-35699.334526,4646.123009,10158.554931,-47048.119849,45202.245736,34978.803692,28383.541511,0.018000,0.978000,-0.168000,192.000000,0.000000,0.000000,0.000000,0.000000,0.000000,0.000000,0.000000,0.000000,0.000000,1648463646.256479,0.000000
142.000000,-50763.762088,-35692.360782,4647.575873,10161.684175,-47044.878846,45202.648068,34970.712360,28381.306336,0.018000,0.978000,-0.168000,192.000000,0.000000,0.000000,0.000000,0.000000,0.000000,0.000000,0.000000,0.000000,0.000000,1648463646.256495,0.000000
143.000000,-50763.918550,-35667.930325,4666.574856,10174.447021,-47031.691317,45217.221405,34988.392590,28383.787380,0.018000,0.978000,-0.168000,192.000000,0.000000,0.000000,0.000000,0.000000,0.000000,0.000000,0.000000,0.000000,0.000000,1648463646.264769,0.000000
144.000000,-50772.076937,-35665.315171,4670.486411,10168.344995,-47031.959538,45212.013449,34981.620012,28387.788342,0.018000,0.978000,-0.168000,192.000000,0.000000,0.000000,0.000000,0.000000,0.000000,0.000000,0.000000,0.000000,0.000000,1648463646.264786,0.000000
145.000000,-50776.212010,-35670.791348,4660.852809,10161.818285,-47036.720459,45210.113550,34974.422750,28391.610490,0.016000,0.980000,-0.166000,192.000000,0.000000,128.000000,30.000000,160.000000,250.000000,208.000000,0.000000,0.000000,0.000000,1648463646.272729,0.000000
146.000000,-50767.651292,-35667.483290,4657.857675,10161.393602,-47036.072258,45213.354553,34973.573384,28394.560921,0.016000,0.980000,-0.166000,192.000000,0.000000,0.000000,0.000000,0.000000,0.000000,0.000000,0.000000,0.000000,0.000000,1648463646.272746,0.000000
147.000000,-50765.594931,-35657.760281,4667.401870,10168.948492,-47033.010069,45217.266109,34975.585041,28397.712517,0.016000,0.980000,-0.166000,192.000000,0.000000,0.000000,0.000000,0.000000,0.000000,0.000000,0.000000,0.000000,0.000000,1648463646.279787,0.000000
148.000000,-50780.324731,-35673.652372,4655.890722,10155.850369,-47041.213160,45205.039704,34966.264363,28393.532740,0.016000,0.980000,-0.166000,192.000000,0.000000,0.000000,0.000000,0.000000,0.000000,0.000000,0.000000,0.000000,0.000000,1648463646.279804,0.000000
149.000000,-50769.081803,-35678.502700,4656.807143,10160.499532,-47042.286043,45201.955164,34972.388741,28391.208159,0.016000,0.980000,-0.166000,192.000000,0.000000,0.000000,0.000000,0.000000,0.000000,0.000000,0.000000,0.000000,0.000000,1648463646.287084,0.000000
150.000000,-50735.151855,-35668.846747,4671.983978,10178.492687,-47029.366735,45214.695658,34987.364410,28391.498732,0.016000,0.980000,-0.166000,192.000000,0.000000,0.000000,0.000000,0.000000,0.000000,0.000000,0.000000,0.000000,0.000000,1648463646.287108,0.000000
151.000000,-50739.890425,-35671.618363,4651.241559,10170.334300,-47034.507636,45203.922117,34981.687067,28391.386973,0.016000,0.980000,-0.166000,192.000000,0.000000,0.000000,0.000000,0.000000,0.000000,0.000000,0.000000,0.000000,0.000000,1648463646.294134,0.000000
152.000000,-50741.946786,-35656.150956,4654.281396,10170.468410,-47030.998412,45204.413856,34972.165224,28384.837912,0.016000,0.980000,-0.166000,192.000000,0.000000,0.000000,0.000000,0.000000,0.000000,0.000000,0.000000,0.000000,0.000000,1648463646.302308,0.000000
153.000000,-50771.182867,-35656.732101,4675.984940,10178.224466,-47020.873072,45207.408989,34969.952401,28386.246072,0.016000,0.980000,-0.166000,192.000000,0.000000,0.000000,0.000000,0.000000,0.000000,0.000000,0.000000,0.000000,0.000000,1648463646.302320,0.000000
154.000000,-50763.247998,-35663.571735,4685.216211,10183.588884,-47016.246261,45201.552832,34979.898927,28386.447237,0.016000,0.980000,-0.166000,192.000000,0.000000,0.000000,0.000000,0.000000,0.000000,0.000000,0.000000,0.000000,0.000000,1648463646.309337,0.000000
155.000000,-50760.297568,-35664.979895,4679.315350,10172.792992,-47025.835160,45193.282687,34977.104959,28377.640650,0.014000,0.982000,-0.166000,192.000000,0.000000,112.000000,30.000000,176.000000,250.000000,208.000000,0.000000,0.000000,0.000000,1648463646.309354,0.000000
156.000000,-50780.391786,-35674.546441,4673.079213,10155.380983,-47035.535817,45192.790948,34961.436386,28382.178054,0.014000,0.982000,-0.166000,192.000000,0.000000,0.000000,0.000000,0.000000,0.000000,0.000000,0.000000,0.000000,0.000000,1648463646.316896,0.000000
