%OpenBCI Raw EEG Data
%Number of channels = 8
%Sample Rate = 256 Hz
%Board = OpenBCI_GUI$BoardCytonSerial
%Channels = Fp1, Fp2, F3, F4, Fz, Pz, O1, O2
%Data recorded at AIMS Lab (http://aimsl.uiu.ac.bd) by Rana Depto (mail@ranadepto.com)
%Brainwaves were obtained via the Ultracortex Mark IV Headset using the OpenBCI Cyton Board
%Recording Application = ConcentrateToday (https://concentrate.today)
%Data type = RAW data with noise
%Day No = 7
%Subject ID = 8
%Session ID = 7
%Record starting timestamp (UTC+6) = 2022-03-27T13:23:18.079109
%Record ending timestamp (UTC+6)   = 2022-03-27T13:23:33.934625
%Recorded durations = ~15 seconds
Sample Index, EXG Channel 0, EXG Channel 1, EXG Channel 2, EXG Channel 3, EXG Channel 4, EXG Channel 5, EXG Channel 6, EXG Channel 7, Accel Channel 0, Accel Channel 1, Accel Channel 2, Other, Other, Other, Other, Other, Other, Other, Analog Channel 0, Analog Channel 1, Analog Channel 2, Timestamp, Timestamp (Formatted)
219.000000,-24818.125345,-31651.679474,23716.765489,31696.740591,-5985.797165,66809.878267,44374.918267,42117.570891,-0.060000,0.988000,-0.010000,192.000000,0.000000,0.000000,0.000000,0.000000,0.000000,0.000000,0.000000,0.000000,0.000000,1648365798.084857,0.000000
220.000000,-24829.927067,-31663.861175,23711.021091,31689.588033,-5989.909886,66802.479840,44371.610209,42111.066533,-0.060000,0.988000,-0.010000,192.000000,0.000000,0.000000,0.000000,0.000000,0.000000,0.000000,0.000000,0.000000,0.000000,1648365798.084865,0.000000
221.000000,-24823.802689,-31649.153727,23714.642073,31696.070039,-5981.371520,66810.101784,44376.371131,42109.278394,-0.060000,0.988000,-0.010000,192.000000,0.000000,0.000000,0.000000,0.000000,0.000000,0.000000,0.000000,0.000000,0.000000,1648365798.092830,0.000000
222.000000,-24824.540296,-31648.550230,23713.837411,31695.555949,-5981.438575,66808.827735,44373.845383,42104.070437,-0.060000,0.988000,-0.010000,192.000000,0.000000,0.000000,0.000000,0.000000,0.000000,0.000000,0.000000,0.000000,0.000000,1648365798.092836,0.000000
223.000000,-24815.666654,-31644.526916,23720.520582,31703.177894,-5972.207305,66813.543953,44381.959067,42104.383362,-0.056000,0.984000,-0.004000,192.000000,254.000000,64.000000,30.000000,192.000000,255.000000,224.000000,0.000000,0.000000,0.000000,1648365798.099986,0.000000
224.000000,-24817.790069,-31648.282009,23721.638169,31708.654071,-5974.107203,66814.974465,44375.365302,42109.904243,-0.056000,0.984000,-0.004000,192.000000,0.000000,0.000000,0.000000,0.000000,0.000000,0.000000,0.000000,0.000000,0.000000,1648365798.099990,0.000000
225.000000,-24815.689005,-31645.622152,23717.860725,31710.732783,-5972.408470,66810.839392,44369.531497,42107.981993,-0.056000,0.984000,-0.004000,192.000000,0.000000,0.000000,0.000000,0.000000,0.000000,0.000000,0.000000,0.000000,0.000000,1648365798.107406,0.000000
226.000000,-24822.618046,-31651.902992,23713.300969,31705.614234,-5976.230619,66811.621703,44366.268142,42116.542711,-0.056000,0.984000,-0.004000,192.000000,0.000000,0.000000,0.000000,0.000000,0.000000,0.000000,0.000000,0.000000,0.000000,1648365798.107411,0.000000
227.000000,-24824.607351,-31654.540498,23711.043443,31700.518036,-5978.957531,66811.509944,44362.647159,42114.709868,-0.056000,0.984000,-0.004000,192.000000,0.000000,0.000000,0.000000,0.000000,0.000000,0.000000,0.000000,0.000000,0.000000,1648365798.115545,0.000000
228.000000,-24819.846430,-31650.695998,23713.166858,31703.736687,-5976.141212,66811.420537,44363.161250,42112.385286,-0.056000,0.984000,-0.004000,192.000000,0.000000,0.000000,0.000000,0.000000,0.000000,0.000000,0.000000,0.000000,0.000000,1648365798.115550,0.000000
229.000000,-24818.237104,-31651.165384,23713.926818,31709.391678,-5975.805935,66811.644055,44361.730738,42117.883816,-0.056000,0.984000,-0.004000,192.000000,0.000000,0.000000,0.000000,0.000000,0.000000,0.000000,0.000000,0.000000,0.000000,1648365798.122530,0.000000
230.000000,-24821.411052,-31651.679474,23710.484649,31704.451943,-5980.499802,66805.989064,44354.220552,42113.167597,-0.056000,0.984000,-0.004000,192.000000,0.000000,0.000000,0.000000,0.000000,0.000000,0.000000,0.000000,0.000000,0.000000,1648365798.130527,0.000000
231.000000,-24819.600561,-31646.605628,23715.200867,31708.274091,-5975.537714,66806.503154,44356.053395,42112.608804,-0.056000,0.984000,-0.004000,192.000000,0.000000,0.000000,0.000000,0.000000,0.000000,0.000000,0.000000,0.000000,0.000000,1648365798.130532,0.000000
232.000000,-24820.807555,-31656.328637,23710.261132,31697.589957,-5981.684444,66800.691700,44351.448935,42106.618536,-0.056000,0.984000,-0.004000,192.000000,0.000000,0.000000,0.000000,0.000000,0.000000,0.000000,0.000000,0.000000,0.000000,1648365798.138531,0.000000
233.000000,-24819.533505,-31655.255753,23710.015262,31697.478199,-5980.119822,66799.305892,44355.092270,42094.660353,-0.056000,0.984000,-0.012000,192.000000,254.000000,64.000000,30.000000,192.000000,255.000000,160.000000,0.000000,0.000000,0.000000,1648365798.138537,0.000000
234.000000,-24806.725956,-31641.084747,23719.648864,31708.139981,-5969.458040,66809.118308,44366.066976,42093.609821,-0.056000,0.984000,-0.012000,192.000000,0.000000,0.000000,0.000000,0.000000,0.000000,0.000000,0.000000,0.000000,0.000000,1648365798.146605,0.000000
235.000000,-24812.068023,-31648.930210,23722.174611,31705.949510,-5974.308368,66810.995854,44364.792927,42099.018943,-0.056000,0.984000,-0.012000,192.000000,0.000000,0.000000,0.000000,0.000000,0.000000,0.000000,0.000000,0.000000,0.000000,1648365798.146618,0.000000
236.000000,-24819.220581,-31653.445262,23716.676082,31700.830960,-5976.878819,66802.792764,44360.143764,42089.385341,-0.056000,0.984000,-0.012000,192.000000,0.000000,0.000000,0.000000,0.000000,0.000000,0.000000,0.000000,0.000000,0.000000,1648365798.154603,0.000000
237.000000,-24820.584037,-31650.986570,23714.552666,31699.132228,-5975.336549,66803.955055,44359.517915,42081.830452,-0.056000,0.984000,-0.012000,192.000000,0.000000,0.000000,0.000000,0.000000,0.000000,0.000000,0.000000,0.000000,0.000000,1648365798.154607,0.000000
238.000000,-24817.298331,-31649.936038,23716.296103,31699.467504,-5974.688348,66810.459412,44359.339101,42086.166690,-0.056000,0.984000,-0.012000,192.000000,0.000000,0.000000,0.000000,0.000000,0.000000,0.000000,0.000000,0.000000,0.000000,1648365798.160778,0.000000
239.000000,-24820.382872,-31651.098329,23713.703300,31696.248853,-5980.365691,66810.012378,44356.411023,42087.127815,-0.056000,0.984000,-0.012000,192.000000,0.000000,0.000000,0.000000,0.000000,0.000000,0.000000,0.000000,0.000000,0.000000,1648365798.160782,0.000000
240.000000,-24824.026206,-31655.859251,23712.473954,31693.767809,-5984.701930,66807.106651,44350.621921,42083.193908,-0.056000,0.984000,-0.012000,192.000000,0.000000,0.000000,0.000000,0.000000,0.000000,0.000000,0.000000,0.000000,0.000000,1648365798.167713,0.000000
241.000000,-24823.668578,-31655.568678,23711.110498,31694.058382,-5981.706796,66809.207715,44354.421717,42088.178347,-0.056000,0.984000,-0.012000,192.000000,0.000000,0.000000,0.000000,0.000000,0.000000,0.000000,0.000000,0.000000,0.000000,1648365798.167717,0.000000
242.000000,-24832.855145,-31662.564774,23708.003605,31691.398524,-5986.959456,66812.694587,44355.740470,42103.310478,-0.056000,0.984000,-0.012000,192.000000,0.000000,0.000000,0.000000,0.000000,0.000000,0.000000,0.000000,0.000000,0.000000,1648365798.175771,0.000000
243.000000,-24826.060215,-31653.847594,23707.243646,31692.225539,-5983.316121,66811.778165,44355.427546,42103.846920,-0.054000,0.992000,-0.014000,192.000000,254.000000,80.000000,31.000000,0.000000,255.000000,144.000000,0.000000,0.000000,0.000000,1648365798.175795,0.000000
244.000000,-24816.940703,-31637.217896,23717.950132,31708.050574,-5972.833153,66817.321398,44362.982436,42104.338658,-0.054000,0.992000,-0.014000,192.000000,0.000000,0.000000,0.000000,0.000000,0.000000,0.000000,0.000000,0.000000,0.000000,1648365798.182864,0.000000
245.000000,-24817.946532,-31637.843744,23715.893771,31709.011699,-5974.554238,66818.886020,44364.815279,42104.226900,-0.054000,0.992000,-0.014000,192.000000,0.000000,0.000000,0.000000,0.000000,0.000000,0.000000,0.000000,0.000000,0.000000,1648365798.189970,0.000000
246.000000,-24829.904715,-31649.779576,23705.164934,31696.673536,-5986.087738,66810.615875,44360.724909,42101.477635,-0.054000,0.992000,-0.014000,192.000000,0.000000,0.000000,0.000000,0.000000,0.000000,0.000000,0.000000,0.000000,0.000000,1648365798.189988,0.000000
247.000000,-24827.826003,-31650.003093,23701.119268,31689.811550,-5988.300561,66806.167877,44363.943561,42089.295934,-0.054000,0.992000,-0.014000,192.000000,0.000000,0.000000,0.000000,0.000000,0.000000,0.000000,0.000000,0.000000,0.000000,1648365798.197316,0.000000
248.000000,-24824.495593,-31648.818451,23708.271826,31691.063248,-5985.260723,66809.922971,44365.932866,42091.106426,-0.054000,0.992000,-0.014000,192.000000,0.000000,0.000000,0.000000,0.000000,0.000000,0.000000,0.000000,0.000000,0.000000,1648365798.197319,0.000000
249.000000,-24820.427575,-31644.258695,23711.088146,31696.874702,-5979.896305,66812.627532,44365.061148,42092.447530,-0.054000,0.992000,-0.014000,192.000000,0.000000,0.000000,0.000000,0.000000,0.000000,0.000000,0.000000,0.000000,0.000000,1648365798.205314,0.000000
250.000000,-24821.880439,-31646.091538,23708.093012,31702.775562,-5980.835078,66815.354444,44362.289532,42092.335772,-0.054000,0.992000,-0.014000,192.000000,0.000000,0.000000,0.000000,0.000000,0.000000,0.000000,0.000000,0.000000,0.000000,1648365798.205317,0.000000
251.000000,-24831.201116,-31650.494832,23708.964730,31701.143885,-5984.031377,66819.310703,44356.902761,42094.727408,-0.054000,0.992000,-0.014000,192.000000,0.000000,0.000000,0.000000,0.000000,0.000000,0.000000,0.000000,0.000000,0.000000,1648365798.213390,0.000000
252.000000,-24828.965942,-31648.304361,23710.015262,31696.405315,-5982.086776,66819.668331,44353.304130,42090.055894,-0.054000,0.992000,-0.014000,192.000000,0.000000,0.000000,0.000000,0.000000,0.000000,0.000000,0.000000,0.000000,0.000000,1648365798.213394,0.000000
253.000000,-24826.954285,-31652.037102,23712.608065,31696.293556,-5983.986674,66819.601276,44353.460592,42091.441702,-0.064000,0.990000,-0.008000,192.000000,254.000000,0.000000,30.000000,240.000000,255.000000,192.000000,0.000000,0.000000,0.000000,1648365798.221416,0.000000
254.000000,-24824.674407,-31650.830108,23707.891847,31694.058382,-5985.126613,66813.029863,44348.967892,42081.271658,-0.064000,0.990000,-0.008000,192.000000,0.000000,0.000000,0.000000,0.000000,0.000000,0.000000,0.000000,0.000000,0.000000,1648365798.221420,0.000000
255.000000,-24820.092299,-31643.185811,23707.109536,31700.093353,-5980.991540,66814.192154,44354.756994,42079.885850,-0.064000,0.990000,-0.008000,192.000000,0.000000,0.000000,0.000000,0.000000,0.000000,0.000000,0.000000,0.000000,0.000000,1648365798.229394,0.000000
0.000000,-24827.043692,-31648.773748,23703.823829,31695.511245,-5989.686369,66816.494383,44354.824049,42087.910126,-0.064000,0.990000,-0.008000,192.000000,0.000000,0.000000,0.000000,0.000000,0.000000,0.000000,0.000000,0.000000,0.000000,1648365798.229399,0.000000
1.000000,-24832.139889,-31659.726102,23701.655710,31686.771713,-5997.643590,66809.833564,44350.867790,42088.021885,-0.064000,0.990000,-0.008000,192.000000,0.000000,0.000000,0.000000,0.000000,0.000000,0.000000,0.000000,0.000000,0.000000,1648365798.236492,0.000000
2.000000,-24822.774508,-31648.282009,23704.963768,31689.878606,-5989.351092,66805.162049,44350.621921,42079.617629,-0.064000,0.990000,-0.008000,192.000000,0.000000,0.000000,0.000000,0.000000,0.000000,0.000000,0.000000,0.000000,0.000000,1648365798.236497,0.000000
3.000000,-24816.761889,-31642.425852,23707.511867,31696.874702,-5984.187840,66810.079433,44357.372148,42088.178347,-0.064000,0.990000,-0.008000,192.000000,0.000000,0.000000,0.000000,0.000000,0.000000,0.000000,0.000000,0.000000,0.000000,1648365798.242660,0.000000
4.000000,-24824.003854,-31647.924381,23703.197980,31691.331469,-5989.753424,66808.715976,44358.757956,42096.783769,-0.064000,0.990000,-0.008000,192.000000,0.000000,0.000000,0.000000,0.000000,0.000000,0.000000,0.000000,0.000000,0.000000,1648365798.242663,0.000000
5.000000,-24820.829907,-31645.465689,23708.115364,31687.710486,-5990.133404,66812.381662,44364.882334,42101.432932,-0.064000,0.990000,-0.008000,192.000000,0.000000,0.000000,0.000000,0.000000,0.000000,0.000000,0.000000,0.000000,0.000000,1648365798.251743,0.000000
6.000000,-24824.517944,-31648.997265,23707.981254,31687.978707,-5991.183936,66812.560476,44365.932866,42104.495121,-0.064000,0.990000,-0.008000,192.000000,0.000000,0.000000,0.000000,0.000000,0.000000,0.000000,0.000000,0.000000,0.000000,1648365798.258088,0.000000
7.000000,-24828.027168,-31651.455957,23705.075527,31688.269280,-5993.664979,66814.505078,44364.211782,42104.092789,-0.068000,0.992000,-0.014000,192.000000,253.000000,224.000000,31.000000,0.000000,255.000000,144.000000,0.000000,0.000000,0.000000,1648365798.258091,0.000000
8.000000,-24822.908619,-31647.186774,23704.717899,31690.325640,-5990.066348,66812.180497,44361.976607,42101.298821,-0.068000,0.992000,-0.014000,192.000000,0.000000,0.000000,0.000000,0.000000,0.000000,0.000000,0.000000,0.000000,0.000000,1648365798.264788,0.000000
9.000000,-24821.031072,-31647.432643,23708.294178,31693.454885,-5986.959456,66815.130927,44361.596627,42102.282298,-0.068000,0.992000,-0.014000,192.000000,0.000000,0.000000,0.000000,0.000000,0.000000,0.000000,0.000000,0.000000,0.000000,1648365798.264792,0.000000
10.000000,-24821.343997,-31642.649370,23701.409841,31691.733800,-5987.965284,66814.683892,44358.847363,42094.123911,-0.068000,0.992000,-0.014000,192.000000,0.000000,0.000000,0.000000,0.000000,0.000000,0.000000,0.000000,0.000000,0.000000,1648365798.272282,0.000000
11.000000,-24824.540296,-31641.352968,23702.572131,31695.354783,-5985.394834,66821.054139,44364.368244,42099.108350,-0.068000,0.992000,-0.014000,192.000000,0.000000,0.000000,0.000000,0.000000,0.000000,0.000000,0.000000,0.000000,0.000000,1648365798.272286,0.000000
12.000000,-24827.200154,-31645.309227,23699.264073,31692.002021,-5988.971113,66816.136755,44362.177773,42091.218184,-0.068000,0.992000,-0.014000,192.000000,0.000000,0.000000,0.000000,0.000000,0.000000,0.000000,0.000000,0.000000,0.000000,1648365798.280280,0.000000
13.000000,-24829.636494,-31651.098329,23700.761640,31689.588033,-5992.279171,66819.087186,44358.288569,42090.190004,-0.068000,0.992000,-0.014000,192.000000,0.000000,0.000000,0.000000,0.000000,0.000000,0.000000,0.000000,0.000000,0.000000,1648365798.280284,0.000000
14.000000,-24831.424633,-31654.406387,23696.738326,31686.324678,-5996.034264,66809.163011,44351.583046,42082.277487,-0.068000,0.992000,-0.014000,192.000000,0.000000,0.000000,0.000000,0.000000,0.000000,0.000000,0.000000,0.000000,0.000000,1648365798.288217,0.000000
15.000000,-24828.496555,-31650.517184,23697.163009,31689.409219,-5992.972075,66808.224238,44352.655930,42082.210431,-0.068000,0.992000,-0.014000,192.000000,0.000000,0.000000,0.000000,0.000000,0.000000,0.000000,0.000000,0.000000,0.000000,1648365798.288221,0.000000
16.000000,-24828.809479,-31651.455957,23700.135791,31690.482103,-5991.765081,66809.274770,44351.806563,42083.171556,-0.068000,0.992000,-0.014000,192.000000,0.000000,0.000000,0.000000,0.000000,0.000000,0.000000,0.000000,0.000000,0.000000,1648365798.296241,0.000000
17.000000,-24820.807555,-31648.639637,23704.002643,31690.057420,-5987.853526,66807.866610,44353.549999,42076.153109,-0.064000,0.988000,-0.014000,192.000000,254.000000,0.000000,30.000000,224.000000,255.000000,144.000000,0.000000,0.000000,0.000000,1648365798.296245,0.000000
18.000000,-24820.539334,-31647.253829,23699.353480,31686.324678,-5991.027473,66805.631436,44354.242903,42075.415501,-0.064000,0.988000,-0.014000,192.000000,0.000000,0.000000,0.000000,0.000000,0.000000,0.000000,0.000000,0.000000,0.000000,1648365798.304262,0.000000
19.000000,-24820.069947,-31642.604666,23695.933663,31686.458789,-5990.625142,66805.854953,44359.584970,42079.505870,-0.064000,0.988000,-0.014000,192.000000,0.000000,0.000000,0.000000,0.000000,0.000000,0.000000,0.000000,0.000000,0.000000,1648365798.304266,0.000000
20.000000,-24826.842526,-31653.557021,23693.273806,31679.440341,-5995.274305,66810.437061,44363.764747,42091.218184,-0.064000,0.988000,-0.014000,192.000000,0.000000,0.000000,0.000000,0.000000,0.000000,0.000000,0.000000,0.000000,0.000000,1648365798.311342,0.000000
21.000000,-24835.067968,-31659.636695,23692.670309,31671.080789,-6003.253878,66811.286427,44362.244828,42094.593298,-0.064000,0.988000,-0.014000,192.000000,0.000000,0.000000,0.000000,0.000000,0.000000,0.000000,0.000000,0.000000,0.000000,1648365798.319387,0.000000
22.000000,-24835.827927,-31653.087634,23693.452620,31673.517129,-6003.164471,66812.404014,44365.932866,42100.047123,-0.064000,0.988000,-0.014000,192.000000,0.000000,0.000000,0.000000,0.000000,0.000000,0.000000,0.000000,0.000000,0.000000,1648365798.319398,0.000000
23.000000,-24836.744349,-31653.802890,23687.015317,31675.886414,-6005.310238,66810.727633,44367.609247,42103.891623,-0.064000,0.988000,-0.014000,192.000000,0.000000,0.000000,0.000000,0.000000,0.000000,0.000000,0.000000,0.000000,0.000000,1648365798.325641,0.000000
24.000000,-24832.743386,-31651.545364,23688.065849,31679.932079,-6003.879726,66814.482726,44372.325465,42111.088885,-0.064000,0.988000,-0.014000,192.000000,0.000000,0.000000,0.000000,0.000000,0.000000,0.000000,0.000000,0.000000,0.000000,1648365798.325645,0.000000
25.000000,-24839.873593,-31658.697922,23682.254396,31673.852405,-6009.892346,66812.135793,44369.330331,42112.653507,-0.064000,0.988000,-0.014000,192.000000,0.000000,0.000000,0.000000,0.000000,0.000000,0.000000,0.000000,0.000000,0.000000,1648365798.335659,0.000000
26.000000,-24837.414901,-31658.049721,23683.640204,31673.561832,-6006.785453,66809.341825,44370.134994,42102.505815,-0.064000,0.988000,-0.014000,192.000000,0.000000,0.000000,0.000000,0.000000,0.000000,0.000000,0.000000,0.000000,0.000000,1648365798.335663,0.000000
27.000000,-24838.085453,-31657.490928,23687.998794,31680.267355,-6006.830157,66809.542991,44365.955218,42102.058780,-0.064000,0.988000,-0.014000,192.000000,0.000000,0.000000,0.000000,0.000000,0.000000,0.000000,0.000000,0.000000,0.000000,1648365798.341592,0.000000
28.000000,-24837.526660,-31657.334466,23688.088201,31679.015658,-6008.238317,66805.542029,44360.926075,42097.141397,-0.066000,0.988000,-0.014000,192.000000,253.000000,240.000000,30.000000,224.000000,255.000000,144.000000,0.000000,0.000000,0.000000,1648365798.341596,0.000000
29.000000,-24839.784186,-31661.938925,23687.216483,31676.154634,-6012.529851,66801.988101,44358.914418,42094.123911,-0.066000,0.988000,-0.014000,192.000000,0.000000,0.000000,0.000000,0.000000,0.000000,0.000000,0.000000,0.000000,0.000000,1648365798.348016,0.000000
30.000000,-24839.739482,-31657.647390,23684.534274,31673.114797,-6012.485148,66798.255360,44359.786136,42085.920821,-0.066000,0.988000,-0.014000,192.000000,0.000000,0.000000,0.000000,0.000000,0.000000,0.000000,0.000000,0.000000,0.000000,1648365798.348019,0.000000
31.000000,-24833.793918,-31655.702788,23685.227178,31677.674553,-6005.332590,66797.920084,44366.558715,42079.975257,-0.066000,0.988000,-0.014000,192.000000,0.000000,0.000000,0.000000,0.000000,0.000000,0.000000,0.000000,0.000000,0.000000,1648365798.355204,0.000000
32.000000,-24829.122404,-31652.841765,23688.714050,31684.670649,-6003.745616,66797.562456,44367.810412,42078.231821,-0.066000,0.988000,-0.014000,192.000000,0.000000,0.000000,0.000000,0.000000,0.000000,0.000000,0.000000,0.000000,0.000000,1648365798.355234,0.000000
33.000000,-24832.296351,-31649.623114,23687.574111,31681.653164,-6007.590116,66791.952168,44361.618979,42072.375664,-0.066000,0.988000,-0.014000,192.000000,0.000000,0.000000,0.000000,0.000000,0.000000,0.000000,0.000000,0.000000,0.000000,1648365798.363076,0.000000
34.000000,-24831.134061,-31651.768881,23689.831637,31681.541405,-6006.785453,66790.789877,44359.853191,42069.626399,-0.066000,0.988000,-0.014000,192.000000,0.000000,0.000000,0.000000,0.000000,0.000000,0.000000,0.000000,0.000000,0.000000,1648365798.363080,0.000000
35.000000,-24832.765738,-31653.177041,23689.429306,31681.720219,-6006.427825,66791.415726,44359.897895,42074.543783,-0.066000,0.988000,-0.014000,192.000000,0.000000,0.000000,0.000000,0.000000,0.000000,0.000000,0.000000,0.000000,0.000000,1648365798.370144,0.000000
36.000000,-24833.011607,-31654.696960,23690.971576,31681.720219,-6005.936087,66790.588712,44359.897895,42077.985952,-0.066000,0.988000,-0.014000,192.000000,0.000000,0.000000,0.000000,0.000000,0.000000,0.000000,0.000000,0.000000,0.000000,1648365798.378258,0.000000
37.000000,-24822.685101,-31646.695035,23691.753887,31688.358687,-5997.062444,66793.583845,44362.513049,42073.269734,-0.066000,0.988000,-0.014000,192.000000,0.000000,0.000000,0.000000,0.000000,0.000000,0.000000,0.000000,0.000000,0.000000,1648365798.378261,0.000000
38.000000,-24818.728843,-31641.062396,23696.559512,31695.064210,-5991.698026,66801.384604,44368.346854,42076.510737,-0.062000,0.986000,-0.020000,192.000000,254.000000,16.000000,30.000000,208.000000,255.000000,96.000000,0.000000,0.000000,0.000000,1648365798.386211,0.000000
39.000000,-24820.740500,-31643.521088,23692.625605,31692.359649,-5997.576534,66803.552723,44363.429470,42084.579716,-0.062000,0.986000,-0.020000,192.000000,0.000000,0.000000,0.000000,0.000000,0.000000,0.000000,0.000000,0.000000,0.000000,1648365798.386215,0.000000
40.000000,-24826.909581,-31648.594934,23687.462352,31688.962184,-6001.689255,66797.785973,44356.880409,42085.496138,-0.062000,0.986000,-0.020000,192.000000,0.000000,0.000000,0.000000,0.000000,0.000000,0.000000,0.000000,0.000000,0.000000,1648365798.394141,0.000000
41.000000,-24820.762851,-31641.062396,23691.373907,31688.828074,-5993.217944,66802.725709,44364.636465,42081.003437,-0.062000,0.986000,-0.020000,192.000000,0.000000,0.000000,0.000000,0.000000,0.000000,0.000000,0.000000,0.000000,0.000000,1648365798.394145,0.000000
42.000000,-24817.655959,-31641.442375,23695.061945,31693.499588,-5991.765081,66805.474973,44365.396424,42080.489347,-0.062000,0.986000,-0.020000,192.000000,0.000000,0.000000,0.000000,0.000000,0.000000,0.000000,0.000000,0.000000,0.000000,1648365798.401351,0.000000
43.000000,-24821.567514,-31648.863155,23689.898692,31697.433495,-5994.961380,66802.792764,44358.802659,42079.639981,-0.062000,0.986000,-0.020000,192.000000,0.000000,0.000000,0.000000,0.000000,0.000000,0.000000,0.000000,0.000000,0.000000,1648365798.401361,0.000000
44.000000,-24824.875572,-31647.365588,23691.955053,31697.612309,-5991.854488,66800.825811,44358.333273,42074.655542,-0.062000,0.986000,-0.020000,192.000000,0.000000,0.000000,0.000000,0.000000,0.000000,0.000000,0.000000,0.000000,0.000000,1648365798.407562,0.000000
45.000000,-24821.433404,-31639.386015,23696.738326,31694.058382,-5989.418148,66800.959921,44362.200125,42074.700245,-0.062000,0.986000,-0.020000,192.000000,0.000000,0.000000,0.000000,0.000000,0.000000,0.000000,0.000000,0.000000,0.000000,1648365798.407590,0.000000
46.000000,-24824.652055,-31644.348102,23695.844256,31691.420876,-5994.134366,66798.411822,44356.545133,42073.761472,-0.062000,0.986000,-0.020000,192.000000,0.000000,0.000000,0.000000,0.000000,0.000000,0.000000,0.000000,0.000000,0.000000,1648365798.415418,0.000000
47.000000,-24832.989256,-31657.580335,23689.988099,31685.676478,-6006.047846,66793.002700,44350.040776,42069.984027,-0.062000,0.986000,-0.020000,192.000000,0.000000,0.000000,0.000000,0.000000,0.000000,0.000000,0.000000,0.000000,0.000000,1648365798.415422,0.000000
48.000000,-24826.797822,-31646.583277,23691.128038,31689.588033,-6003.522098,66792.399203,44355.472249,42067.346521,-0.070000,0.988000,-0.010000,192.000000,253.000000,208.000000,30.000000,224.000000,255.000000,176.000000,0.000000,0.000000,0.000000,1648365798.423516,0.000000
49.000000,-24823.266247,-31645.555096,23694.860780,31690.929138,-5998.224735,66796.288406,44363.161250,42069.469937,-0.070000,0.988000,-0.010000,192.000000,0.000000,0.000000,0.000000,0.000000,0.000000,0.000000,0.000000,0.000000,0.000000,1648365798.423519,0.000000
50.000000,-24824.674407,-31649.779576,23690.189265,31690.727972,-5996.883630,66801.071680,44372.370168,42070.811042,-0.070000,0.988000,-0.010000,192.000000,0.000000,0.000000,0.000000,0.000000,0.000000,0.000000,0.000000,0.000000,0.000000,1648365798.429601,0.000000
51.000000,-24830.821136,-31660.128434,23684.422515,31680.669687,-6005.198479,66797.294235,44369.419738,42071.593353,-0.070000,0.988000,-0.010000,192.000000,0.000000,0.000000,0.000000,0.000000,0.000000,0.000000,0.000000,0.000000,0.000000,1648365798.437089,0.000000
52.000000,-24829.614142,-31658.049721,23690.569245,31683.687172,-5999.275267,66802.390433,44368.168040,42075.057873,-0.070000,0.988000,-0.010000,192.000000,0.000000,0.000000,0.000000,0.000000,0.000000,0.000000,0.000000,0.000000,0.000000,1648365798.437093,0.000000
53.000000,-24828.407148,-31653.288800,23690.949224,31687.531672,-6000.258744,66803.284502,44367.072805,42080.690513,-0.070000,0.988000,-0.010000,192.000000,0.000000,0.000000,0.000000,0.000000,0.000000,0.000000,0.000000,0.000000,0.000000,1648365798.445016,0.000000
54.000000,-24831.804613,-31659.971972,23685.830675,31677.473387,-6007.835985,66797.584808,44365.888162,42081.137548,-0.070000,0.988000,-0.010000,192.000000,0.000000,0.000000,0.000000,0.000000,0.000000,0.000000,0.000000,0.000000,0.000000,1648365798.445019,0.000000
55.000000,-24833.726863,-31663.861175,23683.439038,31680.334411,-6008.640648,66795.349633,44362.334235,42084.892641,-0.070000,0.988000,-0.010000,192.000000,0.000000,0.000000,0.000000,0.000000,0.000000,0.000000,0.000000,0.000000,0.000000,1648365798.453115,0.000000
56.000000,-24835.112671,-31661.178966,23685.048364,31683.396600,-6007.813633,66791.460430,44360.121412,42084.266792,-0.070000,0.988000,-0.010000,192.000000,0.000000,0.000000,0.000000,0.000000,0.000000,0.000000,0.000000,0.000000,0.000000,1648365798.453119,0.000000
57.000000,-24828.921238,-31656.932134,23688.781105,31682.726047,-6005.936087,66783.302043,44354.935808,42080.377588,-0.070000,0.988000,-0.010000,192.000000,0.000000,0.000000,0.000000,0.000000,0.000000,0.000000,0.000000,0.000000,0.000000,1648365798.461066,0.000000
58.000000,-24830.999950,-31655.591030,23689.518713,31685.497664,-6007.411302,66780.463371,44353.885276,42080.578754,-0.068000,0.984000,-0.012000,192.000000,253.000000,224.000000,30.000000,192.000000,255.000000,160.000000,0.000000,0.000000,0.000000,1648365798.461070,0.000000
59.000000,-24830.798785,-31656.440396,23689.362250,31687.017582,-6009.132386,66784.799610,44354.444069,42082.813928,-0.068000,0.984000,-0.012000,192.000000,0.000000,0.000000,0.000000,0.000000,0.000000,0.000000,0.000000,0.000000,0.000000,1648365798.469092,0.000000
60.000000,-24833.480994,-31654.853422,23687.328242,31684.693001,-6010.585250,66784.821962,44350.018424,42082.053969,-0.068000,0.984000,-0.012000,192.000000,0.000000,0.000000,0.000000,0.000000,0.000000,0.000000,0.000000,0.000000,0.000000,1648365798.469096,0.000000
61.000000,-24835.425596,-31654.920477,23686.724745,31685.005925,-6010.182918,66781.446848,44344.832819,42079.595277,-0.068000,0.984000,-0.012000,192.000000,0.000000,0.000000,0.000000,0.000000,0.000000,0.000000,0.000000,0.000000,0.000000,1648365798.477205,0.000000
62.000000,-24831.715206,-31651.344198,23685.361288,31688.761018,-6007.612468,66782.184456,44349.817258,42081.830452,-0.068000,0.984000,-0.012000,192.000000,0.000000,0.000000,0.000000,0.000000,0.000000,0.000000,0.000000,0.000000,0.000000,1648365798.477210,0.000000
63.000000,-24832.765738,-31656.753320,23681.427381,31687.039934,-6010.920526,66785.961900,44352.812392,42089.251231,-0.068000,0.984000,-0.012000,192.000000,0.000000,0.000000,0.000000,0.000000,0.000000,0.000000,0.000000,0.000000,0.000000,1648365798.484142,0.000000
64.000000,-24824.383834,-31649.556059,23683.059059,31686.615251,-6006.405474,66785.984252,44355.718119,42084.937344,-0.068000,0.984000,-0.012000,192.000000,0.000000,0.000000,0.000000,0.000000,0.000000,0.000000,0.000000,0.000000,0.000000,1648365798.484146,0.000000
65.000000,-24824.294427,-31643.297570,23688.065849,31691.599690,-6002.002180,66792.868590,44361.216648,42089.184176,-0.068000,0.984000,-0.012000,192.000000,0.000000,0.000000,0.000000,0.000000,0.000000,0.000000,0.000000,0.000000,0.000000,1648365798.490414,0.000000
66.000000,-24825.836697,-31647.410291,23688.781105,31688.492797,-6001.979828,66793.628549,44359.115584,42087.977181,-0.068000,0.984000,-0.012000,192.000000,0.000000,0.000000,0.000000,0.000000,0.000000,0.000000,0.000000,0.000000,0.000000,1648365798.490417,0.000000
67.000000,-24824.562648,-31646.963256,23687.998794,31688.872777,-6000.884593,66792.555665,44355.002863,42084.624420,-0.068000,0.984000,-0.012000,192.000000,0.000000,0.000000,0.000000,0.000000,0.000000,0.000000,0.000000,0.000000,0.000000,1648365798.497301,0.000000
68.000000,-24823.936799,-31643.901067,23685.517750,31688.649260,-6000.705779,66788.644110,44352.924151,42081.584583,-0.068000,0.984000,-0.012000,192.000000,253.000000,224.000000,30.000000,192.000000,255.000000,160.000000,0.000000,0.000000,0.000000,1648365798.505300,0.000000
69.000000,-24828.921238,-31647.879678,23683.148466,31689.431571,-6001.756311,66793.337976,44356.612188,42087.641905,-0.068000,0.984000,-0.012000,192.000000,0.000000,0.000000,0.000000,0.000000,0.000000,0.000000,0.000000,0.000000,0.000000,1648365798.505304,0.000000
70.000000,-24834.553878,-31661.380131,23685.651861,31687.352858,-6008.908869,66791.326319,44349.683148,42094.615650,-0.068000,0.984000,-0.012000,192.000000,0.000000,0.000000,0.000000,0.000000,0.000000,0.000000,0.000000,0.000000,0.000000,1648365798.511919,0.000000
71.000000,-24836.342017,-31664.017637,23679.013393,31683.329544,-6011.725189,66782.653842,44345.033985,42079.729388,-0.068000,0.984000,-0.012000,192.000000,0.000000,0.000000,0.000000,0.000000,0.000000,0.000000,0.000000,0.000000,0.000000,1648365798.511923,0.000000
72.000000,-24830.865840,-31657.490928,23684.824846,31684.067152,-6007.031322,66785.827790,44351.471287,42074.990818,-0.068000,0.984000,-0.012000,192.000000,0.000000,0.000000,0.000000,0.000000,0.000000,0.000000,0.000000,0.000000,0.000000,1648365798.519955,0.000000
73.000000,-24831.201116,-31657.312114,23687.171780,31680.334411,-6009.132386,66786.654805,44350.286645,42080.288181,-0.068000,0.984000,-0.012000,192.000000,0.000000,0.000000,0.000000,0.000000,0.000000,0.000000,0.000000,0.000000,0.000000,1648365798.519959,0.000000
74.000000,-24837.347846,-31658.049721,23685.316585,31678.546271,-6010.987581,66779.882226,44345.279854,42080.154071,-0.068000,0.984000,-0.012000,192.000000,0.000000,0.000000,0.000000,0.000000,0.000000,0.000000,0.000000,0.000000,0.000000,1648365798.527899,0.000000
75.000000,-24841.505270,-31661.000152,23682.701431,31671.706637,-6011.814596,66776.462409,44346.799773,42079.662332,-0.068000,0.984000,-0.012000,192.000000,0.000000,0.000000,0.000000,0.000000,0.000000,0.000000,0.000000,0.000000,0.000000,1648365798.527903,0.000000
76.000000,-24839.627724,-31657.714445,23679.169855,31668.085655,-6010.942878,66775.478932,44349.191409,42078.924725,-0.068000,0.984000,-0.012000,192.000000,0.000000,0.000000,0.000000,0.000000,0.000000,0.000000,0.000000,0.000000,0.000000,1648365798.535924,0.000000
77.000000,-24832.609276,-31654.853422,23682.366154,31673.606536,-6006.651343,66776.618871,44346.576255,42077.382455,-0.068000,0.984000,-0.012000,192.000000,0.000000,0.000000,0.000000,0.000000,0.000000,0.000000,0.000000,0.000000,0.000000,1648365798.535928,0.000000
78.000000,-24825.568476,-31649.868983,23685.584806,31678.367457,-6003.522098,66780.664537,44347.827953,42077.002475,-0.058000,0.984000,-0.016000,192.000000,254.000000,48.000000,30.000000,192.000000,255.000000,128.000000,0.000000,0.000000,0.000000,1648365798.543925,0.000000
79.000000,-24833.056311,-31658.563812,23683.886073,31681.630812,-6007.903040,66780.061040,44342.821162,42076.510737,-0.058000,0.984000,-0.016000,192.000000,0.000000,0.000000,0.000000,0.000000,0.000000,0.000000,0.000000,0.000000,0.000000,1648365798.543930,0.000000
80.000000,-24838.241915,-31665.314038,23676.957032,31677.786312,-6011.859299,66774.204883,44336.607377,42068.844088,-0.058000,0.984000,-0.016000,192.000000,0.000000,0.000000,0.000000,0.000000,0.000000,0.000000,0.000000,0.000000,0.000000,1648365798.552019,0.000000
81.000000,-24829.904715,-31655.501623,23675.660631,31677.182815,-6009.042979,66772.729668,44338.551979,42064.016111,-0.058000,0.984000,-0.016000,192.000000,0.000000,0.000000,0.000000,0.000000,0.000000,0.000000,0.000000,0.000000,0.000000,1648365798.552024,0.000000
82.000000,-24828.317741,-31649.868983,23679.527483,31682.234309,-6007.456006,66778.988156,44342.083555,42072.532126,-0.058000,0.984000,-0.016000,192.000000,0.000000,0.000000,0.000000,0.000000,0.000000,0.000000,0.000000,0.000000,0.000000,1648365798.558915,0.000000
83.000000,-24832.229296,-31648.058492,23682.142637,31682.077847,-6005.042017,66775.858912,44341.636520,42070.431062,-0.058000,0.984000,-0.016000,192.000000,0.000000,0.000000,0.000000,0.000000,0.000000,0.000000,0.000000,0.000000,0.000000,1648365798.566399,0.000000
84.000000,-24828.451851,-31645.264524,23681.785009,31684.670649,-6001.309276,66776.574168,44343.491714,42065.759547,-0.058000,0.984000,-0.016000,192.000000,0.000000,0.000000,0.000000,0.000000,0.000000,0.000000,0.000000,0.000000,0.000000,1648365798.566407,0.000000
85.000000,-24831.938724,-31651.277143,23683.237873,31685.899995,-6005.958439,66777.021203,44340.854209,42072.733292,-0.058000,0.984000,-0.016000,192.000000,0.000000,0.000000,0.000000,0.000000,0.000000,0.000000,0.000000,0.000000,0.000000,1648365798.572822,0.000000
86.000000,-24835.000913,-31653.311152,23677.962861,31680.781446,-6010.540546,66770.427438,44338.574331,42070.587524,-0.058000,0.984000,-0.016000,192.000000,0.000000,0.000000,0.000000,0.000000,0.000000,0.000000,0.000000,0.000000,0.000000,1648365798.572857,0.000000
87.000000,-24837.526660,-31658.966143,23677.337012,31679.708562,-6010.272325,66768.818112,44339.468400,42067.525335,-0.058000,0.984000,-0.016000,192.000000,0.000000,0.000000,0.000000,0.000000,0.000000,0.000000,0.000000,0.000000,0.000000,1648365798.580629,0.000000
88.000000,-24838.487785,-31654.875774,23675.303003,31679.775617,-6010.339381,66769.443961,44342.262368,42065.938361,-0.064000,0.986000,-0.012000,192.000000,254.000000,0.000000,30.000000,208.000000,255.000000,160.000000,0.000000,0.000000,0.000000,1648365798.580646,0.000000
89.000000,-24833.548049,-31648.416120,23680.868588,31684.558890,-6006.360770,66775.277767,44343.938749,42070.878097,-0.064000,0.986000,-0.012000,192.000000,0.000000,0.000000,0.000000,0.000000,0.000000,0.000000,0.000000,0.000000,0.000000,1648365798.596610,0.000000
90.000000,-24832.028131,-31650.718349,23681.136809,31682.502530,-6006.316067,66775.411877,44345.995110,42073.537955,-0.064000,0.986000,-0.012000,192.000000,0.000000,0.000000,0.000000,0.000000,0.000000,0.000000,0.000000,0.000000,0.000000,1648365798.604291,0.000000
91.000000,-24832.743386,-31656.909783,23674.498340,31679.954431,-6008.037151,66770.203921,44342.932921,42068.017074,-0.064000,0.986000,-0.012000,192.000000,0.000000,0.000000,0.000000,0.000000,0.000000,0.000000,0.000000,0.000000,0.000000,1648365798.610781,0.000000
92.000000,-24828.384796,-31648.527878,23686.277710,31688.157521,-6000.303447,66779.837522,44345.637482,42073.202678,-0.064000,0.986000,-0.012000,192.000000,0.000000,0.000000,0.000000,0.000000,0.000000,0.000000,0.000000,0.000000,0.000000,1648365798.610799,0.000000
93.000000,-24832.184593,-31652.327675,23693.094992,31689.833902,-6003.008008,66780.083392,44341.167133,42079.170594,-0.064000,0.986000,-0.012000,192.000000,0.000000,0.000000,0.000000,0.000000,0.000000,0.000000,0.000000,0.000000,0.000000,1648365798.617120,0.000000
94.000000,-24831.558744,-31654.585201,23692.603253,31684.916518,-6004.639686,66774.070772,44342.128258,42076.376626,-0.064000,0.986000,-0.012000,192.000000,0.000000,0.000000,0.000000,0.000000,0.000000,0.000000,0.000000,0.000000,0.000000,1648365798.617137,0.000000
95.000000,-24839.918296,-31664.732893,23683.506093,31671.393713,-6016.642572,66765.375944,44334.260444,42066.161879,-0.064000,0.986000,-0.012000,192.000000,0.000000,0.000000,0.000000,0.000000,0.000000,0.000000,0.000000,0.000000,0.000000,1648365798.623468,0.000000
96.000000,-24845.238012,-31668.376227,23678.611061,31667.795082,-6023.705724,66759.877415,44332.360546,42056.841201,-0.064000,0.986000,-0.012000,192.000000,0.000000,0.000000,0.000000,0.000000,0.000000,0.000000,0.000000,0.000000,0.000000,1648365798.623485,0.000000
97.000000,-24840.365331,-31666.901012,23681.069753,31671.505472,-6019.749465,66758.022220,44336.786191,42053.197867,-0.064000,0.986000,-0.012000,192.000000,0.000000,0.000000,0.000000,0.000000,0.000000,0.000000,0.000000,0.000000,0.000000,1648365798.629571,0.000000
98.000000,-24834.218601,-31661.871870,23684.243701,31674.478254,-6015.793206,66759.363325,44334.662775,42053.913123,-0.058000,0.990000,-0.012000,192.000000,254.000000,48.000000,30.000000,240.000000,255.000000,160.000000,0.000000,0.000000,0.000000,1648365798.629589,0.000000
99.000000,-24833.056311,-31656.753320,23684.288404,31675.171158,-6013.423921,66762.045534,44331.131200,42052.996701,-0.058000,0.990000,-0.012000,192.000000,0.000000,0.000000,0.000000,0.000000,0.000000,0.000000,0.000000,0.000000,0.000000,1648365798.635517,0.000000
100.000000,-24835.582058,-31657.289762,23686.344765,31681.206129,-6009.892346,66766.717048,44333.120505,42052.661425,-0.058000,0.990000,-0.012000,192.000000,0.000000,0.000000,0.000000,0.000000,0.000000,0.000000,0.000000,0.000000,0.000000,1648365798.635525,0.000000
101.000000,-24839.560668,-31661.335428,23685.540102,31681.653164,-6011.747540,66766.158255,44330.728868,42052.907294,-0.058000,0.990000,-0.012000,192.000000,0.000000,0.000000,0.000000,0.000000,0.000000,0.000000,0.000000,0.000000,0.000000,1648365798.641556,0.000000
102.000000,-24840.030055,-31660.597820,23682.410858,31681.787274,-6010.473491,66765.755923,44329.253653,42055.142469,-0.058000,0.990000,-0.012000,192.000000,0.000000,0.000000,0.000000,0.000000,0.000000,0.000000,0.000000,0.000000,0.000000,1648365798.641561,0.000000
103.000000,-24842.041712,-31662.229498,23684.288404,31686.592899,-6009.333552,66769.287499,44325.073877,42057.869382,-0.058000,0.990000,-0.012000,192.000000,0.000000,0.000000,0.000000,0.000000,0.000000,0.000000,0.000000,0.000000,0.000000,1648365798.647796,0.000000
104.000000,-24833.123366,-31660.329599,23688.311719,31685.564719,-6003.767968,66770.047458,44333.098153,42055.164821,-0.058000,0.990000,-0.012000,192.000000,0.000000,0.000000,0.000000,0.000000,0.000000,0.000000,0.000000,0.000000,0.000000,1648365798.647801,0.000000
105.000000,-24837.191384,-31664.867004,23684.333108,31682.770751,-6011.121692,66770.002755,44336.070935,42062.205620,-0.058000,0.990000,-0.012000,192.000000,0.000000,0.000000,0.000000,0.000000,0.000000,0.000000,0.000000,0.000000,0.000000,1648365798.654139,0.000000
106.000000,-24833.726863,-31657.043893,23682.656727,31683.061324,-6011.546375,66767.477008,44339.066069,42060.439832,-0.058000,0.990000,-0.012000,192.000000,0.000000,0.000000,0.000000,0.000000,0.000000,0.000000,0.000000,0.000000,0.000000,1648365798.660645,0.000000
107.000000,-24836.342017,-31662.922402,23677.962861,31679.708562,-6016.799035,66765.465351,44337.993185,42057.243533,-0.058000,0.990000,-0.012000,192.000000,0.000000,0.000000,0.000000,0.000000,0.000000,0.000000,0.000000,0.000000,0.000000,1648365798.660680,0.000000
108.000000,-24833.950381,-31659.659047,23682.187341,31679.105065,-6013.625087,66768.728705,44347.090345,42055.768318,-0.058000,0.986000,-0.008000,192.000000,254.000000,48.000000,30.000000,208.000000,255.000000,192.000000,0.000000,0.000000,0.000000,1648365798.666877,0.000000
109.000000,-24837.504308,-31663.682361,23679.795704,31674.277088,-6018.296602,66762.939604,44344.430488,42051.521486,-0.058000,0.986000,-0.008000,192.000000,0.000000,0.000000,0.000000,0.000000,0.000000,0.000000,0.000000,0.000000,0.000000,1648365798.666893,0.000000
110.000000,-24843.226355,-31670.678457,23673.648974,31667.616268,-6025.538567,66751.070827,44336.674432,42047.632283,-0.058000,0.986000,-0.008000,192.000000,0.000000,0.000000,0.000000,0.000000,0.000000,0.000000,0.000000,0.000000,0.000000,1648365798.673096,0.000000
111.000000,-24841.482918,-31669.851443,23671.212634,31667.862137,-6023.526910,66747.896880,44336.652081,42044.324225,-0.058000,0.986000,-0.008000,192.000000,0.000000,0.000000,0.000000,0.000000,0.000000,0.000000,0.000000,0.000000,0.000000,1648365798.673113,0.000000
112.000000,-24849.954230,-31678.032181,23668.686887,31664.531727,-6028.354887,66747.472197,44328.605453,42042.826658,-0.058000,0.986000,-0.008000,192.000000,0.000000,0.000000,0.000000,0.000000,0.000000,0.000000,0.000000,0.000000,0.000000,1648365798.680383,0.000000
113.000000,-24846.221488,-31677.428684,23667.569300,31670.499643,-6026.454988,66745.482891,44323.375144,42036.299948,-0.058000,0.986000,-0.008000,192.000000,0.000000,0.000000,0.000000,0.000000,0.000000,0.000000,0.000000,0.000000,0.000000,1648365798.680400,0.000000
114.000000,-24835.492651,-31665.381094,23672.933718,31679.194472,-6015.972020,66753.328354,44326.593796,42030.756716,-0.058000,0.986000,-0.008000,192.000000,0.000000,0.000000,0.000000,0.000000,0.000000,0.000000,0.000000,0.000000,0.000000,1648365798.687462,0.000000
115.000000,-24832.944552,-31664.755245,23676.040611,31684.491835,-6012.216927,66764.750095,44331.086496,42041.418498,-0.058000,0.986000,-0.008000,192.000000,0.000000,0.000000,0.000000,0.000000,0.000000,0.000000,0.000000,0.000000,0.000000,1648365798.687479,0.000000
116.000000,-24829.837660,-31659.301419,23680.198035,31690.616213,-6008.238317,66771.857950,44332.114676,42047.520524,-0.058000,0.986000,-0.008000,192.000000,0.000000,0.000000,0.000000,0.000000,0.000000,0.000000,0.000000,0.000000,0.000000,1648365798.694968,0.000000
117.000000,-24830.642322,-31658.876736,23682.634375,31690.616213,-6014.340343,66770.092162,44326.996127,42047.699338,-0.058000,0.986000,-0.008000,192.000000,0.000000,0.000000,0.000000,0.000000,0.000000,0.000000,0.000000,0.000000,0.000000,1648365798.694985,0.000000
118.000000,-24827.669540,-31656.105120,23682.746134,31686.235271,-6015.346171,66763.073714,44326.772610,42041.820829,-0.056000,0.988000,-0.008000,192.000000,254.000000,64.000000,30.000000,224.000000,255.000000,192.000000,0.000000,0.000000,0.000000,1648365798.702866,0.000000
119.000000,-24833.816270,-31667.370399,23682.992003,31680.848501,-6015.055599,66762.380810,44332.181732,42035.115306,-0.056000,0.988000,-0.008000,192.000000,0.000000,0.000000,0.000000,0.000000,0.000000,0.000000,0.000000,0.000000,0.000000,1648365798.702883,0.000000
120.000000,-24836.721997,-31669.046780,23685.338936,31681.496701,-6014.005067,66762.157293,44339.289586,42035.495285,-0.056000,0.988000,-0.008000,192.000000,0.000000,0.000000,0.000000,0.000000,0.000000,0.000000,0.000000,0.000000,0.000000,1648365798.710063,0.000000
121.000000,-24833.883325,-31666.096349,23683.997832,31678.747437,-6012.865128,66763.453694,44344.631653,42034.936492,-0.056000,0.988000,-0.008000,192.000000,0.000000,0.000000,0.000000,0.000000,0.000000,0.000000,0.000000,0.000000,0.000000,1648365798.717990,0.000000
122.000000,-24830.083529,-31669.583222,23690.144562,31679.552100,-6008.864165,66767.298194,44350.353700,42036.277597,-0.056000,0.988000,-0.008000,192.000000,0.000000,0.000000,0.000000,0.000000,0.000000,0.000000,0.000000,0.000000,0.000000,1648365798.718008,0.000000
123.000000,-24827.624837,-31666.588088,23690.792762,31685.743533,-6007.657171,66768.080505,44353.393537,42036.389355,-0.056000,0.988000,-0.008000,192.000000,0.000000,0.000000,0.000000,0.000000,0.000000,0.000000,0.000000,0.000000,0.000000,1648365798.725947,0.000000
124.000000,-24834.263305,-31670.454940,23686.992966,31682.480178,-6009.199442,66767.521711,44349.616092,42039.652710,-0.056000,0.988000,-0.008000,192.000000,0.000000,0.000000,0.000000,0.000000,0.000000,0.000000,0.000000,0.000000,0.000000,1648365798.725963,0.000000
125.000000,-24832.542221,-31666.498681,23687.775277,31677.004001,-6007.835985,66765.644165,44346.598607,42035.651748,-0.056000,0.988000,-0.008000,192.000000,0.000000,0.000000,0.000000,0.000000,0.000000,0.000000,0.000000,0.000000,0.000000,1648365798.734031,0.000000
126.000000,-24832.743386,-31669.315001,23682.969652,31672.041914,-6014.049770,66760.436208,44340.094249,42028.678003,-0.056000,0.988000,-0.008000,192.000000,0.000000,0.000000,0.000000,0.000000,0.000000,0.000000,0.000000,0.000000,0.000000,1648365798.734049,0.000000
127.000000,-24834.106843,-31673.003039,23678.029916,31674.902937,-6017.022552,66760.704429,44338.887255,42027.739230,-0.056000,0.988000,-0.008000,192.000000,0.000000,0.000000,0.000000,0.000000,0.000000,0.000000,0.000000,0.000000,0.000000,1648365798.741140,0.000000
128.000000,-24829.368273,-31665.246983,23677.560529,31679.417989,-6011.322857,66761.933775,44344.095212,42025.839332,-0.056000,0.988000,-0.008000,192.000000,0.000000,0.000000,0.000000,0.000000,0.000000,0.000000,0.000000,0.000000,0.000000,1648365798.741158,0.000000
129.000000,-24827.289561,-31666.185756,23685.674213,31680.312059,-6007.187785,66773.556682,44350.286645,42037.886922,-0.062000,0.986000,-0.008000,192.000000,254.000000,16.000000,30.000000,208.000000,255.000000,192.000000,0.000000,0.000000,0.000000,1648365798.747932,0.000000
130.000000,-24829.345921,-31672.511300,23689.742230,31675.841710,-6008.193613,66773.377868,44342.195313,42043.094879,-0.062000,0.986000,-0.008000,192.000000,0.000000,0.000000,0.000000,0.000000,0.000000,0.000000,0.000000,0.000000,0.000000,1648365798.747948,0.000000
131.000000,-24837.683122,-31676.691076,23686.322413,31671.840748,-6015.055599,66768.125208,44333.299319,42038.132791,-0.062000,0.986000,-0.008000,192.000000,0.000000,0.000000,0.000000,0.000000,0.000000,0.000000,0.000000,0.000000,0.000000,1648365798.755163,0.000000
132.000000,-24834.442119,-31670.879623,23688.512884,31675.640544,-6011.524023,66769.443961,44338.619034,42035.808210,-0.062000,0.986000,-0.008000,192.000000,0.000000,0.000000,0.000000,0.000000,0.000000,0.000000,0.000000,0.000000,0.000000,1648365798.755180,0.000000
133.000000,-24835.291485,-31671.460768,23687.596463,31676.825187,-6012.708665,66769.935700,44336.585025,42039.943283,-0.062000,0.986000,-0.008000,192.000000,0.000000,0.000000,0.000000,0.000000,0.000000,0.000000,0.000000,0.000000,0.000000,1648365798.762589,0.000000
134.000000,-24833.615104,-31669.382056,23688.222312,31674.612364,-6010.697008,66765.308889,44334.014575,42037.663405,-0.062000,0.986000,-0.008000,192.000000,0.000000,0.000000,0.000000,0.000000,0.000000,0.000000,0.000000,0.000000,0.000000,1648365798.762606,0.000000
135.000000,-24829.412976,-31661.715408,23692.402088,31681.474350,-6000.459909,66770.159217,44341.591816,42038.356309,-0.062000,0.986000,-0.008000,192.000000,0.000000,0.000000,0.000000,0.000000,0.000000,0.000000,0.000000,0.000000,0.000000,1648365798.769582,0.000000
136.000000,-24827.043692,-31659.234364,23689.608120,31684.178911,-5997.777700,66770.427438,44345.838648,42037.238722,-0.062000,0.986000,-0.008000,192.000000,0.000000,0.000000,0.000000,0.000000,0.000000,0.000000,0.000000,0.000000,0.000000,1648365798.777613,0.000000
137.000000,-24822.752157,-31659.368474,23691.530370,31688.291632,-5995.676636,66774.026069,44348.342043,42036.076431,-0.062000,0.986000,-0.008000,192.000000,0.000000,0.000000,0.000000,0.000000,0.000000,0.000000,0.000000,0.000000,0.000000,1648365798.777630,0.000000
138.000000,-24821.187534,-31658.675570,23696.224236,31686.727010,-5995.654284,66777.714107,44354.645235,42041.262036,-0.062000,0.986000,-0.008000,192.000000,0.000000,0.000000,0.000000,0.000000,0.000000,0.000000,0.000000,0.000000,0.000000,1648365798.785562,0.000000
139.000000,-24827.647189,-31663.592954,23692.178570,31680.937908,-6000.236392,66772.863778,44354.108793,42037.015204,-0.058000,0.982000,-0.010000,192.000000,254.000000,48.000000,30.000000,176.000000,255.000000,176.000000,0.000000,0.000000,0.000000,1648365798.785578,0.000000
140.000000,-24825.054386,-31660.061378,23691.642128,31679.194472,-5997.084796,66771.925005,44359.584970,42032.522503,-0.058000,0.982000,-0.010000,192.000000,0.000000,0.000000,0.000000,0.000000,0.000000,0.000000,0.000000,0.000000,0.000000,1648365798.793553,0.000000
141.000000,-24827.423671,-31660.240192,23690.189265,31678.993306,-5998.045921,66775.724802,44359.316749,42040.345614,-0.058000,0.982000,-0.010000,192.000000,0.000000,0.000000,0.000000,0.000000,0.000000,0.000000,0.000000,0.000000,0.000000,1648365798.793569,0.000000
142.000000,-24833.503346,-31666.833957,23687.663518,31676.467559,-6006.852508,66774.920139,44353.438241,42042.849009,-0.058000,0.982000,-0.010000,192.000000,0.000000,0.000000,0.000000,0.000000,0.000000,0.000000,0.000000,0.000000,0.000000,1648365798.801565,0.000000
143.000000,-24827.222505,-31664.509376,23686.657689,31674.433550,-6006.964267,66774.137828,44352.030081,42040.904408,-0.058000,0.982000,-0.010000,192.000000,0.000000,0.000000,0.000000,0.000000,0.000000,0.000000,0.000000,0.000000,0.000000,1648365798.801581,0.000000
144.000000,-24826.440194,-31660.173137,23683.617852,31675.461730,-6004.215003,66778.205845,44352.074784,42042.938416,-0.058000,0.982000,-0.010000,192.000000,0.000000,0.000000,0.000000,0.000000,0.000000,0.000000,0.000000,0.000000,0.000000,1648365798.808719,0.000000
145.000000,-24825.166145,-31660.776634,23685.450695,31680.379114,-6001.823366,66779.770467,44348.364395,42051.633245,-0.058000,0.982000,-0.010000,192.000000,0.000000,0.000000,0.000000,0.000000,0.000000,0.000000,0.000000,0.000000,0.000000,1648365798.808737,0.000000
146.000000,-24831.871668,-31665.448149,23678.007564,31682.346068,-6007.232488,66768.616947,44338.104944,42047.252303,-0.058000,0.982000,-0.010000,192.000000,0.000000,0.000000,0.000000,0.000000,0.000000,0.000000,0.000000,0.000000,0.000000,1648365798.814944,0.000000
147.000000,-24833.503346,-31665.694018,23676.733515,31679.417989,-6009.579421,66764.615985,44337.389688,42044.793611,-0.058000,0.982000,-0.010000,192.000000,0.000000,0.000000,0.000000,0.000000,0.000000,0.000000,0.000000,0.000000,0.000000,1648365798.814962,0.000000
148.000000,-24834.442119,-31665.492852,23682.299099,31680.557928,-6009.534718,66767.231139,44335.489790,42043.318396,-0.058000,0.982000,-0.010000,192.000000,0.000000,0.000000,0.000000,0.000000,0.000000,0.000000,0.000000,0.000000,0.000000,1648365798.822831,0.000000
149.000000,-24836.610238,-31670.969030,23679.616890,31675.908765,-6011.456968,66762.447865,44334.193389,42037.238722,-0.054000,0.984000,-0.010000,192.000000,254.000000,80.000000,30.000000,192.000000,255.000000,176.000000,0.000000,0.000000,0.000000,1648365798.822848,0.000000
150.000000,-24835.447947,-31672.935983,23677.940509,31674.545309,-6012.753369,66759.340973,44336.272101,42033.215408,-0.054000,0.984000,-0.010000,192.000000,0.000000,0.000000,0.000000,0.000000,0.000000,0.000000,0.000000,0.000000,0.000000,1648365798.829956,0.000000
151.000000,-24831.044654,-31673.606536,23678.052268,31673.248908,-6012.328686,66760.570319,44338.395517,42031.293157,-0.054000,0.984000,-0.010000,192.000000,0.000000,0.000000,0.000000,0.000000,0.000000,0.000000,0.000000,0.000000,0.000000,1648365798.829973,0.000000
152.000000,-24827.714244,-31668.264469,23678.745172,31676.713428,-6009.132386,66765.644165,44342.418831,42033.863608,-0.054000,0.984000,-0.010000,192.000000,0.000000,0.000000,0.000000,0.000000,0.000000,0.000000,0.000000,0.000000,0.000000,1648365798.836690,0.000000
153.000000,-24830.709378,-31664.174099,23678.923986,31678.836844,-6008.394779,66764.951261,44347.135049,42031.762544,-0.054000,0.984000,-0.010000,192.000000,0.000000,0.000000,0.000000,0.000000,0.000000,0.000000,0.000000,0.000000,0.000000,1648365798.844296,0.000000
154.000000,-24830.754081,-31661.737759,23679.192207,31679.462693,-6006.271363,66767.924043,44357.059223,42036.054079,-0.054000,0.984000,-0.010000,192.000000,0.000000,0.000000,0.000000,0.000000,0.000000,0.000000,0.000000,0.000000,0.000000,1648365798.844312,0.000000
155.000000,-24830.687026,-31666.588088,23678.454599,31677.629850,-6009.691180,66772.573206,44357.953293,42042.021995,-0.054000,0.984000,-0.010000,192.000000,0.000000,0.000000,0.000000,0.000000,0.000000,0.000000,0.000000,0.000000,0.000000,1648365798.852477,0.000000
156.000000,-24830.105881,-31668.800911,23682.746134,31676.311097,-6010.138215,66774.942490,44357.506258,42046.604102,-0.054000,0.984000,-0.010000,192.000000,0.000000,0.000000,0.000000,0.000000,0.000000,0.000000,0.000000,0.000000,0.000000,1648365798.852493,0.000000
157.000000,-24833.369235,-31668.152710,23685.361288,31675.215861,-6010.875822,66775.121304,44353.728813,42049.398071,-0.054000,0.984000,-0.010000,192.000000,0.000000,0.000000,0.000000,0.000000,0.000000,0.000000,0.000000,0.000000,0.000000,1648365798.860340,0.000000
158.000000,-24834.620933,-31666.744550,23683.863721,31674.344143,-6010.562898,66771.768543,44350.756031,42049.308664,-0.054000,0.984000,-0.010000,192.000000,0.000000,0.000000,0.000000,0.000000,0.000000,0.000000,0.000000,0.000000,0.000000,1648365798.860356,0.000000
159.000000,-24830.955247,-31666.923364,23680.622718,31672.868928,-6006.517232,66774.607214,44354.131145,42052.996701,-0.054000,0.986000,-0.012000,192.000000,254.000000,80.000000,30.000000,208.000000,255.000000,160.000000,0.000000,0.000000,0.000000,1648365798.868465,0.000000
160.000000,-24829.703549,-31668.599745,23682.589672,31673.539480,-6004.952610,66778.518770,44356.008691,42063.412614,-0.054000,0.986000,-0.012000,192.000000,0.000000,0.000000,0.000000,0.000000,0.000000,0.000000,0.000000,0.000000,0.000000,1648365798.868482,0.000000
161.000000,-24825.188497,-31667.660972,23685.674213,31673.941812,-6005.600811,66772.707316,44353.080613,42063.725539,-0.054000,0.986000,-0.012000,192.000000,0.000000,0.000000,0.000000,0.000000,0.000000,0.000000,0.000000,0.000000,0.000000,1648365798.876329,0.000000
162.000000,-24823.512116,-31665.492852,23687.194131,31675.081751,-6005.153776,66770.427438,44350.107831,42060.283370,-0.054000,0.986000,-0.012000,192.000000,0.000000,0.000000,0.000000,0.000000,0.000000,0.000000,0.000000,0.000000,0.000000,1648365798.876347,0.000000
163.000000,-24823.981503,-31657.021541,23687.909387,31680.066190,-6002.918601,66772.215578,44346.106869,42059.702225,-0.054000,0.986000,-0.012000,192.000000,0.000000,0.000000,0.000000,0.000000,0.000000,0.000000,0.000000,0.000000,0.000000,1648365798.884487,0.000000
164.000000,-24826.686064,-31658.876736,23687.372945,31676.802835,-6003.499747,66774.026069,44347.917360,42063.323207,-0.054000,0.986000,-0.012000,192.000000,0.000000,0.000000,0.000000,0.000000,0.000000,0.000000,0.000000,0.000000,0.000000,1648365798.884503,0.000000
165.000000,-24826.887229,-31658.876736,23685.428343,31675.797007,-6004.483223,66771.165046,44348.431450,42060.506887,-0.054000,0.986000,-0.012000,192.000000,0.000000,0.000000,0.000000,0.000000,0.000000,0.000000,0.000000,0.000000,0.000000,1648365798.891660,0.000000
166.000000,-24832.721035,-31667.593916,23679.616890,31675.729951,-6011.032285,66763.520749,44342.441182,42052.326149,-0.054000,0.986000,-0.012000,192.000000,0.000000,0.000000,0.000000,0.000000,0.000000,0.000000,0.000000,0.000000,0.000000,1648365798.891676,0.000000
167.000000,-24832.922200,-31669.538518,23675.168893,31675.126454,-6013.446273,66757.664592,44343.089383,42046.358233,-0.054000,0.986000,-0.012000,192.000000,0.000000,0.000000,0.000000,0.000000,0.000000,0.000000,0.000000,0.000000,0.000000,1648365798.899418,0.000000
168.000000,-24836.386721,-31671.728989,23674.855968,31671.505472,-6013.669790,66755.071790,44344.654005,42044.234818,-0.054000,0.986000,-0.012000,192.000000,0.000000,0.000000,0.000000,0.000000,0.000000,0.000000,0.000000,0.000000,0.000000,1648365798.905684,0.000000
169.000000,-24840.544145,-31675.797007,23677.694640,31670.566698,-6014.385046,66754.580051,44348.610264,42046.961730,-0.058000,0.988000,-0.012000,192.000000,254.000000,48.000000,30.000000,224.000000,255.000000,160.000000,0.000000,0.000000,0.000000,1648365798.905701,0.000000
170.000000,-24843.382817,-31683.597765,23674.498340,31663.727065,-6018.296602,66747.382790,44344.095212,42045.106536,-0.058000,0.988000,-0.012000,192.000000,0.000000,0.000000,0.000000,0.000000,0.000000,0.000000,0.000000,0.000000,0.000000,1648365798.912765,0.000000
171.000000,-24832.497517,-31669.449111,23681.047402,31669.471463,-6009.422959,66755.183548,44350.308996,42054.181344,-0.058000,0.988000,-0.012000,192.000000,0.000000,0.000000,0.000000,0.000000,0.000000,0.000000,0.000000,0.000000,0.000000,1648365798.912800,0.000000
172.000000,-24836.476128,-31665.939887,23680.622718,31669.471463,-6012.507500,66757.239909,44343.692880,42059.724576,-0.058000,0.988000,-0.012000,192.000000,0.000000,0.000000,0.000000,0.000000,0.000000,0.000000,0.000000,0.000000,0.000000,1648365798.919414,0.000000
173.000000,-24838.308971,-31673.919460,23677.851102,31665.805777,-6016.955497,66753.060133,44332.740525,42054.784841,-0.058000,0.988000,-0.012000,192.000000,0.000000,0.000000,0.000000,0.000000,0.000000,0.000000,0.000000,0.000000,0.000000,1648365798.919431,0.000000
174.000000,-24835.604410,-31673.651239,23673.581919,31661.558945,-6017.201366,66750.154406,44334.707479,42044.525390,-0.058000,0.988000,-0.012000,192.000000,0.000000,0.000000,0.000000,0.000000,0.000000,0.000000,0.000000,0.000000,0.000000,1648365798.927139,0.000000
175.000000,-24837.928991,-31674.120626,23671.480855,31665.023466,-6015.234413,66759.698601,44341.860037,42048.794573,-0.058000,0.988000,-0.012000,192.000000,0.000000,0.000000,0.000000,0.000000,0.000000,0.000000,0.000000,0.000000,0.000000,1648365798.927154,0.000000
176.000000,-24845.550936,-31682.457826,23667.882224,31660.329599,-6023.213985,66755.630583,44331.868807,42046.402937,-0.058000,0.988000,-0.012000,192.000000,0.000000,0.000000,0.000000,0.000000,0.000000,0.000000,0.000000,0.000000,0.000000,1648365798.935355,0.000000
177.000000,-24836.811404,-31677.428684,23680.220387,31663.548251,-6013.870956,66753.820092,44334.886293,42034.332995,-0.058000,0.988000,-0.012000,192.000000,0.000000,0.000000,0.000000,0.000000,0.000000,0.000000,0.000000,0.000000,0.000000,1648365798.935371,0.000000
178.000000,-24836.610238,-31678.054533,23680.823884,31666.811605,-6013.535680,66750.489682,44339.021366,42033.662442,-0.058000,0.988000,-0.012000,192.000000,0.000000,0.000000,0.000000,0.000000,0.000000,0.000000,0.000000,0.000000,0.000000,1648365798.943358,0.000000
179.000000,-24842.086416,-31677.383980,23675.817093,31666.521033,-6018.184843,66746.220499,44336.920302,42035.383527,-0.060000,0.988000,-0.008000,192.000000,254.000000,32.000000,30.000000,224.000000,255.000000,192.000000,0.000000,0.000000,0.000000,1648365798.943376,0.000000
180.000000,-24835.447947,-31668.108006,23682.299099,31672.108969,-6010.406436,66752.031952,44343.715232,42038.021033,-0.060000,0.988000,-0.008000,192.000000,0.000000,0.000000,0.000000,0.000000,0.000000,0.000000,0.000000,0.000000,0.000000,1648365798.951378,0.000000
181.000000,-24837.638418,-31668.063303,23683.371983,31670.320829,-6014.921488,66753.194243,44341.837685,42041.999643,-0.060000,0.988000,-0.008000,192.000000,0.000000,0.000000,0.000000,0.000000,0.000000,0.000000,0.000000,0.000000,0.000000,1648365798.951395,0.000000
182.000000,-24843.561631,-31677.629850,23676.644108,31668.890318,-6022.923413,66749.774426,44336.316804,42043.296044,-0.060000,0.988000,-0.008000,192.000000,0.000000,0.000000,0.000000,0.000000,0.000000,0.000000,0.000000,0.000000,0.000000,1648365798.958429,0.000000
183.000000,-24851.407093,-31689.163350,23670.117399,31664.844652,-6030.835930,66743.471234,44328.471342,42039.004509,-0.060000,0.988000,-0.008000,192.000000,0.000000,0.000000,0.000000,0.000000,0.000000,0.000000,0.000000,0.000000,0.000000,1648365798.966280,0.000000
184.000000,-24849.864823,-31692.002021,23666.272898,31661.871870,-6031.886462,66743.225365,44327.398458,42038.289254,-0.060000,0.988000,-0.008000,192.000000,0.000000,0.000000,0.000000,0.000000,0.000000,0.000000,0.000000,0.000000,0.000000,1648365798.966298,0.000000
185.000000,-24841.684084,-31683.128379,23672.933718,31669.627925,-6020.040038,66752.568394,44338.999014,42034.869437,-0.060000,0.988000,-0.008000,192.000000,0.000000,0.000000,0.000000,0.000000,0.000000,0.000000,0.000000,0.000000,0.000000,1648365798.973706,0.000000
186.000000,-24842.958134,-31682.323716,23675.772390,31669.136187,-6018.810692,66756.971688,44340.965967,42043.027823,-0.060000,0.988000,-0.008000,192.000000,0.000000,0.000000,0.000000,0.000000,0.000000,0.000000,0.000000,0.000000,0.000000,1648365798.973722,0.000000
187.000000,-24837.392549,-31670.320829,23678.432247,31673.740646,-6013.200404,66755.272955,44343.804639,42045.598274,-0.060000,0.988000,-0.008000,192.000000,0.000000,0.000000,0.000000,0.000000,0.000000,0.000000,0.000000,0.000000,0.000000,1648365798.979825,0.000000
188.000000,-24843.248706,-31676.467559,23675.615928,31670.410236,-6019.771817,66758.022220,44346.620959,42054.650730,-0.060000,0.988000,-0.008000,192.000000,0.000000,0.000000,0.000000,0.000000,0.000000,0.000000,0.000000,0.000000,0.000000,1648365798.979841,0.000000
189.000000,-24843.204003,-31680.692039,23673.336050,31667.280992,-6020.375314,66761.173816,44346.978587,42059.590466,-0.052000,0.988000,-0.008000,192.000000,254.000000,96.000000,30.000000,224.000000,255.000000,192.000000,0.000000,0.000000,0.000000,1648365798.990563,0.000000
190.000000,-24845.685046,-31683.955393,23667.345782,31662.296553,-6026.097360,66754.848272,44338.239054,42057.891733,-0.052000,0.988000,-0.008000,192.000000,0.000000,0.000000,0.000000,0.000000,0.000000,0.000000,0.000000,0.000000,0.000000,1648365798.990579,0.000000
191.000000,-24852.547032,-31694.572472,23664.283593,31657.066245,-6032.825235,66747.673362,44332.762877,42056.170649,-0.052000,0.988000,-0.008000,192.000000,0.000000,0.000000,0.000000,0.000000,0.000000,0.000000,0.000000,0.000000,0.000000,1648365798.998439,0.000000
192.000000,-24849.216622,-31692.002021,23665.535291,31662.609477,-6030.880634,66743.270069,44333.187560,42042.424326,-0.052000,0.988000,-0.008000,192.000000,0.000000,0.000000,0.000000,0.000000,0.000000,0.000000,0.000000,0.000000,0.000000,1648365798.998457,0.000000
193.000000,-24846.489709,-31691.733800,23660.327334,31664.576431,-6030.701820,66742.823034,44335.556845,42034.601216,-0.052000,0.988000,-0.008000,192.000000,0.000000,0.000000,0.000000,0.000000,0.000000,0.000000,0.000000,0.000000,0.000000,1648365799.004571,0.000000
194.000000,-24841.438215,-31682.614289,23664.596518,31664.844652,-6024.465683,66749.662667,44340.697746,42034.869437,-0.052000,0.988000,-0.008000,192.000000,0.000000,0.000000,0.000000,0.000000,0.000000,0.000000,0.000000,0.000000,0.000000,1648365799.004583,0.000000
195.000000,-24844.120424,-31681.586108,23667.010506,31663.861175,-6026.052657,66753.171891,44340.563636,42039.697413,-0.052000,0.988000,-0.008000,192.000000,0.000000,0.000000,0.000000,0.000000,0.000000,0.000000,0.000000,0.000000,0.000000,1648365799.011085,0.000000
196.000000,-24851.138872,-31685.251794,23660.729666,31668.040951,-6029.494826,66751.383752,44336.227397,42042.044347,-0.052000,0.988000,-0.008000,192.000000,0.000000,0.000000,0.000000,0.000000,0.000000,0.000000,0.000000,0.000000,0.000000,1648365799.011102,0.000000
197.000000,-24844.299238,-31679.507396,23664.998849,31673.315963,-6022.811654,66752.613098,44342.754107,42045.710033,-0.052000,0.988000,-0.008000,192.000000,0.000000,0.000000,0.000000,0.000000,0.000000,0.000000,0.000000,0.000000,0.000000,1648365799.017359,0.000000
198.000000,-24840.655904,-31678.725085,23674.811265,31675.618193,-6018.900099,66757.441075,44345.704537,42054.986007,-0.052000,0.988000,-0.008000,192.000000,0.000000,0.000000,0.000000,0.000000,0.000000,0.000000,0.000000,0.000000,0.000000,1648365799.025265,0.000000
199.000000,-24836.297314,-31676.624021,23670.363268,31671.617230,-6019.615354,66756.792874,44346.285682,42053.220219,-0.054000,0.986000,-0.006000,192.000000,254.000000,80.000000,30.000000,208.000000,255.000000,208.000000,0.000000,0.000000,0.000000,1648365799.025283,0.000000
200.000000,-24845.796805,-31690.280937,23663.702448,31664.643486,-6026.522044,66751.495511,44339.960139,42056.282408,-0.054000,0.986000,-0.006000,192.000000,0.000000,0.000000,0.000000,0.000000,0.000000,0.000000,0.000000,0.000000,0.000000,1648365799.033215,0.000000
201.000000,-24850.043637,-31690.884434,23658.047457,31662.207146,-6027.907852,66744.946449,44335.690956,42050.560361,-0.054000,0.986000,-0.006000,192.000000,0.000000,0.000000,0.000000,0.000000,0.000000,0.000000,0.000000,0.000000,0.000000,1648365799.033232,0.000000
202.000000,-24845.170956,-31684.737704,23661.869605,31668.040951,-6023.951593,66747.651010,44336.607377,42051.029748,-0.054000,0.986000,-0.006000,192.000000,0.000000,0.000000,0.000000,0.000000,0.000000,0.000000,0.000000,0.000000,0.000000,1648365799.041315,0.000000
203.000000,-24843.695741,-31678.121588,23664.037724,31669.650277,-6021.828177,66748.858005,44338.842552,42048.816925,-0.054000,0.986000,-0.006000,192.000000,0.000000,0.000000,0.000000,0.000000,0.000000,0.000000,0.000000,0.000000,0.000000,1648365799.041333,0.000000
204.000000,-24842.019360,-31675.349972,23667.502244,31675.797007,-6016.441407,66752.255470,44340.228360,42046.984082,-0.054000,0.986000,-0.006000,192.000000,0.000000,0.000000,0.000000,0.000000,0.000000,0.000000,0.000000,0.000000,0.000000,1648365799.049347,0.000000
205.000000,-24845.506232,-31678.166291,23665.669401,31676.311097,-6020.352962,66750.266165,44333.746354,42051.007396,-0.054000,0.986000,-0.006000,192.000000,0.000000,0.000000,0.000000,0.000000,0.000000,0.000000,0.000000,0.000000,0.000000,1648365799.049364,0.000000
206.000000,-24839.359503,-31671.214899,23666.563471,31673.204204,-6020.196500,66746.287554,44330.348889,42044.726556,-0.054000,0.986000,-0.006000,192.000000,0.000000,0.000000,0.000000,0.000000,0.000000,0.000000,0.000000,0.000000,0.000000,1648365799.057349,0.000000
207.000000,-24839.180689,-31671.304306,23671.614965,31677.741608,-6016.597869,66756.926984,44340.004842,42045.173591,-0.054000,0.986000,-0.006000,192.000000,0.000000,0.000000,0.000000,0.000000,0.000000,0.000000,0.000000,0.000000,0.000000,1648365799.057365,0.000000
208.000000,-24841.348808,-31678.367457,23672.799608,31679.663858,-6016.262593,66762.894900,44346.799773,42049.710995,-0.054000,0.986000,-0.006000,192.000000,0.000000,0.000000,0.000000,0.000000,0.000000,0.000000,0.000000,0.000000,0.000000,1648365799.063630,0.000000
209.000000,-24833.972732,-31670.901975,23672.687849,31680.736742,-6011.859299,66765.353592,44349.750203,42048.392242,-0.052000,0.988000,-0.002000,192.000000,254.000000,96.000000,30.000000,224.000000,255.000000,240.000000,0.000000,0.000000,0.000000,1648365799.063647,0.000000
210.000000,-24836.051445,-31673.517129,23670.542082,31677.004001,-6013.781549,66768.102857,44348.364395,42050.761527,-0.052000,0.988000,-0.002000,192.000000,0.000000,0.000000,0.000000,0.000000,0.000000,0.000000,0.000000,0.000000,0.000000,1648365799.070588,0.000000
211.000000,-24836.744349,-31674.366495,23674.475989,31675.484082,-6011.635782,66768.706354,44346.956235,42048.906332,-0.052000,0.988000,-0.002000,192.000000,0.000000,0.000000,0.000000,0.000000,0.000000,0.000000,0.000000,0.000000,0.000000,1648365799.070605,0.000000
212.000000,-24823.489764,-31662.430663,23680.578015,31679.082713,-6003.902078,66775.367174,44352.097136,42048.526352,-0.052000,0.988000,-0.002000,192.000000,0.000000,0.000000,0.000000,0.000000,0.000000,0.000000,0.000000,0.000000,0.000000,1648365799.077528,0.000000
213.000000,-24829.256514,-31670.834919,23679.907463,31679.127417,-6008.372427,66776.685927,44349.683148,42054.337806,-0.052000,0.988000,-0.002000,192.000000,0.000000,0.000000,0.000000,0.000000,0.000000,0.000000,0.000000,0.000000,0.000000,1648365799.077545,0.000000
214.000000,-24834.486822,-31672.556004,23670.273861,31674.075922,-6012.865128,66766.873511,44345.033985,42047.408765,-0.052000,0.988000,-0.002000,192.000000,0.000000,0.000000,0.000000,0.000000,0.000000,0.000000,0.000000,0.000000,0.000000,1648365799.084784,0.000000
215.000000,-24838.443081,-31675.461730,23672.509035,31666.543384,-6017.626049,66764.571281,44339.334290,42048.839277,-0.052000,0.988000,-0.002000,192.000000,0.000000,0.000000,0.000000,0.000000,0.000000,0.000000,0.000000,0.000000,0.000000,1648365799.092078,0.000000
216.000000,-24830.128232,-31669.583222,23678.186378,31670.745512,-6012.418093,66764.280708,44340.295415,42046.090012,-0.052000,0.988000,-0.002000,192.000000,0.000000,0.000000,0.000000,0.000000,0.000000,0.000000,0.000000,0.000000,0.000000,1648365799.092094,0.000000
217.000000,-24826.149622,-31665.850480,23680.421553,31675.506434,-6007.411302,66763.721915,44346.240979,42044.480687,-0.052000,0.988000,-0.002000,192.000000,0.000000,0.000000,0.000000,0.000000,0.000000,0.000000,0.000000,0.000000,0.000000,1648365799.100032,0.000000
218.000000,-24820.584037,-31661.402483,23685.897730,31678.434512,-6003.209174,66771.589729,44352.074784,42047.676986,-0.052000,0.988000,-0.002000,192.000000,0.000000,0.000000,0.000000,0.000000,0.000000,0.000000,0.000000,0.000000,0.000000,1648365799.100050,0.000000
219.000000,-24823.668578,-31667.616268,23683.997832,31673.070094,-6009.557069,66771.701488,44348.789078,42050.761527,-0.054000,0.984000,-0.004000,192.000000,254.000000,80.000000,30.000000,192.000000,255.000000,224.000000,0.000000,0.000000,0.000000,1648365799.108302,0.000000
220.000000,-24832.139889,-31671.483120,23681.315622,31668.242117,-6014.027418,66771.567377,44347.626787,42049.062794,-0.054000,0.984000,-0.004000,192.000000,0.000000,0.000000,0.000000,0.000000,0.000000,0.000000,0.000000,0.000000,0.000000,1648365799.108320,0.000000
221.000000,-24830.865840,-31675.908765,23674.543044,31668.018600,-6014.228584,66771.053287,44345.145744,42044.368928,-0.054000,0.984000,-0.004000,192.000000,0.000000,0.000000,0.000000,0.000000,0.000000,0.000000,0.000000,0.000000,0.000000,1648365799.116102,0.000000
222.000000,-24825.456718,-31661.402483,23678.678117,31675.439379,-6009.422959,66776.708278,44346.062165,42048.727518,-0.054000,0.984000,-0.004000,192.000000,0.000000,0.000000,0.000000,0.000000,0.000000,0.000000,0.000000,0.000000,0.000000,1648365799.116119,0.000000
223.000000,-24826.619008,-31656.194527,23679.616890,31679.775617,-6009.758235,66775.411877,44344.698709,42050.068623,-0.054000,0.984000,-0.004000,192.000000,0.000000,0.000000,0.000000,0.000000,0.000000,0.000000,0.000000,0.000000,0.000000,1648365799.124090,0.000000
224.000000,-24824.607351,-31660.977800,23679.929814,31675.908765,-6011.054636,66774.294290,44346.352738,42046.045309,-0.054000,0.984000,-0.004000,192.000000,0.000000,0.000000,0.000000,0.000000,0.000000,0.000000,0.000000,0.000000,0.000000,1648365799.124108,0.000000
225.000000,-24827.602485,-31662.900050,23680.533311,31671.818396,-6013.379218,66772.841426,44346.844476,42040.457373,-0.054000,0.984000,-0.004000,192.000000,0.000000,0.000000,0.000000,0.000000,0.000000,0.000000,0.000000,0.000000,0.000000,1648365799.132313,0.000000
226.000000,-24830.687026,-31668.935021,23680.533311,31672.645411,-6017.693104,66766.270014,44340.608339,42040.591483,-0.054000,0.984000,-0.004000,192.000000,0.000000,0.000000,0.000000,0.000000,0.000000,0.000000,0.000000,0.000000,0.000000,1648365799.132331,0.000000
227.000000,-24836.498479,-31672.667762,23676.331183,31676.914594,-6021.895232,66758.648069,44334.662775,42039.853876,-0.054000,0.984000,-0.004000,192.000000,0.000000,0.000000,0.000000,0.000000,0.000000,0.000000,0.000000,0.000000,0.000000,1648365799.140239,0.000000
228.000000,-24835.559706,-31670.633754,23676.755867,31675.305268,-6020.934107,66756.479950,44331.846456,42030.175570,-0.054000,0.984000,-0.004000,192.000000,0.000000,0.000000,0.000000,0.000000,0.000000,0.000000,0.000000,0.000000,0.000000,1648365799.140255,0.000000
229.000000,-24834.822099,-31670.790216,23676.957032,31674.522957,-6019.414189,66756.032915,44329.253653,42032.030765,-0.054000,0.984000,-0.004000,192.000000,0.000000,0.000000,0.000000,0.000000,0.000000,0.000000,0.000000,0.000000,0.000000,1648365799.146511,0.000000
230.000000,-24830.195287,-31667.169233,23674.431285,31676.601669,-6016.016724,66757.172854,44330.348889,42035.249416,-0.062000,0.982000,0.002000,192.000000,254.000000,16.000000,30.000000,176.000000,0.000000,16.000000,0.000000,0.000000,0.000000,1648365799.152881,0.000000
231.000000,-24824.249723,-31671.192547,23674.654803,31674.277088,-6016.195538,66758.826883,44335.646252,42035.629396,-0.062000,0.982000,0.002000,192.000000,0.000000,0.000000,0.000000,0.000000,0.000000,0.000000,0.000000,0.000000,0.000000,1648365799.152898,0.000000
232.000000,-24828.228334,-31668.085655,23673.805436,31673.226556,-6016.240241,66756.189377,44334.618072,42034.154181,-0.062000,0.982000,0.002000,192.000000,0.000000,0.000000,0.000000,0.000000,0.000000,0.000000,0.000000,0.000000,0.000000,1648365799.162541,0.000000
233.000000,-24829.971770,-31666.073998,23672.665497,31675.260565,-6017.179014,66753.909499,44332.740525,42034.780030,-0.062000,0.982000,0.002000,192.000000,0.000000,0.000000,0.000000,0.000000,0.000000,0.000000,0.000000,0.000000,0.000000,1648365799.162558,0.000000
234.000000,-24828.921238,-31667.303344,23675.057134,31674.411198,-6016.709628,66755.429418,44334.886293,42035.003547,-0.062000,0.982000,0.002000,192.000000,0.000000,0.000000,0.000000,0.000000,0.000000,0.000000,0.000000,0.000000,0.000000,1648365799.168557,0.000000
235.000000,-24836.319665,-31670.052608,23673.917195,31671.371361,-6019.794168,66759.028048,44337.680261,42031.740192,-0.062000,0.982000,0.002000,192.000000,0.000000,0.000000,0.000000,0.000000,0.000000,0.000000,0.000000,0.000000,0.000000,1648365799.168592,0.000000
236.000000,-24834.263305,-31669.605573,23672.911367,31668.666800,-6019.436541,66757.932813,44341.100078,42029.572073,-0.062000,0.982000,0.002000,192.000000,0.000000,0.000000,0.000000,0.000000,0.000000,0.000000,0.000000,0.000000,0.000000,1648365799.174851,0.000000
237.000000,-24833.950381,-31669.113835,23669.737419,31666.744550,-6021.358791,66754.602403,44342.284720,42033.975367,-0.062000,0.982000,0.002000,192.000000,0.000000,0.000000,0.000000,0.000000,0.000000,0.000000,0.000000,0.000000,0.000000,1648365799.174862,0.000000
238.000000,-24841.237049,-31675.841710,23665.870567,31661.603649,-6025.583270,66746.242851,44338.462572,42034.645919,-0.062000,0.982000,0.002000,192.000000,0.000000,0.000000,0.000000,0.000000,0.000000,0.000000,0.000000,0.000000,0.000000,1648365799.183045,0.000000
239.000000,-24840.767663,-31678.792140,23664.551814,31659.167309,-6025.672677,66745.728760,44336.249749,42036.679928,-0.062000,0.982000,0.002000,192.000000,0.000000,0.000000,0.000000,0.000000,0.000000,0.000000,0.000000,0.000000,0.000000,1648365799.183061,0.000000
240.000000,-24836.118500,-31676.489911,23669.178625,31657.669742,-6021.917584,66748.790949,44339.758973,42032.924835,-0.054000,0.986000,0.000000,192.000000,254.000000,80.000000,30.000000,208.000000,0.000000,0.000000,0.000000,0.000000,0.000000,1648365799.191175,0.000000
241.000000,-24830.418805,-31669.762036,23674.543044,31666.364570,-6013.759197,66753.998906,44347.671491,42036.232893,-0.054000,0.986000,0.000000,192.000000,0.000000,0.000000,0.000000,0.000000,0.000000,0.000000,0.000000,0.000000,0.000000,1648365799.191192,0.000000
242.000000,-24828.362444,-31664.397617,23681.539140,31675.953469,-6009.244145,66753.350705,44350.331348,42043.027823,-0.054000,0.986000,0.000000,192.000000,0.000000,0.000000,0.000000,0.000000,0.000000,0.000000,0.000000,0.000000,0.000000,1648365799.199077,0.000000
243.000000,-24830.374101,-31663.168271,23685.718916,31680.490873,-6007.724226,66762.112589,44353.572351,42050.426251,-0.054000,0.986000,0.000000,192.000000,0.000000,0.000000,0.000000,0.000000,0.000000,0.000000,0.000000,0.000000,0.000000,1648365799.199093,0.000000
244.000000,-24842.041712,-31680.490873,23670.855006,31667.817434,-6022.319916,66757.239909,44341.681223,42048.638111,-0.054000,0.986000,0.000000,192.000000,0.000000,0.000000,0.000000,0.000000,0.000000,0.000000,0.000000,0.000000,0.000000,1648365799.206302,0.000000
245.000000,-24835.090320,-31673.427722,23666.272898,31665.135224,-6020.531776,66755.049438,44346.486848,42047.073489,-0.054000,0.986000,0.000000,192.000000,0.000000,0.000000,0.000000,0.000000,0.000000,0.000000,0.000000,0.000000,0.000000,1648365799.214166,0.000000
246.000000,-24833.391587,-31663.704713,23672.151407,31674.634716,-6015.904965,66754.557700,44345.212799,42049.755698,-0.054000,0.986000,0.000000,192.000000,0.000000,0.000000,0.000000,0.000000,0.000000,0.000000,0.000000,0.000000,0.000000,1648365799.214184,0.000000
247.000000,-24828.585962,-31662.475367,23679.773352,31678.881547,-6014.809729,66758.178682,44344.318729,42052.683777,-0.054000,0.986000,0.000000,192.000000,0.000000,0.000000,0.000000,0.000000,0.000000,0.000000,0.000000,0.000000,0.000000,1648365799.220367,0.000000
248.000000,-24834.687988,-31670.454940,23678.521654,31674.545309,-6022.923413,66756.792874,44336.719136,42050.582713,-0.054000,0.986000,0.000000,192.000000,0.000000,0.000000,0.000000,0.000000,0.000000,0.000000,0.000000,0.000000,0.000000,1648365799.220384,0.000000
249.000000,-24835.939686,-31669.493815,23674.386582,31667.929193,-6024.219814,66752.613098,44334.662775,42042.245512,-0.054000,0.986000,0.000000,192.000000,0.000000,0.000000,0.000000,0.000000,0.000000,0.000000,0.000000,0.000000,0.000000,1648365799.230299,0.000000
250.000000,-24834.375064,-31668.443283,23671.346744,31667.683323,-6020.911756,66747.516900,44337.344985,42038.982158,-0.054000,0.986000,-0.006000,192.000000,254.000000,80.000000,30.000000,208.000000,255.000000,208.000000,0.000000,0.000000,0.000000,1648365799.230316,0.000000
251.000000,-24832.072834,-31670.901975,23674.475989,31671.728989,-6016.150834,66748.790949,44339.982491,42040.457373,-0.054000,0.986000,-0.006000,192.000000,0.000000,0.000000,0.000000,0.000000,0.000000,0.000000,0.000000,0.000000,0.000000,1648365799.236474,0.000000
252.000000,-24829.368273,-31670.164367,23677.694640,31672.064265,-6015.837910,66744.812339,44339.244883,42039.831524,-0.054000,0.986000,-0.006000,192.000000,0.000000,0.000000,0.000000,0.000000,0.000000,0.000000,0.000000,0.000000,0.000000,1648365799.236490,0.000000
253.000000,-24835.962038,-31670.454940,23674.766561,31670.589050,-6019.704761,66742.733627,44340.071898,42041.083222,-0.054000,0.986000,-0.006000,192.000000,0.000000,0.000000,0.000000,0.000000,0.000000,0.000000,0.000000,0.000000,0.000000,1648365799.242505,0.000000
254.000000,-24844.947439,-31674.813530,23667.457541,31663.481195,-6025.180939,66734.821109,44333.254615,42034.087126,-0.054000,0.986000,-0.006000,192.000000,0.000000,0.000000,0.000000,0.000000,0.000000,0.000000,0.000000,0.000000,0.000000,1648365799.242522,0.000000
255.000000,-24840.231221,-31669.493815,23670.676192,31669.873794,-6019.905927,66732.228307,44337.568502,42028.722707,-0.054000,0.986000,-0.006000,192.000000,0.000000,0.000000,0.000000,0.000000,0.000000,0.000000,0.000000,0.000000,0.000000,1648365799.249892,0.000000
0.000000,-24829.770604,-31666.945716,23682.589672,31680.446169,-6010.585250,66738.576202,44340.787153,42029.147390,-0.054000,0.986000,-0.006000,192.000000,0.000000,0.000000,0.000000,0.000000,0.000000,0.000000,0.000000,0.000000,0.000000,1648365799.249909,0.000000
1.000000,-24830.284694,-31670.365533,23683.975480,31678.680382,-6012.172224,66740.252583,44339.356642,42027.403954,-0.054000,0.986000,-0.006000,192.000000,0.000000,0.000000,0.000000,0.000000,0.000000,0.000000,0.000000,0.000000,0.000000,1648365799.257989,0.000000
2.000000,-24824.272075,-31661.156614,23688.714050,31682.524882,-6007.388950,66746.466368,44344.564598,42032.544855,-0.054000,0.986000,-0.006000,192.000000,0.000000,0.000000,0.000000,0.000000,0.000000,0.000000,0.000000,0.000000,0.000000,1648365799.258006,0.000000
3.000000,-24828.787128,-31661.715408,23687.507056,31674.500605,-6012.373389,66745.773464,44344.206970,42037.305777,-0.054000,0.986000,-0.006000,192.000000,0.000000,0.000000,0.000000,0.000000,0.000000,0.000000,0.000000,0.000000,0.000000,1648365799.264967,0.000000
4.000000,-24835.783224,-31668.219765,23675.258300,31668.219765,-6019.213023,66736.966877,44342.262368,42034.377698,-0.058000,0.990000,-0.002000,192.000000,254.000000,48.000000,30.000000,240.000000,255.000000,240.000000,0.000000,0.000000,0.000000,1648365799.273041,0.000000
5.000000,-24837.303142,-31668.935021,23673.358401,31671.483120,-6016.173186,66743.203013,44351.873619,42036.165838,-0.058000,0.990000,-0.002000,192.000000,0.000000,0.000000,0.000000,0.000000,0.000000,0.000000,0.000000,0.000000,0.000000,1648365799.273057,0.000000
6.000000,-24837.996046,-31674.500605,23675.481817,31671.371361,-6017.246070,66752.344877,44357.238037,42046.268826,-0.058000,0.990000,-0.002000,192.000000,0.000000,0.000000,0.000000,0.000000,0.000000,0.000000,0.000000,0.000000,0.000000,1648365799.281072,0.000000
7.000000,-24838.443081,-31673.673591,23677.962861,31668.666800,-6019.972982,66749.014467,44351.091308,42043.161934,-0.058000,0.990000,-0.002000,192.000000,0.000000,0.000000,0.000000,0.000000,0.000000,0.000000,0.000000,0.000000,0.000000,1648365799.281089,0.000000
8.000000,-24831.357578,-31666.923364,23679.303965,31671.594879,-6013.982715,66752.277822,44352.074784,42041.239684,-0.058000,0.990000,-0.002000,192.000000,0.000000,0.000000,0.000000,0.000000,0.000000,0.000000,0.000000,0.000000,0.000000,1648365799.289062,0.000000
9.000000,-24824.920276,-31662.274201,23682.120285,31672.690114,-6012.596907,66751.875490,44352.275950,42044.704204,-0.058000,0.990000,-0.002000,192.000000,0.000000,0.000000,0.000000,0.000000,0.000000,0.000000,0.000000,0.000000,0.000000,1648365799.289078,0.000000
10.000000,-24828.474203,-31666.141053,23681.807361,31673.092446,-6014.832081,66749.416798,44349.347871,42044.056004,-0.058000,0.990000,-0.002000,192.000000,0.000000,0.000000,0.000000,0.000000,0.000000,0.000000,0.000000,0.000000,0.000000,1648365799.297141,0.000000
11.000000,-24833.816270,-31670.812568,23677.582881,31670.477291,-6019.324782,66743.426531,44340.295415,42033.662442,-0.058000,0.990000,-0.002000,192.000000,0.000000,0.000000,0.000000,0.000000,0.000000,0.000000,0.000000,0.000000,0.000000,1648365799.297158,0.000000
12.000000,-24824.115613,-31662.117739,23681.561492,31682.323716,-6010.093511,66744.946449,44343.469363,42025.280538,-0.058000,0.990000,-0.002000,192.000000,0.000000,0.000000,0.000000,0.000000,0.000000,0.000000,0.000000,0.000000,0.000000,1648365799.303283,0.000000
13.000000,-24822.752157,-31660.731931,23681.717954,31681.988440,-6009.311200,66743.381827,44343.312900,42027.515713,-0.058000,0.990000,-0.002000,192.000000,0.000000,0.000000,0.000000,0.000000,0.000000,0.000000,0.000000,0.000000,0.000000,1648365799.303300,0.000000
14.000000,-24818.125345,-31652.685303,23678.812227,31679.261527,-6007.612468,66740.252583,44341.010671,42023.738268,-0.060000,0.986000,-0.004000,192.000000,254.000000,32.000000,30.000000,208.000000,255.000000,224.000000,0.000000,0.000000,0.000000,1648365799.313082,0.000000
15.000000,-24815.845468,-31656.708617,23674.408933,31676.981649,-6010.026456,66736.743359,44340.921264,42020.072582,-0.060000,0.986000,-0.004000,192.000000,0.000000,0.000000,0.000000,0.000000,0.000000,0.000000,0.000000,0.000000,0.000000,1648365799.313099,0.000000
16.000000,-24821.656921,-31668.599745,23678.901634,31681.899033,-6008.059503,66739.649086,44346.509200,42020.921948,-0.060000,0.986000,-0.004000,192.000000,0.000000,0.000000,0.000000,0.000000,0.000000,0.000000,0.000000,0.000000,0.000000,1648365799.321100,0.000000
17.000000,-24829.032997,-31677.920422,23678.275785,31680.557928,-6013.043942,66738.017409,44348.967892,42018.977346,-0.060000,0.986000,-0.004000,192.000000,0.000000,0.000000,0.000000,0.000000,0.000000,0.000000,0.000000,0.000000,0.000000,1648365799.321117,0.000000
18.000000,-24822.640398,-31661.782463,23674.788913,31677.585146,-6013.312163,66731.580106,44345.346909,42014.417590,-0.060000,0.986000,-0.004000,192.000000,0.000000,0.000000,0.000000,0.000000,0.000000,0.000000,0.000000,0.000000,0.000000,1648365799.327243,0.000000
19.000000,-24823.288598,-31660.329599,23677.672288,31681.831978,-6010.920526,66739.805548,44346.710366,42021.860721,-0.060000,0.986000,-0.004000,192.000000,0.000000,0.000000,0.000000,0.000000,0.000000,0.000000,0.000000,0.000000,0.000000,1648365799.327259,0.000000
20.000000,-24830.485860,-31673.584184,23674.900672,31678.881547,-6019.525948,66737.816243,44341.055374,42023.760620,-0.060000,0.986000,-0.004000,192.000000,0.000000,0.000000,0.000000,0.000000,0.000000,0.000000,0.000000,0.000000,0.000000,1648365799.333457,0.000000
21.000000,-24822.595694,-31663.682361,23675.481817,31679.596803,-6015.167357,66738.419740,44341.278892,42026.174608,-0.060000,0.986000,-0.004000,192.000000,0.000000,0.000000,0.000000,0.000000,0.000000,0.000000,0.000000,0.000000,0.000000,1648365799.339922,0.000000
22.000000,-24821.522811,-31662.788291,23679.907463,31680.490873,-6012.485148,66739.224403,44341.189485,42031.851951,-0.060000,0.986000,-0.004000,192.000000,0.000000,0.000000,0.000000,0.000000,0.000000,0.000000,0.000000,0.000000,0.000000,1648365799.339957,0.000000
23.000000,-24824.093261,-31666.923364,23673.917195,31675.886414,-6015.793206,66735.849289,44339.513104,42030.175570,-0.060000,0.986000,-0.004000,192.000000,0.000000,0.000000,0.000000,0.000000,0.000000,0.000000,0.000000,0.000000,0.000000,1648365799.347956,0.000000
24.000000,-24824.383834,-31667.750379,23675.727686,31678.970954,-6015.122654,66740.967839,44336.383860,42031.807248,-0.054000,0.982000,-0.006000,192.000000,254.000000,80.000000,30.000000,176.000000,255.000000,208.000000,0.000000,0.000000,0.000000,1648365799.347972,0.000000
25.000000,-24827.110747,-31668.800911,23675.951204,31679.708562,-6013.938011,66742.331295,44333.925168,42028.789762,-0.054000,0.982000,-0.006000,192.000000,0.000000,0.000000,0.000000,0.000000,0.000000,0.000000,0.000000,0.000000,0.000000,1648365799.355977,0.000000
26.000000,-24821.478107,-31659.614344,23677.337012,31680.356762,-6009.467663,66743.337124,44336.629729,42027.292195,-0.054000,0.982000,-0.006000,192.000000,0.000000,0.000000,0.000000,0.000000,0.000000,0.000000,0.000000,0.000000,0.000000,1648365799.355994,0.000000
27.000000,-24817.208924,-31658.362646,23683.304928,31686.324678,-6005.600811,66746.354609,44338.015537,42028.946224,-0.054000,0.982000,-0.006000,192.000000,0.000000,0.000000,0.000000,0.000000,0.000000,0.000000,0.000000,0.000000,0.000000,1648365799.363946,0.000000
28.000000,-24814.839639,-31654.160518,23682.343803,31694.930100,-5999.454081,66747.963935,44339.267235,42025.213483,-0.054000,0.982000,-0.006000,192.000000,0.000000,0.000000,0.000000,0.000000,0.000000,0.000000,0.000000,0.000000,0.000000,1648365799.363963,0.000000
29.000000,-24811.419822,-31641.755300,23682.656727,31700.339222,-5993.575572,66750.087351,44342.240017,42022.799495,-0.054000,0.982000,-0.006000,192.000000,0.000000,0.000000,0.000000,0.000000,0.000000,0.000000,0.000000,0.000000,0.000000,1648365799.371978,0.000000
30.000000,-24825.613180,-31659.346123,23677.851102,31693.857216,-6007.657171,66743.046551,44329.298357,42015.669288,-0.054000,0.982000,-0.006000,192.000000,0.000000,0.000000,0.000000,0.000000,0.000000,0.000000,0.000000,0.000000,0.000000,1648365799.371995,0.000000
31.000000,-24819.645264,-31658.675570,23682.544968,31694.237196,-6002.985657,66742.107778,44330.013613,42013.791742,-0.054000,0.982000,-0.006000,192.000000,0.000000,0.000000,0.000000,0.000000,0.000000,0.000000,0.000000,0.000000,0.000000,1648365799.379171,0.000000
32.000000,-24812.827982,-31650.248963,23693.094992,31698.551082,-5995.006084,66746.376961,44334.171037,42019.111457,-0.054000,0.982000,-0.006000,192.000000,0.000000,0.000000,0.000000,0.000000,0.000000,0.000000,0.000000,0.000000,0.000000,1648365799.379187,0.000000
33.000000,-24812.179781,-31651.098329,23694.324338,31696.874702,-5994.067311,66748.768598,44338.663738,42019.647899,-0.054000,0.982000,-0.006000,192.000000,0.000000,0.000000,0.000000,0.000000,0.000000,0.000000,0.000000,0.000000,0.000000,1648365799.385466,0.000000
34.000000,-24819.891133,-31660.441358,23686.680041,31690.236234,-6000.526965,66747.338086,44344.206970,42022.911253,-0.056000,0.986000,-0.006000,192.000000,254.000000,64.000000,30.000000,208.000000,255.000000,208.000000,0.000000,0.000000,0.000000,1648365799.385482,0.000000
35.000000,-24818.639436,-31660.284896,23680.399201,31687.799893,-6003.812671,66747.047513,44345.838648,42023.470047,-0.056000,0.986000,-0.006000,192.000000,0.000000,0.000000,0.000000,0.000000,0.000000,0.000000,0.000000,0.000000,0.000000,1648365799.392073,0.000000
36.000000,-24823.310950,-31665.805777,23673.693678,31678.590975,-6008.059503,66740.453749,44341.792982,42021.234872,-0.056000,0.986000,-0.006000,192.000000,0.000000,0.000000,0.000000,0.000000,0.000000,0.000000,0.000000,0.000000,0.000000,1648365799.400053,0.000000
37.000000,-24830.687026,-31671.214899,23669.290384,31673.181852,-6012.328686,66736.788063,44338.864903,42020.072582,-0.056000,0.986000,-0.006000,192.000000,0.000000,0.000000,0.000000,0.000000,0.000000,0.000000,0.000000,0.000000,0.000000,1648365799.400070,0.000000
38.000000,-24828.921238,-31670.365533,23667.546948,31676.847539,-6013.133349,66741.616039,44344.877523,42019.960823,-0.056000,0.986000,-0.006000,192.000000,0.000000,0.000000,0.000000,0.000000,0.000000,0.000000,0.000000,0.000000,0.000000,1648365799.411146,0.000000
39.000000,-24829.681197,-31670.320829,23665.825864,31671.997210,-6018.363657,66742.465406,44345.726889,42018.910291,-0.056000,0.986000,-0.006000,192.000000,0.000000,0.000000,0.000000,0.000000,0.000000,0.000000,0.000000,0.000000,0.000000,1648365799.411162,0.000000
40.000000,-24827.066043,-31664.799948,23664.820035,31678.993306,-6015.882613,66743.560641,44344.206970,42018.552663,-0.056000,0.986000,-0.006000,192.000000,0.000000,0.000000,0.000000,0.000000,0.000000,0.000000,0.000000,0.000000,0.000000,1648365799.417446,0.000000
41.000000,-24825.412014,-31664.978762,23668.396314,31681.831978,-6015.145006,66741.392522,44343.916398,42018.329146,-0.056000,0.986000,-0.006000,192.000000,0.000000,0.000000,0.000000,0.000000,0.000000,0.000000,0.000000,0.000000,0.000000,1648365799.417463,0.000000
42.000000,-24830.195287,-31672.779521,23668.463369,31679.887376,-6017.558994,66742.040723,44338.619034,42015.982213,-0.056000,0.986000,-0.006000,192.000000,0.000000,0.000000,0.000000,0.000000,0.000000,0.000000,0.000000,0.000000,0.000000,1648365799.423591,0.000000
43.000000,-24830.463508,-31674.947640,23663.456579,31677.071056,-6019.235375,66741.101949,44330.617110,42018.217387,-0.056000,0.986000,-0.006000,192.000000,0.000000,0.000000,0.000000,0.000000,0.000000,0.000000,0.000000,0.000000,0.000000,1648365799.423627,0.000000
44.000000,-24827.937761,-31670.969030,23658.427436,31671.237251,-6020.174148,66731.535403,44327.666679,42009.835483,-0.058000,0.986000,-0.008000,192.000000,254.000000,48.000000,30.000000,208.000000,255.000000,192.000000,0.000000,0.000000,0.000000,1648365799.430869,0.000000
45.000000,-24827.691892,-31667.437454,23660.953183,31674.612364,-6019.660058,66731.110720,44332.673470,42013.076486,-0.058000,0.986000,-0.008000,192.000000,0.000000,0.000000,0.000000,0.000000,0.000000,0.000000,0.000000,0.000000,0.000000,1648365799.430885,0.000000
46.000000,-24826.373139,-31667.929193,23661.869605,31676.758132,-6020.308259,66728.249696,44330.773572,42009.813131,-0.058000,0.986000,-0.008000,192.000000,0.000000,0.000000,0.000000,0.000000,0.000000,0.000000,0.000000,0.000000,0.000000,1648365799.438940,0.000000
47.000000,-24822.998026,-31663.168271,23665.669401,31681.764922,-6013.647439,66731.200127,44330.684165,42005.834521,-0.058000,0.986000,-0.008000,192.000000,0.000000,0.000000,0.000000,0.000000,0.000000,0.000000,0.000000,0.000000,0.000000,1648365799.438957,0.000000
48.000000,-24818.728843,-31659.435530,23670.139750,31685.743533,-6008.975924,66733.569411,44331.824104,42003.755808,-0.058000,0.986000,-0.008000,192.000000,0.000000,0.000000,0.000000,0.000000,0.000000,0.000000,0.000000,0.000000,0.000000,1648365799.446884,0.000000
49.000000,-24824.294427,-31662.855347,23666.563471,31678.121588,-6015.882613,66733.211784,44328.426639,42007.622660,-0.058000,0.986000,-0.008000,192.000000,0.000000,0.000000,0.000000,0.000000,0.000000,0.000000,0.000000,0.000000,0.000000,1648365799.446900,0.000000
50.000000,-24831.111709,-31669.337352,23659.790893,31667.862137,-6022.878709,66722.840574,44327.130237,42002.191186,-0.058000,0.986000,-0.008000,192.000000,0.000000,0.000000,0.000000,0.000000,0.000000,0.000000,0.000000,0.000000,0.000000,1648365799.453966,0.000000
51.000000,-24826.440194,-31662.967105,23663.456579,31673.897108,-6017.380180,66727.713254,44337.993185,42008.807303,-0.058000,0.986000,-0.008000,192.000000,0.000000,0.000000,0.000000,0.000000,0.000000,0.000000,0.000000,0.000000,0.000000,1648365799.461162,0.000000
52.000000,-24829.904715,-31667.437454,23664.663573,31673.964164,-6018.810692,66730.663685,44338.417868,42012.383582,-0.058000,0.986000,-0.008000,192.000000,0.000000,0.000000,0.000000,0.000000,0.000000,0.000000,0.000000,0.000000,0.000000,1648365799.461178,0.000000
53.000000,-24836.632590,-31676.400504,23663.210709,31669.873794,-6021.939936,66729.702560,44336.093287,42013.031782,-0.058000,0.986000,-0.008000,192.000000,0.000000,0.000000,0.000000,0.000000,0.000000,0.000000,0.000000,0.000000,0.000000,1648365799.467249,0.000000
54.000000,-24833.078663,-31674.120626,23659.567375,31672.243079,-6023.772779,66725.858060,44331.645290,42007.645012,-0.062000,0.994000,-0.010000,192.000000,254.000000,16.000000,31.000000,16.000000,255.000000,176.000000,0.000000,0.000000,0.000000,1648365799.467265,0.000000
55.000000,-24829.345921,-31670.432588,23660.059114,31673.718294,-6022.565785,66721.208897,44332.606415,42001.364172,-0.062000,0.994000,-0.010000,192.000000,0.000000,0.000000,0.000000,0.000000,0.000000,0.000000,0.000000,0.000000,0.000000,1648365799.475212,0.000000
56.000000,-24832.519869,-31673.673591,23664.551814,31675.349972,-6022.386971,66723.064092,44333.634595,42007.957936,-0.062000,0.994000,-0.010000,192.000000,0.000000,0.000000,0.000000,0.000000,0.000000,0.000000,0.000000,0.000000,0.000000,1648365799.475229,0.000000
57.000000,-24832.519869,-31671.661934,23662.853082,31671.773693,-6022.699895,66721.722987,44330.170075,42008.717896,-0.062000,0.994000,-0.010000,192.000000,0.000000,0.000000,0.000000,0.000000,0.000000,0.000000,0.000000,0.000000,0.000000,1648365799.485965,0.000000
58.000000,-24830.463508,-31669.091483,23663.166006,31671.505472,-6019.861224,66723.689940,44332.069973,42008.002640,-0.062000,0.994000,-0.010000,192.000000,0.000000,0.000000,0.000000,0.000000,0.000000,0.000000,0.000000,0.000000,0.000000,1648365799.485982,0.000000
59.000000,-24831.089357,-31672.935983,23659.410913,31673.047742,-6022.364619,66726.416853,44333.366374,42008.963765,-0.062000,0.994000,-0.010000,192.000000,0.000000,0.000000,0.000000,0.000000,0.000000,0.000000,0.000000,0.000000,0.000000,1648365799.493171,0.000000
60.000000,-24835.492651,-31678.658030,23654.381770,31666.722198,-6029.003087,66725.411025,44330.192426,42009.969593,-0.062000,0.994000,-0.010000,192.000000,0.000000,0.000000,0.000000,0.000000,0.000000,0.000000,0.000000,0.000000,0.000000,1648365799.493188,0.000000
61.000000,-24833.078663,-31677.652201,23658.628602,31663.503547,-6027.505520,66725.723949,44329.968909,42013.009431,-0.062000,0.994000,-0.010000,192.000000,0.000000,0.000000,0.000000,0.000000,0.000000,0.000000,0.000000,0.000000,0.000000,1648365799.501963,0.000000
62.000000,-24824.987331,-31671.728989,23662.160177,31669.024428,-6021.403494,66727.377978,44336.830895,42013.232948,-0.062000,0.994000,-0.010000,192.000000,0.000000,0.000000,0.000000,0.000000,0.000000,0.000000,0.000000,0.000000,0.000000,1648365799.501980,0.000000
64.000000,-24836.073796,-31677.562794,23658.539195,31666.118701,-6026.276174,66726.059225,44334.148685,42022.911253,-0.060000,0.988000,-0.012000,192.000000,254.000000,32.000000,30.000000,224.000000,255.000000,160.000000,0.000000,0.000000,0.000000,1648365799.509756,0.000000
65.000000,-24820.360520,-31665.023466,23665.825864,31670.991382,-6017.469587,66726.506260,44337.322633,42014.104666,-0.060000,0.988000,-0.012000,192.000000,0.000000,0.000000,0.000000,0.000000,0.000000,0.000000,0.000000,0.000000,0.000000,1648365799.509773,0.000000
66.000000,-24820.293465,-31663.302381,23666.831692,31674.411198,-6016.061427,66731.781272,44339.557807,42022.128942,-0.060000,0.988000,-0.012000,192.000000,0.000000,0.000000,0.000000,0.000000,0.000000,0.000000,0.000000,0.000000,0.000000,1648365799.516907,0.000000
67.000000,-24829.547087,-31671.907803,23664.887090,31669.918498,-6020.174148,66732.831804,44337.724964,42025.437000,-0.060000,0.988000,-0.012000,192.000000,0.000000,0.000000,0.000000,0.000000,0.000000,0.000000,0.000000,0.000000,0.000000,1648365799.525061,0.000000
68.000000,-24830.709378,-31670.566698,23664.775332,31671.259602,-6019.570651,66732.161252,44336.674432,42020.698431,-0.060000,0.988000,-0.012000,192.000000,0.000000,0.000000,0.000000,0.000000,0.000000,0.000000,0.000000,0.000000,0.000000,1648365799.525078,0.000000
69.000000,-24829.815308,-31673.360666,23661.422570,31670.611402,-6021.403494,66732.451824,44335.936825,42017.792704,-0.060000,0.988000,-0.012000,192.000000,0.000000,0.000000,0.000000,0.000000,0.000000,0.000000,0.000000,0.000000,0.000000,1648365799.532813,0.000000
70.000000,-24829.994122,-31678.590975,23662.987192,31670.365533,-6021.984639,66730.507222,44334.439258,42012.137712,-0.060000,0.988000,-0.012000,192.000000,0.000000,0.000000,0.000000,0.000000,0.000000,0.000000,0.000000,0.000000,0.000000,1648365799.532829,0.000000
71.000000,-24824.585000,-31670.656105,23665.915271,31673.651239,-6017.514291,66726.148632,44332.740525,42009.008468,-0.060000,0.988000,-0.012000,192.000000,0.000000,0.000000,0.000000,0.000000,0.000000,0.000000,0.000000,0.000000,0.000000,1648365799.541181,0.000000
72.000000,-24824.741462,-31665.425797,23668.888053,31675.841710,-6013.625087,66726.416853,44330.907682,42009.433151,-0.060000,0.988000,-0.012000,192.000000,0.000000,0.000000,0.000000,0.000000,0.000000,0.000000,0.000000,0.000000,0.000000,1648365799.541199,0.000000
73.000000,-24825.344959,-31667.884489,23665.669401,31683.396600,-6014.228584,66728.026179,44331.712345,42012.316526,-0.060000,0.988000,-0.012000,192.000000,0.000000,0.000000,0.000000,0.000000,0.000000,0.000000,0.000000,0.000000,0.000000,1648365799.547108,0.000000
74.000000,-24827.088395,-31668.890318,23660.550852,31680.602632,-6017.737808,66723.801699,44329.901854,42009.477855,-0.060000,0.988000,-0.012000,192.000000,0.000000,0.000000,0.000000,0.000000,0.000000,0.000000,0.000000,0.000000,0.000000,1648365799.547125,0.000000
75.000000,-24837.571363,-31674.098274,23659.209747,31676.914594,-6025.382105,66719.353702,44324.090400,42010.863663,-0.054000,0.990000,-0.010000,192.000000,254.000000,80.000000,30.000000,240.000000,255.000000,176.000000,0.000000,0.000000,0.000000,1648365799.554282,0.000000
76.000000,-24839.158337,-31677.227518,23660.148520,31675.037047,-6026.857320,66719.800737,44321.654060,42007.913233,-0.054000,0.990000,-0.010000,192.000000,0.000000,0.000000,0.000000,0.000000,0.000000,0.000000,0.000000,0.000000,0.000000,1648365799.554298,0.000000
77.000000,-24838.398378,-31678.345105,23654.649991,31673.226556,-6028.466645,66718.124356,44322.637537,42008.628489,-0.054000,0.990000,-0.010000,192.000000,0.000000,0.000000,0.000000,0.000000,0.000000,0.000000,0.000000,0.000000,0.000000,1648365799.562206,0.000000
78.000000,-24830.351750,-31673.025390,23655.544061,31674.746475,-6023.459855,66724.673417,44334.081630,42017.010393,-0.054000,0.990000,-0.010000,192.000000,0.000000,0.000000,0.000000,0.000000,0.000000,0.000000,0.000000,0.000000,0.000000,1648365799.562222,0.000000
79.000000,-24825.769642,-31672.757169,23663.300116,31679.060361,-6017.916622,66735.916345,44341.569464,42030.443791,-0.054000,0.990000,-0.010000,192.000000,0.000000,0.000000,0.000000,0.000000,0.000000,0.000000,0.000000,0.000000,0.000000,1648365799.570271,0.000000
80.000000,-24835.783224,-31682.658992,23667.993983,31676.020524,-6026.946727,66732.317714,44336.450915,42036.232893,-0.054000,0.990000,-0.010000,192.000000,0.000000,0.000000,0.000000,0.000000,0.000000,0.000000,0.000000,0.000000,0.000000,1648365799.570288,0.000000
81.000000,-24841.639381,-31685.341201,23662.406047,31674.746475,-6034.032230,66718.258467,44332.360546,42025.839332,-0.054000,0.990000,-0.010000,192.000000,0.000000,0.000000,0.000000,0.000000,0.000000,0.000000,0.000000,0.000000,0.000000,1648365799.576441,0.000000
82.000000,-24834.710340,-31679.775617,23658.472140,31672.935983,-6029.293660,66714.749243,44335.780363,42018.083277,-0.054000,0.990000,-0.010000,192.000000,0.000000,0.000000,0.000000,0.000000,0.000000,0.000000,0.000000,0.000000,0.000000,1648365799.576457,0.000000
83.000000,-24838.040750,-31679.283879,23657.041628,31674.858233,-6030.388895,66720.694807,44336.830895,42026.375774,-0.054000,0.990000,-0.010000,192.000000,0.000000,0.000000,0.000000,0.000000,0.000000,0.000000,0.000000,0.000000,0.000000,1648365799.583906,0.000000
84.000000,-24835.045616,-31677.786312,23664.708276,31675.349972,-6026.276174,66724.606362,44337.814371,42028.074506,-0.054000,0.990000,-0.010000,192.000000,0.000000,0.000000,0.000000,0.000000,0.000000,0.000000,0.000000,0.000000,0.000000,1648365799.591724,0.000000
85.000000,-24835.336189,-31679.395637,23661.869605,31672.444245,-6027.147892,66724.919286,44338.440220,42027.850989,-0.054000,0.984000,-0.008000,192.000000,254.000000,80.000000,30.000000,192.000000,255.000000,192.000000,0.000000,0.000000,0.000000,1648365799.591741,0.000000
86.000000,-24835.894982,-31680.222652,23657.667477,31665.068169,-6031.618241,66720.694807,44336.048584,42027.314547,-0.054000,0.984000,-0.008000,192.000000,0.000000,0.000000,0.000000,0.000000,0.000000,0.000000,0.000000,0.000000,0.000000,1648365799.599894,0.000000
87.000000,-24838.957171,-31678.367457,23654.851157,31664.151748,-6030.478302,66717.520859,44340.004842,42021.346631,-0.054000,0.984000,-0.008000,192.000000,0.000000,0.000000,0.000000,0.000000,0.000000,0.000000,0.000000,0.000000,0.000000,1648365799.599929,0.000000
88.000000,-24845.103901,-31681.183777,23655.253488,31668.867966,-6033.384029,66722.058263,44338.440220,42022.821846,-0.054000,0.984000,-0.008000,192.000000,0.000000,0.000000,0.000000,0.000000,0.000000,0.000000,0.000000,0.000000,0.000000,1648365799.608006,0.000000
89.000000,-24837.616067,-31674.925289,23656.862814,31667.079826,-6033.205215,66721.834746,44332.382897,42018.865588,-0.054000,0.984000,-0.008000,192.000000,0.000000,0.000000,0.000000,0.000000,0.000000,0.000000,0.000000,0.000000,0.000000,1648365799.608024,0.000000
90.000000,-24832.497517,-31678.523919,23659.165044,31666.565736,-6028.019610,66725.254563,44340.474229,42017.949166,-0.054000,0.984000,-0.008000,192.000000,0.000000,0.000000,0.000000,0.000000,0.000000,0.000000,0.000000,0.000000,0.000000,1648365799.616012,0.000000
91.000000,-24842.019360,-31688.783370,23657.175738,31661.268373,-6030.075971,66727.534440,44340.362470,42019.737306,-0.054000,0.984000,-0.008000,192.000000,0.000000,0.000000,0.000000,0.000000,0.000000,0.000000,0.000000,0.000000,0.000000,1648365799.616029,0.000000
92.000000,-24834.442119,-31680.066190,23665.222366,31666.141053,-6023.549262,66732.921211,44339.982491,42020.452561,-0.054000,0.984000,-0.008000,192.000000,0.000000,0.000000,0.000000,0.000000,0.000000,0.000000,0.000000,0.000000,0.000000,1648365799.623059,0.000000
93.000000,-24835.179727,-31675.528786,23667.278727,31674.165329,-6020.755293,66739.380865,44340.653043,42028.409782,-0.054000,0.984000,-0.008000,192.000000,0.000000,0.000000,0.000000,0.000000,0.000000,0.000000,0.000000,0.000000,0.000000,1648365799.623075,0.000000
94.000000,-24840.745311,-31681.004963,23663.657744,31668.487986,-6027.550224,66735.156385,44337.099116,42027.761582,-0.054000,0.984000,-0.008000,192.000000,0.000000,0.000000,0.000000,0.000000,0.000000,0.000000,0.000000,0.000000,0.000000,1648365799.631977,0.000000
95.000000,-24841.773491,-31688.604556,23662.428398,31663.548251,-6028.533701,66730.484871,44340.004842,42022.933605,-0.060000,0.988000,-0.002000,192.000000,254.000000,32.000000,30.000000,224.000000,255.000000,240.000000,0.000000,0.000000,0.000000,1648365799.631994,0.000000
96.000000,-24836.945514,-31678.613326,23664.685925,31673.517129,-6018.073084,66735.893993,44349.169058,42032.611910,-0.060000,0.988000,-0.002000,192.000000,0.000000,0.000000,0.000000,0.000000,0.000000,0.000000,0.000000,0.000000,0.000000,1648365799.638072,0.000000
97.000000,-24836.476128,-31675.931117,23659.992058,31675.305268,-6017.782511,66737.145691,44349.459630,42034.645919,-0.060000,0.988000,-0.002000,192.000000,0.000000,0.000000,0.000000,0.000000,0.000000,0.000000,0.000000,0.000000,0.000000,1648365799.638089,0.000000
98.000000,-24835.894982,-31683.955393,23655.991096,31669.493815,-6025.270346,66733.882336,44344.251674,42033.260111,-0.060000,0.988000,-0.002000,192.000000,0.000000,0.000000,0.000000,0.000000,0.000000,0.000000,0.000000,0.000000,0.000000,1648365799.644195,0.000000
99.000000,-24839.583020,-31678.590975,23654.359419,31667.146881,-6028.064314,66728.294400,44342.642348,42030.063812,-0.060000,0.988000,-0.002000,192.000000,0.000000,0.000000,0.000000,0.000000,0.000000,0.000000,0.000000,0.000000,0.000000,1648365799.651306,0.000000
100.000000,-24839.627724,-31677.249870,23653.554756,31665.448149,-6029.316012,66726.349798,44346.531552,42029.460314,-0.060000,0.988000,-0.002000,192.000000,0.000000,0.000000,0.000000,0.000000,0.000000,0.000000,0.000000,0.000000,0.000000,1648365799.651323,0.000000
101.000000,-24839.918296,-31675.238213,23652.839500,31669.650277,-6028.377238,66727.847365,44349.303168,42023.246529,-0.060000,0.988000,-0.002000,192.000000,0.000000,0.000000,0.000000,0.000000,0.000000,0.000000,0.000000,0.000000,0.000000,1648365799.658706,0.000000
102.000000,-24831.312875,-31669.449111,23662.070771,31675.774655,-6022.297564,66731.445996,44351.001901,42026.107553,-0.060000,0.988000,-0.002000,192.000000,0.000000,0.000000,0.000000,0.000000,0.000000,0.000000,0.000000,0.000000,0.000000,1648365799.658724,0.000000
103.000000,-24830.441157,-31672.667762,23666.921099,31676.288745,-6024.555090,66729.300228,44342.709403,42028.678003,-0.060000,0.988000,-0.002000,192.000000,0.000000,0.000000,0.000000,0.000000,0.000000,0.000000,0.000000,0.000000,0.000000,1648365799.666649,0.000000
104.000000,-24834.084491,-31674.590012,23667.770465,31674.835882,-6023.303392,66729.926077,44339.803677,42024.475875,-0.060000,0.988000,-0.002000,192.000000,0.000000,0.000000,0.000000,0.000000,0.000000,0.000000,0.000000,0.000000,0.000000,1648365799.666666,0.000000
105.000000,-24822.483936,-31666.208108,23672.464332,31682.033143,-6011.814596,66734.105853,44341.413002,42022.151294,-0.058000,0.988000,-0.002000,192.000000,254.000000,48.000000,30.000000,224.000000,255.000000,240.000000,0.000000,0.000000,0.000000,1648365799.674771,0.000000
106.000000,-24821.053424,-31667.862137,23674.431285,31682.346068,-6009.601773,66742.152481,44343.447011,42029.281500,-0.058000,0.988000,-0.002000,192.000000,0.000000,0.000000,0.000000,0.000000,0.000000,0.000000,0.000000,0.000000,0.000000,1648365799.674788,0.000000
107.000000,-24829.569439,-31666.096349,23667.502244,31675.774655,-6013.155700,66740.699618,44344.765764,42029.437963,-0.058000,0.988000,-0.002000,192.000000,0.000000,0.000000,0.000000,0.000000,0.000000,0.000000,0.000000,0.000000,0.000000,1648365799.682792,0.000000
108.000000,-24830.083529,-31664.397617,23663.769503,31674.031219,-6013.647439,66737.145691,44343.379956,42025.146428,-0.058000,0.988000,-0.002000,192.000000,0.000000,0.000000,0.000000,0.000000,0.000000,0.000000,0.000000,0.000000,0.000000,1648365799.682827,0.000000
109.000000,-24834.062139,-31671.728989,23662.160177,31672.108969,-6016.776683,66737.860946,44343.402307,42029.639128,-0.058000,0.988000,-0.002000,192.000000,0.000000,0.000000,0.000000,0.000000,0.000000,0.000000,0.000000,0.000000,0.000000,1648365799.690803,0.000000
110.000000,-24833.324532,-31671.438416,23664.261241,31676.981649,-6016.061427,66740.096121,44340.854209,42030.533198,-0.058000,0.988000,-0.002000,192.000000,0.000000,0.000000,0.000000,0.000000,0.000000,0.000000,0.000000,0.000000,0.000000,1648365799.690819,0.000000
111.000000,-24842.555802,-31676.534614,23658.896823,31668.063303,-6026.007953,66735.514013,44336.272101,42030.242626,-0.058000,0.988000,-0.002000,192.000000,0.000000,0.000000,0.000000,0.000000,0.000000,0.000000,0.000000,0.000000,0.000000,1648365799.698848,0.000000
112.000000,-24845.260363,-31679.038010,23654.538233,31661.737759,-6029.830102,66732.161252,44335.914473,42027.471009,-0.058000,0.988000,-0.002000,192.000000,0.000000,0.000000,0.000000,0.000000,0.000000,0.000000,0.000000,0.000000,0.000000,1648365799.698889,0.000000
113.000000,-24835.939686,-31672.846576,23654.493529,31669.627925,-6024.309221,66735.692827,44343.938749,42024.945262,-0.058000,0.988000,-0.002000,192.000000,0.000000,0.000000,0.000000,0.000000,0.000000,0.000000,0.000000,0.000000,0.000000,1648365799.705855,0.000000
114.000000,-24843.874555,-31683.463655,23650.313753,31665.694018,-6031.350020,66733.368246,44339.580159,42032.097820,-0.058000,0.988000,-0.002000,192.000000,0.000000,0.000000,0.000000,0.000000,0.000000,0.000000,0.000000,0.000000,0.000000,1648365799.712069,0.000000
115.000000,-24845.148605,-31682.815454,23647.631544,31663.168271,-6032.601718,66724.293438,44336.763839,42019.558492,-0.058000,0.982000,-0.010000,192.000000,254.000000,48.000000,30.000000,176.000000,255.000000,176.000000,0.000000,0.000000,0.000000,1648365799.712086,0.000000
116.000000,-24843.427520,-31684.201262,23651.408988,31662.631829,-6029.718343,66725.791004,44336.674432,42016.652765,-0.058000,0.982000,-0.010000,192.000000,0.000000,0.000000,0.000000,0.000000,0.000000,0.000000,0.000000,0.000000,0.000000,1648365799.719073,0.000000
117.000000,-24843.516927,-31685.654126,23653.308887,31662.698884,-6026.834968,66729.032007,44341.435354,42018.820884,-0.058000,0.982000,-0.010000,192.000000,0.000000,0.000000,0.000000,0.000000,0.000000,0.000000,0.000000,0.000000,0.000000,1648365799.719089,0.000000
118.000000,-24841.773491,-31685.810588,23654.247660,31661.558945,-6027.460817,66726.416853,44340.071898,42018.552663,-0.058000,0.982000,-0.010000,192.000000,0.000000,0.000000,0.000000,0.000000,0.000000,0.000000,0.000000,0.000000,0.000000,1648365799.728967,0.000000
119.000000,-24845.483881,-31687.442265,23653.219480,31657.423873,-6031.372372,66722.326484,44335.378031,42014.372887,-0.058000,0.982000,-0.010000,192.000000,0.000000,0.000000,0.000000,0.000000,0.000000,0.000000,0.000000,0.000000,0.000000,1648365799.728984,0.000000
120.000000,-24842.444043,-31679.887376,23650.805491,31656.976838,-6029.830102,66714.726891,44334.483961,42007.399143,-0.058000,0.982000,-0.010000,192.000000,0.000000,0.000000,0.000000,0.000000,0.000000,0.000000,0.000000,0.000000,0.000000,1648365799.735128,0.000000
121.000000,-24827.960113,-31667.370399,23662.942489,31671.147844,-6014.586212,66723.488775,44345.168095,42006.728590,-0.058000,0.982000,-0.010000,192.000000,0.000000,0.000000,0.000000,0.000000,0.000000,0.000000,0.000000,0.000000,0.000000,1648365799.735145,0.000000
122.000000,-24831.871668,-31674.522957,23665.937622,31671.349009,-6016.508462,66732.094196,44350.040776,42018.731477,-0.058000,0.982000,-0.010000,192.000000,0.000000,0.000000,0.000000,0.000000,0.000000,0.000000,0.000000,0.000000,0.000000,1648365799.742067,0.000000
123.000000,-24844.410997,-31685.274146,23657.443959,31661.223669,-6028.913680,66724.740472,44341.010671,42021.078410,-0.058000,0.982000,-0.010000,192.000000,0.000000,0.000000,0.000000,0.000000,0.000000,0.000000,0.000000,0.000000,0.000000,1648365799.742083,0.000000
124.000000,-24837.616067,-31680.177948,23665.155311,31670.991382,-6021.068218,66730.216650,44343.268197,42021.771314,-0.058000,0.982000,-0.010000,192.000000,0.000000,0.000000,0.000000,0.000000,0.000000,0.000000,0.000000,0.000000,0.000000,1648365799.749533,0.000000
125.000000,-24841.326456,-31683.977745,23661.914308,31670.276126,-6023.973945,66732.116548,44344.162267,42027.381602,-0.054000,0.988000,-0.014000,192.000000,254.000000,80.000000,30.000000,224.000000,255.000000,144.000000,0.000000,0.000000,0.000000,1648365799.749551,0.000000
126.000000,-24837.280790,-31682.055495,23658.069808,31664.442320,-6023.035171,66735.245792,44347.179752,42023.402992,-0.054000,0.988000,-0.014000,192.000000,0.000000,0.000000,0.000000,0.000000,0.000000,0.000000,0.000000,0.000000,0.000000,1648365799.757694,0.000000
127.000000,-24836.565535,-31679.283879,23660.483797,31672.265431,-6019.369485,66741.169005,44354.891104,42032.544855,-0.054000,0.988000,-0.014000,192.000000,0.000000,0.000000,0.000000,0.000000,0.000000,0.000000,0.000000,0.000000,0.000000,1648365799.757711,0.000000
128.000000,-24839.471261,-31680.222652,23663.121302,31672.600707,-6019.458892,66743.873566,44363.921209,42038.333957,-0.054000,0.988000,-0.014000,192.000000,0.000000,0.000000,0.000000,0.000000,0.000000,0.000000,0.000000,0.000000,0.000000,1648365799.764741,0.000000
129.000000,-24835.336189,-31676.154634,23667.837521,31675.126454,-6015.904965,66749.550909,44368.972703,42042.401974,-0.054000,0.988000,-0.014000,192.000000,0.000000,0.000000,0.000000,0.000000,0.000000,0.000000,0.000000,0.000000,0.000000,1648365799.772732,0.000000
130.000000,-24834.553878,-31667.482158,23669.670364,31676.959297,-6016.128482,66748.522729,44368.078633,42046.760565,-0.054000,0.988000,-0.014000,192.000000,0.000000,0.000000,0.000000,0.000000,0.000000,0.000000,0.000000,0.000000,0.000000,1648365799.772768,0.000000
131.000000,-24836.185555,-31672.578355,23663.970669,31671.259602,-6020.822349,66740.744321,44362.378938,42037.015204,-0.054000,0.988000,-0.014000,192.000000,0.000000,0.000000,0.000000,0.000000,0.000000,0.000000,0.000000,0.000000,0.000000,1648365799.780800,0.000000
132.000000,-24833.279828,-31673.070094,23665.512939,31675.081751,-6014.563860,66739.202051,44365.418776,42032.097820,-0.054000,0.988000,-0.014000,192.000000,0.000000,0.000000,0.000000,0.000000,0.000000,0.000000,0.000000,0.000000,0.000000,1648365799.780816,0.000000
133.000000,-24839.739482,-31679.105065,23664.305945,31673.874757,-6019.347134,66737.816243,44361.641331,42036.188190,-0.054000,0.988000,-0.014000,192.000000,0.000000,0.000000,0.000000,0.000000,0.000000,0.000000,0.000000,0.000000,0.000000,1648365799.787966,0.000000
134.000000,-24837.683122,-31680.490873,23661.668439,31675.618193,-6019.637706,66733.345894,44353.907627,42030.488495,-0.054000,0.988000,-0.014000,192.000000,0.000000,0.000000,0.000000,0.000000,0.000000,0.000000,0.000000,0.000000,0.000000,1648365799.787982,0.000000
135.000000,-24838.867764,-31683.553062,23660.260279,31673.383018,-6021.470549,66728.853193,44340.854209,42025.571111,-0.056000,0.986000,-0.006000,192.000000,254.000000,64.000000,30.000000,208.000000,255.000000,208.000000,0.000000,0.000000,0.000000,1648365799.794107,0.000000
136.000000,-24832.944552,-31675.908765,23670.698544,31678.210995,-6015.502634,66730.775443,44340.049546,42017.546835,-0.056000,0.986000,-0.006000,192.000000,0.000000,0.000000,0.000000,0.000000,0.000000,0.000000,0.000000,0.000000,0.000000,1648365799.794124,0.000000
137.000000,-24828.496555,-31671.997210,23672.084352,31679.529748,-6011.099340,66734.910516,44344.028156,42013.143541,-0.056000,0.986000,-0.006000,192.000000,0.000000,0.000000,0.000000,0.000000,0.000000,0.000000,0.000000,0.000000,0.000000,1648365799.801966,0.000000
138.000000,-24831.424633,-31674.232384,23667.949279,31680.714390,-6012.932183,66738.084464,44342.575293,42018.798532,-0.056000,0.986000,-0.006000,192.000000,0.000000,0.000000,0.000000,0.000000,0.000000,0.000000,0.000000,0.000000,0.000000,1648365799.801983,0.000000
139.000000,-24836.342017,-31675.998172,23659.612079,31672.846576,-6020.330610,66733.524708,44336.786191,42015.937509,-0.056000,0.986000,-0.006000,192.000000,0.000000,0.000000,0.000000,0.000000,0.000000,0.000000,0.000000,0.000000,0.000000,1648365799.809973,0.000000
140.000000,-24836.900811,-31676.221690,23656.035800,31673.114797,-6020.196500,66733.278839,44337.076764,42017.010393,-0.056000,0.986000,-0.006000,192.000000,0.000000,0.000000,0.000000,0.000000,0.000000,0.000000,0.000000,0.000000,0.000000,1648365799.809989,0.000000
141.000000,-24832.274000,-31671.304306,23661.511977,31672.734818,-6019.190671,66738.755016,44345.101040,42029.505018,-0.056000,0.986000,-0.006000,192.000000,0.000000,0.000000,0.000000,0.000000,0.000000,0.000000,0.000000,0.000000,0.000000,1648365799.816456,0.000000
142.000000,-24833.123366,-31672.868928,23659.165044,31673.271259,-6020.822349,66739.537327,44347.380918,42036.568169,-0.056000,0.986000,-0.006000,192.000000,0.000000,0.000000,0.000000,0.000000,0.000000,0.000000,0.000000,0.000000,0.000000,1648365799.816468,0.000000
143.000000,-24827.602485,-31666.811605,23658.986230,31679.932079,-6015.748503,66738.151519,44347.045642,42035.160009,-0.056000,0.986000,-0.006000,192.000000,0.000000,0.000000,0.000000,0.000000,0.000000,0.000000,0.000000,0.000000,0.000000,1648365799.823547,0.000000
144.000000,-24826.149622,-31665.962239,23666.541119,31682.882510,-6012.038113,66738.956182,44347.269159,42034.064774,-0.056000,0.986000,-0.006000,192.000000,0.000000,0.000000,0.000000,0.000000,0.000000,0.000000,0.000000,0.000000,0.000000,1648365799.823564,0.000000
145.000000,-24820.025244,-31665.671666,23670.296212,31685.385905,-6007.903040,66739.202051,44348.856133,42027.672175,-0.062000,0.990000,-0.006000,192.000000,254.000000,16.000000,30.000000,240.000000,255.000000,208.000000,0.000000,0.000000,0.000000,1648365799.831707,0.000000
146.000000,-24827.021340,-31671.281954,23670.922061,31677.540443,-6014.273288,66737.413912,44345.816296,42029.840294,-0.062000,0.990000,-0.006000,192.000000,0.000000,0.000000,0.000000,0.000000,0.000000,0.000000,0.000000,0.000000,0.000000,1648365799.839370,0.000000
147.000000,-24831.178764,-31675.372323,23662.540157,31667.415102,-6021.805825,66725.120452,44337.523799,42021.368983,-0.062000,0.990000,-0.006000,192.000000,0.000000,0.000000,0.000000,0.000000,0.000000,0.000000,0.000000,0.000000,0.000000,1648365799.839378,0.000000
148.000000,-24826.104918,-31669.337352,23662.562509,31671.661934,-6016.508462,66723.756996,44340.451877,42017.792704,-0.062000,0.990000,-0.006000,192.000000,0.000000,0.000000,0.000000,0.000000,0.000000,0.000000,0.000000,0.000000,0.000000,1648365799.847669,0.000000
149.000000,-24823.512116,-31668.197413,23665.267070,31674.634716,-6012.641610,66728.316752,44342.865866,42015.088143,-0.062000,0.990000,-0.006000,192.000000,0.000000,0.000000,0.000000,0.000000,0.000000,0.000000,0.000000,0.000000,0.000000,1648365799.847686,0.000000
150.000000,-24829.524735,-31676.936946,23664.417704,31674.142977,-6019.593003,66731.624810,44337.859075,42018.910291,-0.062000,0.990000,-0.006000,192.000000,0.000000,0.000000,0.000000,0.000000,0.000000,0.000000,0.000000,0.000000,0.000000,1648365799.855654,0.000000
151.000000,-24833.928029,-31680.937908,23657.443959,31673.494777,-6026.142064,66726.416853,44330.907682,42014.752867,-0.062000,0.990000,-0.006000,192.000000,0.000000,0.000000,0.000000,0.000000,0.000000,0.000000,0.000000,0.000000,0.000000,1648365799.855689,0.000000
152.000000,-24831.871668,-31679.619155,23653.197128,31675.014696,-6025.158587,66728.428510,44335.936825,42009.857835,-0.062000,0.990000,-0.006000,192.000000,0.000000,0.000000,0.000000,0.000000,0.000000,0.000000,0.000000,0.000000,0.000000,1648365799.863661,0.000000
153.000000,-24828.854183,-31678.099236,23656.751055,31672.265431,-6020.151796,66729.322580,44336.942653,42011.400105,-0.062000,0.990000,-0.006000,192.000000,0.000000,0.000000,0.000000,0.000000,0.000000,0.000000,0.000000,0.000000,0.000000,1648365799.863678,0.000000
154.000000,-24823.757985,-31674.299440,23661.400218,31675.506434,-6014.496805,66732.384769,44338.730793,42018.396201,-0.062000,0.990000,-0.006000,192.000000,0.000000,0.000000,0.000000,0.000000,0.000000,0.000000,0.000000,0.000000,0.000000,1648365799.870907,0.000000
155.000000,-24824.227372,-31672.444245,23664.551814,31683.553062,-6013.558032,66733.345894,44338.931959,42025.057021,-0.056000,0.988000,-0.004000,192.000000,254.000000,64.000000,30.000000,224.000000,255.000000,224.000000,0.000000,0.000000,0.000000,1648365799.870924,0.000000
