%OpenBCI Raw EEG Data
%Number of channels = 8
%Sample Rate = 256 Hz
%Board = OpenBCI_GUI$BoardCytonSerial
%Channels = Fp1, Fp2, F3, F4, Fz, Pz, O1, O2
%Data recorded at AIMS Lab (http://aimsl.uiu.ac.bd) by Rana Depto (mail@ranadepto.com)
%Brainwaves were obtained via the Ultracortex Mark IV Headset using the OpenBCI Cyton Board
%Recording Application = ConcentrateToday (https://concentrate.today)
%Data type = RAW data with noise
%Day No = 7
%Subject ID = 6
%Session ID = 7
%Record starting timestamp (UTC+6) = 2022-03-22T10:11:25.306397
%Record ending timestamp (UTC+6)   = 2022-03-22T10:11:51.142255
%Recorded durations = ~25 seconds
Sample Index, EXG Channel 0, EXG Channel 1, EXG Channel 2, EXG Channel 3, EXG Channel 4, EXG Channel 5, EXG Channel 6, EXG Channel 7, Accel Channel 0, Accel Channel 1, Accel Channel 2, Other, Other, Other, Other, Other, Other, Other, Analog Channel 0, Analog Channel 1, Analog Channel 2, Timestamp, Timestamp (Formatted)
219.000000,-2008.214832,-5588.807832,-28330.143193,20161.564071,-47411.939193,16630.480186,40028.666261,5504.742921,0.006000,0.972000,0.112000,192.000000,0.000000,0.000000,0.000000,0.000000,0.000000,0.000000,0.000000,0.000000,0.000000,1647922285.307604,0.000000
220.000000,-2006.873728,-5584.628056,-28325.494030,20165.028592,-47405.814815,16634.525852,40027.593378,5515.896441,0.006000,0.972000,0.112000,192.000000,0.000000,0.000000,0.000000,0.000000,0.000000,0.000000,0.000000,0.000000,0.000000,1647922285.307615,0.000000
221.000000,-2008.907736,-5576.916704,-28318.967321,20169.677755,-47399.668086,16644.673544,40040.847962,5537.622337,0.006000,0.972000,0.112000,192.000000,0.000000,0.000000,0.000000,0.000000,0.000000,0.000000,0.000000,0.000000,0.000000,1647922285.315536,0.000000
222.000000,-2015.792074,-5577.453146,-28325.181106,20170.035383,-47403.289068,16640.627878,40043.284302,5525.932375,0.006000,0.972000,0.112000,192.000000,0.000000,0.000000,0.000000,0.000000,0.000000,0.000000,0.000000,0.000000,0.000000,1647922285.315541,0.000000
223.000000,-2021.111789,-5579.554210,-28322.610655,20173.589310,-47402.506757,16645.880538,40065.591343,5540.282195,0.006000,0.972000,0.112000,192.000000,0.000000,0.000000,30.000000,208.000000,3.000000,144.000000,0.000000,0.000000,0.000000,1647922285.323358,0.000000
224.000000,-2023.861053,-5574.927399,-28322.565952,20172.806999,-47403.534937,16642.348962,40060.808070,5527.787569,0.006000,0.972000,0.112000,192.000000,0.000000,0.000000,0.000000,0.000000,0.000000,0.000000,0.000000,0.000000,0.000000,1647922285.323363,0.000000
225.000000,-2028.443161,-5560.063488,-28318.743803,20177.277348,-47399.377513,16644.181805,40070.464023,5539.969270,0.006000,0.972000,0.112000,192.000000,0.000000,0.000000,0.000000,0.000000,0.000000,0.000000,0.000000,0.000000,0.000000,1647922285.330523,0.000000
226.000000,-2021.916452,-5556.800134,-28318.900266,20177.858493,-47399.645734,16642.170148,40069.189974,5535.655384,0.006000,0.972000,0.112000,192.000000,0.000000,0.000000,0.000000,0.000000,0.000000,0.000000,0.000000,0.000000,0.000000,1647922285.330527,0.000000
227.000000,-2010.740579,-5560.979910,-28319.682577,20173.544606,-47403.601993,16633.207099,40061.836250,5518.824520,0.006000,0.972000,0.112000,192.000000,0.000000,0.000000,0.000000,0.000000,0.000000,0.000000,0.000000,0.000000,0.000000,1647922285.338040,0.000000
228.000000,-2022.184673,-5573.295721,-28325.784603,20160.938223,-47412.207414,16625.093415,40061.076291,5519.070389,0.006000,0.972000,0.112000,192.000000,0.000000,0.000000,0.000000,0.000000,0.000000,0.000000,0.000000,0.000000,0.000000,1647922285.338045,0.000000
229.000000,-2041.429525,-5573.116907,-28319.280245,20164.670964,-47404.361952,16637.364523,40075.269648,5546.607738,0.006000,0.972000,0.112000,192.000000,0.000000,0.000000,0.000000,0.000000,0.000000,0.000000,0.000000,0.000000,0.000000,1647922285.346097,0.000000
230.000000,-2067.089327,-5571.351119,-28324.577609,20155.640859,-47411.156882,16631.798939,40069.368788,5530.693296,0.006000,0.972000,0.112000,192.000000,0.000000,0.000000,0.000000,0.000000,0.000000,0.000000,0.000000,0.000000,0.000000,1647922285.346102,0.000000
231.000000,-2077.773461,-5557.783611,-28316.575684,20163.575728,-47404.317248,16640.560823,40082.779835,5542.405610,0.006000,0.972000,0.112000,192.000000,0.000000,0.000000,0.000000,0.000000,0.000000,0.000000,0.000000,0.000000,0.000000,1647922285.353015,0.000000
232.000000,-2101.421607,-5571.529933,-28324.264684,20160.692353,-47412.833263,16635.151700,40083.025704,5551.033384,0.006000,0.972000,0.112000,192.000000,0.000000,0.000000,0.000000,0.000000,0.000000,0.000000,0.000000,0.000000,0.000000,1647922285.353019,0.000000
233.000000,-2105.199052,-5562.633939,-28311.211265,20168.157836,-47403.557289,16640.382009,40081.192861,5550.049907,0.006000,0.972000,0.112000,192.000000,0.000000,0.000000,30.000000,96.000000,3.000000,96.000000,0.000000,0.000000,0.000000,1647922285.360314,0.000000
234.000000,-2099.521708,-5556.353099,-28303.812838,20175.600967,-47396.382379,16642.728942,40077.169547,5542.360907,0.006000,0.972000,0.112000,192.000000,0.000000,0.000000,0.000000,0.000000,0.000000,0.000000,0.000000,0.000000,0.000000,1647922285.367703,0.000000
235.000000,-2115.570261,-5570.479401,-28311.479486,20163.463970,-47405.054856,16631.687180,40084.813843,5521.506729,0.006000,0.972000,0.112000,192.000000,0.000000,0.000000,0.000000,0.000000,0.000000,0.000000,0.000000,0.000000,0.000000,1647922285.367715,0.000000
236.000000,-2126.187340,-5566.947826,-28304.148114,20168.291946,-47398.818719,16640.627878,40108.640803,5522.646668,0.006000,0.972000,0.112000,192.000000,0.000000,0.000000,0.000000,0.000000,0.000000,0.000000,0.000000,0.000000,0.000000,1647922285.375660,0.000000
237.000000,-2147.600311,-5576.514372,-28313.871123,20160.133560,-47409.234632,16629.831985,40093.933355,5523.630145,0.006000,0.972000,0.112000,192.000000,0.000000,0.000000,0.000000,0.000000,0.000000,0.000000,0.000000,0.000000,0.000000,1647922285.375665,0.000000
238.000000,-2158.776183,-5572.759279,-28309.981920,20157.987792,-47406.619478,16628.200308,40079.427073,5519.472721,0.006000,0.972000,0.112000,192.000000,0.000000,0.000000,0.000000,0.000000,0.000000,0.000000,0.000000,0.000000,0.000000,1647922285.382778,0.000000
239.000000,-2169.035634,-5570.077070,-28308.909036,20157.920737,-47405.904222,16619.147851,40053.454346,5490.013121,0.006000,0.972000,0.112000,192.000000,0.000000,0.000000,0.000000,0.000000,0.000000,0.000000,0.000000,0.000000,0.000000,1647922285.382783,0.000000
240.000000,-2186.760567,-5573.206314,-28310.898341,20155.327935,-47406.775940,16620.734825,40075.068483,5499.713778,0.006000,0.972000,0.112000,192.000000,0.000000,0.000000,0.000000,0.000000,0.000000,0.000000,0.000000,0.000000,0.000000,1647922285.390398,0.000000
241.000000,-2190.470957,-5566.769012,-28297.911978,20166.682621,-47391.800271,16646.327573,40121.515408,5569.562980,0.006000,0.972000,0.112000,192.000000,0.000000,0.000000,0.000000,0.000000,0.000000,0.000000,0.000000,0.000000,0.000000,1647922285.390402,0.000000
242.000000,-2204.999591,-5572.625169,-28292.636966,20169.230720,-47385.050045,16652.697820,40134.166495,5595.781576,0.006000,0.972000,0.112000,192.000000,0.000000,0.000000,0.000000,0.000000,0.000000,0.000000,0.000000,0.000000,0.000000,1647922285.398356,0.000000
243.000000,-2219.952908,-5576.469669,-28290.334736,20170.393010,-47381.585524,16652.988392,40131.506638,5580.984721,0.014000,0.976000,0.104000,192.000000,0.000000,112.000000,30.000000,128.000000,3.000000,64.000000,0.000000,0.000000,0.000000,1647922285.398359,0.000000
244.000000,-2241.254120,-5584.270428,-28289.015983,20166.213234,-47378.411577,16651.289660,40128.220931,5556.800134,0.014000,0.976000,0.104000,192.000000,0.000000,0.000000,0.000000,0.000000,0.000000,0.000000,0.000000,0.000000,0.000000,1647922285.406443,0.000000
245.000000,-2270.289036,-5599.179041,-28296.995556,20153.249222,-47385.072396,16640.225546,40114.407553,5545.892483,0.014000,0.976000,0.104000,192.000000,0.000000,0.000000,0.000000,0.000000,0.000000,0.000000,0.000000,0.000000,0.000000,1647922285.406447,0.000000
246.000000,-2292.484318,-5605.191661,-28297.442591,20148.622411,-47382.054911,16639.599698,40108.618451,5550.407535,0.014000,0.976000,0.104000,192.000000,0.000000,0.000000,0.000000,0.000000,0.000000,0.000000,0.000000,0.000000,0.000000,1647922285.412996,0.000000
247.000000,-2309.471644,-5609.930230,-28292.145227,20145.604926,-47376.355216,16646.193462,40118.900254,5585.343311,0.014000,0.976000,0.104000,192.000000,0.000000,0.000000,0.000000,0.000000,0.000000,0.000000,0.000000,0.000000,0.000000,1647922285.413000,0.000000
248.000000,-2328.850607,-5616.009905,-28288.971280,20143.280344,-47373.538896,16649.993259,40118.967309,5588.047873,0.014000,0.976000,0.104000,192.000000,0.000000,0.000000,0.000000,0.000000,0.000000,0.000000,0.000000,0.000000,0.000000,1647922285.419998,0.000000
249.000000,-2351.381165,-5624.838844,-28290.290033,20134.876088,-47375.081167,16643.310087,40107.210291,5562.231608,0.014000,0.976000,0.104000,192.000000,0.000000,0.000000,0.000000,0.000000,0.000000,0.000000,0.000000,0.000000,0.000000,1647922285.427953,0.000000
250.000000,-2377.756223,-5631.857292,-28297.107315,20126.829460,-47378.724501,16639.890270,40112.082972,5555.749602,0.014000,0.976000,0.104000,192.000000,0.000000,0.000000,0.000000,0.000000,0.000000,0.000000,0.000000,0.000000,0.000000,1647922285.427956,0.000000
251.000000,-2397.358703,-5634.830074,-28295.766210,20124.370769,-47375.796422,16643.935936,40125.024632,5542.182093,0.014000,0.976000,0.104000,192.000000,0.000000,0.000000,0.000000,0.000000,0.000000,0.000000,0.000000,0.000000,0.000000,1647922285.436058,0.000000
252.000000,-2423.733762,-5649.761039,-28305.802143,20111.652626,-47385.698245,16633.855299,40111.211254,5527.809921,0.014000,0.976000,0.104000,192.000000,0.000000,0.000000,0.000000,0.000000,0.000000,0.000000,0.000000,0.000000,0.000000,1647922285.436062,0.000000
253.000000,-2447.761887,-5662.188609,-28317.201533,20098.710966,-47396.270620,16620.779529,40082.109282,5513.214232,0.002000,0.970000,0.102000,192.000000,0.000000,16.000000,30.000000,80.000000,3.000000,48.000000,0.000000,0.000000,0.000000,1647922285.442681,0.000000
254.000000,-2448.253625,-5651.795048,-28308.439649,20104.567123,-47386.860536,16630.234317,40089.507710,5530.693296,0.002000,0.970000,0.102000,192.000000,0.000000,0.000000,0.000000,0.000000,0.000000,0.000000,0.000000,0.000000,0.000000,1647922285.442685,0.000000
255.000000,-2458.781297,-5650.386888,-28302.561140,20108.210457,-47377.964542,16640.493767,40124.890521,5527.228776,0.002000,0.970000,0.102000,192.000000,0.000000,0.000000,0.000000,0.000000,0.000000,0.000000,0.000000,0.000000,0.000000,1647922285.450558,0.000000
0.000000,-2467.453774,-5655.907769,-28302.024698,20102.309597,-47378.478632,16634.883479,40124.197617,5514.734151,0.002000,0.970000,0.102000,192.000000,0.000000,0.000000,0.000000,0.000000,0.000000,0.000000,0.000000,0.000000,0.000000,1647922285.450562,0.000000
1.000000,-2462.536390,-5652.555007,-28298.202550,20102.801335,-47374.455318,16637.118654,40105.824483,5518.310430,0.002000,0.970000,0.102000,192.000000,0.000000,0.000000,0.000000,0.000000,0.000000,0.000000,0.000000,0.000000,0.000000,1647922285.458597,0.000000
2.000000,-2467.029091,-5649.828094,-28298.917806,20103.963626,-47371.415481,16638.258593,40093.732189,5518.712761,0.002000,0.970000,0.102000,192.000000,0.000000,0.000000,0.000000,0.000000,0.000000,0.000000,0.000000,0.000000,0.000000,1647922285.458601,0.000000
3.000000,-2469.577190,-5647.302347,-28297.800219,20106.690539,-47367.861553,16642.483073,40110.071315,5532.861415,0.002000,0.970000,0.102000,192.000000,0.000000,0.000000,0.000000,0.000000,0.000000,0.000000,0.000000,0.000000,0.000000,1647922285.465703,0.000000
4.000000,-2475.925085,-5654.209036,-28307.612635,20096.296978,-47377.450452,16636.649267,40099.565995,5532.347325,0.002000,0.970000,0.102000,192.000000,0.000000,0.000000,0.000000,0.000000,0.000000,0.000000,0.000000,0.000000,0.000000,1647922285.465706,0.000000
5.000000,-2479.747233,-5656.757135,-28312.530018,20089.077364,-47381.585524,16631.933049,40101.264727,5526.200596,0.002000,0.970000,0.102000,192.000000,0.000000,0.000000,0.000000,0.000000,0.000000,0.000000,0.000000,0.000000,0.000000,1647922285.473279,0.000000
6.000000,-2479.054329,-5657.919426,-28313.446440,20085.076402,-47381.809042,16631.262497,40112.418248,5520.635011,0.002000,0.970000,0.102000,192.000000,0.000000,0.000000,0.000000,0.000000,0.000000,0.000000,0.000000,0.000000,0.000000,1647922285.473283,0.000000
7.000000,-2472.974655,-5653.851408,-28310.786582,20084.584663,-47378.031597,16635.643439,40108.730210,5529.866282,0.010000,0.972000,0.098000,192.000000,0.000000,80.000000,30.000000,96.000000,3.000000,16.000000,0.000000,0.000000,0.000000,1647922285.480228,0.000000
8.000000,-2470.538315,-5656.265397,-28314.206399,20077.767381,-47380.736158,16631.776587,40103.678716,5537.756448,0.010000,0.972000,0.098000,192.000000,0.000000,0.000000,0.000000,0.000000,0.000000,0.000000,0.000000,0.000000,0.000000,1647922285.488273,0.000000
9.000000,-2459.563608,-5649.537522,-28309.691347,20079.488466,-47376.645789,16632.447139,40096.056771,5529.128674,0.010000,0.972000,0.098000,192.000000,0.000000,0.000000,0.000000,0.000000,0.000000,0.000000,0.000000,0.000000,0.000000,1647922285.488277,0.000000
10.000000,-2448.588902,-5647.168237,-28307.009138,20079.823742,-47374.254152,16627.641514,40094.246280,5514.220061,0.010000,0.972000,0.098000,192.000000,0.000000,0.000000,0.000000,0.000000,0.000000,0.000000,0.000000,0.000000,0.000000,1647922285.494832,0.000000
11.000000,-2444.878512,-5647.056478,-28312.597074,20075.465152,-47377.137527,16624.512270,40098.247242,5519.718590,0.010000,0.972000,0.098000,192.000000,0.000000,0.000000,0.000000,0.000000,0.000000,0.000000,0.000000,0.000000,0.000000,1647922285.494861,0.000000
12.000000,-2440.788143,-5646.452981,-28312.060632,20071.374782,-47377.584562,16627.999142,40107.322050,5525.127712,0.010000,0.972000,0.098000,192.000000,0.000000,0.000000,0.000000,0.000000,0.000000,0.000000,0.000000,0.000000,0.000000,1647922285.502923,0.000000
13.000000,-2437.658899,-5648.107010,-28314.049937,20067.574986,-47379.707978,16625.540450,40092.949878,5529.687468,0.010000,0.972000,0.098000,192.000000,0.000000,0.000000,0.000000,0.000000,0.000000,0.000000,0.000000,0.000000,0.000000,1647922285.502927,0.000000
14.000000,-2428.964070,-5642.228501,-28311.635949,20070.681878,-47375.841126,16625.048712,40085.417340,5523.652497,0.010000,0.972000,0.098000,192.000000,0.000000,0.000000,0.000000,0.000000,0.000000,0.000000,0.000000,0.000000,0.000000,1647922285.510848,0.000000
15.000000,-2426.728896,-5646.475333,-28315.905132,20066.747971,-47377.897486,16624.467567,40097.710800,5509.280325,0.010000,0.972000,0.098000,192.000000,0.000000,0.000000,0.000000,0.000000,0.000000,0.000000,0.000000,0.000000,0.000000,1647922285.510851,0.000000
16.000000,-2420.895090,-5644.463676,-28318.766155,20063.574024,-47379.730329,16625.495747,40105.064524,5514.667096,0.010000,0.972000,0.098000,192.000000,0.000000,0.000000,0.000000,0.000000,0.000000,0.000000,0.000000,0.000000,0.000000,1647922285.517901,0.000000
17.000000,-2416.983535,-5644.396620,-28323.907056,20057.874329,-47383.954809,16613.515212,40071.693369,5503.692389,0.010000,0.972000,0.098000,192.000000,0.000000,0.000000,0.000000,0.000000,0.000000,0.000000,0.000000,0.000000,0.000000,1647922285.517906,0.000000
18.000000,-2412.356724,-5645.313042,-28326.008120,20057.114370,-47384.491251,16610.005988,40056.248314,5503.580630,0.004000,0.980000,0.100000,192.000000,0.000000,32.000000,30.000000,160.000000,3.000000,32.000000,0.000000,0.000000,0.000000,1647922285.525523,0.000000
19.000000,-2405.114759,-5637.869911,-28321.291902,20058.030791,-47379.395053,16613.716377,40061.746843,5483.665226,0.004000,0.980000,0.100000,192.000000,0.000000,0.000000,0.000000,0.000000,0.000000,0.000000,0.000000,0.000000,0.000000,1647922285.525528,0.000000
20.000000,-2399.437416,-5634.606556,-28323.147097,20057.762570,-47379.529164,16619.103148,40099.230719,5489.320217,0.004000,0.980000,0.100000,192.000000,0.000000,0.000000,0.000000,0.000000,0.000000,0.000000,0.000000,0.000000,0.000000,1647922285.533479,0.000000
21.000000,-2391.457843,-5631.231443,-28321.381309,20056.287355,-47378.702149,16628.289715,40125.717536,5518.936279,0.004000,0.980000,0.100000,192.000000,0.000000,0.000000,0.000000,0.000000,0.000000,0.000000,0.000000,0.000000,0.000000,1647922285.533482,0.000000
22.000000,-2384.729968,-5624.525920,-28320.934274,20058.254308,-47376.668140,16626.747444,40110.719515,5519.830348,0.004000,0.980000,0.100000,192.000000,0.000000,0.000000,0.000000,0.000000,0.000000,0.000000,0.000000,0.000000,0.000000,1647922285.540659,0.000000
23.000000,-2380.818412,-5627.118722,-28325.739899,20050.252384,-47381.250248,16617.359712,40087.384294,5487.196802,0.004000,0.980000,0.100000,192.000000,0.000000,0.000000,0.000000,0.000000,0.000000,0.000000,0.000000,0.000000,0.000000,1647922285.547688,0.000000
24.000000,-2373.397633,-5624.838844,-28324.219981,20049.939460,-47379.149184,16623.484090,40095.386218,5503.290058,0.004000,0.980000,0.100000,192.000000,0.000000,0.000000,0.000000,0.000000,0.000000,0.000000,0.000000,0.000000,0.000000,1647922285.547692,0.000000
25.000000,-2368.971988,-5627.744571,-28327.773908,20050.095922,-47382.054911,16618.589058,40074.196765,5506.866337,0.004000,0.980000,0.100000,192.000000,0.000000,0.000000,0.000000,0.000000,0.000000,0.000000,0.000000,0.000000,0.000000,1647922285.555124,0.000000
26.000000,-2362.735851,-5626.649335,-28334.322969,20047.413712,-47387.016998,16610.296561,40047.262913,5491.890668,0.004000,0.980000,0.100000,192.000000,0.000000,0.000000,0.000000,0.000000,0.000000,0.000000,0.000000,0.000000,0.000000,1647922285.555128,0.000000
27.000000,-2347.044927,-5612.165405,-28325.114051,20055.616803,-47375.841126,16629.764930,40090.155910,5521.618488,0.004000,0.980000,0.100000,192.000000,0.000000,0.000000,0.000000,0.000000,0.000000,0.000000,0.000000,0.000000,0.000000,1647922285.563235,0.000000
28.000000,-2340.875845,-5612.165405,-28330.120841,20050.744122,-47379.551516,16627.619163,40085.797320,5508.565069,0.004000,0.980000,0.106000,192.000000,0.000000,32.000000,30.000000,160.000000,3.000000,80.000000,0.000000,0.000000,0.000000,1647922285.563239,0.000000
29.000000,-2330.147008,-5608.544422,-28330.277303,20048.240727,-47379.104481,16628.133253,40095.542681,5512.342514,0.004000,0.980000,0.106000,192.000000,0.000000,0.000000,0.000000,0.000000,0.000000,0.000000,0.000000,0.000000,0.000000,1647922285.571129,0.000000
30.000000,-2325.631955,-5607.113911,-28329.271475,20049.134797,-47378.433928,16631.061331,40097.867262,5512.744845,0.004000,0.980000,0.106000,192.000000,0.000000,0.000000,0.000000,0.000000,0.000000,0.000000,0.000000,0.000000,0.000000,1647922285.571133,0.000000
31.000000,-2310.723342,-5596.474480,-28322.208324,20056.488521,-47371.057853,16634.525852,40085.573803,5501.859546,0.004000,0.980000,0.106000,192.000000,0.000000,0.000000,0.000000,0.000000,0.000000,0.000000,0.000000,0.000000,0.000000,1647922285.577690,0.000000
32.000000,-2305.135406,-5592.048835,-28321.694234,20056.019134,-47371.035501,16634.056465,40072.833308,5510.733188,0.004000,0.980000,0.106000,192.000000,0.000000,0.000000,0.000000,0.000000,0.000000,0.000000,0.000000,0.000000,0.000000,1647922285.577694,0.000000
33.000000,-2296.775853,-5585.544477,-28317.581513,20056.354410,-47368.174478,16637.588041,40077.191898,5504.161776,0.004000,0.980000,0.106000,192.000000,0.000000,0.000000,0.000000,0.000000,0.000000,0.000000,0.000000,0.000000,0.000000,1647922285.585649,0.000000
34.000000,-2286.002312,-5582.169364,-28318.117955,20056.935556,-47367.928608,16635.464625,40074.755558,5497.389197,0.004000,0.980000,0.106000,192.000000,0.000000,0.000000,0.000000,0.000000,0.000000,0.000000,0.000000,0.000000,0.000000,1647922285.585652,0.000000
35.000000,-2283.253048,-5587.802003,-28326.008120,20047.145491,-47375.684664,16625.026360,40063.557334,5477.809069,0.004000,0.980000,0.106000,192.000000,0.000000,0.000000,0.000000,0.000000,0.000000,0.000000,0.000000,0.000000,0.000000,1647922285.593725,0.000000
36.000000,-2279.743824,-5585.946809,-28327.975074,20045.670276,-47377.852783,16621.830061,40061.657436,5478.613732,0.004000,0.980000,0.106000,192.000000,0.000000,0.000000,0.000000,0.000000,0.000000,0.000000,0.000000,0.000000,0.000000,1647922285.593729,0.000000
37.000000,-2280.727301,-5588.472556,-28332.624237,20041.177576,-47382.658408,16614.297523,40045.675939,5468.019005,0.004000,0.980000,0.106000,192.000000,0.000000,0.000000,0.000000,0.000000,0.000000,0.000000,0.000000,0.000000,0.000000,1647922285.600753,0.000000
38.000000,-2282.604847,-5596.452128,-28341.699045,20033.421520,-47392.068492,16600.730014,40029.962662,5459.413583,-0.004000,0.978000,0.112000,192.000000,255.000000,224.000000,30.000000,144.000000,3.000000,128.000000,0.000000,0.000000,0.000000,1647922285.600756,0.000000
39.000000,-2275.452289,-5593.389939,-28342.168432,20031.342808,-47392.426120,16603.926313,40064.205535,5460.218246,-0.004000,0.978000,0.112000,192.000000,0.000000,0.000000,0.000000,0.000000,0.000000,0.000000,0.000000,0.000000,0.000000,1647922285.607505,0.000000
40.000000,-2274.289998,-5592.004131,-28341.833155,20027.788881,-47390.705036,16613.403453,40084.813843,5473.271665,-0.004000,0.978000,0.112000,192.000000,0.000000,0.000000,0.000000,0.000000,0.000000,0.000000,0.000000,0.000000,0.000000,1647922285.615416,0.000000
41.000000,-2268.277379,-5585.075091,-28336.580495,20029.644076,-47384.670065,16621.830061,40076.454291,5492.762386,-0.004000,0.978000,0.112000,192.000000,0.000000,0.000000,0.000000,0.000000,0.000000,0.000000,0.000000,0.000000,0.000000,1647922285.615420,0.000000
42.000000,-2260.253103,-5578.906009,-28334.367673,20033.376817,-47381.943152,16619.728997,40063.110299,5497.635066,-0.004000,0.978000,0.112000,192.000000,0.000000,0.000000,0.000000,0.000000,0.000000,0.000000,0.000000,0.000000,0.000000,1647922285.623453,0.000000
43.000000,-2254.709870,-5575.173268,-28335.999350,20029.465262,-47383.396016,16617.873802,40055.980093,5490.728377,-0.004000,0.978000,0.112000,192.000000,0.000000,0.000000,0.000000,0.000000,0.000000,0.000000,0.000000,0.000000,0.000000,1647922285.623462,0.000000
44.000000,-2250.641853,-5573.563942,-28334.881763,20026.671294,-47381.362007,16621.226564,40057.745881,5484.469889,-0.004000,0.978000,0.112000,192.000000,0.000000,0.000000,0.000000,0.000000,0.000000,0.000000,0.000000,0.000000,0.000000,1647922285.630516,0.000000
45.000000,-2247.959643,-5574.256846,-28335.686426,20027.833584,-47380.579696,16620.935991,40046.726471,5478.434918,-0.004000,0.978000,0.112000,192.000000,0.000000,0.000000,0.000000,0.000000,0.000000,0.000000,0.000000,0.000000,0.000000,1647922285.630520,0.000000
46.000000,-2242.505818,-5573.385128,-28337.452213,20033.712093,-47381.004379,16624.087587,40057.500012,5499.266744,-0.004000,0.978000,0.112000,192.000000,0.000000,0.000000,0.000000,0.000000,0.000000,0.000000,0.000000,0.000000,0.000000,1647922285.637958,0.000000
47.000000,-2238.706021,-5570.077070,-28333.384196,20029.599372,-47380.333827,16627.194479,40072.721550,5498.484433,-0.004000,0.978000,0.112000,192.000000,0.000000,0.000000,0.000000,0.000000,0.000000,0.000000,0.000000,0.000000,0.000000,1647922285.637962,0.000000
48.000000,-2236.001460,-5570.255884,-28335.731129,20027.967695,-47382.971332,16623.640552,40085.730265,5486.034511,0.004000,0.978000,0.122000,192.000000,0.000000,32.000000,30.000000,144.000000,3.000000,208.000000,0.000000,0.000000,0.000000,1647922285.646065,0.000000
49.000000,-2233.229844,-5572.044024,-28340.916734,20022.826794,-47388.201641,16611.727072,40076.744864,5460.508819,0.004000,0.978000,0.122000,192.000000,0.000000,0.000000,0.000000,0.000000,0.000000,0.000000,0.000000,0.000000,0.000000,1647922285.646069,0.000000
50.000000,-2230.167655,-5573.675701,-28343.598943,20020.278695,-47390.258001,16607.480241,40057.522363,5452.462191,0.004000,0.978000,0.122000,192.000000,0.000000,0.000000,0.000000,0.000000,0.000000,0.000000,0.000000,0.000000,0.000000,1647922285.653053,0.000000
51.000000,-2223.909166,-5569.294759,-28338.078062,20025.218430,-47384.446548,16617.449119,40059.601076,5475.573894,0.004000,0.978000,0.122000,192.000000,0.000000,0.000000,0.000000,0.000000,0.000000,0.000000,0.000000,0.000000,0.000000,1647922285.653056,0.000000
52.000000,-2217.494216,-5561.695166,-28333.987693,20029.934648,-47380.244420,16615.772738,40048.268741,5456.507856,0.004000,0.978000,0.122000,192.000000,0.000000,0.000000,0.000000,0.000000,0.000000,0.000000,0.000000,0.000000,0.000000,1647922285.660681,0.000000
53.000000,-2213.314439,-5558.185942,-28333.987693,20034.606163,-47377.919838,16619.661941,40063.155003,5474.456307,0.004000,0.978000,0.122000,192.000000,0.000000,0.000000,0.000000,0.000000,0.000000,0.000000,0.000000,0.000000,0.000000,1647922285.660685,0.000000
54.000000,-2206.139529,-5551.972157,-28331.819574,20037.511890,-47374.254152,16624.624029,40071.179279,5475.797412,0.004000,0.978000,0.122000,192.000000,0.000000,0.000000,0.000000,0.000000,0.000000,0.000000,0.000000,0.000000,0.000000,1647922285.667637,0.000000
55.000000,-2203.032637,-5547.568863,-28330.903152,20034.740273,-47374.343559,16626.076892,40068.988808,5480.401871,0.004000,0.978000,0.122000,192.000000,0.000000,0.000000,0.000000,0.000000,0.000000,0.000000,0.000000,0.000000,0.000000,1647922285.675803,0.000000
56.000000,-2201.579774,-5543.254977,-28331.931333,20034.919087,-47374.343559,16628.088549,40059.243448,5483.084081,0.004000,0.978000,0.122000,192.000000,0.000000,0.000000,0.000000,0.000000,0.000000,0.000000,0.000000,0.000000,0.000000,1647922285.675808,0.000000
57.000000,-2203.569079,-5547.188884,-28335.686426,20029.889945,-47379.216239,16628.066197,40055.980093,5485.609828,0.004000,0.978000,0.122000,192.000000,0.000000,0.000000,0.000000,0.000000,0.000000,0.000000,0.000000,0.000000,0.000000,1647922285.682834,0.000000
58.000000,-2210.341657,-5557.738907,-28341.833155,20021.753910,-47385.519431,16621.740654,40062.864430,5456.440801,0.008000,0.972000,0.128000,192.000000,0.000000,64.000000,30.000000,96.000000,4.000000,0.000000,0.000000,0.000000,0.000000,1647922285.682837,0.000000
59.000000,-2203.256154,-5551.882750,-28338.189821,20020.859840,-47381.943152,16622.120633,40056.248314,5455.189104,0.008000,0.972000,0.128000,192.000000,0.000000,0.000000,0.000000,0.000000,0.000000,0.000000,0.000000,0.000000,0.000000,1647922285.690281,0.000000
60.000000,-2191.387378,-5544.484323,-28335.284094,20024.570230,-47378.344521,16626.546279,40053.230828,5479.328988,0.008000,0.972000,0.128000,192.000000,0.000000,0.000000,0.000000,0.000000,0.000000,0.000000,0.000000,0.000000,0.000000,1647922285.690285,0.000000
61.000000,-2187.162898,-5543.254977,-28333.540658,20027.028921,-47376.288161,16627.820328,40058.237619,5469.896551,0.008000,0.972000,0.128000,192.000000,0.000000,0.000000,0.000000,0.000000,0.000000,0.000000,0.000000,0.000000,0.000000,1647922285.698335,0.000000
62.000000,-2189.331018,-5542.495017,-28334.568838,20025.173727,-47374.991760,16627.507404,40053.141421,5478.166697,0.008000,0.972000,0.128000,192.000000,0.000000,0.000000,0.000000,0.000000,0.000000,0.000000,0.000000,0.000000,0.000000,1647922285.698339,0.000000
63.000000,-2176.076433,-5530.603889,-28323.683539,20031.879250,-47362.117155,16643.198328,40073.123881,5502.284229,0.008000,0.972000,0.128000,192.000000,0.000000,0.000000,0.000000,0.000000,0.000000,0.000000,0.000000,0.000000,0.000000,1647922285.706434,0.000000
64.000000,-2178.110442,-5535.655384,-28328.355053,20026.090148,-47367.258056,16634.369389,40080.902288,5484.648703,0.008000,0.972000,0.128000,192.000000,0.000000,0.000000,0.000000,0.000000,0.000000,0.000000,0.000000,0.000000,0.000000,1647922285.706439,0.000000
65.000000,-2178.646884,-5535.543625,-28329.025606,20023.318532,-47368.912085,16631.486014,40059.086985,5480.781851,0.008000,0.972000,0.128000,192.000000,0.000000,0.000000,0.000000,0.000000,0.000000,0.000000,0.000000,0.000000,0.000000,1647922285.712881,0.000000
66.000000,-2176.925799,-5534.336631,-28330.187897,20023.072663,-47369.627341,16630.435482,40051.219171,5476.914999,0.008000,0.972000,0.128000,192.000000,0.000000,0.000000,0.000000,0.000000,0.000000,0.000000,0.000000,0.000000,0.000000,1647922285.712885,0.000000
67.000000,-2172.947189,-5534.001354,-28332.445423,20021.843317,-47370.856687,16629.653171,40061.277456,5478.144345,0.008000,0.972000,0.128000,192.000000,0.000000,0.000000,0.000000,0.000000,0.000000,0.000000,0.000000,0.000000,0.000000,1647922285.720880,0.000000
68.000000,-2178.110442,-5536.951785,-28335.798184,20016.948285,-47375.595257,16621.338322,40059.958704,5454.563255,0.008000,0.972000,0.128000,192.000000,0.000000,0.000000,30.000000,144.000000,3.000000,208.000000,0.000000,0.000000,0.000000,1647922285.720884,0.000000
69.000000,-2174.131831,-5529.307488,-28329.673806,20022.893849,-47369.247361,16625.898078,40063.467927,5460.665281,0.008000,0.972000,0.128000,192.000000,0.000000,0.000000,0.000000,0.000000,0.000000,0.000000,0.000000,0.000000,0.000000,1647922285.728014,0.000000
70.000000,-2174.467108,-5527.742866,-28330.947856,20023.117366,-47370.655521,16622.657075,40045.944160,5484.872220,0.008000,0.972000,0.128000,192.000000,0.000000,0.000000,0.000000,0.000000,0.000000,0.000000,0.000000,0.000000,0.000000,1647922285.735993,0.000000
71.000000,-2173.863610,-5528.145197,-28333.920638,20022.312703,-47373.918876,16619.840755,40057.254142,5506.642819,0.008000,0.972000,0.128000,192.000000,0.000000,0.000000,0.000000,0.000000,0.000000,0.000000,0.000000,0.000000,0.000000,1647922285.735997,0.000000
72.000000,-2167.314549,-5523.093703,-28327.952722,20023.139718,-47370.722576,16619.617238,40054.728395,5492.471813,0.008000,0.972000,0.128000,192.000000,0.000000,0.000000,0.000000,0.000000,0.000000,0.000000,0.000000,0.000000,0.000000,1647922285.742676,0.000000
73.000000,-2157.435078,-5519.338610,-28323.437670,20024.570230,-47367.302760,16617.516174,40040.780907,5472.668168,0.008000,0.972000,0.128000,192.000000,0.000000,0.000000,0.000000,0.000000,0.000000,0.000000,0.000000,0.000000,0.000000,1647922285.742680,0.000000
74.000000,-2152.227122,-5518.377485,-28316.575684,20030.404035,-47361.625416,16630.189613,40067.625352,5505.301715,0.008000,0.972000,0.128000,192.000000,0.000000,0.000000,0.000000,0.000000,0.000000,0.000000,0.000000,0.000000,0.000000,1647922285.750582,0.000000
75.000000,-2154.037613,-5519.740941,-28316.083946,20028.437081,-47362.273617,16629.764930,40064.563163,5511.694313,0.008000,0.972000,0.128000,192.000000,0.000000,0.000000,0.000000,0.000000,0.000000,0.000000,0.000000,0.000000,0.000000,1647922285.750586,0.000000
76.000000,-2160.050232,-5525.507692,-28322.744766,20022.491517,-47371.884867,16625.451043,40062.171526,5525.485340,0.008000,0.972000,0.128000,192.000000,0.000000,0.000000,0.000000,0.000000,0.000000,0.000000,0.000000,0.000000,0.000000,1647922285.758688,0.000000
77.000000,-2160.787840,-5524.770084,-28324.197629,20022.111538,-47376.735196,16626.166299,40058.170564,5530.738000,0.008000,0.972000,0.128000,192.000000,0.000000,0.000000,0.000000,0.000000,0.000000,0.000000,0.000000,0.000000,0.000000,1647922285.758692,0.000000
78.000000,-2161.056061,-5525.664154,-28323.840001,20020.032825,-47379.529164,16627.932087,40057.321198,5541.131561,-0.002000,0.984000,0.116000,192.000000,255.000000,240.000000,30.000000,192.000000,3.000000,160.000000,0.000000,0.000000,0.000000,1647922285.765251,0.000000
79.000000,-2160.161991,-5524.121883,-28324.734071,20021.485689,-47380.490289,16624.489918,40046.435898,5530.447427,-0.002000,0.984000,0.116000,192.000000,0.000000,0.000000,0.000000,0.000000,0.000000,0.000000,0.000000,0.000000,0.000000,1647922285.765254,0.000000
80.000000,-2164.900561,-5527.899328,-28327.639798,20018.557610,-47385.944114,16616.130366,40035.058860,5501.747787,-0.002000,0.984000,0.116000,192.000000,0.000000,0.000000,0.000000,0.000000,0.000000,0.000000,0.000000,0.000000,0.000000,1647922285.773200,0.000000
81.000000,-2165.593465,-5528.301660,-28328.913847,20014.511945,-47388.983952,16614.588095,40040.378575,5505.994619,-0.002000,0.984000,0.116000,192.000000,0.000000,0.000000,0.000000,0.000000,0.000000,0.000000,0.000000,0.000000,0.000000,1647922285.773203,0.000000
82.000000,-2156.988043,-5517.751636,-28321.202495,20019.205811,-47382.032559,16624.176994,40049.431032,5540.840988,-0.002000,0.984000,0.116000,192.000000,0.000000,0.000000,0.000000,0.000000,0.000000,0.000000,0.000000,0.000000,0.000000,1647922285.781388,0.000000
83.000000,-2151.601273,-5514.465930,-28315.011062,20020.993950,-47376.958713,16628.692046,40052.135593,5550.832218,-0.002000,0.984000,0.116000,192.000000,0.000000,0.000000,0.000000,0.000000,0.000000,0.000000,0.000000,0.000000,0.000000,1647922285.781393,0.000000
84.000000,-2147.756773,-5512.364866,-28314.496972,20022.223296,-47376.556382,16625.786319,40044.915979,5525.977078,-0.002000,0.984000,0.116000,192.000000,0.000000,0.000000,0.000000,0.000000,0.000000,0.000000,0.000000,0.000000,0.000000,1647922285.788423,0.000000
85.000000,-2144.448715,-5507.603944,-28314.899303,20021.642151,-47376.578734,16623.797014,40038.679843,5525.217119,-0.002000,0.984000,0.116000,192.000000,0.000000,0.000000,0.000000,0.000000,0.000000,0.000000,0.000000,0.000000,0.000000,1647922285.794976,0.000000
86.000000,-2142.235892,-5500.630200,-28315.122821,20023.005607,-47375.595257,16623.193517,40042.099660,5529.106322,-0.002000,0.984000,0.116000,192.000000,0.000000,0.000000,0.000000,0.000000,0.000000,0.000000,0.000000,0.000000,0.000000,1647922285.794985,0.000000
87.000000,-2142.414706,-5498.462081,-28311.412431,20023.676160,-47374.164745,16632.782415,40049.766308,5537.354116,-0.002000,0.984000,0.116000,192.000000,0.000000,0.000000,0.000000,0.000000,0.000000,0.000000,0.000000,0.000000,0.000000,1647922285.802866,0.000000
88.000000,-2146.125096,-5505.167604,-28314.988710,20017.194154,-47379.819736,16628.155604,40045.430070,5529.821578,0.004000,0.978000,0.114000,192.000000,0.000000,32.000000,30.000000,144.000000,3.000000,144.000000,0.000000,0.000000,0.000000,1647922285.802869,0.000000
89.000000,-2152.316529,-5514.734151,-28326.119879,20002.598465,-47392.671990,16609.871877,40028.956834,5505.793453,0.004000,0.978000,0.114000,192.000000,0.000000,0.000000,0.000000,0.000000,0.000000,0.000000,0.000000,0.000000,0.000000,1647922285.811412,0.000000
90.000000,-2154.864628,-5516.991677,-28328.086833,19999.513924,-47395.465958,16603.993369,40018.071534,5496.696293,0.004000,0.978000,0.114000,192.000000,0.000000,0.000000,0.000000,0.000000,0.000000,0.000000,0.000000,0.000000,0.000000,1647922285.811428,0.000000
91.000000,-2155.289311,-5520.702067,-28330.701987,19996.272921,-47398.930478,16602.540505,40005.554558,5507.112206,0.004000,0.978000,0.114000,192.000000,0.000000,0.000000,0.000000,0.000000,0.000000,0.000000,0.000000,0.000000,0.000000,1647922285.818377,0.000000
92.000000,-2146.996814,-5512.074293,-28321.381309,20000.407994,-47389.922725,16614.677502,40019.859674,5526.312354,0.004000,0.978000,0.114000,192.000000,0.000000,0.000000,0.000000,0.000000,0.000000,0.000000,0.000000,0.000000,0.000000,1647922285.818394,0.000000
93.000000,-2143.778162,-5509.146215,-28321.381309,20008.029939,-47386.324094,16615.035130,40023.592415,5520.187976,0.004000,0.978000,0.114000,192.000000,0.000000,0.000000,0.000000,0.000000,0.000000,0.000000,0.000000,0.000000,0.000000,1647922285.825884,0.000000
94.000000,-2137.430267,-5500.697255,-28319.012024,20011.203886,-47382.412539,16611.950590,40030.879084,5485.073386,0.004000,0.978000,0.114000,192.000000,0.000000,0.000000,0.000000,0.000000,0.000000,0.000000,0.000000,0.000000,0.000000,1647922285.825901,0.000000
95.000000,-2143.800514,-5509.392084,-28328.712681,19996.541142,-47393.856632,16593.443345,40026.833418,5440.235786,0.004000,0.978000,0.114000,192.000000,0.000000,0.000000,0.000000,0.000000,0.000000,0.000000,0.000000,0.000000,0.000000,1647922285.833994,0.000000
96.000000,-2150.930721,-5511.426093,-28330.500821,19999.983311,-47394.393074,16609.089566,40056.807108,5510.576726,0.004000,0.978000,0.114000,192.000000,0.000000,0.000000,0.000000,0.000000,0.000000,0.000000,0.000000,0.000000,0.000000,1647922285.834012,0.000000
97.000000,-2148.360270,-5509.973229,-28333.451251,20003.492535,-47393.789577,16628.893212,40078.376541,5574.681529,0.004000,0.978000,0.114000,192.000000,0.000000,0.000000,0.000000,0.000000,0.000000,0.000000,0.000000,0.000000,0.000000,1647922285.841627,0.000000
98.000000,-2142.861741,-5501.837194,-28328.757385,20006.510020,-47390.772091,16630.390779,40066.127785,5554.162628,0.004000,0.976000,0.120000,192.000000,0.000000,32.000000,30.000000,128.000000,3.000000,192.000000,0.000000,0.000000,0.000000,1647922285.841637,0.000000
99.000000,-2141.945319,-5499.222040,-28324.667016,20008.968712,-47387.911068,16631.351904,40066.284247,5541.131561,0.004000,0.976000,0.120000,192.000000,0.000000,0.000000,0.000000,0.000000,0.000000,0.000000,0.000000,0.000000,0.000000,1647922285.848000,0.000000
100.000000,-2140.939491,-5500.809014,-28325.404623,20008.924008,-47389.922725,16628.066197,40056.740052,5544.439619,0.004000,0.976000,0.120000,192.000000,0.000000,0.000000,0.000000,0.000000,0.000000,0.000000,0.000000,0.000000,0.000000,1647922285.848011,0.000000
101.000000,-2143.442886,-5498.775005,-28327.930370,20005.481840,-47392.560231,16626.367465,40046.413546,5540.639823,0.004000,0.976000,0.120000,192.000000,0.000000,0.000000,0.000000,0.000000,0.000000,0.000000,0.000000,0.000000,0.000000,1647922285.855402,0.000000
102.000000,-2142.951148,-5502.798319,-28328.735033,20003.336072,-47394.258963,16623.059407,40046.413546,5539.008145,0.004000,0.976000,0.120000,192.000000,0.000000,0.000000,0.000000,0.000000,0.000000,0.000000,0.000000,0.000000,0.000000,1647922285.863481,0.000000
103.000000,-2142.191189,-5503.491223,-28328.489164,20001.078546,-47394.951867,16617.784395,40044.938331,5514.197709,0.004000,0.976000,0.120000,192.000000,0.000000,0.000000,0.000000,0.000000,0.000000,0.000000,0.000000,0.000000,0.000000,1647922285.863497,0.000000
104.000000,-2143.219369,-5500.518441,-28327.371577,20001.883209,-47392.984914,16610.385968,40039.909189,5498.238563,0.004000,0.976000,0.120000,192.000000,0.000000,0.000000,0.000000,0.000000,0.000000,0.000000,0.000000,0.000000,0.000000,1647922285.871615,0.000000
105.000000,-2146.125096,-5504.832328,-28329.472641,20000.765622,-47393.431949,16613.872840,40034.634177,5512.722494,0.004000,0.976000,0.120000,192.000000,0.000000,0.000000,0.000000,0.000000,0.000000,0.000000,0.000000,0.000000,0.000000,1647922285.871631,0.000000
106.000000,-2139.598386,-5498.506784,-28325.941065,20003.894866,-47388.358103,16618.879630,40035.841171,5517.505767,0.004000,0.976000,0.120000,192.000000,0.000000,0.000000,0.000000,0.000000,0.000000,0.000000,0.000000,0.000000,0.000000,1647922285.878144,0.000000
107.000000,-2136.089162,-5490.504860,-28325.002292,20005.794764,-47384.625362,16620.444253,40039.015119,5525.440636,0.004000,0.976000,0.120000,192.000000,0.000000,0.000000,0.000000,0.000000,0.000000,0.000000,0.000000,0.000000,0.000000,1647922285.878179,0.000000
108.000000,-2134.233968,-5491.175412,-28328.712681,19999.983311,-47387.665199,16617.091491,40034.008328,5511.895479,0.004000,0.972000,0.124000,192.000000,0.000000,32.000000,30.000000,96.000000,3.000000,224.000000,0.000000,0.000000,0.000000,1647922285.886161,0.000000
109.000000,-2135.843293,-5497.210383,-28335.261743,19995.892941,-47393.007266,16609.491898,40033.449535,5495.466947,0.004000,0.972000,0.124000,192.000000,0.000000,0.000000,0.000000,0.000000,0.000000,0.000000,0.000000,0.000000,0.000000,1647922285.886179,0.000000
110.000000,-2131.864683,-5489.431976,-28332.154850,19995.803534,-47392.001437,16603.233409,40028.688613,5477.540848,0.004000,0.972000,0.124000,192.000000,0.000000,0.000000,0.000000,0.000000,0.000000,0.000000,0.000000,0.000000,0.000000,1647922285.894219,0.000000
111.000000,-2124.242738,-5478.770194,-28325.494030,20000.609160,-47386.413501,16603.479279,40010.002555,5492.918848,0.004000,0.972000,0.124000,192.000000,0.000000,0.000000,0.000000,0.000000,0.000000,0.000000,0.000000,0.000000,0.000000,1647922285.894235,0.000000
112.000000,-2127.170816,-5483.061729,-28328.891495,20001.033843,-47387.195812,16605.535639,40013.847055,5487.599133,0.004000,0.972000,0.124000,192.000000,0.000000,0.000000,0.000000,0.000000,0.000000,0.000000,0.000000,0.000000,0.000000,1647922285.900852,0.000000
113.000000,-2125.896767,-5480.401871,-28327.416280,20003.425479,-47386.122928,16603.412223,40029.381517,5446.248406,0.004000,0.972000,0.124000,192.000000,0.000000,0.000000,0.000000,0.000000,0.000000,0.000000,0.000000,0.000000,0.000000,1647922285.900870,0.000000
114.000000,-2133.965747,-5488.336741,-28332.445423,19996.228218,-47392.269658,16605.200363,40034.745936,5465.359147,0.004000,0.972000,0.124000,192.000000,0.000000,0.000000,0.000000,0.000000,0.000000,0.000000,0.000000,0.000000,0.000000,1647922285.908588,0.000000
115.000000,-2129.227177,-5484.715758,-28324.510553,20001.257360,-47384.267734,16623.081758,40053.499049,5530.290965,0.004000,0.972000,0.124000,192.000000,0.000000,0.000000,0.000000,0.000000,0.000000,0.000000,0.000000,0.000000,0.000000,1647922285.908604,0.000000
116.000000,-2119.906499,-5478.814897,-28318.989673,20004.945398,-47379.193888,16626.926258,40058.170564,5527.273479,0.004000,0.972000,0.124000,192.000000,0.000000,0.000000,0.000000,0.000000,0.000000,0.000000,0.000000,0.000000,0.000000,1647922285.915846,0.000000
117.000000,-2117.000773,-5480.647740,-28323.616484,20001.078546,-47382.881925,16614.722206,40044.513648,5501.479566,0.004000,0.972000,0.124000,192.000000,0.000000,0.000000,0.000000,0.000000,0.000000,0.000000,0.000000,0.000000,0.000000,1647922285.923879,0.000000
118.000000,-2120.822921,-5485.721586,-28332.847754,19989.276825,-47391.152071,16602.339340,40031.951968,5472.422298,0.004000,0.972000,0.124000,192.000000,0.000000,0.000000,0.000000,0.000000,0.000000,0.000000,0.000000,0.000000,0.000000,1647922285.923895,0.000000
119.000000,-2117.268994,-5481.921790,-28329.919676,19986.862837,-47389.520394,16608.039034,40036.891703,5498.439729,0.006000,0.976000,0.130000,192.000000,0.000000,48.000000,30.000000,128.000000,4.000000,16.000000,0.000000,0.000000,0.000000,1647922285.930312,0.000000
120.000000,-2115.704371,-5480.245409,-28329.696158,19985.633491,-47390.369760,16605.557991,40032.667224,5521.149101,0.006000,0.976000,0.130000,192.000000,0.000000,0.000000,0.000000,0.000000,0.000000,0.000000,0.000000,0.000000,0.000000,1647922285.930328,0.000000
121.000000,-2101.779235,-5465.381499,-28313.781716,20000.765622,-47374.276504,16622.657075,40044.446593,5516.209366,0.006000,0.976000,0.130000,192.000000,0.000000,0.000000,0.000000,0.000000,0.000000,0.000000,0.000000,0.000000,0.000000,1647922285.938508,0.000000
122.000000,-2110.429360,-5474.165735,-28325.494030,19995.892941,-47380.490289,16616.264476,40030.253235,5495.668113,0.006000,0.976000,0.130000,192.000000,0.000000,0.000000,0.000000,0.000000,0.000000,0.000000,0.000000,0.000000,0.000000,1647922285.938524,0.000000
123.000000,-2120.979383,-5483.352302,-28338.346283,19983.398316,-47392.113196,16607.100261,40037.383442,5483.464060,0.006000,0.976000,0.130000,192.000000,0.000000,0.000000,0.000000,0.000000,0.000000,0.000000,0.000000,0.000000,0.000000,1647922285.946185,0.000000
124.000000,-2117.760732,-5479.731319,-28336.736958,19985.499380,-47389.654504,16615.415110,40060.428090,5497.366845,0.006000,0.976000,0.130000,192.000000,0.000000,0.000000,0.000000,0.000000,0.000000,0.000000,0.000000,0.000000,0.000000,1647922285.946201,0.000000
125.000000,-2124.578014,-5486.347435,-28338.860373,19974.368212,-47397.924649,16605.334473,40044.357186,5490.393101,0.006000,0.976000,0.130000,192.000000,0.000000,0.000000,0.000000,0.000000,0.000000,0.000000,0.000000,0.000000,0.000000,1647922285.953400,0.000000
126.000000,-2128.713087,-5492.538868,-28344.560068,19968.802627,-47401.970315,16596.527886,40029.470924,5478.367863,0.006000,0.976000,0.130000,192.000000,0.000000,0.000000,0.000000,0.000000,0.000000,0.000000,0.000000,0.000000,0.000000,1647922285.953417,0.000000
127.000000,-2113.960935,-5478.099642,-28333.674769,19988.516866,-47385.072396,16609.827174,40037.294035,5480.178354,0.006000,0.976000,0.130000,192.000000,0.000000,0.000000,0.000000,0.000000,0.000000,0.000000,0.000000,0.000000,0.000000,1647922285.961073,0.000000
128.000000,-2113.178624,-5472.757575,-28337.586324,19991.512000,-47384.155975,16606.988502,40023.547712,5476.356206,0.006000,0.976000,0.130000,192.000000,0.000000,0.000000,0.000000,0.000000,0.000000,0.000000,0.000000,0.000000,0.000000,1647922285.961090,0.000000
129.000000,-2117.090180,-5476.378557,-28336.088757,19991.243779,-47383.083091,16609.491898,40017.669203,5480.826554,0.008000,0.978000,0.120000,192.000000,0.000000,64.000000,30.000000,144.000000,3.000000,192.000000,0.000000,0.000000,0.000000,1647922285.968913,0.000000
130.000000,-2107.680095,-5467.549618,-28321.940103,19998.686910,-47372.890696,16621.561840,40039.372747,5491.465985,0.008000,0.978000,0.120000,192.000000,0.000000,0.000000,0.000000,0.000000,0.000000,0.000000,0.000000,0.000000,0.000000,1647922285.968929,0.000000
131.000000,-2102.583897,-5461.961682,-28324.845830,19998.575151,-47374.365911,16613.403453,40036.511724,5463.526304,0.008000,0.978000,0.120000,192.000000,0.000000,0.000000,0.000000,0.000000,0.000000,0.000000,0.000000,0.000000,0.000000,1647922285.976044,0.000000
132.000000,-2109.557642,-5470.432993,-28330.031434,19990.148543,-47380.467937,16605.557991,40014.629366,5442.068630,0.008000,0.978000,0.120000,192.000000,0.000000,0.000000,0.000000,0.000000,0.000000,0.000000,0.000000,0.000000,0.000000,1647922285.983171,0.000000
133.000000,-2096.683037,-5456.083173,-28320.353129,20002.598465,-47368.532106,16619.349017,40031.907264,5462.185200,0.008000,0.978000,0.120000,192.000000,0.000000,0.000000,0.000000,0.000000,0.000000,0.000000,0.000000,0.000000,0.000000,1647922285.983188,0.000000
134.000000,-2098.202956,-5458.720679,-28323.683539,20001.637340,-47369.895562,16622.701779,40035.729413,5503.580630,0.008000,0.978000,0.120000,192.000000,0.000000,0.000000,0.000000,0.000000,0.000000,0.000000,0.000000,0.000000,0.000000,1647922285.990728,0.000000
135.000000,-2100.304019,-5461.291130,-28326.969245,20000.139773,-47371.571943,16620.846584,40025.581721,5499.132633,0.008000,0.978000,0.120000,192.000000,0.000000,0.000000,0.000000,0.000000,0.000000,0.000000,0.000000,0.000000,0.000000,1647922285.990744,0.000000
136.000000,-2098.784101,-5464.152153,-28330.299655,19997.435212,-47373.203620,16621.159508,40037.584607,5476.155040,0.008000,0.978000,0.120000,192.000000,0.000000,0.000000,0.000000,0.000000,0.000000,0.000000,0.000000,0.000000,0.000000,1647922285.998718,0.000000
137.000000,-2094.112586,-5463.995691,-28331.864277,19991.310834,-47375.036463,16619.706645,40036.802296,5471.058842,0.008000,0.978000,0.120000,192.000000,0.000000,0.000000,0.000000,0.000000,0.000000,0.000000,0.000000,0.000000,0.000000,1647922285.998734,0.000000
138.000000,-2080.321560,-5451.903397,-28322.163620,19999.402165,-47365.402861,16621.338322,40037.718718,5475.149211,0.008000,0.978000,0.120000,192.000000,0.000000,0.000000,0.000000,0.000000,0.000000,0.000000,0.000000,0.000000,0.000000,1647922286.006512,0.000000
139.000000,-2081.483851,-5451.121086,-28324.488202,20001.436174,-47367.705091,16612.889363,40025.849941,5452.283377,0.006000,0.980000,0.126000,192.000000,0.000000,48.000000,30.000000,160.000000,3.000000,240.000000,0.000000,0.000000,0.000000,1647922286.006523,0.000000
140.000000,-2079.919229,-5446.315461,-28319.079080,20003.179610,-47363.793536,16621.628895,40028.174523,5475.931522,0.006000,0.980000,0.126000,192.000000,0.000000,0.000000,0.000000,0.000000,0.000000,0.000000,0.000000,0.000000,0.000000,1647922286.013364,0.000000
141.000000,-2080.746243,-5447.723621,-28319.526114,20002.374947,-47363.033576,16630.256668,40040.535038,5491.086005,0.006000,0.980000,0.126000,192.000000,0.000000,0.000000,0.000000,0.000000,0.000000,0.000000,0.000000,0.000000,0.000000,1647922286.013380,0.000000
142.000000,-2079.539249,-5451.679880,-28321.582475,19996.988177,-47365.358158,16629.675523,40056.494183,5493.030607,0.006000,0.980000,0.126000,192.000000,0.000000,0.000000,0.000000,0.000000,0.000000,0.000000,0.000000,0.000000,0.000000,1647922286.021153,0.000000
143.000000,-2071.693787,-5442.761534,-28318.252065,19998.843372,-47361.178382,16629.273192,40040.535038,5487.554429,0.006000,0.980000,0.126000,192.000000,0.000000,0.000000,0.000000,0.000000,0.000000,0.000000,0.000000,0.000000,0.000000,1647922286.021165,0.000000
144.000000,-2071.045586,-5443.253272,-28323.147097,19996.742308,-47366.945132,16612.352921,40018.205645,5449.131781,0.006000,0.980000,0.126000,192.000000,0.000000,0.000000,0.000000,0.000000,0.000000,0.000000,0.000000,0.000000,0.000000,1647922286.029177,0.000000
145.000000,-2071.291455,-5444.482618,-28322.387138,19995.177686,-47367.347463,16610.676540,40028.263930,5447.634214,0.006000,0.980000,0.126000,192.000000,0.000000,0.000000,0.000000,0.000000,0.000000,0.000000,0.000000,0.000000,0.000000,1647922286.029193,0.000000
146.000000,-2077.237019,-5447.835380,-28323.460021,19991.154372,-47367.995664,16624.445215,40054.102546,5481.944142,0.006000,0.980000,0.126000,192.000000,0.000000,0.000000,0.000000,0.000000,0.000000,0.000000,0.000000,0.000000,0.000000,1647922286.035518,0.000000
147.000000,-2074.085423,-5444.147342,-28319.526114,19998.441040,-47362.698300,16619.840755,40041.697328,5464.778002,0.006000,0.980000,0.126000,192.000000,0.000000,0.000000,0.000000,0.000000,0.000000,0.000000,0.000000,0.000000,0.000000,1647922286.042883,0.000000
148.000000,-2078.689883,-5452.059859,-28324.801126,19993.903636,-47367.682739,16613.403453,40038.299863,5479.552505,0.006000,0.980000,0.126000,192.000000,0.000000,0.000000,0.000000,0.000000,0.000000,0.000000,0.000000,0.000000,0.000000,1647922286.042900,0.000000
149.000000,-2079.315731,-5454.473848,-28327.081004,19989.612101,-47370.208486,16618.723168,40041.898494,5501.636028,0.006000,0.984000,0.126000,192.000000,0.000000,48.000000,30.000000,192.000000,3.000000,240.000000,0.000000,0.000000,0.000000,1647922286.051081,0.000000
150.000000,-2072.878429,-5453.155095,-28326.611617,19980.693755,-47373.315379,16613.515212,40027.705136,5473.964569,0.006000,0.984000,0.126000,192.000000,0.000000,0.000000,0.000000,0.000000,0.000000,0.000000,0.000000,0.000000,0.000000,1647922286.051116,0.000000
151.000000,-2074.778327,-5458.184237,-28334.166507,19972.468313,-47382.367835,16602.384043,40021.066668,5462.654586,0.006000,0.984000,0.126000,192.000000,0.000000,0.000000,0.000000,0.000000,0.000000,0.000000,0.000000,0.000000,0.000000,1647922286.058882,0.000000
152.000000,-2073.191353,-5454.205627,-28333.563010,19975.217578,-47380.423234,16603.635741,40026.386383,5441.934519,0.006000,0.984000,0.126000,192.000000,0.000000,0.000000,0.000000,0.000000,0.000000,0.000000,0.000000,0.000000,0.000000,1647922286.058899,0.000000
153.000000,-2072.096118,-5451.948101,-28328.936199,19980.760810,-47376.332864,16607.882572,40027.749840,5434.983127,0.006000,0.984000,0.126000,192.000000,0.000000,0.000000,0.000000,0.000000,0.000000,0.000000,0.000000,0.000000,0.000000,1647922286.065555,0.000000
154.000000,-2065.301188,-5446.561330,-28320.800164,19986.684023,-47369.336768,16616.644456,40029.716793,5460.218246,0.006000,0.984000,0.126000,192.000000,0.000000,0.000000,0.000000,0.000000,0.000000,0.000000,0.000000,0.000000,0.000000,1647922286.065571,0.000000
155.000000,-2073.437223,-5454.943234,-28332.043091,19972.758886,-47382.278428,16606.362654,40024.777058,5474.523362,0.006000,0.984000,0.126000,192.000000,0.000000,0.000000,0.000000,0.000000,0.000000,0.000000,0.000000,0.000000,0.000000,1647922286.073680,0.000000
156.000000,-2072.431394,-5452.886874,-28334.457080,19973.451790,-47383.038388,16603.658092,40013.444723,5461.313481,0.006000,0.984000,0.126000,192.000000,0.000000,0.000000,0.000000,0.000000,0.000000,0.000000,0.000000,0.000000,0.000000,1647922286.073696,0.000000
157.000000,-2062.060185,-5444.147342,-28328.064481,19983.085392,-47375.170574,16610.721244,40026.520494,5449.936444,0.006000,0.984000,0.126000,192.000000,0.000000,0.000000,0.000000,0.000000,0.000000,0.000000,0.000000,0.000000,0.000000,1647922286.081643,0.000000
158.000000,-2063.580103,-5450.897569,-28337.563972,19976.044592,-47381.853745,16611.347093,40034.142439,5480.692444,0.006000,0.984000,0.126000,192.000000,0.000000,0.000000,0.000000,0.000000,0.000000,0.000000,0.000000,0.000000,0.000000,1647922286.081659,0.000000
159.000000,-2065.256484,-5454.429144,-28332.981865,19973.474142,-47379.529164,16620.801880,40033.226017,5480.603037,0.006000,0.970000,0.128000,192.000000,0.000000,48.000000,30.000000,80.000000,4.000000,0.000000,0.000000,0.000000,0.000000,1647922286.088629,0.000000
160.000000,-2068.989226,-5456.217284,-28329.405585,19981.543122,-47374.723539,16619.796052,40016.641023,5465.090926,0.006000,0.970000,0.128000,192.000000,0.000000,0.000000,0.000000,0.000000,0.000000,0.000000,0.000000,0.000000,0.000000,1647922286.088646,0.000000
161.000000,-2069.212743,-5458.810086,-28334.032397,19969.719049,-47383.060739,16608.530773,40012.550654,5452.104563,0.006000,0.970000,0.128000,192.000000,0.000000,0.000000,0.000000,0.000000,0.000000,0.000000,0.000000,0.000000,0.000000,1647922286.095330,0.000000
162.000000,-2063.803621,-5455.367917,-28326.052824,19973.541197,-47375.885829,16616.800918,40029.850904,5453.669185,0.006000,0.970000,0.128000,192.000000,0.000000,0.000000,0.000000,0.000000,0.000000,0.000000,0.000000,0.000000,0.000000,1647922286.095346,0.000000
163.000000,-2065.770574,-5456.507856,-28330.053786,19982.034860,-47372.555420,16621.114805,40028.576854,5475.953874,0.006000,0.970000,0.128000,192.000000,0.000000,0.000000,0.000000,0.000000,0.000000,0.000000,0.000000,0.000000,0.000000,1647922286.103170,0.000000
164.000000,-2066.731699,-5458.184237,-28333.093623,19977.765677,-47372.845992,16627.127424,40045.005386,5484.805165,0.006000,0.970000,0.128000,192.000000,0.000000,0.000000,0.000000,0.000000,0.000000,0.000000,0.000000,0.000000,0.000000,1647922286.111285,0.000000
165.000000,-2072.140821,-5463.258083,-28335.842888,19970.814284,-47375.707015,16620.801880,40049.185163,5459.882970,0.006000,0.970000,0.128000,192.000000,0.000000,0.000000,0.000000,0.000000,0.000000,0.000000,0.000000,0.000000,0.000000,1647922286.111301,0.000000
166.000000,-2072.632560,-5463.414545,-28338.346283,19969.987270,-47377.785728,16609.983636,40013.534130,5438.134722,0.006000,0.970000,0.128000,192.000000,0.000000,0.000000,0.000000,0.000000,0.000000,0.000000,0.000000,0.000000,0.000000,1647922286.118321,0.000000
167.000000,-2065.658816,-5452.059859,-28331.730167,19974.368212,-47373.114213,16616.465642,40014.986994,5461.402888,0.006000,0.970000,0.128000,192.000000,0.000000,0.000000,0.000000,0.000000,0.000000,0.000000,0.000000,0.000000,0.000000,1647922286.118337,0.000000
168.000000,-2060.763784,-5444.482618,-28325.605789,19976.379869,-47368.152126,16622.768834,40032.019023,5456.977243,0.006000,0.970000,0.128000,192.000000,0.000000,0.000000,0.000000,0.000000,0.000000,0.000000,0.000000,0.000000,0.000000,1647922286.125970,0.000000
169.000000,-2056.159324,-5443.230920,-28323.862353,19979.687927,-47365.961655,16629.027322,40051.666206,5472.087022,0.002000,0.964000,0.116000,192.000000,0.000000,16.000000,30.000000,32.000000,3.000000,160.000000,0.000000,0.000000,0.000000,1647922286.125986,0.000000
170.000000,-2045.609301,-5435.698382,-28315.614559,19988.047479,-47357.691509,16634.838776,40044.893628,5484.246371,0.002000,0.964000,0.116000,192.000000,0.000000,0.000000,0.000000,0.000000,0.000000,0.000000,0.000000,0.000000,0.000000,1647922286.133895,0.000000
171.000000,-2036.847417,-5424.991897,-28310.093678,19993.724822,-47351.544780,16635.688142,40035.349433,5474.143383,0.002000,0.964000,0.116000,192.000000,0.000000,0.000000,0.000000,0.000000,0.000000,0.000000,0.000000,0.000000,0.000000,1647922286.133930,0.000000
172.000000,-2035.193388,-5420.230975,-28310.071327,19996.787011,-47350.024861,16633.698837,40034.321253,5465.515609,0.002000,0.964000,0.116000,192.000000,0.000000,0.000000,0.000000,0.000000,0.000000,0.000000,0.000000,0.000000,0.000000,1647922286.141991,0.000000
173.000000,-2037.942652,-5423.740199,-28314.362861,19993.143677,-47353.444678,16621.271267,40022.206607,5428.590528,0.002000,0.964000,0.116000,192.000000,0.000000,0.000000,0.000000,0.000000,0.000000,0.000000,0.000000,0.000000,0.000000,1647922286.142007,0.000000
174.000000,-2042.547112,-5431.764475,-28318.676748,19984.940587,-47359.099669,16622.344151,40047.978168,5452.104563,0.002000,0.964000,0.116000,192.000000,0.000000,0.000000,0.000000,0.000000,0.000000,0.000000,0.000000,0.000000,0.000000,1647922286.148644,0.000000
175.000000,-2039.708440,-5425.908318,-28314.318158,19996.809363,-47349.264902,16633.408264,40053.163773,5484.559296,0.002000,0.964000,0.116000,192.000000,0.000000,0.000000,0.000000,0.000000,0.000000,0.000000,0.000000,0.000000,0.000000,1647922286.148661,0.000000
176.000000,-2040.200179,-5424.120179,-28317.514457,19995.602369,-47351.969463,16625.629857,40034.209494,5461.425240,0.002000,0.964000,0.116000,192.000000,0.000000,0.000000,0.000000,0.000000,0.000000,0.000000,0.000000,0.000000,0.000000,1647922286.156499,0.000000
177.000000,-2037.629728,-5426.780036,-28318.140306,19995.065927,-47352.416498,16626.702741,40036.109392,5454.831476,0.002000,0.964000,0.116000,192.000000,0.000000,0.000000,0.000000,0.000000,0.000000,0.000000,0.000000,0.000000,0.000000,1647922286.156515,0.000000
178.000000,-2034.165208,-5428.121141,-28314.139344,19996.474087,-47349.130791,16633.855299,40044.021910,5463.839229,0.002000,0.964000,0.116000,192.000000,0.000000,0.000000,0.000000,0.000000,0.000000,0.000000,0.000000,0.000000,0.000000,1647922286.163547,0.000000
179.000000,-2044.134086,-5436.480693,-28320.040205,19988.762735,-47357.535047,16626.412168,40038.053994,5439.073496,0.006000,0.968000,0.118000,192.000000,0.000000,48.000000,30.000000,64.000000,3.000000,176.000000,0.000000,0.000000,0.000000,1647922286.170693,0.000000
180.000000,-2044.111734,-5429.596356,-28319.459059,19987.131058,-47356.663329,16631.575421,40044.625407,5453.803295,0.006000,0.968000,0.118000,192.000000,0.000000,0.000000,0.000000,0.000000,0.000000,0.000000,0.000000,0.000000,0.000000,1647922286.170710,0.000000
181.000000,-2035.998051,-5416.498234,-28311.323024,19998.195171,-47345.889788,16643.757122,40046.972340,5482.949970,0.006000,0.968000,0.118000,192.000000,0.000000,0.000000,0.000000,0.000000,0.000000,0.000000,0.000000,0.000000,0.000000,1647922286.178308,0.000000
182.000000,-2045.765763,-5425.349525,-28319.414356,19987.622796,-47355.121059,16628.043846,40022.608939,5470.008310,0.006000,0.968000,0.118000,192.000000,0.000000,0.000000,0.000000,0.000000,0.000000,0.000000,0.000000,0.000000,0.000000,1647922286.178325,0.000000
183.000000,-2038.166170,-5419.873347,-28314.608731,19984.024165,-47352.818829,16627.194479,40023.503008,5467.795487,0.006000,0.968000,0.118000,192.000000,0.000000,0.000000,0.000000,0.000000,0.000000,0.000000,0.000000,0.000000,0.000000,1647922286.186608,0.000000
184.000000,-2031.237129,-5414.106597,-28307.567931,19988.159238,-47345.442753,16636.068122,40046.011215,5465.001519,0.006000,0.968000,0.118000,192.000000,0.000000,0.000000,0.000000,0.000000,0.000000,0.000000,0.000000,0.000000,0.000000,1647922286.186624,0.000000
185.000000,-2027.549091,-5408.965696,-28300.840056,19998.373985,-47336.770277,16643.153625,40051.956779,5467.303749,0.006000,0.968000,0.118000,192.000000,0.000000,0.000000,0.000000,0.000000,0.000000,0.000000,0.000000,0.000000,0.000000,1647922286.194239,0.000000
186.000000,-2029.627804,-5414.933612,-28307.746745,19995.289444,-47343.475800,16634.369389,40045.228904,5455.569083,0.006000,0.968000,0.118000,192.000000,0.000000,0.000000,0.000000,0.000000,0.000000,0.000000,0.000000,0.000000,0.000000,1647922286.194256,0.000000
187.000000,-2036.221568,-5422.712019,-28315.771021,19984.068869,-47352.863533,16623.662904,40033.047203,5435.027830,0.006000,0.968000,0.118000,192.000000,0.000000,0.000000,0.000000,0.000000,0.000000,0.000000,0.000000,0.000000,0.000000,1647922286.200882,0.000000
188.000000,-2041.474228,-5423.293164,-28317.626216,19980.581997,-47354.204637,16624.244049,40032.868389,5444.728487,0.006000,0.968000,0.118000,192.000000,0.000000,0.000000,0.000000,0.000000,0.000000,0.000000,0.000000,0.000000,0.000000,1647922286.200899,0.000000
189.000000,-2043.642347,-5425.416580,-28320.755460,19982.772467,-47355.433983,16629.831985,40044.178372,5455.054993,0.002000,0.976000,0.120000,192.000000,0.000000,16.000000,30.000000,128.000000,3.000000,192.000000,0.000000,0.000000,0.000000,1647922286.208819,0.000000
190.000000,-2038.076763,-5421.996763,-28316.665091,19980.492590,-47352.818829,16631.329552,40041.876142,5450.383478,0.002000,0.976000,0.120000,192.000000,0.000000,0.000000,0.000000,0.000000,0.000000,0.000000,0.000000,0.000000,0.000000,1647922286.208835,0.000000
191.000000,-2038.121466,-5421.281507,-28315.122821,19986.058174,-47350.136620,16636.224584,40053.901381,5452.909226,0.002000,0.976000,0.120000,192.000000,0.000000,0.000000,0.000000,0.000000,0.000000,0.000000,0.000000,0.000000,0.000000,1647922286.216703,0.000000
192.000000,-2045.519894,-5428.590528,-28319.034376,19984.448848,-47353.891713,16632.737712,40052.783794,5454.920883,0.002000,0.976000,0.120000,192.000000,0.000000,0.000000,0.000000,0.000000,0.000000,0.000000,0.000000,0.000000,0.000000,1647922286.216719,0.000000
193.000000,-2047.464496,-5425.975374,-28314.541675,19983.532427,-47350.203675,16635.017590,40048.313445,5450.271720,0.002000,0.976000,0.120000,192.000000,0.000000,0.000000,0.000000,0.000000,0.000000,0.000000,0.000000,0.000000,0.000000,1647922286.223789,0.000000
194.000000,-2044.983452,-5422.063818,-28312.552370,19972.043630,-47353.556437,16630.659000,40041.563218,5423.069647,0.002000,0.976000,0.120000,192.000000,0.000000,0.000000,0.000000,0.000000,0.000000,0.000000,0.000000,0.000000,0.000000,1647922286.230281,0.000000
195.000000,-2046.503371,-5423.449626,-28311.591245,19974.323508,-47349.399012,16635.710494,40048.469907,5441.845112,0.002000,0.976000,0.120000,192.000000,0.000000,0.000000,0.000000,0.000000,0.000000,0.000000,0.000000,0.000000,0.000000,1647922286.230298,0.000000
196.000000,-2051.353699,-5430.222205,-28316.933312,19972.937700,-47353.422326,16637.498634,40036.578779,5484.894572,0.002000,0.976000,0.120000,192.000000,0.000000,0.000000,0.000000,0.000000,0.000000,0.000000,0.000000,0.000000,0.000000,1647922286.238503,0.000000
197.000000,-2051.130182,-5428.925804,-28318.743803,19953.961069,-47361.133678,16628.088549,40033.807163,5480.178354,0.002000,0.976000,0.120000,192.000000,0.000000,0.000000,0.000000,0.000000,0.000000,0.000000,0.000000,0.000000,0.000000,1647922286.238520,0.000000
198.000000,-2042.927091,-5418.644001,-28303.186989,19978.145656,-47339.474838,16655.089456,40087.585460,5472.243485,0.002000,0.976000,0.120000,192.000000,0.000000,0.000000,0.000000,0.000000,0.000000,0.000000,0.000000,0.000000,0.000000,1647922286.246354,0.000000
199.000000,-2040.200179,-5416.230013,-28303.455210,19990.305005,-47336.055021,16647.109884,40083.830367,5433.373801,0.002000,0.976000,0.120000,192.000000,0.000000,0.000000,30.000000,192.000000,4.000000,0.000000,0.000000,0.000000,0.000000,1647922286.246371,0.000000
200.000000,-2052.806563,-5428.501121,-28319.324949,19970.747229,-47353.489381,16621.226564,40043.463116,5410.709132,0.002000,0.976000,0.120000,192.000000,0.000000,0.000000,0.000000,0.000000,0.000000,0.000000,0.000000,0.000000,0.000000,1647922286.253457,0.000000
201.000000,-2064.496525,-5438.782923,-28334.613542,19954.788083,-47367.727443,16619.706645,40039.372747,5454.607958,0.002000,0.976000,0.120000,192.000000,0.000000,0.000000,0.000000,0.000000,0.000000,0.000000,0.000000,0.000000,0.000000,1647922286.253473,0.000000
202.000000,-2059.690900,-5436.704211,-28330.925504,19950.831825,-47365.224047,16628.647343,40055.398948,5476.110336,0.002000,0.976000,0.120000,192.000000,0.000000,0.000000,0.000000,0.000000,0.000000,0.000000,0.000000,0.000000,0.000000,1647922286.261085,0.000000
203.000000,-2050.079650,-5429.819874,-28321.850696,19957.067961,-47356.953902,16630.077854,40062.126823,5453.713888,0.002000,0.976000,0.120000,192.000000,0.000000,0.000000,0.000000,0.000000,0.000000,0.000000,0.000000,0.000000,0.000000,1647922286.261101,0.000000
204.000000,-2054.617054,-5434.178464,-28326.164583,19949.200147,-47362.720652,16630.994276,40061.836250,5453.512723,0.002000,0.976000,0.120000,192.000000,0.000000,0.000000,0.000000,0.000000,0.000000,0.000000,0.000000,0.000000,0.000000,1647922286.268943,0.000000
205.000000,-2054.102964,-5431.585661,-28327.013949,19950.809473,-47362.452431,16628.446177,40059.198744,5462.185200,0.002000,0.976000,0.120000,192.000000,0.000000,0.000000,0.000000,0.000000,0.000000,0.000000,0.000000,0.000000,0.000000,1647922286.268960,0.000000
206.000000,-2048.895007,-5426.265946,-28319.570818,19960.197206,-47355.903370,16625.965133,40050.548619,5456.485505,0.002000,0.976000,0.120000,192.000000,0.000000,0.000000,0.000000,0.000000,0.000000,0.000000,0.000000,0.000000,0.000000,1647922286.276188,0.000000
207.000000,-2044.201141,-5422.264984,-28320.241370,19956.509168,-47357.177419,16625.093415,40048.380500,5460.955854,0.002000,0.976000,0.120000,192.000000,0.000000,0.000000,0.000000,0.000000,0.000000,0.000000,0.000000,0.000000,0.000000,1647922286.276205,0.000000
208.000000,-2035.729830,-5414.955963,-28311.010100,19966.187473,-47345.956844,16634.861128,40049.542791,5460.732336,0.002000,0.976000,0.120000,192.000000,0.000000,0.000000,0.000000,0.000000,0.000000,0.000000,0.000000,0.000000,0.000000,1647922286.282697,0.000000
209.000000,-2036.445086,-5417.839339,-28313.066460,19965.002831,-47346.873265,16631.977753,40037.495200,5436.815970,0.004000,0.982000,0.128000,192.000000,0.000000,32.000000,30.000000,176.000000,4.000000,0.000000,0.000000,0.000000,0.000000,1647922286.290778,0.000000
210.000000,-2038.724964,-5423.024943,-28320.263722,19956.397409,-47354.003472,16625.696912,40035.282378,5446.695441,0.004000,0.982000,0.128000,192.000000,0.000000,0.000000,0.000000,0.000000,0.000000,0.000000,0.000000,0.000000,0.000000,1647922286.290794,0.000000
211.000000,-2037.786190,-5423.024943,-28320.889571,19960.018392,-47352.684719,16623.059407,40028.666261,5446.360164,0.004000,0.982000,0.128000,192.000000,0.000000,0.000000,0.000000,0.000000,0.000000,0.000000,0.000000,0.000000,0.000000,1647922286.298716,0.000000
212.000000,-2043.955272,-5424.254289,-28323.616484,19957.000906,-47354.383451,16613.649322,40016.395154,5400.270867,0.004000,0.982000,0.128000,192.000000,0.000000,0.000000,0.000000,0.000000,0.000000,0.000000,0.000000,0.000000,0.000000,1647922286.298732,0.000000
213.000000,-2042.524760,-5423.583737,-28323.974112,19959.392543,-47353.042347,16622.701779,40051.777965,5427.204719,0.004000,0.982000,0.128000,192.000000,0.000000,0.000000,0.000000,0.000000,0.000000,0.000000,0.000000,0.000000,0.000000,1647922286.305867,0.000000
214.000000,-2041.407173,-5424.813083,-28320.375481,19960.241909,-47349.801344,16642.997163,40076.141366,5500.518441,0.004000,0.982000,0.128000,192.000000,0.000000,0.000000,0.000000,0.000000,0.000000,0.000000,0.000000,0.000000,0.000000,1647922286.305901,0.000000
215.000000,-2038.233225,-5422.443798,-28323.169449,19952.977592,-47353.869361,16632.022456,40061.299808,5464.196857,0.004000,0.982000,0.128000,192.000000,0.000000,0.000000,0.000000,0.000000,0.000000,0.000000,0.000000,0.000000,0.000000,1647922286.313160,0.000000
216.000000,-2038.054411,-5422.130873,-28324.421146,19954.788083,-47353.422326,16621.941819,40047.933465,5430.445722,0.004000,0.982000,0.128000,192.000000,0.000000,0.000000,0.000000,0.000000,0.000000,0.000000,0.000000,0.000000,0.000000,1647922286.313172,0.000000
217.000000,-2036.266272,-5419.895699,-28322.364786,19957.291479,-47350.181323,16628.066197,40055.913038,5447.433048,0.004000,0.982000,0.128000,192.000000,0.000000,0.000000,0.000000,0.000000,0.000000,0.000000,0.000000,0.000000,0.000000,1647922286.321204,0.000000
218.000000,-2039.864902,-5424.298993,-28322.342434,19954.653973,-47350.002509,16634.235279,40064.719625,5475.931522,0.004000,0.982000,0.128000,192.000000,0.000000,0.000000,0.000000,0.000000,0.000000,0.000000,0.000000,0.000000,0.000000,1647922286.321217,0.000000
219.000000,-2037.920301,-5423.919013,-28318.117955,19957.269127,-47346.917969,16640.426712,40065.211363,5486.928581,0.004000,0.982000,0.128000,192.000000,0.000000,0.000000,0.000000,0.000000,0.000000,0.000000,0.000000,0.000000,0.000000,1647922286.329147,0.000000
220.000000,-2032.242958,-5420.767417,-28316.620388,19956.978554,-47346.269768,16639.778511,40066.261895,5479.708967,0.004000,0.982000,0.124000,192.000000,0.000000,32.000000,30.000000,176.000000,3.000000,224.000000,0.000000,0.000000,0.000000,1647922286.329164,0.000000
221.000000,-2033.159379,-5419.448664,-28321.895399,19951.390618,-47351.768297,16628.557936,40057.187087,5463.906284,0.004000,0.982000,0.124000,192.000000,0.000000,0.000000,0.000000,0.000000,0.000000,0.000000,0.000000,0.000000,0.000000,1647922286.335950,0.000000
222.000000,-2028.398458,-5414.263059,-28321.247199,19959.616060,-47349.846047,16628.736750,40046.435898,5467.102583,0.004000,0.982000,0.124000,192.000000,0.000000,0.000000,0.000000,0.000000,0.000000,0.000000,0.000000,0.000000,0.000000,1647922286.335966,0.000000
223.000000,-2018.742504,-5408.809234,-28313.044109,19966.902729,-47341.195922,16637.096302,40033.605997,5471.863505,0.004000,0.982000,0.124000,192.000000,0.000000,0.000000,0.000000,0.000000,0.000000,0.000000,0.000000,0.000000,0.000000,1647922286.342775,0.000000
224.000000,-2024.643365,-5414.196004,-28320.554295,19963.147636,-47347.633224,16624.713436,40028.062764,5458.139534,0.004000,0.982000,0.124000,192.000000,0.000000,0.000000,0.000000,0.000000,0.000000,0.000000,0.000000,0.000000,0.000000,1647922286.342791,0.000000
225.000000,-2021.424713,-5410.195042,-28318.140306,19962.655897,-47345.062774,16626.054540,40032.153133,5454.876179,0.004000,0.982000,0.124000,192.000000,0.000000,0.000000,0.000000,0.000000,0.000000,0.000000,0.000000,0.000000,0.000000,1647922286.350999,0.000000
226.000000,-2018.831911,-5406.752873,-28312.753536,19959.861929,-47342.380564,16626.635686,40036.176447,5450.294071,0.004000,0.982000,0.124000,192.000000,0.000000,0.000000,0.000000,0.000000,0.000000,0.000000,0.000000,0.000000,0.000000,1647922286.359002,0.000000
227.000000,-2015.568556,-5402.841318,-28306.763268,19966.992136,-47336.055021,16631.173090,40044.178372,5448.170656,0.004000,0.982000,0.124000,192.000000,0.000000,0.000000,0.000000,0.000000,0.000000,0.000000,0.000000,0.000000,0.000000,1647922286.359018,0.000000
228.000000,-2019.614222,-5405.903507,-28309.870161,19969.249662,-47338.021974,16630.726055,40044.267779,5436.391286,0.004000,0.982000,0.124000,192.000000,0.000000,0.000000,0.000000,0.000000,0.000000,0.000000,0.000000,0.000000,0.000000,1647922286.365631,0.000000
229.000000,-2022.430542,-5410.016228,-28314.519324,19965.539272,-47341.240626,16624.780491,40035.125915,5426.489464,0.004000,0.982000,0.124000,192.000000,0.000000,0.000000,0.000000,0.000000,0.000000,0.000000,0.000000,0.000000,0.000000,1647922286.365647,0.000000
230.000000,-2025.559786,-5418.331077,-28322.521248,19957.179720,-47349.980158,16616.353883,40016.149284,5423.829606,0.004000,0.980000,0.104000,192.000000,0.000000,32.000000,30.000000,160.000000,3.000000,64.000000,0.000000,0.000000,0.000000,1647922286.373672,0.000000
231.000000,-2032.801751,-5426.780036,-28329.740862,19949.535423,-47358.049137,16609.156622,40011.164845,5407.043446,0.004000,0.980000,0.104000,192.000000,0.000000,0.000000,0.000000,0.000000,0.000000,0.000000,0.000000,0.000000,0.000000,1647922286.373689,0.000000
232.000000,-2029.426638,-5424.522510,-28326.946894,19949.825996,-47354.361100,16619.281962,40041.049128,5416.252365,0.004000,0.980000,0.104000,192.000000,0.000000,0.000000,0.000000,0.000000,0.000000,0.000000,0.000000,0.000000,0.000000,1647922286.381650,0.000000
233.000000,-2021.894100,-5420.543900,-28319.928446,19949.289554,-47349.063736,16631.463663,40061.232753,5440.347545,0.004000,0.980000,0.104000,192.000000,0.000000,0.000000,0.000000,0.000000,0.000000,0.000000,0.000000,0.000000,0.000000,1647922286.381666,0.000000
234.000000,-2016.283812,-5418.644001,-28319.235542,19949.088389,-47349.711937,16638.727980,40059.891648,5465.850886,0.004000,0.980000,0.104000,192.000000,0.000000,0.000000,0.000000,0.000000,0.000000,0.000000,0.000000,0.000000,0.000000,1647922286.388756,0.000000
235.000000,-2021.223548,-5421.192100,-28324.734071,19948.462540,-47354.964597,16633.855299,40035.930578,5481.072424,0.004000,0.980000,0.104000,192.000000,0.000000,0.000000,0.000000,0.000000,0.000000,0.000000,0.000000,0.000000,0.000000,1647922286.388791,0.000000
236.000000,-2029.337231,-5425.483635,-28328.623274,19942.136996,-47359.703166,16629.586116,40042.814916,5458.318348,0.004000,0.980000,0.104000,192.000000,0.000000,0.000000,0.000000,0.000000,0.000000,0.000000,0.000000,0.000000,0.000000,1647922286.395998,0.000000
237.000000,-2028.443161,-5427.294126,-28325.270513,19941.175871,-47355.657501,16633.028285,40061.724491,5453.602130,0.004000,0.980000,0.104000,192.000000,0.000000,0.000000,0.000000,0.000000,0.000000,0.000000,0.000000,0.000000,0.000000,1647922286.396014,0.000000
238.000000,-2029.069010,-5429.395190,-28325.426975,19937.152557,-47355.724556,16632.782415,40063.244410,5448.975319,0.004000,0.980000,0.104000,192.000000,0.000000,0.000000,0.000000,0.000000,0.000000,0.000000,0.000000,0.000000,0.000000,1647922286.404268,0.000000
239.000000,-2031.617109,-5433.619670,-28334.144155,19927.362493,-47363.927646,16619.483128,40052.023834,5436.033659,0.004000,0.980000,0.104000,192.000000,0.000000,0.000000,0.000000,0.000000,0.000000,0.000000,0.000000,0.000000,0.000000,1647922286.404283,0.000000
240.000000,-2033.248786,-5429.551653,-28334.300617,19935.789101,-47361.290140,16618.387892,40044.223075,5425.461283,-0.002000,0.978000,0.122000,192.000000,255.000000,240.000000,30.000000,144.000000,3.000000,208.000000,0.000000,0.000000,0.000000,1647922286.411374,0.000000
241.000000,-2030.231301,-5427.025905,-28331.484298,19942.427569,-47357.378585,16619.885459,40035.684709,5414.553632,-0.002000,0.978000,0.122000,192.000000,0.000000,0.000000,0.000000,0.000000,0.000000,0.000000,0.000000,0.000000,0.000000,1647922286.418198,0.000000
242.000000,-2028.733734,-5428.165844,-28332.713644,19944.416874,-47357.669158,16626.859203,40046.704119,5449.064726,-0.002000,0.978000,0.122000,192.000000,0.000000,0.000000,0.000000,0.000000,0.000000,0.000000,0.000000,0.000000,0.000000,1647922286.418209,0.000000
243.000000,-2032.310013,-5428.255251,-28336.669902,19943.634563,-47359.479649,16626.456872,40043.284302,5446.270757,-0.002000,0.978000,0.122000,192.000000,0.000000,0.000000,0.000000,0.000000,0.000000,0.000000,0.000000,0.000000,0.000000,1647922286.425609,0.000000
244.000000,-2039.082591,-5431.339792,-28339.977961,19936.347894,-47362.340672,16619.349017,40024.307671,5438.067667,-0.002000,0.978000,0.122000,192.000000,0.000000,0.000000,0.000000,0.000000,0.000000,0.000000,0.000000,0.000000,0.000000,1647922286.425620,0.000000
245.000000,-2031.035963,-5424.142530,-28331.081966,19942.651086,-47353.265864,16624.333456,40027.034584,5442.336850,-0.002000,0.978000,0.122000,192.000000,0.000000,0.000000,0.000000,0.000000,0.000000,0.000000,0.000000,0.000000,0.000000,1647922286.433911,0.000000
246.000000,-2027.504388,-5418.822815,-28330.456117,19945.132130,-47352.215332,16618.499651,40026.364032,5432.323269,-0.002000,0.978000,0.122000,192.000000,0.000000,0.000000,0.000000,0.000000,0.000000,0.000000,0.000000,0.000000,0.000000,1647922286.433928,0.000000
247.000000,-2033.248786,-5421.639135,-28335.284094,19943.098121,-47355.679852,16622.791186,40033.963625,5426.333001,-0.002000,0.978000,0.122000,192.000000,0.000000,0.000000,0.000000,0.000000,0.000000,0.000000,0.000000,0.000000,0.000000,1647922286.440963,0.000000
248.000000,-2028.174940,-5420.767417,-28333.384196,19941.913479,-47354.361100,16627.708569,40043.574875,5440.280490,-0.002000,0.978000,0.122000,192.000000,0.000000,0.000000,0.000000,0.000000,0.000000,0.000000,0.000000,0.000000,0.000000,1647922286.440980,0.000000
249.000000,-2022.028210,-5416.699400,-28328.422109,19948.909575,-47348.951977,16637.833910,40067.982980,5459.123011,-0.002000,0.978000,0.122000,192.000000,0.000000,0.000000,0.000000,0.000000,0.000000,0.000000,0.000000,0.000000,0.000000,1647922286.448490,0.000000
250.000000,-2023.771646,-5419.560423,-28328.243295,19945.892089,-47350.293082,16635.285811,40054.661340,5443.856769,0.004000,0.978000,0.116000,192.000000,0.000000,32.000000,30.000000,144.000000,3.000000,160.000000,0.000000,0.000000,0.000000,1647922286.448508,0.000000
251.000000,-2023.838702,-5421.370914,-28329.316178,19943.478101,-47352.863533,16627.552107,40039.462154,5434.513740,0.004000,0.978000,0.116000,192.000000,0.000000,0.000000,0.000000,0.000000,0.000000,0.000000,0.000000,0.000000,0.000000,1647922286.456547,0.000000
252.000000,-2023.592833,-5422.980240,-28325.471678,19941.309982,-47350.114268,16629.094378,40042.591398,5437.307708,0.004000,0.978000,0.116000,192.000000,0.000000,0.000000,0.000000,0.000000,0.000000,0.000000,0.000000,0.000000,0.000000,1647922286.456563,0.000000
253.000000,-2032.377068,-5432.256214,-28334.099452,19935.856156,-47356.931550,16617.203250,40027.325157,5412.407865,0.004000,0.978000,0.116000,192.000000,0.000000,0.000000,0.000000,0.000000,0.000000,0.000000,0.000000,0.000000,0.000000,1647922286.464637,0.000000
254.000000,-2027.325574,-5422.779074,-28328.578571,19936.951391,-47351.745945,16618.276133,40026.095811,5409.591545,0.004000,0.978000,0.116000,192.000000,0.000000,0.000000,0.000000,0.000000,0.000000,0.000000,0.000000,0.000000,0.000000,1647922286.464653,0.000000
255.000000,-2022.989335,-5421.750894,-28326.566914,19937.532537,-47350.315434,16629.161433,40057.634122,5445.242577,0.004000,0.978000,0.116000,192.000000,0.000000,0.000000,0.000000,0.000000,0.000000,0.000000,0.000000,0.000000,0.000000,1647922286.470646,0.000000
0.000000,-2018.228414,-5420.543900,-28323.102394,19940.885298,-47346.292120,16645.880538,40073.280343,5469.807144,0.004000,0.978000,0.116000,192.000000,0.000000,0.000000,0.000000,0.000000,0.000000,0.000000,0.000000,0.000000,0.000000,1647922286.478090,0.000000
1.000000,-2022.363487,-5421.862653,-28330.254952,19933.576278,-47353.936416,16635.755197,40058.081157,5432.949118,0.004000,0.978000,0.116000,192.000000,0.000000,0.000000,0.000000,0.000000,0.000000,0.000000,0.000000,0.000000,0.000000,1647922286.478126,0.000000
2.000000,-2025.202158,-5421.169748,-28335.574667,19919.785252,-47359.636111,16627.038017,40048.022872,5425.036600,0.004000,0.978000,0.116000,192.000000,0.000000,0.000000,0.000000,0.000000,0.000000,0.000000,0.000000,0.000000,0.000000,1647922286.486244,0.000000
3.000000,-2018.518987,-5414.799501,-28326.455155,19931.855194,-47349.644881,16630.949572,40046.055918,5430.669240,0.004000,0.978000,0.116000,192.000000,0.000000,0.000000,0.000000,0.000000,0.000000,0.000000,0.000000,0.000000,0.000000,1647922286.486260,0.000000
4.000000,-2022.966984,-5415.872385,-28328.980902,19934.537403,-47351.880056,16629.899040,40041.093831,5456.619615,0.004000,0.978000,0.116000,192.000000,0.000000,0.000000,30.000000,128.000000,3.000000,112.000000,0.000000,0.000000,0.000000,1647922286.494155,0.000000
5.000000,-2023.324612,-5415.246536,-28326.835135,19942.673438,-47350.494248,16630.055503,40040.915017,5469.538923,0.004000,0.978000,0.116000,192.000000,0.000000,0.000000,0.000000,0.000000,0.000000,0.000000,0.000000,0.000000,0.000000,1647922286.494172,0.000000
6.000000,-2025.850359,-5416.967620,-28328.869144,19936.861984,-47354.450507,16622.970000,40044.558352,5452.909226,0.004000,0.978000,0.116000,192.000000,0.000000,0.000000,0.000000,0.000000,0.000000,0.000000,0.000000,0.000000,0.000000,1647922286.500763,0.000000
7.000000,-2019.949498,-5409.658600,-28318.632045,19940.840595,-47345.934492,16635.330514,40056.807108,5469.807144,0.004000,0.978000,0.116000,192.000000,0.000000,0.000000,0.000000,0.000000,0.000000,0.000000,0.000000,0.000000,0.000000,1647922286.500779,0.000000
8.000000,-2023.928109,-5414.240708,-28324.599960,19934.425644,-47353.109402,16627.596811,40055.331892,5470.075365,0.004000,0.978000,0.116000,192.000000,0.000000,0.000000,0.000000,0.000000,0.000000,0.000000,0.000000,0.000000,0.000000,1647922286.508585,0.000000
9.000000,-2026.655022,-5414.911260,-28325.538734,19930.379978,-47357.110364,16623.238221,40050.280398,5467.951950,0.004000,0.978000,0.116000,192.000000,0.000000,0.000000,0.000000,0.000000,0.000000,0.000000,0.000000,0.000000,0.000000,1647922286.508598,0.000000
10.000000,-2026.990298,-5410.552670,-28321.291902,19934.135072,-47354.830486,16626.635686,40050.481564,5483.955799,0.004000,0.978000,0.116000,192.000000,0.000000,0.000000,0.000000,0.000000,0.000000,0.000000,0.000000,0.000000,0.000000,1647922286.516912,0.000000
11.000000,-2023.928109,-5403.243649,-28316.128649,19937.934868,-47352.215332,16624.981657,40046.078270,5493.030607,0.004000,0.978000,0.116000,192.000000,0.000000,0.000000,0.000000,0.000000,0.000000,0.000000,0.000000,0.000000,0.000000,1647922286.516929,0.000000
12.000000,-2028.465513,-5405.925859,-28319.146135,19938.068979,-47356.708033,16621.673598,40044.111317,5500.138462,0.004000,0.978000,0.116000,192.000000,0.000000,0.000000,0.000000,0.000000,0.000000,0.000000,0.000000,0.000000,0.000000,1647922286.523883,0.000000
13.000000,-2031.415943,-5408.026923,-28320.710757,19938.672476,-47357.467992,16617.180898,40029.001537,5498.819709,0.004000,0.978000,0.116000,192.000000,0.000000,0.000000,0.000000,0.000000,0.000000,0.000000,0.000000,0.000000,0.000000,1647922286.523894,0.000000
14.000000,-2030.901853,-5406.529356,-28322.856524,19937.174909,-47359.099669,16613.850488,40014.048220,5493.276476,0.004000,0.978000,0.116000,192.000000,0.000000,0.000000,30.000000,176.000000,3.000000,192.000000,0.000000,0.000000,0.000000,1647922286.530436,0.000000
15.000000,-2026.878539,-5404.942382,-28322.029510,19935.878508,-47358.160896,16617.046787,40024.128857,5491.890668,0.004000,0.978000,0.116000,192.000000,0.000000,0.000000,0.000000,0.000000,0.000000,0.000000,0.000000,0.000000,0.000000,1647922286.538545,0.000000
16.000000,-2022.072914,-5401.410806,-28318.162658,19938.560717,-47356.395108,16620.511308,40035.640006,5480.759499,0.004000,0.978000,0.116000,192.000000,0.000000,0.000000,0.000000,0.000000,0.000000,0.000000,0.000000,0.000000,0.000000,1647922286.538561,0.000000
17.000000,-2017.043771,-5399.108577,-28311.300672,19945.333296,-47351.567131,16629.854337,40042.658453,5512.230755,0.004000,0.978000,0.116000,192.000000,0.000000,0.000000,0.000000,0.000000,0.000000,0.000000,0.000000,0.000000,0.000000,1647922286.546596,0.000000
18.000000,-2021.223548,-5405.635286,-28316.598036,19936.929040,-47358.317358,16628.043846,40051.107413,5510.263802,0.004000,0.978000,0.116000,192.000000,0.000000,0.000000,0.000000,0.000000,0.000000,0.000000,0.000000,0.000000,0.000000,1647922286.546612,0.000000
19.000000,-2027.347926,-5411.312629,-28323.616484,19929.441205,-47365.760489,16624.355808,40057.991750,5502.574802,0.004000,0.978000,0.116000,192.000000,0.000000,0.000000,0.000000,0.000000,0.000000,0.000000,0.000000,0.000000,0.000000,1647922286.553159,0.000000
20.000000,-2029.784266,-5412.340809,-28323.996463,19926.311961,-47367.973312,16622.411206,40051.845020,5500.674903,0.004000,0.978000,0.116000,192.000000,0.000000,0.000000,0.000000,0.000000,0.000000,0.000000,0.000000,0.000000,0.000000,1647922286.553176,0.000000
21.000000,-2029.225472,-5407.423426,-28320.934274,19926.356664,-47366.073414,16624.154642,40049.811012,5501.636028,0.004000,0.978000,0.116000,192.000000,0.000000,0.000000,0.000000,0.000000,0.000000,0.000000,0.000000,0.000000,0.000000,1647922286.561093,0.000000
22.000000,-2029.516045,-5407.065798,-28323.102394,19924.859098,-47368.688568,16617.851450,40035.505895,5494.103491,0.004000,0.978000,0.116000,192.000000,0.000000,0.000000,0.000000,0.000000,0.000000,0.000000,0.000000,0.000000,0.000000,1647922286.561128,0.000000
23.000000,-2028.957251,-5407.445777,-28324.756423,19923.853269,-47370.744928,16607.591999,40007.521511,5482.614694,0.004000,0.978000,0.116000,192.000000,0.000000,0.000000,0.000000,0.000000,0.000000,0.000000,0.000000,0.000000,0.000000,1647922286.569034,0.000000
24.000000,-2033.427600,-5412.184347,-28331.417242,19919.584086,-47377.115175,16606.295598,39998.044371,5497.277438,-0.008000,0.980000,0.120000,192.000000,255.000000,192.000000,30.000000,160.000000,3.000000,192.000000,0.000000,0.000000,0.000000,1647922286.569051,0.000000
25.000000,-2024.777475,-5399.935591,-28321.805992,19927.541307,-47366.453393,16628.692046,40036.355261,5521.462026,-0.008000,0.980000,0.120000,192.000000,0.000000,0.000000,0.000000,0.000000,0.000000,0.000000,0.000000,0.000000,0.000000,1647922286.576196,0.000000
26.000000,-2019.860091,-5394.973504,-28314.876952,19935.096197,-47358.920855,16634.570555,40072.095701,5514.600040,-0.008000,0.980000,0.120000,192.000000,0.000000,0.000000,0.000000,0.000000,0.000000,0.000000,0.000000,0.000000,0.000000,1647922286.576212,0.000000
27.000000,-2023.369315,-5397.633362,-28314.496972,19934.313885,-47359.233780,16632.313029,40078.868279,5506.598116,-0.008000,0.980000,0.120000,192.000000,0.000000,0.000000,0.000000,0.000000,0.000000,0.000000,0.000000,0.000000,0.000000,1647922286.583675,0.000000
28.000000,-2020.843568,-5396.515774,-28309.467829,19934.492699,-47356.015129,16632.849471,40063.244410,5507.492186,-0.008000,0.980000,0.120000,192.000000,0.000000,0.000000,0.000000,0.000000,0.000000,0.000000,0.000000,0.000000,0.000000,1647922286.583692,0.000000
29.000000,-2021.916452,-5400.762606,-28309.154905,19931.475214,-47356.193943,16640.650230,40064.227887,5544.596081,-0.008000,0.980000,0.120000,192.000000,0.000000,0.000000,0.000000,0.000000,0.000000,0.000000,0.000000,0.000000,0.000000,1647922286.590752,0.000000
30.000000,-2021.670582,-5403.400112,-28311.881818,19929.620019,-47359.703166,16640.851395,40059.601076,5545.445448,-0.008000,0.980000,0.120000,192.000000,0.000000,0.000000,0.000000,0.000000,0.000000,0.000000,0.000000,0.000000,0.000000,1647922286.590769,0.000000
31.000000,-2024.665716,-5402.170766,-28317.357995,19927.384845,-47364.218219,16631.329552,40052.359110,5497.366845,-0.008000,0.980000,0.120000,192.000000,0.000000,0.000000,0.000000,0.000000,0.000000,0.000000,0.000000,0.000000,0.000000,1647922286.598845,0.000000
32.000000,-2025.984469,-5404.651809,-28319.123783,19924.345007,-47365.849896,16629.943744,40054.616637,5495.645761,-0.008000,0.980000,0.120000,192.000000,0.000000,0.000000,0.000000,0.000000,0.000000,0.000000,0.000000,0.000000,0.000000,1647922286.605775,0.000000
33.000000,-2023.391667,-5404.450644,-28319.436707,19922.065130,-47366.609855,16626.412168,40041.585570,5491.890668,-0.008000,0.980000,0.120000,192.000000,0.000000,0.000000,0.000000,0.000000,0.000000,0.000000,0.000000,0.000000,0.000000,1647922286.605792,0.000000
34.000000,-2022.743466,-5403.288353,-28321.023681,19914.152612,-47369.806155,16627.842680,40045.407718,5527.899328,-0.012000,0.978000,0.122000,192.000000,255.000000,160.000000,30.000000,144.000000,3.000000,208.000000,0.000000,0.000000,0.000000,1647922286.613294,0.000000
35.000000,-2011.701704,-5392.738329,-28311.300672,19923.428586,-47358.406765,16635.643439,40059.757538,5541.042154,-0.012000,0.978000,0.122000,192.000000,0.000000,0.000000,0.000000,0.000000,0.000000,0.000000,0.000000,0.000000,0.000000,1647922286.613310,0.000000
36.000000,-2014.160396,-5398.974466,-28309.065498,19921.640446,-47356.953902,16637.833910,40072.073349,5533.151988,-0.012000,0.978000,0.122000,192.000000,0.000000,0.000000,0.000000,0.000000,0.000000,0.000000,0.000000,0.000000,0.000000,1647922286.621432,0.000000
37.000000,-2024.397495,-5410.396208,-28319.101431,19910.352815,-47367.280408,16627.529756,40062.417395,5515.203537,-0.012000,0.978000,0.122000,192.000000,0.000000,0.000000,0.000000,0.000000,0.000000,0.000000,0.000000,0.000000,0.000000,1647922286.621449,0.000000
38.000000,-2025.090399,-5408.049274,-28320.867219,19914.376129,-47365.872248,16621.830061,40047.307616,5496.986866,-0.012000,0.978000,0.122000,192.000000,0.000000,0.000000,0.000000,0.000000,0.000000,0.000000,0.000000,0.000000,0.000000,1647922286.629181,0.000000
39.000000,-2031.795923,-5418.532243,-28332.445423,19906.642426,-47375.125870,16610.721244,40035.572950,5488.895534,-0.012000,0.978000,0.122000,192.000000,0.000000,0.000000,0.000000,0.000000,0.000000,0.000000,0.000000,0.000000,0.000000,1647922286.629197,0.000000
40.000000,-2029.270176,-5416.744103,-28326.097527,19908.363510,-47369.426175,16617.046787,40031.840209,5490.102528,-0.012000,0.978000,0.122000,192.000000,0.000000,0.000000,0.000000,0.000000,0.000000,0.000000,0.000000,0.000000,0.000000,1647922286.636014,0.000000
41.000000,-2032.667641,-5417.638173,-28326.231638,19909.235228,-47368.085071,16617.717340,40030.543808,5487.062691,-0.012000,0.978000,0.122000,192.000000,0.000000,0.000000,0.000000,0.000000,0.000000,0.000000,0.000000,0.000000,0.000000,1647922286.636030,0.000000
42.000000,-2036.065106,-5416.766455,-28328.131536,19901.792097,-47371.415481,16610.385968,40037.919883,5469.293054,-0.012000,0.978000,0.122000,192.000000,0.000000,0.000000,0.000000,0.000000,0.000000,0.000000,0.000000,0.000000,0.000000,1647922286.643953,0.000000
43.000000,-2034.612243,-5413.480748,-28323.191800,19905.144859,-47362.832411,16621.472433,40047.486430,5485.073386,-0.012000,0.978000,0.122000,192.000000,0.000000,0.000000,0.000000,0.000000,0.000000,0.000000,0.000000,0.000000,0.000000,1647922286.643989,0.000000
44.000000,-2022.698763,-5403.064835,-28312.217094,19917.147746,-47352.260036,16628.826157,40051.286227,5494.282305,-0.012000,0.976000,0.116000,192.000000,255.000000,160.000000,30.000000,128.000000,3.000000,160.000000,0.000000,0.000000,0.000000,1647922286.652027,0.000000
45.000000,-2020.217719,-5401.164937,-28313.647606,19916.790118,-47355.478687,16623.729959,40049.028700,5498.104453,-0.012000,0.976000,0.116000,192.000000,0.000000,0.000000,0.000000,0.000000,0.000000,0.000000,0.000000,0.000000,0.000000,1647922286.652043,0.000000
46.000000,-2022.341135,-5401.008475,-28317.134478,19915.761938,-47358.004434,16620.332494,40042.747860,5474.992749,-0.012000,0.976000,0.116000,192.000000,0.000000,0.000000,0.000000,0.000000,0.000000,0.000000,0.000000,0.000000,0.000000,1647922286.659065,0.000000
47.000000,-2028.867844,-5409.837414,-28325.784603,19906.150687,-47367.235704,16614.744558,40050.459212,5457.916016,-0.012000,0.976000,0.116000,192.000000,0.000000,0.000000,0.000000,0.000000,0.000000,0.000000,0.000000,0.000000,0.000000,1647922286.665671,0.000000
48.000000,-2027.772609,-5407.803405,-28320.263722,19909.838725,-47363.391204,16626.635686,40061.344512,5499.490261,-0.012000,0.976000,0.116000,192.000000,0.000000,0.000000,0.000000,0.000000,0.000000,0.000000,0.000000,0.000000,0.000000,1647922286.665688,0.000000
49.000000,-2028.107885,-5405.255306,-28319.369652,19917.840650,-47360.485478,16627.485052,40051.152116,5496.763348,-0.012000,0.976000,0.116000,192.000000,0.000000,0.000000,0.000000,0.000000,0.000000,0.000000,0.000000,0.000000,0.000000,1647922286.673474,0.000000
50.000000,-2028.912548,-5404.674161,-28323.527077,19913.638522,-47365.693434,16617.024436,40039.372747,5488.873182,-0.012000,0.976000,0.116000,192.000000,0.000000,0.000000,0.000000,0.000000,0.000000,0.000000,0.000000,0.000000,0.000000,1647922286.673491,0.000000
51.000000,-2028.018478,-5405.232955,-28323.281207,19911.917438,-47361.915989,16623.394683,40046.525305,5489.722549,-0.012000,0.976000,0.116000,192.000000,0.000000,0.000000,0.000000,0.000000,0.000000,0.000000,0.000000,0.000000,0.000000,1647922286.681648,0.000000
52.000000,-2032.466475,-5413.547804,-28326.835135,19897.925246,-47370.320245,16611.436500,40037.070517,5483.844040,-0.012000,0.976000,0.116000,192.000000,0.000000,0.000000,0.000000,0.000000,0.000000,0.000000,0.000000,0.000000,0.000000,1647922286.681664,0.000000
53.000000,-2029.650155,-5408.161033,-28324.823478,19903.915513,-47366.855725,16619.281962,40040.646796,5485.319255,-0.012000,0.976000,0.116000,192.000000,0.000000,0.000000,0.000000,0.000000,0.000000,0.000000,0.000000,0.000000,0.000000,1647922286.688717,0.000000
54.000000,-2028.621975,-5406.931687,-28326.611617,19906.754185,-47366.185172,16609.804822,40035.572950,5465.314444,-0.010000,0.980000,0.124000,192.000000,255.000000,176.000000,30.000000,160.000000,3.000000,224.000000,0.000000,0.000000,0.000000,1647922286.688733,0.000000
55.000000,-2028.174940,-5409.055103,-28328.511516,19904.362548,-47367.056890,16613.269343,40030.208532,5479.127822,-0.010000,0.980000,0.124000,192.000000,0.000000,0.000000,0.000000,0.000000,0.000000,0.000000,0.000000,0.000000,0.000000,1647922286.696257,0.000000
56.000000,-2019.725981,-5401.522565,-28319.928446,19907.357682,-47357.847972,16625.383988,40037.539904,5499.043226,-0.010000,0.980000,0.124000,192.000000,0.000000,0.000000,0.000000,0.000000,0.000000,0.000000,0.000000,0.000000,0.000000,1647922286.696273,0.000000
57.000000,-2019.010725,-5400.449681,-28321.537771,19903.759051,-47359.971387,16622.567668,40050.861544,5492.605924,-0.010000,0.980000,0.124000,192.000000,0.000000,0.000000,0.000000,0.000000,0.000000,0.000000,0.000000,0.000000,0.000000,1647922286.704151,0.000000
58.000000,-2020.262423,-5401.030827,-28324.935237,19897.209990,-47364.441736,16614.789261,40043.910151,5481.608865,-0.010000,0.980000,0.124000,192.000000,0.000000,0.000000,0.000000,0.000000,0.000000,0.000000,0.000000,0.000000,0.000000,1647922286.704167,0.000000
59.000000,-2019.278946,-5401.544917,-28326.276341,19899.467516,-47365.201696,16610.385968,40038.769250,5478.390214,-0.010000,0.980000,0.124000,192.000000,0.000000,0.000000,0.000000,0.000000,0.000000,0.000000,0.000000,0.000000,0.000000,1647922286.711372,0.000000
60.000000,-2015.948536,-5396.024036,-28321.873048,19900.495696,-47363.346501,16607.547296,40038.098697,5461.939330,-0.010000,0.980000,0.124000,192.000000,0.000000,0.000000,0.000000,0.000000,0.000000,0.000000,0.000000,0.000000,0.000000,1647922286.711388,0.000000
61.000000,-2020.642402,-5397.588658,-28321.448364,19901.121545,-47361.871286,16613.850488,40053.767270,5464.800354,-0.010000,0.980000,0.124000,192.000000,0.000000,0.000000,0.000000,0.000000,0.000000,0.000000,0.000000,0.000000,0.000000,1647922286.717936,0.000000
62.000000,-2026.140931,-5401.477862,-28323.996463,19900.406289,-47362.698300,16618.209078,40047.978168,5483.665226,-0.010000,0.980000,0.124000,192.000000,0.000000,0.000000,0.000000,0.000000,0.000000,0.000000,0.000000,0.000000,0.000000,1647922286.725982,0.000000
63.000000,-2032.958213,-5408.764530,-28327.975074,19890.862094,-47367.839201,16612.621142,40034.969453,5466.432031,-0.010000,0.980000,0.124000,192.000000,0.000000,0.000000,0.000000,0.000000,0.000000,0.000000,0.000000,0.000000,0.000000,1647922286.725998,0.000000
64.000000,-2034.053449,-5411.491443,-28330.724338,19888.917492,-47369.403824,16610.765947,40035.036508,5442.269795,-0.010000,0.980000,0.124000,192.000000,0.000000,0.000000,0.000000,0.000000,0.000000,0.000000,0.000000,0.000000,0.000000,1647922286.733898,0.000000
65.000000,-2031.058315,-5407.803405,-28329.137365,19888.202237,-47367.906257,16613.068177,40041.898494,5440.056973,-0.008000,0.982000,0.124000,192.000000,255.000000,192.000000,30.000000,176.000000,3.000000,224.000000,0.000000,0.000000,0.000000,1647922286.733933,0.000000
66.000000,-2031.907681,-5406.797577,-28330.500821,19886.637615,-47369.090899,16623.461738,40047.821706,5464.398022,-0.008000,0.982000,0.124000,192.000000,0.000000,0.000000,0.000000,0.000000,0.000000,0.000000,0.000000,0.000000,0.000000,1647922286.740963,0.000000
67.000000,-2033.718173,-5409.792711,-28334.077100,19881.742583,-47373.024806,16622.746482,40046.592360,5474.769232,-0.008000,0.982000,0.124000,192.000000,0.000000,0.000000,0.000000,0.000000,0.000000,0.000000,0.000000,0.000000,0.000000,1647922286.740980,0.000000
68.000000,-2036.065106,-5413.860728,-28337.519269,19877.294585,-47376.064643,16615.169241,40035.461192,5450.003499,-0.008000,0.982000,0.124000,192.000000,0.000000,0.000000,0.000000,0.000000,0.000000,0.000000,0.000000,0.000000,0.000000,1647922286.748552,0.000000
69.000000,-2034.254615,-5413.145472,-28336.334626,19877.831027,-47374.209449,16609.067215,40029.381517,5436.726563,-0.008000,0.982000,0.124000,192.000000,0.000000,0.000000,0.000000,0.000000,0.000000,0.000000,0.000000,0.000000,0.000000,1647922286.748569,0.000000
70.000000,-2033.584062,-5410.329152,-28332.065443,19885.207103,-47367.347463,16621.561840,40040.400927,5471.617636,-0.008000,0.982000,0.124000,192.000000,0.000000,0.000000,0.000000,0.000000,0.000000,0.000000,0.000000,0.000000,0.000000,1647922286.756509,0.000000
71.000000,-2034.433429,-5409.077455,-28332.713644,19881.519065,-47368.465050,16616.867973,40034.075383,5459.368880,-0.008000,0.982000,0.124000,192.000000,0.000000,0.000000,0.000000,0.000000,0.000000,0.000000,0.000000,0.000000,0.000000,1647922286.756525,0.000000
72.000000,-2036.154513,-5412.184347,-28336.401681,19880.379126,-47371.169611,16614.208116,40043.865448,5467.750784,-0.008000,0.982000,0.124000,192.000000,0.000000,0.000000,0.000000,0.000000,0.000000,0.000000,0.000000,0.000000,0.000000,1647922286.764670,0.000000
73.000000,-2032.153551,-5408.026923,-28328.980902,19882.569597,-47364.262922,16627.373293,40063.467927,5483.061729,-0.008000,0.982000,0.124000,192.000000,0.000000,0.000000,0.000000,0.000000,0.000000,0.000000,0.000000,0.000000,0.000000,1647922286.764687,0.000000
74.000000,-2035.506312,-5412.005533,-28332.601885,19878.054545,-47370.208486,16618.767872,40049.565142,5462.498124,-0.008000,0.982000,0.124000,192.000000,0.000000,0.000000,0.000000,0.000000,0.000000,0.000000,0.000000,0.000000,0.000000,1647922286.771037,0.000000
75.000000,-2033.047620,-5411.089112,-28335.798184,19872.645423,-47375.796422,16616.040959,40046.234732,5461.268778,-0.004000,0.980000,0.120000,192.000000,255.000000,224.000000,30.000000,160.000000,3.000000,192.000000,0.000000,0.000000,0.000000,1647922286.771054,0.000000
76.000000,-2036.489789,-5415.246536,-28341.073196,19860.173149,-47382.904277,16607.971979,40044.111317,5450.428182,-0.004000,0.980000,0.120000,192.000000,0.000000,0.000000,0.000000,0.000000,0.000000,0.000000,0.000000,0.000000,0.000000,1647922286.778245,0.000000
77.000000,-2038.680260,-5415.090074,-28341.296714,19863.324745,-47378.925667,16615.683331,40043.172543,5464.085098,-0.004000,0.980000,0.120000,192.000000,0.000000,0.000000,0.000000,0.000000,0.000000,0.000000,0.000000,0.000000,0.000000,1647922286.787562,0.000000
78.000000,-2037.942652,-5409.859766,-28340.045016,19879.283891,-47370.879039,16620.198383,40046.860581,5474.903342,-0.004000,0.980000,0.120000,192.000000,0.000000,0.000000,0.000000,0.000000,0.000000,0.000000,0.000000,0.000000,0.000000,1647922286.787578,0.000000
79.000000,-2033.695821,-5408.764530,-28340.469699,19873.137161,-47374.567077,16613.112880,40048.313445,5461.671109,-0.004000,0.980000,0.120000,192.000000,0.000000,0.000000,0.000000,0.000000,0.000000,0.000000,0.000000,0.000000,0.000000,1647922286.794168,0.000000
80.000000,-2041.228359,-5418.599298,-28347.823423,19861.335440,-47384.513603,16604.194534,40039.864485,5437.710039,-0.004000,0.980000,0.120000,192.000000,0.000000,0.000000,0.000000,0.000000,0.000000,0.000000,0.000000,0.000000,0.000000,1647922286.794184,0.000000
81.000000,-2047.397440,-5424.120179,-28351.578516,19862.855358,-47388.648676,16592.772793,40025.022927,5396.582830,-0.004000,0.980000,0.120000,192.000000,0.000000,0.000000,0.000000,0.000000,0.000000,0.000000,0.000000,0.000000,0.000000,1647922286.800880,0.000000
82.000000,-2046.101039,-5422.175577,-28349.298638,19867.795094,-47385.698245,16594.449174,40026.833418,5429.194025,-0.004000,0.980000,0.120000,192.000000,0.000000,0.000000,0.000000,0.000000,0.000000,0.000000,0.000000,0.000000,0.000000,1647922286.800896,0.000000
83.000000,-2042.569464,-5422.890833,-28341.810804,19865.805789,-47382.613705,16607.033206,40034.880046,5465.225037,-0.004000,0.980000,0.120000,192.000000,0.000000,0.000000,0.000000,0.000000,0.000000,0.000000,0.000000,0.000000,0.000000,1647922286.808645,0.000000
84.000000,-2039.440219,-5419.761589,-28342.168432,19863.660021,-47381.362007,16606.452061,40023.972395,5455.300862,-0.004000,0.980000,0.120000,192.000000,0.000000,0.000000,0.000000,0.000000,0.000000,0.000000,0.000000,0.000000,0.000000,1647922286.808660,0.000000
85.000000,-2043.955272,-5422.622612,-28347.957533,19860.597832,-47386.659370,16600.662959,40017.155113,5457.558388,-0.006000,0.976000,0.118000,192.000000,255.000000,208.000000,30.000000,128.000000,3.000000,176.000000,0.000000,0.000000,0.000000,1647922286.816914,0.000000
86.000000,-2044.961100,-5423.159054,-28346.884650,19864.621146,-47385.184155,16610.989465,40043.619578,5475.618598,-0.006000,0.976000,0.118000,192.000000,0.000000,0.000000,0.000000,0.000000,0.000000,0.000000,0.000000,0.000000,0.000000,1647922286.816949,0.000000
87.000000,-2046.458667,-5423.404923,-28351.310295,19861.268385,-47389.319228,16605.759156,40039.976244,5459.927673,-0.006000,0.976000,0.118000,192.000000,0.000000,0.000000,0.000000,0.000000,0.000000,0.000000,0.000000,0.000000,0.000000,1647922286.823509,0.000000
88.000000,-2032.041792,-5411.089112,-28335.172336,19867.660984,-47375.014111,16617.180898,40045.899456,5448.841208,-0.006000,0.976000,0.118000,192.000000,0.000000,0.000000,0.000000,0.000000,0.000000,0.000000,0.000000,0.000000,0.000000,1647922286.823525,0.000000
89.000000,-2031.751219,-5415.291240,-28340.514402,19870.276138,-47376.735196,16606.027377,40027.481619,5439.833455,-0.006000,0.976000,0.118000,192.000000,0.000000,0.000000,0.000000,0.000000,0.000000,0.000000,0.000000,0.000000,0.000000,1647922286.831495,0.000000
90.000000,-2034.232263,-5419.627478,-28343.084853,19864.755257,-47380.467937,16601.333511,40011.813046,5441.889816,-0.006000,0.976000,0.118000,192.000000,0.000000,0.000000,0.000000,0.000000,0.000000,0.000000,0.000000,0.000000,0.000000,1647922286.831511,0.000000
91.000000,-2028.800789,-5413.592507,-28337.586324,19870.700821,-47374.723539,16602.138174,40010.382534,5429.104618,-0.006000,0.976000,0.118000,192.000000,0.000000,0.000000,0.000000,0.000000,0.000000,0.000000,0.000000,0.000000,0.000000,1647922286.838240,0.000000
92.000000,-2023.525777,-5406.417597,-28331.014911,19873.338327,-47370.186135,16607.301427,40027.861598,5433.507911,-0.006000,0.976000,0.118000,192.000000,0.000000,0.000000,0.000000,0.000000,0.000000,0.000000,0.000000,0.000000,0.000000,1647922286.838258,0.000000
93.000000,-2027.482036,-5413.726618,-28334.837059,19871.416077,-47372.890696,16611.324741,40041.026776,5453.110391,-0.006000,0.976000,0.118000,192.000000,0.000000,0.000000,0.000000,0.000000,0.000000,0.000000,0.000000,0.000000,0.000000,1647922286.846535,0.000000
94.000000,-2030.767742,-5420.141568,-28340.536754,19863.347097,-47379.417405,16603.456927,40028.688613,5447.991842,-0.006000,0.976000,0.118000,192.000000,0.000000,0.000000,0.000000,0.000000,0.000000,0.000000,0.000000,0.000000,0.000000,1647922286.853014,0.000000
95.000000,-2023.972812,-5412.676086,-28336.021702,19865.738733,-47374.455318,16607.726110,40033.561293,5450.942272,-0.010000,0.974000,0.118000,192.000000,255.000000,176.000000,30.000000,112.000000,3.000000,176.000000,0.000000,0.000000,0.000000,1647922286.853031,0.000000
96.000000,-2012.081684,-5401.321399,-28328.064481,19871.349021,-47366.632207,16613.828136,40041.652625,5449.757630,-0.010000,0.974000,0.118000,192.000000,0.000000,0.000000,0.000000,0.000000,0.000000,0.000000,0.000000,0.000000,0.000000,1647922286.861185,0.000000
97.000000,-2022.095266,-5413.860728,-28337.631027,19863.928242,-47375.528202,16605.602694,40028.710965,5432.278565,-0.010000,0.974000,0.118000,192.000000,0.000000,0.000000,0.000000,0.000000,0.000000,0.000000,0.000000,0.000000,0.000000,1647922286.861203,0.000000
98.000000,-2026.722077,-5417.101731,-28339.240353,19859.927280,-47377.696321,16605.066252,40031.795505,5439.609938,-0.010000,0.974000,0.118000,192.000000,0.000000,0.000000,0.000000,0.000000,0.000000,0.000000,0.000000,0.000000,0.000000,1647922286.868970,0.000000
99.000000,-2026.275042,-5416.900565,-28338.681559,19857.915623,-47377.629266,16603.523982,40043.083136,5437.955909,-0.010000,0.974000,0.118000,192.000000,0.000000,0.000000,0.000000,0.000000,0.000000,0.000000,0.000000,0.000000,0.000000,1647922286.868988,0.000000
100.000000,-2027.638498,-5419.426312,-28343.509536,19856.127483,-47381.697283,16596.282017,40028.956834,5428.791693,-0.010000,0.974000,0.118000,192.000000,0.000000,0.000000,0.000000,0.000000,0.000000,0.000000,0.000000,0.000000,0.000000,1647922286.876350,0.000000
101.000000,-2023.414019,-5413.950135,-28340.961437,19861.849530,-47377.696321,16598.159563,40026.542846,5442.292147,-0.010000,0.974000,0.118000,192.000000,0.000000,0.000000,0.000000,0.000000,0.000000,0.000000,0.000000,0.000000,0.000000,1647922286.876367,0.000000
102.000000,-2019.457760,-5407.915164,-28332.043091,19865.023478,-47368.956789,16607.033206,40036.087040,5457.379574,-0.010000,0.974000,0.118000,192.000000,0.000000,0.000000,0.000000,0.000000,0.000000,0.000000,0.000000,0.000000,0.000000,1647922286.883780,0.000000
103.000000,-2015.389742,-5403.668333,-28327.595094,19869.315013,-47365.268751,16607.502593,40029.649738,5461.447592,-0.010000,0.974000,0.118000,192.000000,0.000000,0.000000,0.000000,0.000000,0.000000,0.000000,0.000000,0.000000,0.000000,1647922286.883797,0.000000
104.000000,-2019.346001,-5407.579888,-28333.294789,19865.314050,-47372.153088,16596.483182,40022.385421,5433.798484,-0.010000,0.974000,0.118000,192.000000,0.000000,0.000000,0.000000,0.000000,0.000000,0.000000,0.000000,0.000000,0.000000,1647922286.891764,0.000000
105.000000,-2020.150664,-5407.825757,-28336.088757,19861.156626,-47375.684664,16593.644511,40020.552578,5434.111408,-0.012000,0.982000,0.118000,192.000000,255.000000,160.000000,30.000000,176.000000,3.000000,176.000000,0.000000,0.000000,0.000000,1647922286.891780,0.000000
106.000000,-2026.565615,-5415.559461,-28342.056673,19851.835948,-47382.434891,16583.452115,40014.405848,5421.996763,-0.012000,0.982000,0.118000,192.000000,0.000000,0.000000,0.000000,0.000000,0.000000,0.000000,0.000000,0.000000,0.000000,1647922286.899793,0.000000
107.000000,-2022.631708,-5409.703304,-28334.993522,19860.597832,-47372.845992,16601.288808,40032.622520,5424.254289,-0.012000,0.982000,0.118000,192.000000,0.000000,0.000000,0.000000,0.000000,0.000000,0.000000,0.000000,0.000000,0.000000,1647922286.899828,0.000000
108.000000,-2026.900891,-5416.721751,-28343.420129,19853.154701,-47380.691454,16589.151810,40010.404886,5405.232955,-0.012000,0.982000,0.118000,192.000000,0.000000,0.000000,0.000000,0.000000,0.000000,0.000000,0.000000,0.000000,0.000000,1647922286.906076,0.000000
109.000000,-2030.141894,-5423.427275,-28346.348208,19845.666867,-47385.742949,16584.167371,39995.608031,5402.707208,-0.012000,0.982000,0.118000,192.000000,0.000000,0.000000,0.000000,0.000000,0.000000,0.000000,0.000000,0.000000,0.000000,1647922286.913379,0.000000
110.000000,-2025.313917,-5418.487539,-28337.429862,19855.434579,-47376.556382,16599.254799,40013.712944,5423.136702,-0.012000,0.982000,0.118000,192.000000,0.000000,0.000000,0.000000,0.000000,0.000000,0.000000,0.000000,0.000000,0.000000,1647922286.913396,0.000000
111.000000,-2027.392629,-5424.455455,-28341.274362,19846.739751,-47381.831393,16593.957435,40009.823741,5411.312629,-0.012000,0.982000,0.118000,192.000000,0.000000,0.000000,0.000000,0.000000,0.000000,0.000000,0.000000,0.000000,0.000000,1647922286.921300,0.000000
112.000000,-2024.106923,-5420.566251,-28338.011007,19845.577460,-47379.417405,16601.467622,40032.488410,5415.961792,-0.012000,0.982000,0.118000,192.000000,0.000000,0.000000,0.000000,0.000000,0.000000,0.000000,0.000000,0.000000,0.000000,1647922286.921317,0.000000
113.000000,-2018.608394,-5410.262097,-28331.484298,19853.311164,-47371.370777,16610.520078,40030.476753,5418.465187,-0.012000,0.982000,0.118000,192.000000,0.000000,0.000000,0.000000,0.000000,0.000000,0.000000,0.000000,0.000000,0.000000,1647922286.929279,0.000000
114.000000,-2021.312955,-5406.372894,-28333.428899,19858.206196,-47371.862515,16610.654188,40016.641023,5417.414655,-0.012000,0.982000,0.118000,192.000000,0.000000,0.000000,0.000000,0.000000,0.000000,0.000000,0.000000,0.000000,0.000000,1647922286.929296,0.000000
115.000000,-2027.571443,-5412.609030,-28339.463870,19850.897175,-47377.472803,16609.827174,40038.076346,5434.781961,-0.010000,0.980000,0.112000,192.000000,255.000000,176.000000,30.000000,160.000000,3.000000,128.000000,0.000000,0.000000,0.000000,1647922286.936087,0.000000
116.000000,-2031.170074,-5416.922917,-28346.862298,19842.515271,-47383.373664,16598.718357,40034.835343,5415.134777,-0.010000,0.980000,0.112000,192.000000,0.000000,0.000000,0.000000,0.000000,0.000000,0.000000,0.000000,0.000000,0.000000,1647922286.936106,0.000000
117.000000,-2030.007783,-5416.766455,-28346.616429,19839.430730,-47382.881925,16601.020587,40035.416488,5420.029809,-0.010000,0.980000,0.112000,192.000000,0.000000,0.000000,0.000000,0.000000,0.000000,0.000000,0.000000,0.000000,0.000000,1647922286.944057,0.000000
118.000000,-2026.006821,-5413.234879,-28345.185917,19841.129463,-47382.166670,16604.216886,40030.543808,5442.225092,-0.010000,0.980000,0.112000,192.000000,0.000000,0.000000,0.000000,0.000000,0.000000,0.000000,0.000000,0.000000,0.000000,1647922286.944074,0.000000
119.000000,-2026.990298,-5413.480748,-28346.862298,19848.974925,-47379.104481,16606.809688,40017.758610,5433.887891,-0.010000,0.980000,0.112000,192.000000,0.000000,0.000000,0.000000,0.000000,0.000000,0.000000,0.000000,0.000000,0.000000,1647922286.952087,0.000000
120.000000,-2022.922280,-5408.943344,-28340.246182,19860.374315,-47369.984969,16616.532697,40025.939348,5429.305783,-0.010000,0.980000,0.112000,192.000000,0.000000,0.000000,0.000000,0.000000,0.000000,0.000000,0.000000,0.000000,0.000000,1647922286.952103,0.000000
121.000000,-2021.961155,-5409.569193,-28336.692254,19858.720286,-47367.414518,16620.690122,40038.970415,5429.529301,-0.010000,0.980000,0.112000,192.000000,0.000000,0.000000,0.000000,0.000000,0.000000,0.000000,0.000000,0.000000,0.000000,1647922286.958699,0.000000
122.000000,-2021.312955,-5408.697475,-28336.826365,19859.726114,-47367.012187,16621.852412,40047.687596,5458.720679,-0.010000,0.980000,0.112000,192.000000,0.000000,0.000000,0.000000,0.000000,0.000000,0.000000,0.000000,0.000000,0.000000,1647922286.958715,0.000000
123.000000,-2022.944632,-5408.831586,-28341.453176,19856.529815,-47370.610818,16618.276133,40054.616637,5458.810086,-0.010000,0.980000,0.112000,192.000000,0.000000,0.000000,0.000000,0.000000,0.000000,0.000000,0.000000,0.000000,0.000000,1647922286.965579,0.000000
124.000000,-2026.610318,-5410.887946,-28349.119824,19848.818463,-47377.293989,16608.910752,40042.837267,5432.770304,-0.010000,0.980000,0.112000,192.000000,0.000000,0.000000,0.000000,0.000000,0.000000,0.000000,0.000000,0.000000,0.000000,1647922286.973775,0.000000
125.000000,-2035.439257,-5424.410751,-28353.947801,19835.452120,-47384.334789,16606.094433,40037.852828,5427.182368,-0.012000,0.982000,0.114000,192.000000,255.000000,160.000000,30.000000,176.000000,3.000000,144.000000,0.000000,0.000000,0.000000,1647922286.973792,0.000000
126.000000,-2035.439257,-5427.651754,-28356.026513,19819.470622,-47392.023789,16596.751403,40028.219226,5430.915109,-0.012000,0.982000,0.114000,192.000000,0.000000,0.000000,0.000000,0.000000,0.000000,0.000000,0.000000,0.000000,0.000000,1647922286.981774,0.000000
127.000000,-2028.130237,-5425.975374,-28354.104263,19827.360788,-47389.542745,16586.983691,40013.154151,5418.040504,-0.012000,0.982000,0.114000,192.000000,0.000000,0.000000,0.000000,0.000000,0.000000,0.000000,0.000000,0.000000,0.000000,1647922286.981790,0.000000
128.000000,-2022.363487,-5415.112426,-28348.136347,19826.444367,-47383.619533,16598.517191,40021.469000,5421.192100,-0.012000,0.982000,0.114000,192.000000,0.000000,0.000000,0.000000,0.000000,0.000000,0.000000,0.000000,0.000000,0.000000,1647922286.988356,0.000000
129.000000,-2022.072914,-5410.440911,-28345.610600,19843.878727,-47374.634132,16600.640607,40013.712944,5415.358295,-0.012000,0.982000,0.114000,192.000000,0.000000,0.000000,0.000000,0.000000,0.000000,0.000000,0.000000,0.000000,0.000000,1647922286.988391,0.000000
130.000000,-2029.918376,-5416.006495,-28350.438577,19837.284963,-47378.679797,16589.263569,40006.225110,5408.473958,-0.012000,0.982000,0.114000,192.000000,0.000000,0.000000,0.000000,0.000000,0.000000,0.000000,0.000000,0.000000,0.000000,1647922286.996151,0.000000
131.000000,-2022.430542,-5411.089112,-28343.174260,19844.348114,-47373.360082,16596.147906,40017.959776,5412.698437,-0.012000,0.982000,0.114000,192.000000,0.000000,0.000000,0.000000,0.000000,0.000000,0.000000,0.000000,0.000000,0.000000,1647922286.996167,0.000000
132.000000,-2020.128312,-5410.396208,-28343.598943,19841.576498,-47373.382434,16601.400566,40025.738183,5426.757685,-0.012000,0.982000,0.114000,192.000000,0.000000,0.000000,0.000000,0.000000,0.000000,0.000000,0.000000,0.000000,0.000000,1647922287.004077,0.000000
133.000000,-2027.616147,-5412.743141,-28348.985714,19835.876803,-47376.735196,16599.701834,40020.910206,5428.255251,-0.012000,0.982000,0.114000,192.000000,0.000000,0.000000,0.000000,0.000000,0.000000,0.000000,0.000000,0.000000,0.000000,1647922287.004088,0.000000
134.000000,-2031.684164,-5417.660525,-28354.819519,19834.669809,-47382.189021,16589.375328,40011.075438,5410.642077,-0.012000,0.982000,0.114000,192.000000,0.000000,0.000000,0.000000,0.000000,0.000000,0.000000,0.000000,0.000000,0.000000,1647922287.011192,0.000000
135.000000,-2031.639461,-5419.538071,-28360.474510,19828.321913,-47387.352274,16590.492915,40026.162866,5408.250440,-0.012000,0.974000,0.116000,192.000000,255.000000,160.000000,30.000000,112.000000,3.000000,160.000000,0.000000,0.000000,0.000000,1647922287.011203,0.000000
136.000000,-2027.012649,-5420.275679,-28351.712626,19828.679541,-47385.742949,16589.934121,40023.659471,5409.546841,-0.012000,0.974000,0.116000,192.000000,0.000000,0.000000,0.000000,0.000000,0.000000,0.000000,0.000000,0.000000,0.000000,1647922287.018741,0.000000
137.000000,-2032.622937,-5425.640097,-28356.786472,19827.763120,-47388.581620,16585.553179,40009.644927,5401.321399,-0.012000,0.974000,0.116000,192.000000,0.000000,0.000000,0.000000,0.000000,0.000000,0.000000,0.000000,0.000000,0.000000,1647922287.018757,0.000000
138.000000,-2028.644327,-5421.616783,-28352.316124,19828.411320,-47383.641885,16592.325758,40002.447665,5414.955963,-0.012000,0.974000,0.116000,192.000000,0.000000,0.000000,0.000000,0.000000,0.000000,0.000000,0.000000,0.000000,0.000000,1647922287.026063,0.000000
139.000000,-2030.030135,-5421.750894,-28356.674714,19826.310256,-47387.106405,16587.654243,39999.787807,5415.425350,-0.012000,0.974000,0.116000,192.000000,0.000000,0.000000,0.000000,0.000000,0.000000,0.000000,0.000000,0.000000,0.000000,1647922287.034049,0.000000
140.000000,-2023.414019,-5413.637211,-28353.277249,19835.496823,-47380.043254,16594.292712,40013.623537,5417.481711,-0.012000,0.974000,0.116000,192.000000,0.000000,0.000000,0.000000,0.000000,0.000000,0.000000,0.000000,0.000000,0.000000,1647922287.034066,0.000000
141.000000,-2019.033077,-5409.233917,-28353.411359,19840.391855,-47377.428100,16596.684348,40027.772191,5426.288298,-0.012000,0.974000,0.116000,192.000000,0.000000,0.000000,0.000000,0.000000,0.000000,0.000000,0.000000,0.000000,0.000000,1647922287.041169,0.000000
142.000000,-2025.984469,-5412.899603,-28357.881708,19832.613448,-47381.540821,16600.037110,40027.816895,5442.895644,-0.012000,0.974000,0.116000,192.000000,0.000000,0.000000,0.000000,0.000000,0.000000,0.000000,0.000000,0.000000,0.000000,1647922287.041185,0.000000
143.000000,-2026.766780,-5410.731484,-28353.903097,19834.111015,-47381.317303,16599.053633,40017.289223,5428.903452,-0.012000,0.974000,0.116000,192.000000,0.000000,0.000000,0.000000,0.000000,0.000000,0.000000,0.000000,0.000000,0.000000,1647922287.048635,0.000000
144.000000,-2020.396533,-5402.707208,-28351.444405,19840.436559,-47379.015074,16596.639645,40018.160941,5427.361182,-0.012000,0.974000,0.116000,192.000000,0.000000,0.000000,0.000000,0.000000,0.000000,0.000000,0.000000,0.000000,0.000000,1647922287.048651,0.000000
145.000000,-2023.905757,-5407.021094,-28356.965286,19838.648419,-47381.809042,16599.143040,40029.359165,5431.876234,-0.004000,0.970000,0.116000,192.000000,255.000000,224.000000,30.000000,80.000000,3.000000,160.000000,0.000000,0.000000,0.000000,1647922287.056626,0.000000
146.000000,-2020.016553,-5403.891850,-28353.344304,19837.799053,-47376.668140,16606.496764,40045.430070,5424.813083,-0.004000,0.970000,0.116000,192.000000,0.000000,0.000000,0.000000,0.000000,0.000000,0.000000,0.000000,0.000000,0.000000,1647922287.056642,0.000000
147.000000,-2005.778492,-5396.202850,-28337.407510,19849.176091,-47363.748832,16615.303351,40051.733262,5440.526359,-0.004000,0.970000,0.116000,192.000000,0.000000,0.000000,0.000000,0.000000,0.000000,0.000000,0.000000,0.000000,0.000000,1647922287.064324,0.000000
148.000000,-2012.551071,-5402.729559,-28346.325856,19838.804881,-47372.935399,16607.547296,40045.787698,5439.945214,-0.004000,0.970000,0.116000,192.000000,0.000000,0.000000,0.000000,0.000000,0.000000,0.000000,0.000000,0.000000,0.000000,1647922287.064335,0.000000
149.000000,-2016.037943,-5406.127024,-28349.656266,19835.541527,-47373.650655,16597.868991,40028.599206,5417.459359,-0.004000,0.970000,0.116000,192.000000,0.000000,0.000000,0.000000,0.000000,0.000000,0.000000,0.000000,0.000000,0.000000,1647922287.071219,0.000000
150.000000,-2013.467492,-5401.299048,-28352.584344,19836.413245,-47373.002454,16598.338377,40024.464133,5411.603202,-0.004000,0.970000,0.116000,192.000000,0.000000,0.000000,0.000000,0.000000,0.000000,0.000000,0.000000,0.000000,0.000000,1647922287.071254,0.000000
151.000000,-2006.829024,-5393.006550,-28344.001275,19844.057541,-47366.051062,16603.523982,40025.671128,5408.317495,-0.004000,0.970000,0.116000,192.000000,0.000000,0.000000,0.000000,0.000000,0.000000,0.000000,0.000000,0.000000,0.000000,1647922287.079030,0.000000
152.000000,-2006.896079,-5389.005588,-28340.134423,19842.112940,-47364.397033,16600.171220,40019.569101,5406.507004,-0.004000,0.970000,0.116000,192.000000,0.000000,0.000000,0.000000,0.000000,0.000000,0.000000,0.000000,0.000000,0.000000,1647922287.079047,0.000000
153.000000,-1998.715341,-5384.781108,-28335.552315,19842.627030,-47360.261960,16604.350997,40023.212436,5403.824795,-0.004000,0.970000,0.116000,192.000000,0.000000,0.000000,0.000000,0.000000,0.000000,0.000000,0.000000,0.000000,0.000000,1647922287.086268,0.000000
154.000000,-2003.878594,-5395.241725,-28346.303504,19836.949687,-47369.850858,16600.104165,40016.797485,5414.732446,-0.004000,0.970000,0.116000,192.000000,0.000000,0.000000,0.000000,0.000000,0.000000,0.000000,0.000000,0.000000,0.000000,1647922287.086284,0.000000
155.000000,-2000.548184,-5394.392359,-28341.922562,19836.234431,-47367.950960,16609.983636,40031.840209,5430.535129,-0.002000,0.976000,0.114000,192.000000,255.000000,240.000000,30.000000,128.000000,3.000000,144.000000,0.000000,0.000000,0.000000,1647922287.093539,0.000000
156.000000,-1995.988428,-5388.133870,-28335.105280,19839.251916,-47362.877114,16617.337360,40038.255160,5410.955001,-0.002000,0.976000,0.114000,192.000000,0.000000,0.000000,0.000000,0.000000,0.000000,0.000000,0.000000,0.000000,0.000000,1647922287.100894,0.000000
157.000000,-1997.329533,-5389.206754,-28335.775833,19840.704780,-47362.832411,16613.895191,40022.139552,5399.175632,-0.002000,0.976000,0.114000,192.000000,0.000000,0.000000,0.000000,0.000000,0.000000,0.000000,0.000000,0.000000,0.000000,1647922287.100912,0.000000
158.000000,-2001.688123,-5394.571173,-28342.995446,19834.021608,-47369.649693,16605.759156,39999.832511,5399.935591,-0.002000,0.976000,0.114000,192.000000,0.000000,0.000000,0.000000,0.000000,0.000000,0.000000,0.000000,0.000000,0.000000,1647922287.108819,0.000000
159.000000,-2002.828062,-5393.677103,-28344.828289,19834.513346,-47369.470879,16611.570610,40011.611880,5439.922862,-0.002000,0.976000,0.114000,192.000000,0.000000,0.000000,0.000000,0.000000,0.000000,0.000000,0.000000,0.000000,0.000000,1647922287.108836,0.000000
