%OpenBCI Raw EEG Data
%Number of channels = 8
%Sample Rate = 256 Hz
%Board = OpenBCI_GUI$BoardCytonSerial
%Channels = Fp1, Fp2, F3, F4, Fz, Pz, O1, O2
%Data recorded at AIMS Lab (http://aimsl.uiu.ac.bd) by Rana Depto (mail@ranadepto.com)
%Brainwaves were obtained via the Ultracortex Mark IV Headset using the OpenBCI Cyton Board
%Recording Application = ConcentrateToday (https://concentrate.today)
%Data type = RAW data with noise
%Day No = 7
%Subject ID = 4
%Session ID = 7
%Record starting timestamp (UTC+6) = 2022-03-23T14:21:07.649826
%Record ending timestamp (UTC+6)   = 2022-03-23T14:21:28.810065
%Recorded durations = ~21 seconds
Sample Index, EXG Channel 0, EXG Channel 1, EXG Channel 2, EXG Channel 3, EXG Channel 4, EXG Channel 5, EXG Channel 6, EXG Channel 7, Accel Channel 0, Accel Channel 1, Accel Channel 2, Other, Other, Other, Other, Other, Other, Other, Analog Channel 0, Analog Channel 1, Analog Channel 2, Timestamp, Timestamp (Formatted)
219.000000,-20391.071783,-26758.033247,33323.455849,47647.370118,33300.277090,44716.162350,40747.900694,36567.520984,0.100000,0.936000,0.278000,192.000000,0.000000,0.000000,0.000000,0.000000,0.000000,0.000000,0.000000,0.000000,0.000000,1648023667.650467,0.000000
220.000000,-20388.076650,-26755.418093,33324.908712,47649.672347,33302.735782,44715.782370,40750.717014,36573.667714,0.100000,0.936000,0.278000,192.000000,0.000000,0.000000,0.000000,0.000000,0.000000,0.000000,0.000000,0.000000,0.000000,1648023667.650478,0.000000
221.000000,-20389.797734,-26757.742674,33341.940742,47650.074679,33308.435477,44715.245928,40754.002721,36572.550127,0.100000,0.936000,0.278000,192.000000,0.000000,0.000000,0.000000,0.000000,0.000000,0.000000,0.000000,0.000000,0.000000,1648023667.658362,0.000000
222.000000,-20390.758859,-26758.457930,33348.445099,47646.923083,33303.495741,44714.463617,40750.761718,36568.973848,0.100000,0.936000,0.278000,192.000000,0.000000,0.000000,0.000000,0.000000,0.000000,0.000000,0.000000,0.000000,0.000000,1648023667.658367,0.000000
223.000000,-20392.301129,-26759.128482,33345.315855,47646.766620,33298.824227,44717.659917,40752.393395,36576.349923,0.102000,0.936000,0.276000,192.000000,3.000000,48.000000,29.000000,64.000000,8.000000,160.000000,0.000000,0.000000,0.000000,1648023667.666354,0.000000
224.000000,-20391.407060,-26757.854433,33340.286713,47650.700528,33299.785352,44719.738629,40751.991064,36579.926202,0.102000,0.936000,0.276000,192.000000,0.000000,0.000000,0.000000,0.000000,0.000000,0.000000,0.000000,0.000000,0.000000,1648023667.666359,0.000000
225.000000,-20390.580045,-26756.759197,33347.036940,47653.896827,33304.658032,44720.565643,40753.510982,36577.713380,0.102000,0.936000,0.276000,192.000000,0.000000,0.000000,0.000000,0.000000,0.000000,0.000000,0.000000,0.000000,0.000000,1648023667.672962,0.000000
226.000000,-20381.326423,-26747.170299,33365.365370,47665.340920,33317.800858,44728.299347,40757.020206,36574.606487,0.102000,0.936000,0.276000,192.000000,0.000000,0.000000,0.000000,0.000000,0.000000,0.000000,0.000000,0.000000,0.000000,1648023667.672966,0.000000
227.000000,-20384.254501,-26749.651343,33369.276925,47662.770470,33315.275111,44722.867873,40751.946360,36564.168222,0.102000,0.936000,0.276000,192.000000,0.000000,0.000000,0.000000,0.000000,0.000000,0.000000,0.000000,0.000000,0.000000,1648023667.679994,0.000000
228.000000,-20385.640310,-26751.886517,33351.663751,47662.234028,33304.903901,44722.130265,40755.612046,36575.701723,0.102000,0.936000,0.276000,192.000000,0.000000,0.000000,0.000000,0.000000,0.000000,0.000000,0.000000,0.000000,0.000000,1648023667.688035,0.000000
229.000000,-20396.123278,-26762.369485,33348.646265,47657.920141,33302.244044,44716.855254,40745.933741,36566.738673,0.102000,0.936000,0.276000,192.000000,0.000000,0.000000,0.000000,0.000000,0.000000,0.000000,0.000000,0.000000,0.000000,1648023667.688040,0.000000
230.000000,-20394.424545,-26758.547337,33371.109768,47660.982330,33314.179875,44719.537463,40752.751023,36566.023417,0.102000,0.936000,0.276000,192.000000,0.000000,0.000000,0.000000,0.000000,0.000000,0.000000,0.000000,0.000000,0.000000,1648023667.696074,0.000000
231.000000,-20389.574217,-26754.524023,33385.280774,47663.217504,33320.483067,44720.029202,40755.053253,36572.550127,0.102000,0.936000,0.276000,192.000000,0.000000,0.000000,0.000000,0.000000,0.000000,0.000000,0.000000,0.000000,0.000000,1648023667.696080,0.000000
232.000000,-20390.580045,-26756.647439,33383.246766,47661.898751,33314.515151,44715.201225,40749.688834,36571.119615,0.102000,0.936000,0.276000,192.000000,0.000000,0.000000,0.000000,0.000000,0.000000,0.000000,0.000000,0.000000,0.000000,1648023667.702593,0.000000
233.000000,-20386.266158,-26754.255802,33375.446007,47658.031900,33306.759096,44713.837768,40755.053253,36573.287734,0.100000,0.940000,0.278000,192.000000,3.000000,32.000000,29.000000,96.000000,8.000000,176.000000,0.000000,0.000000,0.000000,1648023667.702597,0.000000
234.000000,-20386.847304,-26755.015761,33357.050521,47653.963882,33303.898073,44717.101123,40759.098918,36574.181804,0.100000,0.940000,0.278000,192.000000,0.000000,0.000000,0.000000,0.000000,0.000000,0.000000,0.000000,0.000000,0.000000,1648023667.710612,0.000000
235.000000,-20391.161190,-26758.793206,33352.244896,47649.158257,33303.093410,44711.557890,40754.583866,36565.419920,0.100000,0.940000,0.278000,192.000000,0.000000,0.000000,0.000000,0.000000,0.000000,0.000000,0.000000,0.000000,0.000000,1648023667.710636,0.000000
236.000000,-20394.111621,-26761.363657,33345.897001,47647.280711,33302.042878,44710.909690,40756.349654,36568.325647,0.100000,0.940000,0.278000,192.000000,0.000000,0.000000,0.000000,0.000000,0.000000,0.000000,0.000000,0.000000,0.000000,1648023667.718632,0.000000
237.000000,-20397.173810,-26762.972982,33350.657922,47643.033879,33300.098276,44707.668687,40747.431308,36571.432539,0.100000,0.940000,0.278000,192.000000,0.000000,0.000000,0.000000,0.000000,0.000000,0.000000,0.000000,0.000000,0.000000,1648023667.718636,0.000000
238.000000,-20397.017347,-26763.911756,33351.060254,47641.223388,33297.349012,44707.579280,40746.604293,36568.415054,0.100000,0.940000,0.278000,192.000000,0.000000,0.000000,0.000000,0.000000,0.000000,0.000000,0.000000,0.000000,0.000000,1648023667.725805,0.000000
239.000000,-20388.970719,-26754.747540,33348.981541,47649.359423,33298.533654,44712.720181,40756.751985,36575.701723,0.100000,0.940000,0.278000,192.000000,0.000000,0.000000,0.000000,0.000000,0.000000,0.000000,0.000000,0.000000,0.000000,1648023667.725808,0.000000
240.000000,-20388.389574,-26753.540546,33349.719149,47657.093126,33304.948605,44716.095294,40757.199020,36569.867917,0.100000,0.940000,0.278000,192.000000,0.000000,0.000000,0.000000,0.000000,0.000000,0.000000,0.000000,0.000000,0.000000,1648023667.733344,0.000000
241.000000,-20386.266158,-26752.802939,33367.511137,47667.039653,33318.247893,44722.264376,40758.763642,36575.746426,0.100000,0.940000,0.278000,192.000000,0.000000,0.000000,0.000000,0.000000,0.000000,0.000000,0.000000,0.000000,0.000000,1648023667.733348,0.000000
242.000000,-20381.929920,-26747.594982,33357.206983,47670.526525,33316.817381,44726.377097,40760.954113,36582.384894,0.100000,0.940000,0.278000,192.000000,0.000000,0.000000,0.000000,0.000000,0.000000,0.000000,0.000000,0.000000,0.000000,1648023667.740355,0.000000
243.000000,-20386.377917,-26750.053674,33362.370236,47669.543048,33320.527771,44725.281861,40753.890962,36575.701723,0.098000,0.940000,0.276000,192.000000,3.000000,16.000000,29.000000,96.000000,8.000000,160.000000,0.000000,0.000000,0.000000,1648023667.748434,0.000000
244.000000,-20382.756934,-26746.589154,33367.108806,47674.393377,33326.518038,44727.695850,40755.075604,36575.746426,0.098000,0.940000,0.276000,192.000000,0.000000,0.000000,0.000000,0.000000,0.000000,0.000000,0.000000,0.000000,0.000000,1648023667.748462,0.000000
245.000000,-20380.275891,-26743.929296,33379.715190,47680.026016,33332.821230,44729.685155,40760.507078,36578.875670,0.098000,0.940000,0.276000,192.000000,0.000000,0.000000,0.000000,0.000000,0.000000,0.000000,0.000000,0.000000,0.000000,1648023667.755383,0.000000
246.000000,-20383.405135,-26745.829194,33395.696687,47677.634380,33332.463602,44722.554949,40754.226238,36568.705627,0.098000,0.940000,0.276000,192.000000,0.000000,0.000000,0.000000,0.000000,0.000000,0.000000,0.000000,0.000000,0.000000,1648023667.755387,0.000000
247.000000,-20384.947405,-26747.125595,33380.296335,47671.264132,33319.901922,44722.577300,40755.544991,36576.416978,0.098000,0.940000,0.276000,192.000000,0.000000,0.000000,0.000000,0.000000,0.000000,0.000000,0.000000,0.000000,0.000000,1648023667.762958,0.000000
248.000000,-20387.808429,-26754.635782,33372.450873,47666.234990,33317.085602,44727.271167,40762.451680,36586.385856,0.098000,0.940000,0.276000,192.000000,0.000000,0.000000,0.000000,0.000000,0.000000,0.000000,0.000000,0.000000,0.000000,1648023667.762962,0.000000
249.000000,-20386.959062,-26753.205270,33372.920260,47664.335092,33315.811553,44722.554949,40753.667444,36576.796958,0.098000,0.940000,0.276000,192.000000,0.000000,0.000000,0.000000,0.000000,0.000000,0.000000,0.000000,0.000000,0.000000,1648023667.770992,0.000000
250.000000,-20388.277815,-26754.792244,33377.770588,47664.625664,33316.727974,44720.163312,40750.493497,36573.690066,0.098000,0.940000,0.276000,192.000000,0.000000,0.000000,0.000000,0.000000,0.000000,0.000000,0.000000,0.000000,0.000000,1648023667.770996,0.000000
251.000000,-20389.484810,-26758.949668,33389.572309,47661.965807,33322.159448,44719.537463,40752.013415,36574.830005,0.098000,0.940000,0.276000,192.000000,0.000000,0.000000,0.000000,0.000000,0.000000,0.000000,0.000000,0.000000,0.000000,1648023667.778951,0.000000
252.000000,-20394.379842,-26760.357828,33381.905661,47654.075641,33312.391736,44710.641469,40746.537238,36564.950534,0.098000,0.940000,0.276000,192.000000,0.000000,0.000000,0.000000,0.000000,0.000000,0.000000,0.000000,0.000000,0.000000,1648023667.778955,0.000000
253.000000,-20394.648063,-26759.821386,33360.604448,47650.655824,33302.624023,44709.881510,40750.404090,36566.693970,0.094000,0.942000,0.272000,192.000000,2.000000,240.000000,29.000000,112.000000,8.000000,128.000000,0.000000,0.000000,0.000000,1648023667.785600,0.000000
254.000000,-20393.239903,-26760.938974,33363.309009,47655.260283,33304.523922,44709.948565,40750.493497,36572.237202,0.094000,0.942000,0.272000,192.000000,0.000000,0.000000,0.000000,0.000000,0.000000,0.000000,0.000000,0.000000,0.000000,1648023667.785604,0.000000
255.000000,-20391.943501,-26758.726151,33373.300239,47663.888057,33317.197361,44712.496664,40746.738404,36575.902888,0.094000,0.942000,0.272000,192.000000,0.000000,0.000000,0.000000,0.000000,0.000000,0.000000,0.000000,0.000000,0.000000,1648023667.793506,0.000000
0.000000,-20385.863827,-26751.126558,33385.370181,47673.096975,33324.014643,44717.168178,40753.086299,36575.589964,0.094000,0.942000,0.272000,192.000000,0.000000,0.000000,0.000000,0.000000,0.000000,0.000000,0.000000,0.000000,0.000000,1648023667.793510,0.000000
1.000000,-20386.668490,-26748.712569,33369.858071,47670.750042,33317.957320,44717.078771,40754.561514,36578.026304,0.094000,0.942000,0.272000,192.000000,0.000000,0.000000,0.000000,0.000000,0.000000,0.000000,0.000000,0.000000,0.000000,1648023667.800509,0.000000
2.000000,-20386.444972,-26749.427825,33365.857108,47668.000778,33316.593864,44710.708524,40741.999834,36571.231374,0.094000,0.942000,0.272000,192.000000,0.000000,0.000000,0.000000,0.000000,0.000000,0.000000,0.000000,0.000000,0.000000,1648023667.807680,0.000000
3.000000,-20388.501333,-26753.182918,33374.931917,47665.877362,33318.516114,44708.607460,40739.027052,36562.715359,0.094000,0.942000,0.272000,192.000000,0.000000,0.000000,0.000000,0.000000,0.000000,0.000000,0.000000,0.000000,0.000000,1648023667.807683,0.000000
4.000000,-20389.529513,-26754.926354,33385.303126,47664.335092,33322.315910,44711.289669,40746.425479,36563.631781,0.094000,0.942000,0.272000,192.000000,0.000000,0.000000,0.000000,0.000000,0.000000,0.000000,0.000000,0.000000,0.000000,1648023667.815212,0.000000
5.000000,-20388.702499,-26753.853471,33388.432370,47659.931798,33320.393660,44709.769751,40752.393395,36568.973848,0.094000,0.942000,0.272000,192.000000,0.000000,0.000000,0.000000,0.000000,0.000000,0.000000,0.000000,0.000000,0.000000,1648023667.815215,0.000000
6.000000,-20389.015423,-26754.456968,33376.764760,47652.823943,33311.318852,44707.199300,40752.840430,36568.705627,0.094000,0.942000,0.272000,192.000000,0.000000,0.000000,0.000000,0.000000,0.000000,0.000000,0.000000,0.000000,0.000000,1648023667.823201,0.000000
7.000000,-20391.518818,-26756.155700,33363.152547,47653.986234,33308.480180,44711.513187,40755.679101,36563.788243,0.098000,0.942000,0.270000,192.000000,3.000000,16.000000,29.000000,112.000000,8.000000,112.000000,0.000000,0.000000,0.000000,1648023667.823205,0.000000
8.000000,-20396.235036,-26760.491939,33359.039826,47653.807420,33306.736744,44711.893167,40751.231104,36569.622048,0.098000,0.942000,0.270000,192.000000,0.000000,0.000000,0.000000,0.000000,0.000000,0.000000,0.000000,0.000000,0.000000,1648023667.831269,0.000000
9.000000,-20397.576141,-26763.352962,33354.345960,47650.298196,33302.624023,44712.451960,40745.062023,36578.205118,0.098000,0.942000,0.270000,192.000000,0.000000,0.000000,0.000000,0.000000,0.000000,0.000000,0.000000,0.000000,0.000000,1648023667.831273,0.000000
10.000000,-20391.183542,-26757.876785,33345.137041,47653.382737,33302.154637,44716.385867,40748.303026,36580.775569,0.098000,0.942000,0.270000,192.000000,0.000000,0.000000,0.000000,0.000000,0.000000,0.000000,0.000000,0.000000,0.000000,1648023667.837795,0.000000
11.000000,-20390.803562,-26755.686314,33337.805669,47658.143658,33304.456866,44717.950489,40748.034805,36577.780435,0.098000,0.942000,0.270000,192.000000,0.000000,0.000000,0.000000,0.000000,0.000000,0.000000,0.000000,0.000000,0.000000,1648023667.837799,0.000000
12.000000,-20391.608225,-26755.753369,33334.922294,47663.217504,33307.295538,44720.252719,40752.661616,36578.652153,0.098000,0.942000,0.270000,192.000000,0.000000,0.000000,0.000000,0.000000,0.000000,0.000000,0.000000,0.000000,0.000000,1648023667.845804,0.000000
13.000000,-20393.374013,-26755.261630,33319.946625,47658.925969,33302.378154,44721.035030,40753.086299,36575.925240,0.098000,0.942000,0.270000,192.000000,0.000000,0.000000,0.000000,0.000000,0.000000,0.000000,0.000000,0.000000,0.000000,1648023667.845809,0.000000
14.000000,-20393.195199,-26753.339380,33314.112820,47658.344824,33304.926253,44724.074867,40752.460450,36575.187632,0.098000,0.942000,0.270000,192.000000,0.000000,0.000000,0.000000,0.000000,0.000000,0.000000,0.000000,0.000000,0.000000,1648023667.853785,0.000000
15.000000,-20396.659720,-26758.748503,33346.835774,47659.462411,33316.571512,44722.242024,40749.085337,36570.069083,0.098000,0.942000,0.270000,192.000000,0.000000,0.000000,0.000000,0.000000,0.000000,0.000000,0.000000,0.000000,0.000000,1648023667.853789,0.000000
16.000000,-20391.988205,-26758.077950,33349.272114,47660.177667,33313.732840,44720.677402,40747.140735,36568.213888,0.098000,0.942000,0.270000,192.000000,0.000000,0.000000,0.000000,0.000000,0.000000,0.000000,0.000000,0.000000,0.000000,1648023667.860987,0.000000
17.000000,-20383.986280,-26751.104206,33330.004910,47663.508077,33309.597768,44723.672536,40750.314683,36573.667714,0.098000,0.946000,0.274000,192.000000,3.000000,16.000000,29.000000,144.000000,8.000000,144.000000,0.000000,0.000000,0.000000,1648023667.860991,0.000000
18.000000,-20386.936711,-26755.418093,33309.038974,47658.031900,33304.367459,44723.940757,40751.298160,36570.918449,0.098000,0.946000,0.274000,192.000000,0.000000,0.000000,0.000000,0.000000,0.000000,0.000000,0.000000,0.000000,0.000000,1648023667.867513,0.000000
19.000000,-20389.864789,-26758.770854,33311.072983,47651.706356,33305.462695,44722.711411,40752.438098,36570.359656,0.098000,0.946000,0.274000,192.000000,0.000000,0.000000,0.000000,0.000000,0.000000,0.000000,0.000000,0.000000,0.000000,1648023667.875561,0.000000
20.000000,-20393.552827,-26761.430712,33326.473335,47652.533371,33308.726050,44724.097219,40753.443927,36574.606487,0.098000,0.946000,0.274000,192.000000,0.000000,0.000000,0.000000,0.000000,0.000000,0.000000,0.000000,0.000000,0.000000,1648023667.875564,0.000000
21.000000,-20392.725813,-26757.317991,33326.026300,47655.282635,33306.535579,44727.829960,40763.122232,36582.027266,0.098000,0.946000,0.274000,192.000000,0.000000,0.000000,0.000000,0.000000,0.000000,0.000000,0.000000,0.000000,0.000000,1648023667.883512,0.000000
22.000000,-20395.430374,-26758.882613,33335.905771,47655.953187,33310.313023,44725.348917,40760.171802,36581.133196,0.098000,0.946000,0.274000,192.000000,0.000000,0.000000,0.000000,0.000000,0.000000,0.000000,0.000000,0.000000,0.000000,1648023667.883523,0.000000
23.000000,-20395.743298,-26757.362694,33342.946570,47654.545028,33306.557930,44722.443190,40758.629532,36583.211909,0.098000,0.946000,0.274000,192.000000,0.000000,0.000000,0.000000,0.000000,0.000000,0.000000,0.000000,0.000000,0.000000,1648023667.890647,0.000000
24.000000,-20389.305996,-26751.193613,33332.888285,47657.741327,33307.027317,44725.572434,40760.954113,36582.988391,0.098000,0.946000,0.274000,192.000000,0.000000,0.000000,0.000000,0.000000,0.000000,0.000000,0.000000,0.000000,0.000000,1648023667.890650,0.000000
25.000000,-20387.786077,-26751.730055,33347.685140,47663.373967,33317.286768,44727.807609,40761.781128,36579.926202,0.098000,0.946000,0.274000,192.000000,0.000000,0.000000,0.000000,0.000000,0.000000,0.000000,0.000000,0.000000,0.000000,1648023667.898069,0.000000
26.000000,-20377.504275,-26743.303447,33358.145757,47672.202906,33326.227465,44735.295443,40766.027959,36586.430560,0.098000,0.946000,0.274000,192.000000,0.000000,0.000000,0.000000,0.000000,0.000000,0.000000,0.000000,0.000000,0.000000,1648023667.898073,0.000000
27.000000,-20369.859978,-26734.720377,33338.945608,47675.734481,33321.444192,44735.429553,40764.530392,36581.624935,0.092000,0.942000,0.276000,192.000000,2.000000,224.000000,29.000000,112.000000,8.000000,160.000000,0.000000,0.000000,0.000000,1648023667.906114,0.000000
28.000000,-20371.603414,-26736.799090,33343.639474,47675.667426,33323.165276,44731.987385,40758.696587,36579.278002,0.092000,0.942000,0.276000,192.000000,0.000000,0.000000,0.000000,0.000000,0.000000,0.000000,0.000000,0.000000,0.000000,1648023667.906133,0.000000
29.000000,-20375.738487,-26741.850584,33347.282809,47668.179592,33320.840695,44728.321699,40749.912351,36578.696856,0.092000,0.942000,0.276000,192.000000,0.000000,0.000000,0.000000,0.000000,0.000000,0.000000,0.000000,0.000000,0.000000,1648023667.913188,0.000000
30.000000,-20388.121353,-26754.345209,33366.035922,47660.915275,33321.332433,44721.035030,40742.268055,36564.279981,0.092000,0.942000,0.276000,192.000000,0.000000,0.000000,0.000000,0.000000,0.000000,0.000000,0.000000,0.000000,0.000000,1648023667.913192,0.000000
31.000000,-20393.888103,-26761.006029,33364.918335,47656.601388,33312.101163,44715.536501,40736.344842,36555.071062,0.092000,0.942000,0.276000,192.000000,0.000000,0.000000,0.000000,0.000000,0.000000,0.000000,0.000000,0.000000,0.000000,1648023667.920707,0.000000
32.000000,-20403.029967,-26766.839834,33356.268210,47650.633472,33302.489913,44712.474312,40733.305005,36553.662903,0.092000,0.942000,0.276000,192.000000,0.000000,0.000000,0.000000,0.000000,0.000000,0.000000,0.000000,0.000000,0.000000,1648023667.920710,0.000000
33.000000,-20402.158249,-26765.006991,33357.877536,47649.113554,33301.260567,44715.692963,40739.854066,36559.630818,0.092000,0.942000,0.276000,192.000000,0.000000,0.000000,0.000000,0.000000,0.000000,0.000000,0.000000,0.000000,0.000000,1648023667.927708,0.000000
34.000000,-20395.206856,-26757.742674,33358.659847,47655.103821,33306.490875,44720.163312,40746.403127,36564.257629,0.092000,0.942000,0.276000,192.000000,0.000000,0.000000,0.000000,0.000000,0.000000,0.000000,0.000000,0.000000,0.000000,1648023667.935710,0.000000
35.000000,-20398.760784,-26758.435578,33380.765722,47658.367176,33317.599692,44722.711411,40751.722843,36558.222658,0.092000,0.942000,0.276000,192.000000,0.000000,0.000000,0.000000,0.000000,0.000000,0.000000,0.000000,0.000000,0.000000,1648023667.935714,0.000000
36.000000,-20396.324443,-26754.948706,33375.557765,47656.579036,33312.794067,44724.879530,40758.227200,36579.367409,0.092000,0.942000,0.276000,192.000000,0.000000,0.000000,0.000000,0.000000,0.000000,0.000000,0.000000,0.000000,0.000000,1648023667.942885,0.000000
37.000000,-20397.442031,-26754.121691,33360.738559,47655.237932,33307.362593,44724.253681,40753.086299,36586.967002,0.094000,0.944000,0.274000,192.000000,2.000000,240.000000,29.000000,128.000000,8.000000,144.000000,0.000000,0.000000,0.000000,1648023667.942889,0.000000
38.000000,-20393.932807,-26751.372427,33364.203079,47657.182533,33309.016622,44723.538425,40752.102822,36586.989354,0.094000,0.944000,0.274000,192.000000,0.000000,0.000000,0.000000,0.000000,0.000000,0.000000,0.000000,0.000000,0.000000,1648023667.950423,0.000000
39.000000,-20391.541170,-26752.601773,33345.986408,47660.267074,33305.753267,44720.565643,40752.907485,36579.568574,0.094000,0.944000,0.274000,192.000000,0.000000,0.000000,0.000000,0.000000,0.000000,0.000000,0.000000,0.000000,0.000000,1648023667.950427,0.000000
40.000000,-20396.547961,-26759.776683,33355.687065,47656.668443,33308.658994,44713.077809,40751.208753,36574.159452,0.094000,0.944000,0.274000,192.000000,0.000000,0.000000,0.000000,0.000000,0.000000,0.000000,0.000000,0.000000,0.000000,1648023667.958345,0.000000
41.000000,-20388.836609,-26753.697008,33362.325533,47661.541124,33313.129343,44718.598690,40766.765567,36582.608412,0.094000,0.944000,0.274000,192.000000,0.000000,0.000000,0.000000,0.000000,0.000000,0.000000,0.000000,0.000000,0.000000,1648023667.958349,0.000000
42.000000,-20388.188408,-26752.847642,33358.704550,47663.150449,33312.212922,44714.709486,40754.896790,36572.840699,0.094000,0.944000,0.274000,192.000000,0.000000,0.000000,0.000000,0.000000,0.000000,0.000000,0.000000,0.000000,0.000000,1648023667.966429,0.000000
43.000000,-20391.541170,-26755.574555,33366.371198,47662.971635,33313.554026,44709.456826,40744.927912,36566.984542,0.094000,0.944000,0.274000,192.000000,0.000000,0.000000,0.000000,0.000000,0.000000,0.000000,0.000000,0.000000,0.000000,1648023667.966439,0.000000
44.000000,-20387.294339,-26751.148909,33378.664658,47668.179592,33316.951491,44715.737667,40758.987160,36584.575365,0.094000,0.944000,0.274000,192.000000,0.000000,0.000000,0.000000,0.000000,0.000000,0.000000,0.000000,0.000000,0.000000,1648023667.973053,0.000000
45.000000,-20384.388612,-26748.489052,33381.793902,47667.486688,33316.973843,44714.642431,40764.418634,36585.804711,0.094000,0.944000,0.274000,192.000000,0.000000,0.000000,0.000000,0.000000,0.000000,0.000000,0.000000,0.000000,0.000000,1648023667.973056,0.000000
46.000000,-20385.439144,-26749.986619,33386.644231,47665.162106,33316.526808,44712.183739,40760.998817,36585.089455,0.094000,0.944000,0.274000,192.000000,0.000000,0.000000,0.000000,0.000000,0.000000,0.000000,0.000000,0.000000,0.000000,1648023667.980990,0.000000
47.000000,-20379.962966,-26746.499747,33362.504347,47663.798650,33305.038012,44714.351858,40759.501250,36587.861072,0.098000,0.944000,0.274000,192.000000,3.000000,16.000000,29.000000,128.000000,8.000000,144.000000,0.000000,0.000000,0.000000,1648023667.980994,0.000000
48.000000,-20385.260330,-26755.172223,33362.414940,47662.412842,33307.027317,44715.424742,40761.937590,36591.459702,0.098000,0.944000,0.274000,192.000000,0.000000,0.000000,0.000000,0.000000,0.000000,0.000000,0.000000,0.000000,0.000000,1648023667.988079,0.000000
49.000000,-20384.209798,-26755.574555,33363.577230,47658.143658,33305.082715,44709.993268,40751.678139,36583.860109,0.098000,0.944000,0.274000,192.000000,0.000000,0.000000,0.000000,0.000000,0.000000,0.000000,0.000000,0.000000,0.000000,1648023667.996050,0.000000
50.000000,-20378.912434,-26749.271363,33359.263344,47661.205847,33309.217788,44711.647297,40752.393395,36580.663810,0.098000,0.944000,0.274000,192.000000,0.000000,0.000000,0.000000,0.000000,0.000000,0.000000,0.000000,0.000000,0.000000,1648023667.996055,0.000000
51.000000,-20385.170923,-26755.842776,33384.140835,47657.696624,33314.693965,44711.155559,40750.113517,36577.959249,0.098000,0.944000,0.274000,192.000000,0.000000,0.000000,0.000000,0.000000,0.000000,0.000000,0.000000,0.000000,0.000000,1648023668.002761,0.000000
52.000000,-20386.713193,-26756.468625,33389.192330,47658.523638,33310.402430,44716.721143,40755.366177,36583.055447,0.098000,0.944000,0.274000,192.000000,0.000000,0.000000,0.000000,0.000000,0.000000,0.000000,0.000000,0.000000,0.000000,1648023668.002766,0.000000
53.000000,-20384.276853,-26754.948706,33377.167091,47660.468240,33306.401468,44720.520940,40760.484726,36587.592851,0.098000,0.944000,0.274000,192.000000,0.000000,0.000000,0.000000,0.000000,0.000000,0.000000,0.000000,0.000000,0.000000,1648023668.010612,0.000000
54.000000,-20388.926016,-26759.664924,33371.825024,47653.896827,33304.434515,44716.542329,40754.226238,36581.826101,0.098000,0.944000,0.274000,192.000000,0.000000,0.000000,0.000000,0.000000,0.000000,0.000000,0.000000,0.000000,0.000000,1648023668.010616,0.000000
55.000000,-20381.281719,-26755.619258,33365.074797,47654.097993,33305.686212,44721.571472,40759.858878,36587.101112,0.098000,0.944000,0.274000,192.000000,0.000000,0.000000,0.000000,0.000000,0.000000,0.000000,0.000000,0.000000,0.000000,1648023668.018706,0.000000
56.000000,-20377.526626,-26752.646476,33366.862937,47658.076603,33309.553064,44725.192454,40762.026997,36586.743484,0.098000,0.944000,0.274000,192.000000,0.000000,0.000000,0.000000,0.000000,0.000000,0.000000,0.000000,0.000000,0.000000,1648023668.018712,0.000000
57.000000,-20383.382783,-26758.815558,33351.350826,47653.181571,33298.354840,44720.833864,40756.617875,36582.474301,0.098000,0.944000,0.274000,192.000000,0.000000,0.000000,0.000000,0.000000,0.000000,0.000000,0.000000,0.000000,0.000000,1648023668.025712,0.000000
58.000000,-20387.003766,-26760.156662,33344.980579,47653.338033,33295.784389,44719.358649,40755.299122,36587.212871,0.108000,0.940000,0.278000,192.000000,3.000000,96.000000,29.000000,96.000000,8.000000,176.000000,0.000000,0.000000,0.000000,1648023668.025716,0.000000
59.000000,-20383.807466,-26755.127520,33342.477184,47656.400222,33297.930157,44716.587033,40751.566380,36585.111807,0.108000,0.940000,0.278000,192.000000,0.000000,0.000000,0.000000,0.000000,0.000000,0.000000,0.000000,0.000000,0.000000,1648023668.033238,0.000000
60.000000,-20390.200065,-26762.213023,33367.332323,47654.254455,33307.250834,44711.401428,40746.514886,36575.947592,0.108000,0.940000,0.278000,192.000000,0.000000,0.000000,0.000000,0.000000,0.000000,0.000000,0.000000,0.000000,0.000000,1648023668.033242,0.000000
61.000000,-20387.696670,-26759.150834,33377.725885,47650.991100,33307.541407,44711.714353,40748.638302,36581.848452,0.108000,0.940000,0.278000,192.000000,0.000000,0.000000,0.000000,0.000000,0.000000,0.000000,0.000000,0.000000,0.000000,1648023668.041242,0.000000
62.000000,-20386.042641,-26756.513328,33377.837643,47649.918216,33304.814494,44712.496664,40752.326340,36578.808615,0.108000,0.940000,0.278000,192.000000,0.000000,0.000000,0.000000,0.000000,0.000000,0.000000,0.000000,0.000000,0.000000,1648023668.041246,0.000000
63.000000,-20395.117449,-26765.521081,33373.836681,47643.480914,33295.672631,44699.309134,40742.938607,36558.245010,0.108000,0.940000,0.278000,192.000000,0.000000,0.000000,0.000000,0.000000,0.000000,0.000000,0.000000,0.000000,0.000000,1648023668.048414,0.000000
64.000000,-20385.662661,-26754.658133,33361.498518,47652.287501,33294.063305,44705.634678,40748.660654,36571.946630,0.108000,0.940000,0.278000,192.000000,0.000000,0.000000,0.000000,0.000000,0.000000,0.000000,0.000000,0.000000,0.000000,1648023668.054854,0.000000
65.000000,-20383.047507,-26750.098377,33358.525736,47656.847257,33298.846578,44707.467521,40746.738404,36577.981601,0.108000,0.940000,0.278000,192.000000,0.000000,0.000000,0.000000,0.000000,0.000000,0.000000,0.000000,0.000000,0.000000,1648023668.054864,0.000000
66.000000,-20383.203969,-26748.734921,33374.037847,47661.719938,33307.653166,44709.501530,40746.179610,36574.382970,0.108000,0.940000,0.278000,192.000000,0.000000,0.000000,0.000000,0.000000,0.000000,0.000000,0.000000,0.000000,0.000000,1648023668.062864,0.000000
67.000000,-20375.671432,-26741.917639,33369.791015,47667.062004,33310.491837,44716.967013,40747.297197,36584.083627,0.108000,0.940000,0.278000,192.000000,0.000000,0.000000,0.000000,0.000000,0.000000,0.000000,0.000000,0.000000,0.000000,1648023668.062868,0.000000
68.000000,-20377.616033,-26744.845718,33370.238050,47667.889019,33309.910692,44721.683231,40757.087261,36589.828025,0.104000,0.942000,0.278000,192.000000,3.000000,64.000000,29.000000,112.000000,8.000000,176.000000,0.000000,0.000000,0.000000,1648023668.070889,0.000000
69.000000,-20380.097077,-26750.031322,33365.007742,47664.893885,33307.139076,44717.257585,40749.778241,36582.541356,0.104000,0.942000,0.278000,192.000000,0.000000,0.000000,0.000000,0.000000,0.000000,0.000000,0.000000,0.000000,0.000000,1648023668.070893,0.000000
70.000000,-20383.941577,-26753.004104,33381.637440,47661.205847,33311.609425,44712.720181,40743.430345,36582.139025,0.104000,0.942000,0.278000,192.000000,0.000000,0.000000,0.000000,0.000000,0.000000,0.000000,0.000000,0.000000,0.000000,1648023668.077990,0.000000
71.000000,-20381.281719,-26751.551241,33393.685030,47662.256379,33313.732840,44717.905786,40756.282599,36581.803749,0.104000,0.942000,0.278000,192.000000,0.000000,0.000000,0.000000,0.000000,0.000000,0.000000,0.000000,0.000000,0.000000,1648023668.077993,0.000000
72.000000,-20373.458609,-26745.628029,33376.921222,47666.614970,33307.630814,44724.566606,40767.592581,36592.264365,0.104000,0.942000,0.278000,192.000000,0.000000,0.000000,0.000000,0.000000,0.000000,0.000000,0.000000,0.000000,0.000000,1648023668.085612,0.000000
73.000000,-20381.102905,-26754.836947,33352.915448,47658.747156,33297.930157,44715.402390,40756.707282,36580.484996,0.104000,0.942000,0.278000,192.000000,0.000000,0.000000,0.000000,0.000000,0.000000,0.000000,0.000000,0.000000,0.000000,1648023668.085618,0.000000
74.000000,-20379.404173,-26751.886517,33350.792033,47660.959978,33303.316927,44714.396562,40754.248590,36573.734769,0.104000,0.942000,0.278000,192.000000,0.000000,0.000000,0.000000,0.000000,0.000000,0.000000,0.000000,0.000000,0.000000,1648023668.093522,0.000000
75.000000,-20371.424600,-26742.208212,33343.348902,47668.470164,33307.854331,44718.710449,40754.248590,36574.271211,0.104000,0.942000,0.278000,192.000000,0.000000,0.000000,0.000000,0.000000,0.000000,0.000000,0.000000,0.000000,0.000000,1648023668.093525,0.000000
76.000000,-20373.324498,-26744.622200,33353.742463,47669.520696,33315.722146,44719.895091,40748.370081,36571.097263,0.104000,0.942000,0.278000,192.000000,0.000000,0.000000,0.000000,0.000000,0.000000,0.000000,0.000000,0.000000,0.000000,1648023668.101591,0.000000
77.000000,-20369.547054,-26740.822404,33358.078701,47671.934685,33316.660919,44724.030164,40753.466279,36576.685199,0.104000,0.942000,0.278000,192.000000,0.000000,0.000000,0.000000,0.000000,0.000000,0.000000,0.000000,0.000000,0.000000,1648023668.101596,0.000000
78.000000,-20370.150551,-26739.861279,33351.909620,47668.179592,33309.910692,44718.084600,40741.642206,36568.325647,0.100000,0.944000,0.282000,192.000000,3.000000,32.000000,29.000000,128.000000,8.000000,208.000000,0.000000,0.000000,0.000000,1648023668.107645,0.000000
79.000000,-20371.759876,-26739.257781,33354.189498,47665.944417,33312.302329,44716.922309,40741.910427,36563.676484,0.100000,0.944000,0.282000,192.000000,0.000000,0.000000,0.000000,0.000000,0.000000,0.000000,0.000000,0.000000,0.000000,1648023668.107650,0.000000
80.000000,-20368.898853,-26737.000255,33360.671504,47671.398243,33320.773640,44720.677402,40744.838505,36562.961228,0.100000,0.944000,0.282000,192.000000,0.000000,0.000000,0.000000,0.000000,0.000000,0.000000,0.000000,0.000000,0.000000,1648023668.115214,0.000000
81.000000,-20365.434333,-26734.228639,33349.205059,47674.214563,33319.879570,44720.185664,40747.543066,36563.117690,0.100000,0.944000,0.282000,192.000000,0.000000,0.000000,0.000000,0.000000,0.000000,0.000000,0.000000,0.000000,0.000000,1648023668.123238,0.000000
82.000000,-20358.214719,-26727.143136,33319.678404,47675.667426,33316.750326,44726.600614,40757.981331,36571.656057,0.100000,0.944000,0.282000,192.000000,0.000000,0.000000,0.000000,0.000000,0.000000,0.000000,0.000000,0.000000,0.000000,1648023668.123241,0.000000
83.000000,-20361.098094,-26731.792299,33318.605521,47673.298141,33319.477239,44723.247853,40751.722843,36565.732845,0.100000,0.944000,0.282000,192.000000,0.000000,0.000000,0.000000,0.000000,0.000000,0.000000,0.000000,0.000000,0.000000,1648023668.131099,0.000000
84.000000,-20361.165149,-26735.457985,33331.055442,47672.068795,33324.819306,44722.018507,40752.438098,36558.155603,0.100000,0.944000,0.282000,192.000000,0.000000,0.000000,0.000000,0.000000,0.000000,0.000000,0.000000,0.000000,0.000000,1648023668.131102,0.000000
85.000000,-20366.887196,-26741.939991,33353.183669,47667.173763,33327.188590,44720.252719,40756.394357,36567.588039,0.100000,0.944000,0.282000,192.000000,0.000000,0.000000,0.000000,0.000000,0.000000,0.000000,0.000000,0.000000,0.000000,1648023668.138134,0.000000
86.000000,-20372.273966,-26747.460872,33348.266285,47657.204885,33315.342166,44715.625908,40755.366177,36572.170147,0.100000,0.944000,0.282000,192.000000,0.000000,0.000000,0.000000,0.000000,0.000000,0.000000,0.000000,0.000000,0.000000,1648023668.138151,0.000000
87.000000,-20374.710306,-26748.019665,33342.588942,47652.645129,33306.848503,44713.413085,40757.199020,36572.661885,0.100000,0.944000,0.282000,192.000000,0.000000,0.000000,0.000000,0.000000,0.000000,0.000000,0.000000,0.000000,0.000000,1648023668.146148,0.000000
88.000000,-20377.303109,-26749.271363,33335.123460,47649.605292,33301.394677,44712.787236,40753.846258,36574.673542,0.104000,0.940000,0.284000,192.000000,3.000000,64.000000,29.000000,96.000000,8.000000,224.000000,0.000000,0.000000,0.000000,1648023668.146164,0.000000
89.000000,-20376.274929,-26747.863203,33340.018492,47655.282635,33301.864064,44710.663821,40748.839468,36570.382007,0.104000,0.940000,0.284000,192.000000,0.000000,0.000000,0.000000,0.000000,0.000000,0.000000,0.000000,0.000000,0.000000,1648023668.154293,0.000000
90.000000,-20378.912434,-26752.065331,33364.136024,47659.708281,33311.497666,44705.545271,40741.306930,36558.848507,0.104000,0.940000,0.284000,192.000000,0.000000,0.000000,0.000000,0.000000,0.000000,0.000000,0.000000,0.000000,0.000000,1648023668.154310,0.000000
91.000000,-20380.700574,-26755.865128,33377.278850,47658.143658,33313.129343,44705.478216,40744.391470,36564.078815,0.104000,0.940000,0.284000,192.000000,0.000000,0.000000,0.000000,0.000000,0.000000,0.000000,0.000000,0.000000,0.000000,1648023668.160978,0.000000
92.000000,-20376.319632,-26753.741712,33365.521832,47656.266112,33306.222654,44708.830978,40751.096994,36568.549164,0.104000,0.940000,0.284000,192.000000,0.000000,0.000000,0.000000,0.000000,0.000000,0.000000,0.000000,0.000000,0.000000,1648023668.160989,0.000000
93.000000,-20373.570368,-26752.780587,33353.675408,47655.483801,33301.908767,44707.981611,40747.967750,36561.284847,0.104000,0.940000,0.284000,192.000000,0.000000,0.000000,0.000000,0.000000,0.000000,0.000000,0.000000,0.000000,0.000000,1648023668.168725,0.000000
94.000000,-20376.096115,-26755.954535,33352.893097,47656.064946,33305.105067,44706.014658,40750.493497,36556.590981,0.104000,0.940000,0.284000,192.000000,0.000000,0.000000,0.000000,0.000000,0.000000,0.000000,0.000000,0.000000,0.000000,1648023668.168743,0.000000
95.000000,-20371.089324,-26752.445311,33373.724922,47662.457545,33317.353823,44705.478216,40750.269979,36562.827118,0.104000,0.940000,0.284000,192.000000,0.000000,0.000000,0.000000,0.000000,0.000000,0.000000,0.000000,0.000000,0.000000,1648023668.175960,0.000000
96.000000,-20367.066010,-26748.801976,33374.350771,47663.038690,33314.582207,44707.199300,40747.788936,36567.431577,0.104000,0.940000,0.284000,192.000000,0.000000,0.000000,0.000000,0.000000,0.000000,0.000000,0.000000,0.000000,0.000000,1648023668.183945,0.000000
97.000000,-20364.473208,-26746.790319,33348.780376,47658.724804,33300.969994,44708.071018,40751.164049,36569.890269,0.104000,0.940000,0.284000,192.000000,0.000000,0.000000,0.000000,0.000000,0.000000,0.000000,0.000000,0.000000,0.000000,1648023668.183961,0.000000
98.000000,-20371.469304,-26752.490014,33337.872724,47654.925007,33295.717334,44706.148768,40749.241799,36569.376179,0.104000,0.938000,0.286000,192.000000,3.000000,64.000000,29.000000,80.000000,8.000000,240.000000,0.000000,0.000000,0.000000,1648023668.190318,0.000000
99.000000,-20377.124295,-26757.742674,33346.791070,47652.734536,33295.918500,44702.281916,40749.577075,36563.385911,0.104000,0.938000,0.286000,192.000000,0.000000,0.000000,0.000000,0.000000,0.000000,0.000000,0.000000,0.000000,0.000000,1648023668.190334,0.000000
100.000000,-20369.614109,-26749.025494,33355.195326,47658.523638,33304.009831,44708.585108,40760.060043,36570.672580,0.104000,0.938000,0.286000,192.000000,0.000000,0.000000,0.000000,0.000000,0.000000,0.000000,0.000000,0.000000,0.000000,1648023668.198409,0.000000
101.000000,-20371.625766,-26750.076026,33381.100998,47660.803516,33314.135172,44708.249832,40764.575096,36573.824176,0.104000,0.938000,0.286000,192.000000,0.000000,0.000000,0.000000,0.000000,0.000000,0.000000,0.000000,0.000000,0.000000,1648023668.198425,0.000000
102.000000,-20372.095152,-26750.567764,33379.066989,47655.394394,33303.607500,44702.952469,40756.148488,36573.488900,0.104000,0.938000,0.286000,192.000000,0.000000,0.000000,0.000000,0.000000,0.000000,0.000000,0.000000,0.000000,0.000000,1648023668.206491,0.000000
103.000000,-20364.204987,-26741.247087,33349.227410,47660.177667,33296.633756,44709.143902,40755.343825,36580.708513,0.104000,0.938000,0.286000,192.000000,0.000000,0.000000,0.000000,0.000000,0.000000,0.000000,0.000000,0.000000,0.000000,1648023668.206503,0.000000
104.000000,-20367.378934,-26742.901116,33346.947533,47663.508077,33300.388849,44709.702696,40751.253456,36572.639534,0.104000,0.938000,0.286000,192.000000,0.000000,0.000000,0.000000,0.000000,0.000000,0.000000,0.000000,0.000000,0.000000,1648023668.213547,0.000000
105.000000,-20362.774475,-26739.213078,33351.551992,47669.811269,33306.200302,44714.061286,40757.869572,36569.778510,0.104000,0.938000,0.286000,192.000000,0.000000,0.000000,0.000000,0.000000,0.000000,0.000000,0.000000,0.000000,0.000000,1648023668.213559,0.000000
106.000000,-20359.332306,-26735.301523,33364.538355,47677.388510,33318.761983,44722.197321,40766.095014,36584.329496,0.104000,0.938000,0.286000,192.000000,0.000000,0.000000,0.000000,0.000000,0.000000,0.000000,0.000000,0.000000,0.000000,1648023668.221178,0.000000
107.000000,-20369.658812,-26746.142119,33373.009667,47668.984254,33313.732840,44715.178873,40758.003683,36579.143891,0.104000,0.938000,0.286000,192.000000,0.000000,0.000000,0.000000,0.000000,0.000000,0.000000,0.000000,0.000000,0.000000,1648023668.221201,0.000000
108.000000,-20366.283699,-26742.454081,33343.617123,47666.190286,33300.165331,44718.777504,40764.977427,36580.864976,0.102000,0.938000,0.290000,192.000000,3.000000,48.000000,29.000000,80.000000,9.000000,16.000000,0.000000,0.000000,0.000000,1648023668.229042,0.000000
109.000000,-20366.395458,-26741.939991,33347.081643,47668.783089,33304.345108,44718.129303,40760.954113,36579.412112,0.102000,0.938000,0.290000,192.000000,0.000000,0.000000,0.000000,0.000000,0.000000,0.000000,0.000000,0.000000,0.000000,1648023668.229059,0.000000
110.000000,-20369.748219,-26744.376331,33355.463547,47664.402147,33307.452000,44715.715315,40755.477936,36578.786263,0.102000,0.938000,0.290000,192.000000,0.000000,0.000000,0.000000,0.000000,0.000000,0.000000,0.000000,0.000000,0.000000,1648023668.236083,0.000000
111.000000,-20365.054353,-26740.621238,33367.377027,47666.234990,33315.342166,44721.616175,40764.463337,36582.474301,0.102000,0.938000,0.290000,192.000000,0.000000,0.000000,0.000000,0.000000,0.000000,0.000000,0.000000,0.000000,0.000000,1648023668.243153,0.000000
112.000000,-20366.797789,-26741.448252,33384.252594,47667.531391,33318.516114,44725.103048,40766.363235,36575.008819,0.102000,0.938000,0.290000,192.000000,0.000000,0.000000,0.000000,0.000000,0.000000,0.000000,0.000000,0.000000,0.000000,1648023668.243169,0.000000
113.000000,-20369.681164,-26744.689255,33385.571347,47661.630531,33312.168218,44721.236196,40759.367139,36573.310086,0.102000,0.938000,0.290000,192.000000,0.000000,0.000000,0.000000,0.000000,0.000000,0.000000,0.000000,0.000000,0.000000,1648023668.250757,0.000000
114.000000,-20366.462513,-26740.598886,33376.720056,47660.691757,33309.374250,44721.102085,40763.859840,36583.681295,0.102000,0.938000,0.290000,192.000000,0.000000,0.000000,0.000000,0.000000,0.000000,0.000000,0.000000,0.000000,0.000000,1648023668.250773,0.000000
115.000000,-20366.484865,-26741.604715,33361.409111,47661.071737,33307.653166,44718.531635,40760.641189,36576.886365,0.102000,0.938000,0.290000,192.000000,0.000000,0.000000,0.000000,0.000000,0.000000,0.000000,0.000000,0.000000,0.000000,1648023668.258812,0.000000
116.000000,-20367.378934,-26742.588191,33362.616105,47663.955112,33311.832942,44720.453885,40761.445851,36577.020476,0.102000,0.938000,0.290000,192.000000,0.000000,0.000000,0.000000,0.000000,0.000000,0.000000,0.000000,0.000000,0.000000,1648023668.258828,0.000000
117.000000,-20366.954251,-26741.537659,33363.867803,47665.653845,33310.670651,44720.275071,40757.802517,36575.232336,0.102000,0.938000,0.290000,192.000000,0.000000,0.000000,0.000000,0.000000,0.000000,0.000000,0.000000,0.000000,0.000000,1648023668.266870,0.000000
118.000000,-20361.299260,-26735.390930,33368.718132,47669.654807,33313.643433,44720.006850,40754.785032,36570.225545,0.098000,0.934000,0.292000,192.000000,3.000000,16.000000,29.000000,48.000000,9.000000,32.000000,0.000000,0.000000,0.000000,1648023668.266886,0.000000
119.000000,-20360.762818,-26734.876840,33375.803635,47670.794746,33316.504457,44721.951452,40758.808346,36570.538470,0.098000,0.934000,0.292000,192.000000,0.000000,0.000000,0.000000,0.000000,0.000000,0.000000,0.000000,0.000000,0.000000,1648023668.273366,0.000000
120.000000,-20360.025210,-26736.843793,33373.881385,47672.381720,33317.152657,44721.079734,40757.489593,36566.358693,0.098000,0.934000,0.292000,192.000000,0.000000,0.000000,0.000000,0.000000,0.000000,0.000000,0.000000,0.000000,0.000000,1648023668.273377,0.000000
121.000000,-20363.847359,-26739.436595,33387.650059,47674.013397,33322.204151,44717.659917,40758.093090,36563.095339,0.098000,0.934000,0.292000,192.000000,0.000000,0.000000,0.000000,0.000000,0.000000,0.000000,0.000000,0.000000,0.000000,1648023668.281325,0.000000
122.000000,-20356.448931,-26730.048863,33362.481995,47674.393377,33314.448096,44721.996155,40768.643113,36575.835833,0.098000,0.934000,0.292000,192.000000,0.000000,0.000000,0.000000,0.000000,0.000000,0.000000,0.000000,0.000000,0.000000,1648023668.281337,0.000000
123.000000,-20356.448931,-26731.032339,33345.472317,47672.739348,33312.056459,44723.001984,40768.151375,36581.870804,0.098000,0.934000,0.292000,192.000000,0.000000,0.000000,0.000000,0.000000,0.000000,0.000000,0.000000,0.000000,0.000000,1648023668.289248,0.000000
124.000000,-20361.455722,-26738.989560,33347.372216,47672.158202,33314.001061,44719.805684,40757.221372,36575.925240,0.098000,0.934000,0.292000,192.000000,0.000000,0.000000,0.000000,0.000000,0.000000,0.000000,0.000000,0.000000,0.000000,1648023668.289259,0.000000
125.000000,-20363.847359,-26741.090624,33359.956248,47671.331188,33318.493762,44716.587033,40757.802517,36568.660923,0.098000,0.934000,0.292000,192.000000,0.000000,0.000000,0.000000,0.000000,0.000000,0.000000,0.000000,0.000000,0.000000,1648023668.296378,0.000000
126.000000,-20360.807521,-26737.849622,33379.514024,47678.640208,33327.076832,44719.783332,40763.323398,36568.482109,0.098000,0.934000,0.292000,192.000000,0.000000,0.000000,0.000000,0.000000,0.000000,0.000000,0.000000,0.000000,0.000000,1648023668.303152,0.000000
127.000000,-20360.963984,-26737.201421,33375.691876,47677.589676,33323.008814,44717.548158,40762.004645,36569.689103,0.098000,0.934000,0.292000,192.000000,0.000000,0.000000,0.000000,0.000000,0.000000,0.000000,0.000000,0.000000,0.000000,1648023668.303168,0.000000
128.000000,-20361.522777,-26736.776738,33356.938762,47673.722824,33315.006890,44711.177911,40754.494459,36562.447138,0.096000,0.942000,0.280000,192.000000,3.000000,0.000000,29.000000,112.000000,8.000000,192.000000,0.000000,0.000000,0.000000,1648023668.311173,0.000000
129.000000,-20360.248728,-26733.446328,33341.001969,47675.332150,33315.006890,44712.876643,40756.416709,36570.091435,0.096000,0.942000,0.280000,192.000000,0.000000,0.000000,0.000000,0.000000,0.000000,0.000000,0.000000,0.000000,0.000000,1648023668.311208,0.000000
130.000000,-20358.661754,-26732.664017,33343.125384,47680.048368,33325.221637,44717.302289,40758.137793,36571.879574,0.096000,0.942000,0.280000,192.000000,0.000000,0.000000,0.000000,0.000000,0.000000,0.000000,0.000000,0.000000,0.000000,1648023668.319109,0.000000
131.000000,-20358.885271,-26733.401624,33365.901812,47684.362255,33335.928123,44716.855254,40755.522639,36571.343132,0.096000,0.942000,0.280000,192.000000,0.000000,0.000000,0.000000,0.000000,0.000000,0.000000,0.000000,0.000000,0.000000,1648023668.319125,0.000000
132.000000,-20358.728809,-26730.741767,33369.433387,47680.763624,33331.725995,44718.062248,40762.965770,36579.322705,0.096000,0.942000,0.280000,192.000000,0.000000,0.000000,0.000000,0.000000,0.000000,0.000000,0.000000,0.000000,0.000000,1648023668.325679,0.000000
133.000000,-20357.343001,-26729.691235,33359.263344,47677.701435,33327.523867,44723.203149,40768.531354,36581.937859,0.096000,0.942000,0.280000,192.000000,0.000000,0.000000,0.000000,0.000000,0.000000,0.000000,0.000000,0.000000,0.000000,1648023668.325695,0.000000
134.000000,-20357.052428,-26730.674712,33361.453815,47675.667426,33328.149715,44724.141922,40770.431253,36579.546223,0.096000,0.942000,0.280000,192.000000,0.000000,0.000000,0.000000,0.000000,0.000000,0.000000,0.000000,0.000000,0.000000,1648023668.333530,0.000000
135.000000,-20359.287603,-26729.266552,33403.273929,47682.529412,33343.483012,44725.281861,40768.754872,36581.133196,0.096000,0.942000,0.280000,192.000000,0.000000,0.000000,0.000000,0.000000,0.000000,0.000000,0.000000,0.000000,0.000000,1648023668.333545,0.000000
136.000000,-20357.946498,-26725.176182,33430.006615,47682.998798,33344.891172,44721.660879,40766.206773,36575.925240,0.096000,0.942000,0.280000,192.000000,0.000000,0.000000,0.000000,0.000000,0.000000,0.000000,0.000000,0.000000,0.000000,1648023668.341628,0.000000
137.000000,-20362.774475,-26731.389967,33432.308845,47679.064891,33335.972826,44719.448056,40761.155279,36574.539432,0.096000,0.942000,0.280000,192.000000,0.000000,0.000000,0.000000,0.000000,0.000000,0.000000,0.000000,0.000000,0.000000,1648023668.341644,0.000000
138.000000,-20363.847359,-26733.289866,33428.441993,47677.008531,33329.960207,44718.956318,40761.423500,36577.981601,0.098000,0.940000,0.278000,192.000000,3.000000,16.000000,29.000000,96.000000,8.000000,176.000000,0.000000,0.000000,0.000000,1648023668.348776,0.000000
139.000000,-20360.114617,-26729.043034,33409.890045,47679.176650,33323.567608,44722.845521,40773.404035,36582.139025,0.098000,0.940000,0.278000,192.000000,0.000000,0.000000,0.000000,0.000000,0.000000,0.000000,0.000000,0.000000,0.000000,1648023668.348792,0.000000
140.000000,-20368.854149,-26738.587229,33429.380766,47675.354502,33332.396547,44717.950489,40761.959942,36571.767816,0.098000,0.940000,0.278000,192.000000,0.000000,0.000000,0.000000,0.000000,0.000000,0.000000,0.000000,0.000000,0.000000,1648023668.355421,0.000000
141.000000,-20369.815274,-26741.112976,33433.538191,47664.916237,33327.792088,44709.255661,40753.578037,36562.894173,0.098000,0.940000,0.278000,192.000000,0.000000,0.000000,0.000000,0.000000,0.000000,0.000000,0.000000,0.000000,0.000000,1648023668.355438,0.000000
142.000000,-20362.819178,-26733.513383,33403.475094,47664.715071,33318.784335,44714.508321,40762.384625,36580.507348,0.098000,0.940000,0.278000,192.000000,0.000000,0.000000,0.000000,0.000000,0.000000,0.000000,0.000000,0.000000,0.000000,1648023668.363383,0.000000
143.000000,-20366.820141,-26739.034264,33406.380821,47666.190286,33322.293558,44715.312983,40763.256343,36573.913583,0.098000,0.940000,0.278000,192.000000,0.000000,0.000000,0.000000,0.000000,0.000000,0.000000,0.000000,0.000000,0.000000,1648023668.371224,0.000000
144.000000,-20369.770571,-26741.560011,33416.394403,47663.888057,33321.779468,44709.345068,40753.265113,36563.117690,0.098000,0.940000,0.278000,192.000000,0.000000,0.000000,0.000000,0.000000,0.000000,0.000000,0.000000,0.000000,0.000000,1648023668.371240,0.000000
145.000000,-20363.936766,-26736.843793,33422.027042,47669.006606,33324.841657,44710.194434,40747.945398,36565.464624,0.098000,0.940000,0.278000,192.000000,0.000000,0.000000,0.000000,0.000000,0.000000,0.000000,0.000000,0.000000,0.000000,1648023668.378449,0.000000
146.000000,-20361.768646,-26734.362749,33413.332214,47673.454603,33323.701718,44713.323678,40753.756851,36570.002028,0.098000,0.940000,0.278000,192.000000,0.000000,0.000000,0.000000,0.000000,0.000000,0.000000,0.000000,0.000000,0.000000,1648023668.378459,0.000000
147.000000,-20359.466417,-26730.808822,33402.648080,47674.371025,33318.382003,44713.547196,40752.013415,36569.554993,0.098000,0.940000,0.278000,192.000000,0.000000,0.000000,0.000000,0.000000,0.000000,0.000000,0.000000,0.000000,0.000000,1648023668.385779,0.000000
148.000000,-20358.505292,-26729.423014,33377.681181,47670.325359,33308.636643,44714.173044,40754.628569,36574.785301,0.098000,0.942000,0.280000,192.000000,3.000000,16.000000,29.000000,112.000000,8.000000,192.000000,0.000000,0.000000,0.000000,1648023668.385797,0.000000
149.000000,-20363.556786,-26735.279171,33374.261364,47666.637321,33311.005927,44713.301326,40754.762680,36570.538470,0.098000,0.942000,0.280000,192.000000,0.000000,0.000000,0.000000,0.000000,0.000000,0.000000,0.000000,0.000000,0.000000,1648023668.393788,0.000000
150.000000,-20358.907623,-26731.434671,33379.625783,47667.307874,33316.616215,44713.770713,40752.393395,36565.911659,0.098000,0.942000,0.280000,192.000000,0.000000,0.000000,0.000000,0.000000,0.000000,0.000000,0.000000,0.000000,0.000000,1648023668.393813,0.000000
151.000000,-20356.650097,-26727.456060,33381.413922,47670.325359,33322.047689,44713.569547,40750.761718,36563.743539,0.098000,0.942000,0.280000,192.000000,0.000000,0.000000,0.000000,0.000000,0.000000,0.000000,0.000000,0.000000,0.000000,1648023668.402091,0.000000
152.000000,-20358.505292,-26730.540601,33392.723905,47672.672292,33326.898018,44711.423780,40749.062985,36558.893211,0.098000,0.942000,0.280000,192.000000,0.000000,0.000000,0.000000,0.000000,0.000000,0.000000,0.000000,0.000000,0.000000,1648023668.402107,0.000000
153.000000,-20350.190443,-26723.008063,33363.174899,47676.114461,33319.477239,44715.782370,40758.651883,36570.337304,0.098000,0.942000,0.280000,192.000000,0.000000,0.000000,0.000000,0.000000,0.000000,0.000000,0.000000,0.000000,0.000000,1648023668.408614,0.000000
154.000000,-20358.170016,-26733.848659,33348.065120,47672.784051,33315.632739,44710.261489,40752.996892,36561.396606,0.098000,0.942000,0.280000,192.000000,0.000000,0.000000,0.000000,0.000000,0.000000,0.000000,0.000000,0.000000,0.000000,1648023668.408631,0.000000
155.000000,-20357.030077,-26730.093566,33353.496594,47676.069757,33321.935930,44709.367419,40748.772412,36557.932086,0.098000,0.942000,0.280000,192.000000,0.000000,0.000000,0.000000,0.000000,0.000000,0.000000,0.000000,0.000000,0.000000,1648023668.416618,0.000000
156.000000,-20356.381876,-26728.126613,33363.756044,47679.824851,33330.183724,44716.408219,40753.958017,36572.818348,0.098000,0.942000,0.280000,192.000000,0.000000,0.000000,0.000000,0.000000,0.000000,0.000000,0.000000,0.000000,0.000000,1648023668.416635,0.000000
157.000000,-20351.330382,-26726.226714,33360.425634,47682.127080,33327.993253,44722.845521,40764.239820,36585.357676,0.098000,0.942000,0.280000,192.000000,0.000000,0.000000,0.000000,0.000000,0.000000,0.000000,0.000000,0.000000,0.000000,1648023668.423431,0.000000
158.000000,-20356.270117,-26730.518249,33336.978655,47673.208734,33315.610387,44719.850388,40756.193192,36578.719208,0.098000,0.942000,0.280000,192.000000,0.000000,0.000000,0.000000,0.000000,0.000000,0.000000,0.000000,0.000000,0.000000,1648023668.430703,0.000000
159.000000,-20363.020344,-26734.161584,33329.066137,47666.100879,33313.196398,44715.268280,40751.432270,36564.034112,0.098000,0.946000,0.272000,192.000000,3.000000,16.000000,29.000000,144.000000,8.000000,128.000000,0.000000,0.000000,0.000000,1648023668.430720,0.000000
160.000000,-20362.796827,-26731.322912,33334.855239,47663.709243,33313.241102,44712.496664,40747.319549,36562.916525,0.098000,0.946000,0.272000,192.000000,0.000000,0.000000,0.000000,0.000000,0.000000,0.000000,0.000000,0.000000,0.000000,1648023668.438244,0.000000
161.000000,-20362.685068,-26728.216020,33342.678349,47660.334129,33314.112820,44713.636603,40747.900694,36567.677446,0.098000,0.946000,0.272000,192.000000,0.000000,0.000000,0.000000,0.000000,0.000000,0.000000,0.000000,0.000000,0.000000,1648023668.438260,0.000000
162.000000,-20358.997030,-26726.025549,33342.410128,47661.138792,33312.257625,44714.240100,40753.958017,36562.335379,0.098000,0.946000,0.272000,192.000000,0.000000,0.000000,0.000000,0.000000,0.000000,0.000000,0.000000,0.000000,0.000000,1648023668.446257,0.000000
163.000000,-20364.316745,-26733.803956,33323.724070,47656.802554,33301.260567,44706.707562,40750.471145,36552.277094,0.098000,0.946000,0.272000,192.000000,0.000000,0.000000,0.000000,0.000000,0.000000,0.000000,0.000000,0.000000,0.000000,1648023668.446273,0.000000
164.000000,-20363.065048,-26734.452156,33311.117686,47658.143658,33299.360669,44706.238175,40751.231104,36562.625952,0.098000,0.946000,0.272000,192.000000,0.000000,0.000000,0.000000,0.000000,0.000000,0.000000,0.000000,0.000000,0.000000,1648023668.454191,0.000000
165.000000,-20357.164187,-26728.484241,33319.499590,47666.369100,33311.050631,44712.742533,40755.679101,36575.634667,0.098000,0.946000,0.272000,192.000000,0.000000,0.000000,0.000000,0.000000,0.000000,0.000000,0.000000,0.000000,0.000000,1648023668.454208,0.000000
166.000000,-20361.232205,-26734.072177,33336.486916,47666.011472,33318.449058,44713.278975,40753.801555,36569.912621,0.098000,0.946000,0.272000,192.000000,0.000000,0.000000,0.000000,0.000000,0.000000,0.000000,0.000000,0.000000,0.000000,1648023668.460794,0.000000
167.000000,-20361.232205,-26734.698026,33333.558838,47665.653845,33313.084640,44716.452922,40757.020206,36567.677446,0.098000,0.946000,0.272000,192.000000,0.000000,0.000000,0.000000,0.000000,0.000000,0.000000,0.000000,0.000000,0.000000,1648023668.460810,0.000000
168.000000,-20361.835702,-26738.073139,33331.793050,47665.855010,33313.554026,44715.916481,40754.785032,36572.192499,0.098000,0.946000,0.272000,192.000000,0.000000,0.000000,0.000000,0.000000,0.000000,0.000000,0.000000,0.000000,0.000000,1648023668.468886,0.000000
169.000000,-20354.459626,-26730.607656,33343.550067,47676.539144,33324.282864,44713.681306,40755.008549,36572.170147,0.096000,0.948000,0.280000,192.000000,3.000000,0.000000,29.000000,160.000000,8.000000,192.000000,0.000000,0.000000,0.000000,1648023668.468903,0.000000
170.000000,-20357.208891,-26734.005121,33368.874594,47681.545935,33335.346977,44712.675478,40758.964808,36566.962191,0.096000,0.948000,0.280000,192.000000,0.000000,0.000000,0.000000,0.000000,0.000000,0.000000,0.000000,0.000000,0.000000,1648023668.476641,0.000000
171.000000,-20359.108789,-26735.256819,33387.359487,47683.669351,33337.045710,44712.429608,40758.383663,36567.766853,0.096000,0.948000,0.280000,192.000000,0.000000,0.000000,0.000000,0.000000,0.000000,0.000000,0.000000,0.000000,0.000000,1648023668.476664,0.000000
172.000000,-20353.073818,-26727.232543,33362.526698,47685.412787,33328.149715,44721.884396,40761.267038,36566.761025,0.096000,0.948000,0.280000,192.000000,0.000000,0.000000,0.000000,0.000000,0.000000,0.000000,0.000000,0.000000,0.000000,1648023668.483899,0.000000
173.000000,-20355.867786,-26729.378310,33353.474242,47680.137775,33326.428631,44723.940757,40755.142660,36564.794071,0.096000,0.948000,0.280000,192.000000,0.000000,0.000000,0.000000,0.000000,0.000000,0.000000,0.000000,0.000000,0.000000,1648023668.490346,0.000000
174.000000,-20358.572347,-26734.005121,33359.308047,47675.578019,33327.993253,44723.292556,40760.015340,36569.554993,0.096000,0.948000,0.280000,192.000000,0.000000,0.000000,0.000000,0.000000,0.000000,0.000000,0.000000,0.000000,0.000000,1648023668.490358,0.000000
175.000000,-20355.867786,-26732.082871,33370.238050,47674.549839,33327.881495,44722.622004,40760.015340,36573.779473,0.096000,0.948000,0.280000,192.000000,0.000000,0.000000,0.000000,0.000000,0.000000,0.000000,0.000000,0.000000,0.000000,1648023668.498531,0.000000
176.000000,-20358.617050,-26734.318046,33376.295373,47671.398243,33325.802782,44721.035030,40757.891924,36573.757121,0.096000,0.948000,0.280000,192.000000,0.000000,0.000000,0.000000,0.000000,0.000000,0.000000,0.000000,0.000000,0.000000,1648023668.498547,0.000000
177.000000,-20357.566518,-26733.714549,33369.098111,47666.324397,33316.482105,44716.139998,40759.344788,36571.276077,0.096000,0.948000,0.280000,192.000000,0.000000,0.000000,0.000000,0.000000,0.000000,0.000000,0.000000,0.000000,0.000000,1648023668.506534,0.000000
178.000000,-20358.728809,-26736.486165,33365.030094,47663.999815,33314.962186,44711.267318,40749.666482,36562.402435,0.096000,0.948000,0.280000,192.000000,0.000000,0.000000,0.000000,0.000000,0.000000,0.000000,0.000000,0.000000,0.000000,1648023668.506551,0.000000
179.000000,-20356.739504,-26738.654284,33375.825986,47668.581923,33320.505419,44708.853329,40739.809363,36558.312065,0.100000,0.950000,0.276000,192.000000,3.000000,32.000000,29.000000,176.000000,8.000000,160.000000,0.000000,0.000000,0.000000,1648023668.513545,0.000000
180.000000,-20355.085475,-26737.514345,33381.346867,47668.760737,33323.835829,44707.869853,40745.173782,36558.423824,0.100000,0.950000,0.276000,192.000000,0.000000,0.000000,0.000000,0.000000,0.000000,0.000000,0.000000,0.000000,0.000000,1648023668.513561,0.000000
181.000000,-20354.459626,-26737.424938,33380.519853,47672.001740,33325.668672,44708.495701,40741.575151,36562.402435,0.100000,0.950000,0.276000,192.000000,0.000000,0.000000,0.000000,0.000000,0.000000,0.000000,0.000000,0.000000,0.000000,1648023668.520855,0.000000
182.000000,-20359.622879,-26741.582363,33385.683106,47668.447813,33323.858181,44703.891242,40737.708299,36555.048711,0.100000,0.950000,0.276000,192.000000,0.000000,0.000000,0.000000,0.000000,0.000000,0.000000,0.000000,0.000000,0.000000,1648023668.520872,0.000000
183.000000,-20360.896928,-26739.816575,33375.803635,47667.307874,33317.800858,44707.735742,40754.427404,36556.613333,0.100000,0.950000,0.276000,192.000000,0.000000,0.000000,0.000000,0.000000,0.000000,0.000000,0.000000,0.000000,0.000000,1648023668.529168,0.000000
184.000000,-20362.997992,-26740.621238,33366.885289,47667.285522,33313.442268,44705.969954,40749.778241,36552.277094,0.100000,0.950000,0.276000,192.000000,0.000000,0.000000,0.000000,0.000000,0.000000,0.000000,0.000000,0.000000,0.000000,1648023668.529185,0.000000
185.000000,-20361.187501,-26735.748558,33375.066027,47673.007568,33323.187628,44708.383943,40750.605255,36541.548257,0.100000,0.950000,0.276000,192.000000,0.000000,0.000000,0.000000,0.000000,0.000000,0.000000,0.000000,0.000000,0.000000,1648023668.537154,0.000000
186.000000,-20356.225414,-26727.992502,33382.553861,47678.126118,33328.216771,44716.542329,40762.094052,36563.564725,0.100000,0.950000,0.276000,192.000000,0.000000,0.000000,0.000000,0.000000,0.000000,0.000000,0.000000,0.000000,0.000000,1648023668.537171,0.000000
187.000000,-20356.270117,-26727.254895,33375.781283,47680.383644,33322.561779,44719.872739,40759.858878,36571.164318,0.100000,0.950000,0.276000,192.000000,0.000000,0.000000,0.000000,0.000000,0.000000,0.000000,0.000000,0.000000,0.000000,1648023668.543169,0.000000
188.000000,-20360.695763,-26732.261685,33361.610277,47678.103766,33313.866951,44718.933966,40764.150413,36572.907755,0.100000,0.950000,0.276000,192.000000,0.000000,0.000000,0.000000,0.000000,0.000000,0.000000,0.000000,0.000000,0.000000,1648023668.550692,0.000000
189.000000,-20362.595661,-26733.401624,33363.621934,47680.897734,33313.956358,44719.872739,40768.218430,36577.154586,0.098000,0.946000,0.276000,192.000000,3.000000,16.000000,29.000000,144.000000,8.000000,160.000000,0.000000,0.000000,0.000000,1648023668.550709,0.000000
190.000000,-20362.930937,-26730.764119,33380.832777,47684.071682,33321.243026,44720.766809,40763.837488,36575.366446,0.098000,0.946000,0.276000,192.000000,0.000000,0.000000,0.000000,0.000000,0.000000,0.000000,0.000000,0.000000,0.000000,1648023668.558876,0.000000
191.000000,-20363.757952,-26729.802994,33387.203024,47684.339903,33325.601617,44723.314908,40764.061006,36574.450025,0.098000,0.946000,0.276000,192.000000,0.000000,0.000000,0.000000,0.000000,0.000000,0.000000,0.000000,0.000000,0.000000,1648023668.558894,0.000000
192.000000,-20359.332306,-26724.125650,33386.599527,47684.049330,33327.948550,44728.813437,40764.373930,36583.502481,0.098000,0.946000,0.276000,192.000000,0.000000,0.000000,0.000000,0.000000,0.000000,0.000000,0.000000,0.000000,0.000000,1648023668.565955,0.000000
193.000000,-20362.685068,-26726.137307,33375.736579,47678.193173,33319.209018,44726.041821,40752.505154,36577.132234,0.098000,0.946000,0.276000,192.000000,0.000000,0.000000,0.000000,0.000000,0.000000,0.000000,0.000000,0.000000,0.000000,1648023668.565990,0.000000
194.000000,-20360.807521,-26727.590171,33363.353713,47679.646037,33314.559855,44730.109838,40750.717014,36574.785301,0.098000,0.946000,0.276000,192.000000,0.000000,0.000000,0.000000,0.000000,0.000000,0.000000,0.000000,0.000000,0.000000,1648023668.573365,0.000000
195.000000,-20353.297335,-26725.310293,33380.899832,47691.581868,33330.876628,44738.782315,40753.510982,36574.047693,0.098000,0.946000,0.276000,192.000000,0.000000,0.000000,0.000000,0.000000,0.000000,0.000000,0.000000,0.000000,0.000000,1648023668.573382,0.000000
196.000000,-20340.780358,-26714.514400,33388.298260,47701.975429,33339.660864,44745.510190,40758.607180,36583.346019,0.098000,0.946000,0.276000,192.000000,0.000000,0.000000,0.000000,0.000000,0.000000,0.000000,0.000000,0.000000,0.000000,1648023668.581094,0.000000
197.000000,-20335.974733,-26710.133458,33373.367294,47704.232955,33340.621989,44748.728841,40763.301046,36589.001011,0.098000,0.946000,0.276000,192.000000,0.000000,0.000000,0.000000,0.000000,0.000000,0.000000,0.000000,0.000000,0.000000,1648023668.581105,0.000000
198.000000,-20342.479091,-26717.956569,33378.061161,47701.036656,33340.487878,44740.279882,40754.717976,36581.557880,0.098000,0.946000,0.276000,192.000000,0.000000,0.000000,0.000000,0.000000,0.000000,0.000000,0.000000,0.000000,0.000000,1648023668.589443,0.000000
199.000000,-20336.220603,-26711.988653,33373.814329,47705.127025,33340.443175,44740.056365,40758.137793,36580.820272,0.098000,0.948000,0.280000,192.000000,3.000000,16.000000,29.000000,160.000000,8.000000,192.000000,0.000000,0.000000,0.000000,1648023668.589459,0.000000
200.000000,-20340.914469,-26717.196610,33382.687972,47700.209641,33344.242971,44729.036955,40748.057157,36564.615257,0.098000,0.948000,0.280000,192.000000,0.000000,0.000000,0.000000,0.000000,0.000000,0.000000,0.000000,0.000000,0.000000,1648023668.595917,0.000000
201.000000,-20348.715228,-26723.455098,33390.667545,47690.710150,33339.169125,44713.882472,40740.256398,36561.195440,0.098000,0.948000,0.280000,192.000000,0.000000,0.000000,0.000000,0.000000,0.000000,0.000000,0.000000,0.000000,0.000000,1648023668.595928,0.000000
202.000000,-20352.582079,-26726.383177,33369.321629,47682.775281,33326.652149,44705.612326,40741.530447,36556.590981,0.098000,0.948000,0.280000,192.000000,0.000000,0.000000,0.000000,0.000000,0.000000,0.000000,0.000000,0.000000,0.000000,1648023668.603143,0.000000
203.000000,-20355.778379,-26727.523116,33352.602524,47681.367121,33320.840695,44704.092408,40746.090203,36551.204211,0.098000,0.948000,0.280000,192.000000,0.000000,0.000000,0.000000,0.000000,0.000000,0.000000,0.000000,0.000000,0.000000,1648023668.603160,0.000000
204.000000,-20356.381876,-26729.758290,33349.696797,47684.406958,33326.518038,44705.768789,40744.190305,36555.518097,0.098000,0.948000,0.280000,192.000000,0.000000,0.000000,0.000000,0.000000,0.000000,0.000000,0.000000,0.000000,0.000000,1648023668.610844,0.000000
205.000000,-20359.533472,-26733.446328,33372.786149,47686.396263,33336.375157,44704.785312,40740.658729,36555.428690,0.098000,0.948000,0.280000,192.000000,0.000000,0.000000,0.000000,0.000000,0.000000,0.000000,0.000000,0.000000,0.000000,1648023668.619164,0.000000
206.000000,-20364.249690,-26736.530869,33400.189388,47685.278676,33343.103032,44704.338277,40741.552799,36557.909734,0.098000,0.948000,0.280000,192.000000,0.000000,0.000000,0.000000,0.000000,0.000000,0.000000,0.000000,0.000000,0.000000,1648023668.619180,0.000000
207.000000,-20356.560690,-26728.975979,33397.104847,47692.207717,33339.325588,44711.848463,40751.052290,36563.050635,0.098000,0.948000,0.280000,192.000000,0.000000,0.000000,0.000000,0.000000,0.000000,0.000000,0.000000,0.000000,0.000000,1648023668.625599,0.000000
208.000000,-20352.403266,-26722.762194,33371.959135,47695.448720,33335.190515,44717.861082,40754.248590,36572.170147,0.098000,0.948000,0.280000,192.000000,0.000000,0.000000,0.000000,0.000000,0.000000,0.000000,0.000000,0.000000,0.000000,1648023668.625616,0.000000
209.000000,-20351.106864,-26720.929351,33363.398416,47696.186327,33335.414032,44718.308117,40753.578037,36577.176938,0.098000,0.942000,0.280000,192.000000,3.000000,16.000000,29.000000,112.000000,8.000000,192.000000,0.000000,0.000000,0.000000,1648023668.633480,0.000000
210.000000,-20354.236109,-26722.538677,33385.146664,47697.661543,33342.723053,44720.722106,40765.223296,36585.670601,0.098000,0.942000,0.280000,192.000000,0.000000,0.000000,0.000000,0.000000,0.000000,0.000000,0.000000,0.000000,0.000000,1648023668.633496,0.000000
211.000000,-20349.497539,-26715.006139,33369.321629,47698.287391,33335.168163,44720.878568,40762.965770,36583.971868,0.098000,0.942000,0.280000,192.000000,0.000000,0.000000,0.000000,0.000000,0.000000,0.000000,0.000000,0.000000,0.000000,1648023668.641638,0.000000
212.000000,-20356.381876,-26718.962397,33358.391626,47695.292258,33330.966035,44719.157483,40760.440023,36577.132234,0.098000,0.942000,0.280000,192.000000,0.000000,0.000000,0.000000,0.000000,0.000000,0.000000,0.000000,0.000000,0.000000,1648023668.641654,0.000000
213.000000,-20360.092266,-26722.583380,33348.914486,47695.314609,33324.953416,44723.672536,40759.367139,36585.737656,0.098000,0.942000,0.280000,192.000000,0.000000,0.000000,0.000000,0.000000,0.000000,0.000000,0.000000,0.000000,0.000000,1648023668.648563,0.000000
214.000000,-20360.963984,-26722.985711,33356.536431,47695.091092,33325.534561,44725.147751,40755.522639,36587.168167,0.098000,0.942000,0.280000,192.000000,0.000000,0.000000,0.000000,0.000000,0.000000,0.000000,0.000000,0.000000,0.000000,1648023668.648585,0.000000
215.000000,-20365.076705,-26728.640703,33361.096187,47690.084301,33324.573436,44724.097219,40755.455584,36575.366446,0.098000,0.942000,0.280000,192.000000,0.000000,0.000000,0.000000,0.000000,0.000000,0.000000,0.000000,0.000000,0.000000,1648023668.655903,0.000000
216.000000,-20364.473208,-26727.947799,33364.359541,47686.664484,33322.360614,44723.873702,40756.707282,36582.228432,0.098000,0.942000,0.280000,192.000000,0.000000,0.000000,0.000000,0.000000,0.000000,0.000000,0.000000,0.000000,0.000000,1648023668.655909,0.000000
217.000000,-20365.367277,-26729.735938,33360.515041,47680.495403,33315.968015,44725.594786,40771.235916,36582.854281,0.098000,0.942000,0.280000,192.000000,0.000000,0.000000,0.000000,0.000000,0.000000,0.000000,0.000000,0.000000,0.000000,1648023668.663816,0.000000
218.000000,-20362.282737,-26728.193668,33355.329437,47680.853031,33314.850427,44729.483989,40773.582849,36586.139987,0.098000,0.942000,0.280000,192.000000,0.000000,0.000000,0.000000,0.000000,0.000000,0.000000,0.000000,0.000000,0.000000,1648023668.663823,0.000000
219.000000,-20361.813350,-26730.294732,33354.994161,47678.819022,33315.453925,44732.054440,40772.152337,36585.402380,0.098000,0.942000,0.280000,192.000000,3.000000,16.000000,29.000000,112.000000,8.000000,192.000000,0.000000,0.000000,0.000000,1648023668.670905,0.000000
220.000000,-20356.940670,-26726.360825,33360.179765,47680.338941,33321.377137,44737.307100,40774.298105,36594.924223,0.098000,0.942000,0.280000,192.000000,0.000000,0.000000,0.000000,0.000000,0.000000,0.000000,0.000000,0.000000,0.000000,1648023668.677915,0.000000
221.000000,-20367.893024,-26735.726206,33376.094207,47671.778223,33319.834867,44722.890225,40757.422537,36573.287734,0.098000,0.942000,0.280000,192.000000,0.000000,0.000000,0.000000,0.000000,0.000000,0.000000,0.000000,0.000000,0.000000,1648023668.677919,0.000000
222.000000,-20364.048524,-26731.345264,33386.331306,47675.689778,33319.611349,44722.286728,40758.718939,36575.634667,0.098000,0.942000,0.280000,192.000000,0.000000,0.000000,0.000000,0.000000,0.000000,0.000000,0.000000,0.000000,0.000000,1648023668.685565,0.000000
223.000000,-20358.482940,-26725.466755,33366.751178,47677.299103,33313.062288,44726.175931,40765.625628,36590.051543,0.098000,0.942000,0.280000,192.000000,0.000000,0.000000,0.000000,0.000000,0.000000,0.000000,0.000000,0.000000,0.000000,1648023668.685569,0.000000
224.000000,-20367.177769,-26736.128537,33361.118539,47670.213600,33310.983576,44717.816379,40761.445851,36585.491787,0.098000,0.942000,0.280000,192.000000,0.000000,0.000000,0.000000,0.000000,0.000000,0.000000,0.000000,0.000000,0.000000,1648023668.693582,0.000000
225.000000,-20366.730734,-26740.040092,33353.206021,47673.119327,33314.761021,44722.309079,40770.163032,36591.973793,0.098000,0.942000,0.280000,192.000000,0.000000,0.000000,0.000000,0.000000,0.000000,0.000000,0.000000,0.000000,0.000000,1648023668.693587,0.000000
226.000000,-20369.435295,-26743.772834,33373.479053,47673.052272,33322.405317,44716.296460,40761.758776,36579.479167,0.098000,0.942000,0.280000,192.000000,0.000000,0.000000,0.000000,0.000000,0.000000,0.000000,0.000000,0.000000,0.000000,1648023668.701177,0.000000
227.000000,-20366.842492,-26741.649418,33375.133082,47670.124193,33315.453925,44716.542329,40765.178593,36577.534566,0.098000,0.942000,0.280000,192.000000,0.000000,0.000000,0.000000,0.000000,0.000000,0.000000,0.000000,0.000000,0.000000,1648023668.701194,0.000000
228.000000,-20368.407115,-26742.454081,33363.353713,47668.850144,33308.413125,44722.800818,40768.956038,36587.279926,0.098000,0.942000,0.280000,192.000000,0.000000,0.000000,0.000000,0.000000,0.000000,0.000000,0.000000,0.000000,0.000000,1648023668.708508,0.000000
229.000000,-20366.261347,-26740.375369,33337.470393,47663.530429,33296.857273,44721.839693,40768.710168,36585.134159,0.104000,0.942000,0.274000,192.000000,3.000000,64.000000,29.000000,112.000000,8.000000,144.000000,0.000000,0.000000,0.000000,1648023668.708520,0.000000
230.000000,-20370.619937,-26744.264572,33354.748291,47663.016339,33305.954433,44721.504417,40773.627552,36584.687124,0.104000,0.942000,0.274000,192.000000,0.000000,0.000000,0.000000,0.000000,0.000000,0.000000,0.000000,0.000000,0.000000,1648023668.716689,0.000000
231.000000,-20368.898853,-26740.196555,33369.276925,47665.586789,33309.329547,44721.929100,40773.918125,36585.760008,0.104000,0.942000,0.274000,192.000000,0.000000,0.000000,0.000000,0.000000,0.000000,0.000000,0.000000,0.000000,0.000000,1648023668.716705,0.000000
232.000000,-20361.299260,-26732.999293,33353.273076,47670.146545,33305.753267,44728.165236,40776.421520,36594.186615,0.104000,0.942000,0.274000,192.000000,0.000000,0.000000,0.000000,0.000000,0.000000,0.000000,0.000000,0.000000,0.000000,1648023668.724518,0.000000
233.000000,-20361.187501,-26731.904057,33358.324570,47673.320493,33309.396602,44728.947548,40780.489538,36593.001973,0.104000,0.942000,0.274000,192.000000,0.000000,0.000000,0.000000,0.000000,0.000000,0.000000,0.000000,0.000000,0.000000,1648023668.724535,0.000000
234.000000,-20355.040771,-26726.785508,33351.842565,47683.065853,33314.313986,44734.401373,40780.601296,36595.818293,0.104000,0.942000,0.274000,192.000000,0.000000,0.000000,0.000000,0.000000,0.000000,0.000000,0.000000,0.000000,0.000000,1648023668.730697,0.000000
235.000000,-20363.534434,-26732.842831,33353.608352,47681.277714,33316.660919,44728.545216,40769.872459,36589.045714,0.104000,0.942000,0.274000,192.000000,0.000000,0.000000,0.000000,0.000000,0.000000,0.000000,0.000000,0.000000,0.000000,1648023668.738326,0.000000
236.000000,-20361.925109,-26728.864220,33354.033036,47683.445833,33320.259550,44730.445114,40771.347674,36591.437351,0.104000,0.942000,0.274000,192.000000,0.000000,0.000000,0.000000,0.000000,0.000000,0.000000,0.000000,0.000000,0.000000,1648023668.738343,0.000000
237.000000,-20356.694800,-26722.337511,33346.209925,47688.922011,33321.064212,44738.581149,40775.616857,36597.919357,0.104000,0.942000,0.274000,192.000000,0.000000,0.000000,0.000000,0.000000,0.000000,0.000000,0.000000,0.000000,0.000000,1648023668.746172,0.000000
238.000000,-20354.258460,-26717.978921,33343.348902,47690.307819,33320.058384,44740.279882,40780.377779,36602.054429,0.104000,0.942000,0.274000,192.000000,0.000000,0.000000,0.000000,0.000000,0.000000,0.000000,0.000000,0.000000,0.000000,1648023668.746188,0.000000
239.000000,-20356.337173,-26721.912828,33336.665730,47688.922011,33317.689099,44737.664728,40774.365160,36591.549109,0.102000,0.946000,0.274000,192.000000,3.000000,48.000000,29.000000,144.000000,8.000000,144.000000,0.000000,0.000000,0.000000,1648023668.754275,0.000000
240.000000,-20361.992164,-26728.081909,33352.222544,47687.312685,33322.941759,44731.517998,40763.546915,36579.702685,0.102000,0.946000,0.274000,192.000000,0.000000,0.000000,0.000000,0.000000,0.000000,0.000000,0.000000,0.000000,0.000000,1648023668.754292,0.000000
241.000000,-20365.903719,-26732.999293,33377.703533,47687.737368,33329.267303,44732.903806,40769.715997,36583.368371,0.102000,0.946000,0.274000,192.000000,0.000000,0.000000,0.000000,0.000000,0.000000,0.000000,0.000000,0.000000,0.000000,1648023668.760590,0.000000
242.000000,-20356.225414,-26725.712624,33395.003783,47694.398188,33338.453870,44740.391641,40778.299067,36585.670601,0.102000,0.946000,0.274000,192.000000,0.000000,0.000000,0.000000,0.000000,0.000000,0.000000,0.000000,0.000000,0.000000,1648023668.760600,0.000000
243.000000,-20352.917356,-26723.097470,33381.793902,47694.129967,33331.055442,44739.139943,40773.672256,36587.034057,0.102000,0.946000,0.274000,192.000000,0.000000,0.000000,0.000000,0.000000,0.000000,0.000000,0.000000,0.000000,0.000000,1648023668.768819,0.000000
244.000000,-20352.447969,-26723.119822,33361.073835,47692.051255,33323.724070,44740.682213,40783.238802,36594.343077,0.102000,0.946000,0.274000,192.000000,0.000000,0.000000,0.000000,0.000000,0.000000,0.000000,0.000000,0.000000,0.000000,1648023668.768835,0.000000
245.000000,-20353.319687,-26725.466755,33370.483919,47690.978371,33330.898980,44738.558798,40778.232012,36591.057371,0.102000,0.946000,0.274000,192.000000,0.000000,0.000000,0.000000,0.000000,0.000000,0.000000,0.000000,0.000000,0.000000,1648023668.776606,0.000000
246.000000,-20347.731751,-26721.264627,33367.064103,47688.966714,33332.664768,44741.330414,40777.472052,36590.900909,0.102000,0.946000,0.274000,192.000000,0.000000,0.000000,0.000000,0.000000,0.000000,0.000000,0.000000,0.000000,0.000000,1648023668.776623,0.000000
247.000000,-20348.894042,-26722.583380,33379.961059,47690.129005,33339.616160,44745.130211,40788.446759,36593.963098,0.102000,0.946000,0.274000,192.000000,0.000000,0.000000,0.000000,0.000000,0.000000,0.000000,0.000000,0.000000,0.000000,1648023668.784064,0.000000
248.000000,-20346.815329,-26722.091642,33387.672411,47689.056121,33336.643378,44739.475219,40783.931706,36588.442217,0.102000,0.946000,0.274000,192.000000,0.000000,0.000000,0.000000,0.000000,0.000000,0.000000,0.000000,0.000000,0.000000,1648023668.784080,0.000000
249.000000,-20337.941687,-26716.570761,33382.173882,47689.816080,33330.429593,44739.519923,40777.047369,36584.977697,0.096000,0.946000,0.282000,192.000000,3.000000,0.000000,29.000000,144.000000,8.000000,208.000000,0.000000,0.000000,0.000000,1648023668.790244,0.000000
250.000000,-20341.585021,-26717.598941,33381.928013,47689.659618,33329.982558,44736.860065,40769.783052,36576.998124,0.096000,0.946000,0.282000,192.000000,0.000000,0.000000,0.000000,0.000000,0.000000,0.000000,0.000000,0.000000,0.000000,1648023668.798462,0.000000
251.000000,-20344.535451,-26725.265589,33390.444027,47686.508022,33332.553009,44728.902844,40761.445851,36564.503499,0.096000,0.946000,0.282000,192.000000,0.000000,0.000000,0.000000,0.000000,0.000000,0.000000,0.000000,0.000000,0.000000,1648023668.798474,0.000000
252.000000,-20350.704533,-26728.975979,33385.169016,47687.804423,33327.657977,44733.619062,40770.364198,36583.077798,0.096000,0.946000,0.282000,192.000000,0.000000,0.000000,0.000000,0.000000,0.000000,0.000000,0.000000,0.000000,0.000000,1648023668.806238,0.000000
253.000000,-20350.056332,-26731.278209,33376.898870,47685.099862,33325.579265,44736.524789,40773.091110,36583.569537,0.096000,0.946000,0.282000,192.000000,0.000000,0.000000,0.000000,0.000000,0.000000,0.000000,0.000000,0.000000,0.000000,1648023668.806250,0.000000
254.000000,-20362.260385,-26746.946782,33379.111693,47676.695606,33324.238160,44733.417896,40771.682950,36576.439330,0.096000,0.946000,0.282000,192.000000,0.000000,0.000000,0.000000,0.000000,0.000000,0.000000,0.000000,0.000000,0.000000,1648023668.813470,0.000000
255.000000,-20376.453743,-26760.581346,33375.535414,47669.230124,33318.694928,44732.277957,40773.582849,36575.075874,0.096000,0.946000,0.282000,192.000000,0.000000,0.000000,0.000000,0.000000,0.000000,0.000000,0.000000,0.000000,0.000000,1648023668.813482,0.000000
0.000000,-20390.088307,-26774.864110,33377.927050,47664.402147,33317.689099,44736.748306,40780.243669,36578.719208,0.096000,0.946000,0.282000,192.000000,0.000000,0.000000,0.000000,0.000000,0.000000,0.000000,0.000000,0.000000,0.000000,1648023668.821041,0.000000
1.000000,-20399.632502,-26784.453009,33370.662733,47662.032862,33312.972881,44745.867818,40784.535204,36593.471359,0.096000,0.946000,0.282000,192.000000,0.000000,0.000000,0.000000,0.000000,0.000000,0.000000,0.000000,0.000000,0.000000,1648023668.821065,0.000000
2.000000,-20415.390481,-26800.970948,33368.561669,47660.267074,33310.335375,44752.975673,40787.195061,36597.360563,0.096000,0.946000,0.282000,192.000000,0.000000,0.000000,0.000000,0.000000,0.000000,0.000000,0.000000,0.000000,0.000000,1648023668.829052,0.000000
3.000000,-20427.438072,-26812.035061,33367.153510,47656.355519,33305.194474,44756.507248,40783.954058,36593.314897,0.100000,0.940000,0.282000,192.000000,3.000000,32.000000,29.000000,96.000000,8.000000,208.000000,0.000000,0.000000,0.000000,1648023668.829077,0.000000
4.000000,-20441.139691,-26824.641445,33356.514079,47651.304025,33299.360669,44761.625798,40783.730541,36592.554938,0.100000,0.940000,0.282000,192.000000,0.000000,0.000000,0.000000,0.000000,0.000000,0.000000,0.000000,0.000000,0.000000,1648023668.835992,0.000000
5.000000,-20454.215462,-26839.013617,33374.820158,47648.465353,33304.725087,44763.570400,40778.947267,36589.515101,0.100000,0.940000,0.282000,192.000000,0.000000,0.000000,0.000000,0.000000,0.000000,0.000000,0.000000,0.000000,0.000000,1648023668.836009,0.000000
6.000000,-20462.709124,-26848.960143,33376.317725,47644.620853,33297.639584,44762.162240,40776.667389,36580.775569,0.100000,0.940000,0.282000,192.000000,0.000000,0.000000,0.000000,0.000000,0.000000,0.000000,0.000000,0.000000,0.000000,1648023668.843473,0.000000
7.000000,-20465.681906,-26852.402312,33357.274038,47637.848274,33284.474407,44763.235124,40779.036674,36582.854281,0.100000,0.940000,0.282000,192.000000,0.000000,0.000000,0.000000,0.000000,0.000000,0.000000,0.000000,0.000000,0.000000,1648023668.843485,0.000000
8.000000,-20468.565281,-26857.163233,33343.527716,47633.713202,33280.115817,44760.865839,40779.260192,36585.402380,0.100000,0.940000,0.282000,192.000000,0.000000,0.000000,0.000000,0.000000,0.000000,0.000000,0.000000,0.000000,0.000000,1648023668.850716,0.000000
9.000000,-20470.643994,-26859.510167,33348.534506,47631.232158,33284.563814,44747.991234,40762.094052,36565.956362,0.100000,0.940000,0.282000,192.000000,0.000000,0.000000,0.000000,0.000000,0.000000,0.000000,0.000000,0.000000,0.000000,1648023668.850732,0.000000
10.000000,-20473.884997,-26863.801702,33361.923201,47626.292423,33286.866043,44737.195341,40757.131965,36559.876688,0.100000,0.940000,0.282000,192.000000,0.000000,0.000000,0.000000,0.000000,0.000000,0.000000,0.000000,0.000000,0.000000,1648023668.858781,0.000000
11.000000,-20471.247491,-26862.237079,33361.520870,47623.319641,33282.038067,44733.015565,40759.478898,36567.230411,0.100000,0.940000,0.282000,192.000000,0.000000,0.000000,0.000000,0.000000,0.000000,0.000000,0.000000,0.000000,0.000000,1648023668.865815,0.000000
12.000000,-20473.169741,-26861.745341,33365.477129,47625.755981,33282.641564,44734.177856,40753.242761,36571.678409,0.100000,0.940000,0.282000,192.000000,0.000000,0.000000,0.000000,0.000000,0.000000,0.000000,0.000000,0.000000,0.000000,1648023668.865828,0.000000
13.000000,-20477.193055,-26866.930946,33364.292486,47617.575242,33274.840805,44727.807609,40745.956093,36561.508365,0.100000,0.940000,0.282000,192.000000,0.000000,0.000000,0.000000,0.000000,0.000000,0.000000,0.000000,0.000000,0.000000,1648023668.873381,0.000000
14.000000,-20467.268880,-26855.106873,33327.657977,47619.117513,33264.491947,44731.093315,40759.925933,36569.219717,0.100000,0.940000,0.290000,192.000000,3.000000,32.000000,29.000000,96.000000,9.000000,16.000000,0.000000,0.000000,0.000000,1648023668.873398,0.000000
15.000000,-20470.621642,-26856.827957,33330.273131,47620.950356,33272.627982,44729.729859,40767.145546,36563.229449,0.100000,0.940000,0.290000,192.000000,0.000000,0.000000,0.000000,0.000000,0.000000,0.000000,0.000000,0.000000,0.000000,1648023668.881365,0.000000
16.000000,-20472.342726,-26860.694809,33348.668617,47620.324507,33280.764017,44729.081658,40768.441948,36570.471414,0.100000,0.940000,0.290000,192.000000,0.000000,0.000000,0.000000,0.000000,0.000000,0.000000,0.000000,0.000000,0.000000,1648023668.881377,0.000000
17.000000,-20460.317488,-26852.022332,33330.809573,47624.258414,33275.734875,44732.389716,40767.436119,36580.507348,0.100000,0.940000,0.290000,192.000000,0.000000,0.000000,0.000000,0.000000,0.000000,0.000000,0.000000,0.000000,0.000000,1648023668.889493,0.000000
18.000000,-20448.046380,-26840.868812,33323.925236,47635.948376,33285.167311,44740.413992,40774.745139,36579.993258,0.100000,0.940000,0.290000,192.000000,0.000000,0.000000,0.000000,0.000000,0.000000,0.000000,0.000000,0.000000,0.000000,1648023668.889509,0.000000
19.000000,-20444.894784,-26836.554925,33306.155599,47638.608234,33287.760113,44740.011661,40776.890907,36579.792092,0.100000,0.940000,0.290000,192.000000,0.000000,0.000000,0.000000,0.000000,0.000000,0.000000,0.000000,0.000000,0.000000,1648023668.896476,0.000000
20.000000,-20446.034723,-26837.001960,33305.663861,47637.177722,33292.565738,44731.674460,40768.665465,36572.840699,0.100000,0.940000,0.290000,192.000000,0.000000,0.000000,0.000000,0.000000,0.000000,0.000000,0.000000,0.000000,0.000000,1648023668.896493,0.000000
21.000000,-20436.289362,-26827.033082,33317.040898,47644.844370,33305.038012,44737.307100,40770.565363,36571.946630,0.100000,0.940000,0.290000,192.000000,0.000000,0.000000,0.000000,0.000000,0.000000,0.000000,0.000000,0.000000,0.000000,1648023668.903750,0.000000
22.000000,-20431.349627,-26822.249809,33324.260512,47647.392469,33307.362593,44735.317795,40766.989084,36569.756159,0.100000,0.940000,0.290000,192.000000,0.000000,0.000000,0.000000,0.000000,0.000000,0.000000,0.000000,0.000000,0.000000,1648023668.903774,0.000000
23.000000,-20431.260220,-26823.367396,33325.579265,47642.497437,33299.651241,44725.863007,40759.210677,36560.994275,0.100000,0.940000,0.290000,192.000000,0.000000,0.000000,0.000000,0.000000,0.000000,0.000000,0.000000,0.000000,0.000000,1648023668.911315,0.000000
24.000000,-20429.181508,-26821.445146,33336.375157,47636.574225,33298.511302,44726.421800,40764.418634,36558.826156,0.096000,0.936000,0.290000,192.000000,3.000000,0.000000,29.000000,64.000000,9.000000,16.000000,0.000000,0.000000,0.000000,1648023668.911327,0.000000
25.000000,-20426.365188,-26818.829992,33348.266285,47636.641280,33300.210035,44728.411106,40764.530392,36563.341208,0.096000,0.936000,0.290000,192.000000,0.000000,0.000000,0.000000,0.000000,0.000000,0.000000,0.000000,0.000000,0.000000,1648023668.918142,0.000000
26.000000,-20419.749072,-26812.035061,33349.674445,47645.559626,33300.344145,44733.909635,40769.380721,36579.032133,0.096000,0.936000,0.290000,192.000000,0.000000,0.000000,0.000000,0.000000,0.000000,0.000000,0.000000,0.000000,0.000000,1648023668.926281,0.000000
27.000000,-20426.454595,-26817.041852,33337.269227,47639.904635,33289.458846,44726.824132,40765.178593,36573.444196,0.096000,0.936000,0.290000,192.000000,0.000000,0.000000,0.000000,0.000000,0.000000,0.000000,0.000000,0.000000,0.000000,1648023668.926298,0.000000
28.000000,-20421.090176,-26808.682300,33314.470448,47643.480914,33286.977802,44732.143847,40775.818023,36588.330458,0.096000,0.936000,0.290000,192.000000,0.000000,0.000000,0.000000,0.000000,0.000000,0.000000,0.000000,0.000000,0.000000,1648023668.933287,0.000000
29.000000,-20420.643141,-26807.207085,33321.444192,47646.498400,33295.270299,44729.506341,40771.660599,36582.161377,0.096000,0.936000,0.290000,192.000000,0.000000,0.000000,0.000000,0.000000,0.000000,0.000000,0.000000,0.000000,0.000000,1648023668.933305,0.000000
30.000000,-20417.782118,-26805.240131,33333.134154,47648.264187,33299.807703,44723.784295,40764.642151,36575.075874,0.096000,0.936000,0.290000,192.000000,0.000000,0.000000,0.000000,0.000000,0.000000,0.000000,0.000000,0.000000,0.000000,1648023668.941017,0.000000
31.000000,-20412.618865,-26798.221683,33347.595733,47652.108687,33305.082715,44725.035992,40765.178593,36573.354789,0.096000,0.936000,0.290000,192.000000,0.000000,0.000000,0.000000,0.000000,0.000000,0.000000,0.000000,0.000000,0.000000,1648023668.941033,0.000000
32.000000,-20410.383691,-26793.751334,33351.104957,47651.818115,33303.495741,44728.969899,40768.933686,36578.383932,0.096000,0.936000,0.290000,192.000000,0.000000,0.000000,0.000000,0.000000,0.000000,0.000000,0.000000,0.000000,0.000000,1648023668.948878,0.000000
33.000000,-20404.706348,-26788.431619,33327.725032,47649.448830,33293.526863,44730.288652,40768.352541,36583.144853,0.096000,0.936000,0.290000,192.000000,0.000000,0.000000,0.000000,0.000000,0.000000,0.000000,0.000000,0.000000,0.000000,1648023668.948895,0.000000
34.000000,-20402.314711,-26787.001108,33333.067099,47658.456583,33304.680384,44733.820228,40764.955075,36582.116673,0.100000,0.942000,0.288000,192.000000,3.000000,32.000000,29.000000,112.000000,9.000000,0.000000,0.000000,0.000000,0.000000,1648023668.956751,0.000000
35.000000,-20392.614054,-26776.719305,33342.365425,47668.201943,33310.313023,44734.088449,40766.854974,36581.043790,0.100000,0.942000,0.288000,192.000000,0.000000,0.000000,0.000000,0.000000,0.000000,0.000000,0.000000,0.000000,0.000000,1648023668.956768,0.000000
36.000000,-20390.870618,-26776.786360,33342.432480,47668.157240,33310.089506,44729.014603,40765.692683,36576.528737,0.100000,0.942000,0.288000,192.000000,0.000000,0.000000,0.000000,0.000000,0.000000,0.000000,0.000000,0.000000,0.000000,1648023668.963599,0.000000
37.000000,-20400.258350,-26785.525892,33334.341149,47658.009548,33299.092448,44717.749324,40754.740328,36565.062292,0.100000,0.942000,0.288000,192.000000,0.000000,0.000000,0.000000,0.000000,0.000000,0.000000,0.000000,0.000000,0.000000,1648023668.963610,0.000000
38.000000,-20402.605284,-26787.023459,33331.703643,47654.545028,33297.349012,44714.553024,40756.975503,36561.821289,0.100000,0.942000,0.288000,192.000000,0.000000,0.000000,0.000000,0.000000,0.000000,0.000000,0.000000,0.000000,0.000000,1648023668.971536,0.000000
39.000000,-20396.615016,-26782.575462,33349.160355,47661.094089,33306.468523,44717.436399,40759.948285,36564.682313,0.100000,0.942000,0.288000,192.000000,0.000000,0.000000,0.000000,0.000000,0.000000,0.000000,0.000000,0.000000,0.000000,1648023668.971553,0.000000
40.000000,-20391.697632,-26774.461779,33347.416919,47665.072699,33304.255701,44718.330469,40758.875401,36573.444196,0.100000,0.942000,0.288000,192.000000,0.000000,0.000000,0.000000,0.000000,0.000000,0.000000,0.000000,0.000000,0.000000,1648023668.978650,0.000000
41.000000,-20389.708327,-26772.114846,33343.795937,47664.491554,33304.836846,44718.442228,40762.026997,36568.549164,0.100000,0.942000,0.288000,192.000000,0.000000,0.000000,0.000000,0.000000,0.000000,0.000000,0.000000,0.000000,0.000000,1648023668.986321,0.000000
42.000000,-20391.138839,-26773.970041,33346.656960,47663.888057,33304.434515,44715.514149,40762.630494,36573.332438,0.100000,0.942000,0.288000,192.000000,0.000000,0.000000,0.000000,0.000000,0.000000,0.000000,0.000000,0.000000,0.000000,1648023668.986332,0.000000
43.000000,-20394.715118,-26778.708610,33353.451890,47663.865705,33304.769791,44711.557890,40760.529430,36569.599696,0.100000,0.942000,0.288000,192.000000,0.000000,0.000000,0.000000,0.000000,0.000000,0.000000,0.000000,0.000000,0.000000,1648023668.993057,0.000000
44.000000,-20393.195199,-26775.579366,33361.386759,47663.418670,33307.541407,44709.121550,40756.863744,36564.950534,0.098000,0.940000,0.288000,192.000000,3.000000,16.000000,29.000000,96.000000,9.000000,0.000000,0.000000,0.000000,0.000000,1648023668.993074,0.000000
45.000000,-20391.518818,-26772.338363,33366.661771,47660.915275,33308.860160,44708.406294,40758.316607,36562.447138,0.098000,0.940000,0.288000,192.000000,0.000000,0.000000,0.000000,0.000000,0.000000,0.000000,0.000000,0.000000,0.000000,1648023669.001351,0.000000
46.000000,-20393.932807,-26774.864110,33391.449856,47660.378833,33314.425744,44706.640507,40757.757814,36558.446176,0.098000,0.940000,0.288000,192.000000,0.000000,0.000000,0.000000,0.000000,0.000000,0.000000,0.000000,0.000000,0.000000,1648023669.001369,0.000000
47.000000,-20384.366260,-26767.979773,33375.244841,47659.015376,33303.249872,44707.176948,40757.780165,36560.547240,0.098000,0.940000,0.288000,192.000000,0.000000,0.000000,0.000000,0.000000,0.000000,0.000000,0.000000,0.000000,0.000000,1648023669.009195,0.000000
48.000000,-20383.159266,-26765.029343,33360.112710,47662.546952,33301.282919,44708.316887,40756.081433,36562.022455,0.098000,0.940000,0.288000,192.000000,0.000000,0.000000,0.000000,0.000000,0.000000,0.000000,0.000000,0.000000,0.000000,1648023669.009206,0.000000
49.000000,-20383.293376,-26762.056561,33376.384780,47667.330225,33313.844599,44709.657992,40751.387566,36558.759100,0.098000,0.940000,0.288000,192.000000,0.000000,0.000000,0.000000,0.000000,0.000000,0.000000,0.000000,0.000000,0.000000,1648023669.016344,0.000000
50.000000,-20381.862865,-26760.871918,33373.926088,47663.195153,33312.592901,44705.321754,40749.577075,36558.513231,0.098000,0.940000,0.288000,192.000000,0.000000,0.000000,0.000000,0.000000,0.000000,0.000000,0.000000,0.000000,0.000000,1648023669.016361,0.000000
51.000000,-20381.974623,-26764.179976,33362.459643,47661.161144,33307.921387,44704.785312,40754.293293,36561.776586,0.098000,0.940000,0.288000,192.000000,0.000000,0.000000,0.000000,0.000000,0.000000,0.000000,0.000000,0.000000,0.000000,1648023669.023957,0.000000
52.000000,-20386.422621,-26769.209119,33370.282754,47660.490592,33309.776581,44699.555004,40745.620816,36551.852411,0.098000,0.940000,0.288000,192.000000,0.000000,0.000000,0.000000,0.000000,0.000000,0.000000,0.000000,0.000000,0.000000,1648023669.023973,0.000000
53.000000,-20384.746240,-26768.046828,33356.268210,47659.663577,33300.657070,44697.096312,40736.300139,36555.071062,0.098000,0.940000,0.288000,192.000000,0.000000,0.000000,0.000000,0.000000,0.000000,0.000000,0.000000,0.000000,0.000000,1648023669.031675,0.000000
54.000000,-20382.600472,-26766.258689,33365.253611,47666.391452,33310.514189,44704.293573,40741.373985,36557.574458,0.096000,0.946000,0.280000,192.000000,3.000000,0.000000,29.000000,144.000000,8.000000,192.000000,0.000000,0.000000,0.000000,1648023669.031692,0.000000
55.000000,-20374.710306,-26759.217889,33368.159338,47669.878324,33314.135172,44711.602594,40756.930799,36570.113786,0.096000,0.946000,0.280000,192.000000,0.000000,0.000000,0.000000,0.000000,0.000000,0.000000,0.000000,0.000000,0.000000,1648023669.038924,0.000000
56.000000,-20375.939652,-26758.413226,33363.219602,47667.486688,33314.291634,44710.932042,40751.141697,36565.621086,0.096000,0.946000,0.280000,192.000000,0.000000,0.000000,0.000000,0.000000,0.000000,0.000000,0.000000,0.000000,0.000000,1648023669.045474,0.000000
57.000000,-20373.883292,-26757.541508,33357.251687,47666.525563,33312.972881,44711.490835,40752.013415,36564.279981,0.096000,0.946000,0.280000,192.000000,0.000000,0.000000,0.000000,0.000000,0.000000,0.000000,0.000000,0.000000,0.000000,1648023669.045491,0.000000
58.000000,-20373.860940,-26759.262593,33356.424672,47665.385624,33311.698832,44708.138073,40755.746157,36554.176993,0.096000,0.946000,0.280000,192.000000,0.000000,0.000000,0.000000,0.000000,0.000000,0.000000,0.000000,0.000000,0.000000,1648023669.053420,0.000000
59.000000,-20372.989222,-26759.150834,33364.136024,47666.883190,33315.252759,44711.736704,40764.284523,36562.447138,0.096000,0.946000,0.280000,192.000000,0.000000,0.000000,0.000000,0.000000,0.000000,0.000000,0.000000,0.000000,0.000000,1648023669.053435,0.000000
60.000000,-20374.486789,-26759.083779,33380.296335,47665.497382,33318.493762,44711.401428,40760.417671,36566.492804,0.096000,0.946000,0.280000,192.000000,0.000000,0.000000,0.000000,0.000000,0.000000,0.000000,0.000000,0.000000,0.000000,1648023669.061278,0.000000
61.000000,-20379.672394,-26762.056561,33392.902719,47662.144621,33315.051593,44706.595803,40754.717976,36559.183783,0.096000,0.946000,0.280000,192.000000,0.000000,0.000000,0.000000,0.000000,0.000000,0.000000,0.000000,0.000000,0.000000,1648023669.061284,0.000000
62.000000,-20376.721963,-26760.380180,33384.789036,47662.614007,33309.687175,44706.864024,40749.308854,36557.999141,0.096000,0.946000,0.280000,192.000000,0.000000,0.000000,0.000000,0.000000,0.000000,0.000000,0.000000,0.000000,0.000000,1648023669.068224,0.000000
63.000000,-20377.593682,-26758.033247,33378.821120,47663.776298,33309.933044,44704.271222,40754.002721,36551.986522,0.096000,0.946000,0.280000,192.000000,0.000000,0.000000,0.000000,0.000000,0.000000,0.000000,0.000000,0.000000,0.000000,1648023669.068231,0.000000
64.000000,-20378.510103,-26759.217889,33370.416864,47666.771432,33309.530712,44702.393675,40757.936628,36551.651246,0.096000,0.944000,0.282000,192.000000,3.000000,0.000000,29.000000,128.000000,8.000000,208.000000,0.000000,0.000000,0.000000,1648023669.076190,0.000000
65.000000,-20375.380859,-26755.820424,33374.082550,47672.605237,33314.649262,44704.450036,40762.831660,36562.380083,0.096000,0.944000,0.282000,192.000000,0.000000,0.000000,0.000000,0.000000,0.000000,0.000000,0.000000,0.000000,0.000000,1648023669.076225,0.000000
66.000000,-20376.163170,-26756.535680,33373.926088,47672.962865,33315.655090,44708.473350,40764.239820,36567.096301,0.096000,0.944000,0.282000,192.000000,0.000000,0.000000,0.000000,0.000000,0.000000,0.000000,0.000000,0.000000,0.000000,1648023669.084313,0.000000
67.000000,-20368.876501,-26752.132386,33374.484882,47675.645074,33317.554989,44712.675478,40768.196078,36565.106996,0.096000,0.944000,0.282000,192.000000,0.000000,0.000000,0.000000,0.000000,0.000000,0.000000,0.000000,0.000000,0.000000,1648023669.084330,0.000000
68.000000,-20368.608280,-26751.998276,33362.794919,47674.013397,33309.575416,44709.881510,40767.816099,36566.805728,0.096000,0.944000,0.282000,192.000000,0.000000,0.000000,0.000000,0.000000,0.000000,0.000000,0.000000,0.000000,0.000000,1648023669.091999,0.000000
69.000000,-20363.914414,-26748.958439,33346.232277,47675.220391,33306.580282,44711.960222,40768.911334,36564.615257,0.096000,0.944000,0.282000,192.000000,0.000000,0.000000,0.000000,0.000000,0.000000,0.000000,0.000000,0.000000,0.000000,1648023669.092010,0.000000
70.000000,-20360.002859,-26743.012874,33355.128271,47678.394339,33319.209018,44716.184701,40770.163032,36563.564725,0.096000,0.944000,0.282000,192.000000,0.000000,0.000000,0.000000,0.000000,0.000000,0.000000,0.000000,0.000000,0.000000,1648023669.097984,0.000000
71.000000,-20361.388667,-26743.124633,33365.320666,47676.002702,33322.852352,44715.067114,40767.570229,36565.844603,0.096000,0.944000,0.282000,192.000000,0.000000,0.000000,0.000000,0.000000,0.000000,0.000000,0.000000,0.000000,0.000000,1648023669.097990,0.000000
72.000000,-20364.160283,-26747.125595,33376.071856,47678.729615,33323.455849,44715.782370,40769.648942,36569.532641,0.096000,0.944000,0.282000,192.000000,0.000000,0.000000,0.000000,0.000000,0.000000,0.000000,0.000000,0.000000,0.000000,1648023669.105937,0.000000
73.000000,-20364.786132,-26747.304409,33364.381893,47678.081414,33314.626910,44715.648260,40766.542049,36571.097263,0.096000,0.944000,0.282000,192.000000,0.000000,0.000000,0.000000,0.000000,0.000000,0.000000,0.000000,0.000000,0.000000,1648023669.113748,0.000000
74.000000,-20365.143760,-26744.711607,33343.348902,47676.963827,33308.658994,44715.402390,40768.084320,36573.354789,0.098000,0.938000,0.278000,192.000000,3.000000,16.000000,29.000000,80.000000,8.000000,176.000000,0.000000,0.000000,0.000000,1648023669.113759,0.000000
75.000000,-20365.546091,-26746.879726,33358.995123,47679.400167,33322.628835,44712.675478,40761.781128,36564.727016,0.098000,0.938000,0.278000,192.000000,0.000000,0.000000,0.000000,0.000000,0.000000,0.000000,0.000000,0.000000,0.000000,1648023669.121590,0.000000
76.000000,-20362.618013,-26745.113938,33369.433387,47678.617856,33322.785297,44711.088504,40763.233991,36568.392702,0.098000,0.938000,0.278000,192.000000,0.000000,0.000000,0.000000,0.000000,0.000000,0.000000,0.000000,0.000000,0.000000,1648023669.121602,0.000000
77.000000,-20370.083495,-26753.786415,33355.150623,47668.626627,33310.760058,44713.815417,40764.865668,36573.220679,0.098000,0.938000,0.278000,192.000000,0.000000,0.000000,0.000000,0.000000,0.000000,0.000000,0.000000,0.000000,0.000000,1648023669.128301,0.000000
78.000000,-20376.341984,-26761.989506,33357.698722,47662.166972,33305.440343,44709.725047,40764.083357,36574.852356,0.098000,0.938000,0.278000,192.000000,0.000000,0.000000,0.000000,0.000000,0.000000,0.000000,0.000000,0.000000,0.000000,1648023669.128312,0.000000
79.000000,-20376.744315,-26762.883575,33355.754120,47662.323435,33301.282919,44708.361591,40766.564401,36577.758083,0.098000,0.938000,0.278000,192.000000,0.000000,0.000000,0.000000,0.000000,0.000000,0.000000,0.000000,0.000000,0.000000,1648023669.136512,0.000000
80.000000,-20377.928958,-26761.721285,33369.723960,47665.787955,33306.982613,44715.447094,40771.168860,36581.960211,0.098000,0.938000,0.278000,192.000000,0.000000,0.000000,0.000000,0.000000,0.000000,0.000000,0.000000,0.000000,0.000000,1648023669.136529,0.000000
81.000000,-20370.083495,-26750.791282,33359.397454,47671.197077,33307.206131,44718.330469,40774.231049,36583.748351,0.098000,0.938000,0.278000,192.000000,0.000000,0.000000,0.000000,0.000000,0.000000,0.000000,0.000000,0.000000,0.000000,1648023669.144307,0.000000
82.000000,-20374.620900,-26753.026456,33348.534506,47668.850144,33305.417991,44715.648260,40772.778186,36572.214850,0.098000,0.938000,0.278000,192.000000,0.000000,0.000000,0.000000,0.000000,0.000000,0.000000,0.000000,0.000000,0.000000,1648023669.144323,0.000000
83.000000,-20375.984356,-26754.524023,33332.664768,47668.201943,33299.584186,44721.303251,40777.561459,36579.054484,0.098000,0.938000,0.278000,192.000000,0.000000,0.000000,0.000000,0.000000,0.000000,0.000000,0.000000,0.000000,0.000000,1648023669.151554,0.000000
84.000000,-20381.125257,-26759.374351,33332.843582,47664.379795,33302.445209,44718.755152,40772.331151,36575.008819,0.094000,0.948000,0.272000,192.000000,2.000000,240.000000,29.000000,160.000000,8.000000,128.000000,0.000000,0.000000,0.000000,1648023669.151566,0.000000
85.000000,-20383.919225,-26758.659096,33338.811498,47663.932760,33302.646375,44713.278975,40769.067796,36566.023417,0.094000,0.948000,0.272000,192.000000,0.000000,0.000000,0.000000,0.000000,0.000000,0.000000,0.000000,0.000000,0.000000,1648023669.158883,0.000000
86.000000,-20382.823990,-26758.323819,33343.527716,47667.553743,33303.138113,44712.362553,40768.196078,36566.001065,0.094000,0.948000,0.272000,192.000000,0.000000,0.000000,0.000000,0.000000,0.000000,0.000000,0.000000,0.000000,0.000000,1648023669.158903,0.000000
87.000000,-20382.868693,-26759.933145,33325.869838,47667.240818,33293.795084,44715.201225,40770.788881,36579.210946,0.094000,0.948000,0.272000,192.000000,0.000000,0.000000,0.000000,0.000000,0.000000,0.000000,0.000000,0.000000,0.000000,1648023669.165898,0.000000
88.000000,-20389.440106,-26768.091532,33336.643378,47664.066871,33297.483122,44713.323678,40770.610067,36570.873746,0.094000,0.948000,0.272000,192.000000,0.000000,0.000000,0.000000,0.000000,0.000000,0.000000,0.000000,0.000000,0.000000,1648023669.173822,0.000000
89.000000,-20390.848266,-26770.282003,33354.792995,47659.149487,33298.287785,44706.908728,40767.816099,36556.903905,0.094000,0.948000,0.272000,192.000000,0.000000,0.000000,0.000000,0.000000,0.000000,0.000000,0.000000,0.000000,0.000000,1648023669.173830,0.000000
90.000000,-20387.093173,-26764.738770,33354.144794,47660.490592,33295.627927,44717.458751,40776.376817,36589.023362,0.094000,0.948000,0.272000,192.000000,0.000000,0.000000,0.000000,0.000000,0.000000,0.000000,0.000000,0.000000,0.000000,1648023669.180521,0.000000
91.000000,-20384.992109,-26763.420017,33350.188535,47657.696624,33291.381096,44720.386829,40772.241744,36590.990316,0.094000,0.948000,0.272000,192.000000,0.000000,0.000000,0.000000,0.000000,0.000000,0.000000,0.000000,0.000000,0.000000,1648023669.180534,0.000000
92.000000,-20383.673356,-26760.648401,33345.561724,47655.170876,33294.599747,44722.890225,40767.547878,36586.564670,0.094000,0.948000,0.272000,192.000000,0.000000,0.000000,0.000000,0.000000,0.000000,0.000000,0.000000,0.000000,0.000000,1648023669.188576,0.000000
93.000000,-20384.455667,-26763.554128,33347.483974,47650.991100,33297.863102,44722.689059,40768.866631,36581.155548,0.094000,0.948000,0.272000,192.000000,0.000000,0.000000,0.000000,0.000000,0.000000,0.000000,0.000000,0.000000,0.000000,1648023669.188586,0.000000
94.000000,-20380.119429,-26761.430712,33339.057367,47653.494496,33295.918500,44729.260472,40786.435102,36592.756104,0.090000,0.944000,0.266000,192.000000,2.000000,208.000000,29.000000,128.000000,8.000000,80.000000,0.000000,0.000000,0.000000,1648023669.196727,0.000000
95.000000,-20378.577158,-26760.447235,33351.551992,47656.780202,33304.725087,44732.613234,40782.478843,36589.559804,0.090000,0.944000,0.266000,192.000000,0.000000,0.000000,0.000000,0.000000,0.000000,0.000000,0.000000,0.000000,0.000000,1648023669.196744,0.000000
96.000000,-20387.093173,-26767.935070,33373.300239,47654.209751,33308.994270,44724.074867,40769.045445,36572.438368,0.090000,0.944000,0.266000,192.000000,0.000000,0.000000,0.000000,0.000000,0.000000,0.000000,0.000000,0.000000,0.000000,1648023669.203483,0.000000
97.000000,-20384.410964,-26761.698933,33381.950364,47657.964844,33307.496704,44724.633661,40765.759738,36569.331475,0.090000,0.944000,0.266000,192.000000,0.000000,0.000000,0.000000,0.000000,0.000000,0.000000,0.000000,0.000000,0.000000,1648023669.203490,0.000000
98.000000,-20377.124295,-26753.853471,33367.220565,47663.776298,33300.075924,44727.025298,40769.537183,36572.304257,0.090000,0.944000,0.266000,192.000000,0.000000,0.000000,0.000000,0.000000,0.000000,0.000000,0.000000,0.000000,0.000000,1648023669.210936,0.000000
99.000000,-20378.957138,-26756.692142,33359.263344,47661.116440,33300.880587,44723.851350,40763.345750,36573.220679,0.090000,0.944000,0.266000,192.000000,0.000000,0.000000,0.000000,0.000000,0.000000,0.000000,0.000000,0.000000,0.000000,1648023669.210946,0.000000
100.000000,-20378.666565,-26753.808767,33360.000951,47657.115478,33303.272224,44722.800818,40767.972561,36577.579269,0.090000,0.944000,0.266000,192.000000,0.000000,0.000000,0.000000,0.000000,0.000000,0.000000,0.000000,0.000000,0.000000,1648023669.219030,0.000000
101.000000,-20381.348775,-26757.005067,33369.634553,47654.254455,33304.412163,44718.039896,40764.820965,36573.623010,0.090000,0.944000,0.266000,192.000000,0.000000,0.000000,0.000000,0.000000,0.000000,0.000000,0.000000,0.000000,0.000000,1648023669.219039,0.000000
102.000000,-20374.531493,-26753.965229,33361.073835,47656.355519,33299.137151,44718.665745,40760.440023,36574.070045,0.090000,0.944000,0.266000,192.000000,0.000000,0.000000,0.000000,0.000000,0.000000,0.000000,0.000000,0.000000,0.000000,1648023669.226288,0.000000
103.000000,-20376.721963,-26758.189709,33338.073890,47651.415783,33288.855349,44717.369344,40759.121270,36571.432539,0.090000,0.944000,0.266000,192.000000,0.000000,0.000000,0.000000,0.000000,0.000000,0.000000,0.000000,0.000000,0.000000,1648023669.233607,0.000000
104.000000,-20381.237016,-26765.051695,33334.899942,47649.828809,33287.156616,44716.654088,40758.473069,36566.246935,0.094000,0.940000,0.278000,192.000000,2.000000,240.000000,29.000000,96.000000,8.000000,176.000000,0.000000,0.000000,0.000000,1648023669.233624,0.000000
105.000000,-20381.259368,-26766.415151,33366.997047,47652.041632,33300.925291,44717.436399,40749.644130,36570.270249,0.094000,0.940000,0.278000,192.000000,0.000000,0.000000,0.000000,0.000000,0.000000,0.000000,0.000000,0.000000,0.000000,1648023669.241053,0.000000
106.000000,-20381.058202,-26763.688238,33364.739521,47647.504228,33293.593919,44712.563719,40747.476011,36572.103092,0.094000,0.940000,0.278000,192.000000,0.000000,0.000000,0.000000,0.000000,0.000000,0.000000,0.000000,0.000000,0.000000,1648023669.241069,0.000000
107.000000,-20381.415830,-26763.643535,33353.250724,47646.431344,33286.910747,44710.663821,40756.908447,36574.226507,0.094000,0.940000,0.278000,192.000000,0.000000,0.000000,0.000000,0.000000,0.000000,0.000000,0.000000,0.000000,0.000000,1648023669.249104,0.000000
108.000000,-20382.712231,-26766.772779,33383.246766,47652.667481,33298.354840,44710.395600,40766.430291,36582.004915,0.094000,0.940000,0.278000,192.000000,0.000000,0.000000,0.000000,0.000000,0.000000,0.000000,0.000000,0.000000,0.000000,1648023669.249120,0.000000
109.000000,-20379.113600,-26762.213023,33364.717169,47651.885170,33290.554081,44710.686172,40772.621724,36577.109882,0.094000,0.940000,0.278000,192.000000,0.000000,0.000000,0.000000,0.000000,0.000000,0.000000,0.000000,0.000000,0.000000,1648023669.256854,0.000000
110.000000,-20373.704478,-26758.636744,33355.038864,47654.545028,33293.035125,44717.145826,40780.511890,36583.949516,0.094000,0.940000,0.278000,192.000000,0.000000,0.000000,0.000000,0.000000,0.000000,0.000000,0.000000,0.000000,0.000000,1648023669.256871,0.000000
111.000000,-20371.692821,-26758.904965,33366.818233,47655.439097,33302.176988,44719.492760,40776.756796,36582.787226,0.094000,0.940000,0.278000,192.000000,0.000000,0.000000,0.000000,0.000000,0.000000,0.000000,0.000000,0.000000,0.000000,1648023669.263685,0.000000
112.000000,-20364.987298,-26750.992447,33356.312913,47659.708281,33299.628890,44724.745420,40773.672256,36579.702685,0.094000,0.940000,0.278000,192.000000,0.000000,0.000000,0.000000,0.000000,0.000000,0.000000,0.000000,0.000000,0.000000,1648023669.263701,0.000000
113.000000,-20369.278833,-26752.400607,33359.397454,47663.172801,33303.518093,44725.706545,40767.346712,36588.151644,0.094000,0.940000,0.278000,192.000000,0.000000,0.000000,0.000000,0.000000,0.000000,0.000000,0.000000,0.000000,0.000000,1648023669.271352,0.000000
114.000000,-20365.054353,-26747.997313,33357.654018,47664.424499,33306.513227,44727.785257,40772.778186,36584.508310,0.094000,0.940000,0.278000,192.000000,0.000000,0.000000,0.000000,0.000000,0.000000,0.000000,0.000000,0.000000,0.000000,1648023669.271370,0.000000
115.000000,-20358.438237,-26741.001217,33360.358579,47667.062004,33313.218750,44731.115667,40780.064855,36588.084589,0.098000,0.938000,0.282000,192.000000,3.000000,16.000000,29.000000,80.000000,8.000000,208.000000,0.000000,0.000000,0.000000,1648023669.279613,0.000000
116.000000,-20362.282737,-26746.008008,33362.571402,47666.838487,33312.570550,44728.053478,40774.879250,36594.298374,0.098000,0.938000,0.282000,192.000000,0.000000,0.000000,0.000000,0.000000,0.000000,0.000000,0.000000,0.000000,0.000000,1648023669.279629,0.000000
117.000000,-20373.548016,-26759.709628,33345.517021,47653.628606,33295.158541,44710.261489,40751.454622,36571.611353,0.098000,0.938000,0.282000,192.000000,0.000000,0.000000,0.000000,0.000000,0.000000,0.000000,0.000000,0.000000,0.000000,1648023669.285844,0.000000
118.000000,-20375.157341,-26762.727113,33329.557875,47647.794801,33285.726104,44703.712428,40747.319549,36559.876688,0.098000,0.938000,0.282000,192.000000,0.000000,0.000000,0.000000,0.000000,0.000000,0.000000,0.000000,0.000000,0.000000,1648023669.293173,0.000000
119.000000,-20377.996013,-26765.677543,33315.520980,47642.609196,33281.769846,44702.706600,40752.058119,36567.498632,0.098000,0.938000,0.282000,192.000000,0.000000,0.000000,0.000000,0.000000,0.000000,0.000000,0.000000,0.000000,0.000000,1648023669.293189,0.000000
120.000000,-20387.070821,-26776.629898,33322.807649,47632.707373,33285.502587,44692.849480,40748.548895,36555.674560,0.098000,0.938000,0.282000,192.000000,0.000000,0.000000,0.000000,0.000000,0.000000,0.000000,0.000000,0.000000,0.000000,1648023669.301271,0.000000
121.000000,-20385.394440,-26775.132331,33316.549160,47631.254510,33282.775674,44690.010809,40746.537238,36555.875725,0.098000,0.938000,0.282000,192.000000,0.000000,0.000000,0.000000,0.000000,0.000000,0.000000,0.000000,0.000000,0.000000,1648023669.301287,0.000000
122.000000,-20382.801638,-26773.053619,33314.872779,47636.015431,33284.742628,44700.694943,40759.523601,36577.534566,0.098000,0.938000,0.282000,192.000000,0.000000,0.000000,0.000000,0.000000,0.000000,0.000000,0.000000,0.000000,0.000000,1648023669.309330,0.000000
123.000000,-20378.733620,-26766.124578,33316.236236,47640.128152,33287.536596,44704.785312,40763.390453,36579.099188,0.098000,0.938000,0.282000,192.000000,0.000000,0.000000,0.000000,0.000000,0.000000,0.000000,0.000000,0.000000,0.000000,1648023669.309346,0.000000
124.000000,-20377.794847,-26763.732942,33315.610387,47641.245740,33289.369439,44701.387847,40759.724767,36573.623010,0.098000,0.938000,0.282000,192.000000,0.000000,0.000000,0.000000,0.000000,0.000000,0.000000,0.000000,0.000000,0.000000,1648023669.315939,0.000000
125.000000,-20373.659775,-26762.123616,33317.867913,47645.894902,33294.063305,44703.555966,40757.489593,36573.354789,0.100000,0.944000,0.282000,192.000000,3.000000,32.000000,29.000000,128.000000,8.000000,208.000000,0.000000,0.000000,0.000000,1648023669.315955,0.000000
126.000000,-20371.804580,-26759.128482,33346.701663,47650.879341,33307.966090,44708.205129,40757.266075,36572.214850,0.100000,0.944000,0.282000,192.000000,0.000000,0.000000,0.000000,0.000000,0.000000,0.000000,0.000000,0.000000,0.000000,1648023669.323632,0.000000
127.000000,-20369.278833,-26753.205270,33357.430501,47657.182533,33309.709526,44715.849425,40768.039616,36580.172071,0.100000,0.944000,0.282000,192.000000,0.000000,0.000000,0.000000,0.000000,0.000000,0.000000,0.000000,0.000000,0.000000,1648023669.323644,0.000000
128.000000,-20362.081571,-26746.231526,33346.679312,47661.652882,33307.206131,44716.139998,40764.306875,36575.791130,0.100000,0.944000,0.282000,192.000000,0.000000,0.000000,0.000000,0.000000,0.000000,0.000000,0.000000,0.000000,0.000000,1648023669.331825,0.000000
129.000000,-20362.550958,-26746.969133,33349.719149,47664.469202,33313.710489,44714.731838,40762.026997,36572.036036,0.100000,0.944000,0.282000,192.000000,0.000000,0.000000,0.000000,0.000000,0.000000,0.000000,0.000000,0.000000,0.000000,1648023669.331850,0.000000
130.000000,-20355.219585,-26738.475470,33347.774547,47669.833621,33318.292596,44719.179835,40763.681026,36572.393664,0.100000,0.944000,0.282000,192.000000,0.000000,0.000000,0.000000,0.000000,0.000000,0.000000,0.000000,0.000000,0.000000,1648023669.338867,0.000000
131.000000,-20355.174882,-26740.375369,33359.844489,47669.855973,33323.612311,44720.409181,40760.998817,36579.590926,0.100000,0.944000,0.282000,192.000000,0.000000,0.000000,0.000000,0.000000,0.000000,0.000000,0.000000,0.000000,0.000000,1648023669.338880,0.000000
132.000000,-20356.091303,-26741.112976,33344.086509,47667.240818,33315.565683,44722.130265,40763.301046,36587.838720,0.100000,0.944000,0.282000,192.000000,0.000000,0.000000,0.000000,0.000000,0.000000,0.000000,0.000000,0.000000,0.000000,1648023669.345524,0.000000
133.000000,-20357.722981,-26740.442424,33319.968977,47666.771432,33307.094372,44722.934928,40766.653808,36587.279926,0.100000,0.944000,0.282000,192.000000,0.000000,0.000000,0.000000,0.000000,0.000000,0.000000,0.000000,0.000000,0.000000,1648023669.345536,0.000000
134.000000,-20363.422676,-26745.940953,33336.017529,47669.744214,33314.448096,44724.343088,40770.744177,36579.948554,0.100000,0.944000,0.282000,192.000000,0.000000,0.000000,0.000000,0.000000,0.000000,0.000000,0.000000,0.000000,0.000000,1648023669.353574,0.000000
135.000000,-20365.456684,-26747.930258,33370.126292,47670.995911,33323.992291,44726.153579,40773.851070,36580.842624,0.098000,0.938000,0.282000,192.000000,3.000000,16.000000,29.000000,80.000000,8.000000,208.000000,0.000000,0.000000,0.000000,1648023669.361638,0.000000
136.000000,-20363.534434,-26745.069235,33373.836681,47668.537220,33321.310082,44727.092353,40776.980314,36587.525795,0.098000,0.938000,0.282000,192.000000,0.000000,0.000000,0.000000,0.000000,0.000000,0.000000,0.000000,0.000000,0.000000,1648023669.361654,0.000000
137.000000,-20363.199158,-26743.951648,33368.002876,47666.234990,33315.588035,44724.700716,40772.241744,36583.725999,0.098000,0.938000,0.282000,192.000000,0.000000,0.000000,0.000000,0.000000,0.000000,0.000000,0.000000,0.000000,0.000000,1648023669.368600,0.000000
138.000000,-20356.314821,-26735.860316,33357.206983,47670.593580,33314.537503,44729.863969,40773.359331,36589.224528,0.098000,0.938000,0.282000,192.000000,0.000000,0.000000,0.000000,0.000000,0.000000,0.000000,0.000000,0.000000,0.000000,1648023669.368617,0.000000
139.000000,-20358.795864,-26735.614447,33337.135117,47670.504173,33308.927215,44724.700716,40767.078491,36584.195385,0.098000,0.938000,0.282000,192.000000,0.000000,0.000000,0.000000,0.000000,0.000000,0.000000,0.000000,0.000000,0.000000,1648023669.376011,0.000000
140.000000,-20366.216644,-26747.147947,33362.414940,47667.799612,33314.448096,44715.760018,40766.005607,36571.901926,0.098000,0.938000,0.282000,192.000000,0.000000,0.000000,0.000000,0.000000,0.000000,0.000000,0.000000,0.000000,0.000000,1648023669.376027,0.000000
141.000000,-20366.618975,-26752.892346,33374.954268,47668.514868,33316.437401,44725.483027,40779.528413,36586.631726,0.098000,0.938000,0.282000,192.000000,0.000000,0.000000,0.000000,0.000000,0.000000,0.000000,0.000000,0.000000,0.000000,1648023669.384141,0.000000
142.000000,-20365.948423,-26751.975924,33373.613164,47667.732557,33312.391736,44726.064173,40773.247573,36584.798883,0.098000,0.938000,0.282000,192.000000,0.000000,0.000000,0.000000,0.000000,0.000000,0.000000,0.000000,0.000000,0.000000,1648023669.384157,0.000000
143.000000,-20356.001896,-26741.515308,33356.312913,47670.146545,33306.759096,44725.840655,40769.872459,36580.999086,0.098000,0.938000,0.282000,192.000000,0.000000,0.000000,0.000000,0.000000,0.000000,0.000000,0.000000,0.000000,0.000000,1648023669.392300,0.000000
144.000000,-20357.343001,-26744.175165,33352.893097,47672.448775,33312.101163,44727.315870,40770.878288,36582.898984,0.098000,0.938000,0.282000,192.000000,0.000000,0.000000,0.000000,0.000000,0.000000,0.000000,0.000000,0.000000,0.000000,1648023669.392318,0.000000
145.000000,-20359.578175,-26747.639686,33359.285695,47668.336054,33315.029241,44716.609385,40757.914276,36567.319818,0.096000,0.940000,0.274000,192.000000,3.000000,0.000000,29.000000,96.000000,8.000000,144.000000,0.000000,0.000000,0.000000,1648023669.398896,0.000000
146.000000,-20358.549995,-26745.404511,33367.935821,47670.168897,33318.069079,44717.168178,40768.151375,36581.602583,0.096000,0.940000,0.274000,192.000000,0.000000,0.000000,0.000000,0.000000,0.000000,0.000000,0.000000,0.000000,0.000000,1648023669.398912,0.000000
147.000000,-20357.790036,-26741.425901,33375.043675,47675.466260,33324.819306,44722.577300,40772.733482,36588.822197,0.096000,0.940000,0.274000,192.000000,0.000000,0.000000,0.000000,0.000000,0.000000,0.000000,0.000000,0.000000,0.000000,1648023669.406539,0.000000
148.000000,-20353.811425,-26738.073139,33365.812405,47677.790842,33320.505419,44722.443190,40774.789843,36588.553976,0.096000,0.940000,0.274000,192.000000,0.000000,0.000000,0.000000,0.000000,0.000000,0.000000,0.000000,0.000000,0.000000,1648023669.406549,0.000000
149.000000,-20349.899870,-26736.016778,33351.797861,47682.462356,33317.532637,44724.521902,40776.443872,36588.598679,0.096000,0.940000,0.274000,192.000000,0.000000,0.000000,0.000000,0.000000,0.000000,0.000000,0.000000,0.000000,0.000000,1648023669.413932,0.000000
150.000000,-20348.581117,-26734.832136,33354.480070,47683.535240,33321.801820,44726.265338,40776.153299,36589.403342,0.096000,0.940000,0.274000,192.000000,0.000000,0.000000,0.000000,0.000000,0.000000,0.000000,0.000000,0.000000,0.000000,1648023669.421658,0.000000
151.000000,-20349.676353,-26736.664979,33351.127309,47681.501231,33321.801820,44726.779428,40776.488576,36588.755141,0.096000,0.940000,0.274000,192.000000,0.000000,0.000000,0.000000,0.000000,0.000000,0.000000,0.000000,0.000000,0.000000,1648023669.421669,0.000000
152.000000,-20350.369257,-26737.581401,33346.209925,47682.060025,33321.041861,44727.360574,40779.394302,36591.549109,0.096000,0.940000,0.274000,192.000000,0.000000,0.000000,0.000000,0.000000,0.000000,0.000000,0.000000,0.000000,0.000000,1648023669.428365,0.000000
153.000000,-20349.274021,-26736.396758,33354.010684,47683.557592,33322.405317,44726.779428,40781.316552,36589.135121,0.096000,0.940000,0.274000,192.000000,0.000000,0.000000,0.000000,0.000000,0.000000,0.000000,0.000000,0.000000,0.000000,1648023669.428377,0.000000
154.000000,-20348.737579,-26733.602790,33352.200192,47687.983237,33323.567608,44727.315870,40777.360294,36586.609374,0.096000,0.940000,0.274000,192.000000,0.000000,0.000000,0.000000,0.000000,0.000000,0.000000,0.000000,0.000000,0.000000,1648023669.436206,0.000000
155.000000,-20348.491710,-26730.317084,33379.491672,47693.548822,33335.346977,44726.600614,40773.538145,36580.417941,0.092000,0.944000,0.272000,192.000000,2.000000,224.000000,29.000000,128.000000,8.000000,128.000000,0.000000,0.000000,0.000000,1648023669.436224,0.000000
156.000000,-20344.915431,-26728.528944,33396.501350,47697.505080,33339.146774,44729.618100,40774.543974,36577.579269,0.092000,0.944000,0.272000,192.000000,0.000000,0.000000,0.000000,0.000000,0.000000,0.000000,0.000000,0.000000,0.000000,1648023669.444332,0.000000
157.000000,-20342.344981,-26725.690273,33397.238958,47697.661543,33337.559800,44729.282824,40771.213564,36576.215813,0.092000,0.944000,0.272000,192.000000,0.000000,0.000000,0.000000,0.000000,0.000000,0.000000,0.000000,0.000000,0.000000,1648023669.444344,0.000000
158.000000,-20340.355675,-26720.504668,33379.223452,47693.995857,33329.870800,44733.104972,40776.935610,36587.034057,0.092000,0.944000,0.272000,192.000000,0.000000,0.000000,0.000000,0.000000,0.000000,0.000000,0.000000,0.000000,0.000000,1648023669.451136,0.000000
