%OpenBCI Raw EEG Data
%Number of channels = 8
%Sample Rate = 256 Hz
%Board = OpenBCI_GUI$BoardCytonSerial
%Channels = Fp1, Fp2, F3, F4, Fz, Pz, O1, O2
%Data recorded at AIMS Lab (http://aimsl.uiu.ac.bd) by Rana Depto (mail@ranadepto.com)
%Brainwaves were obtained via the Ultracortex Mark IV Headset using the OpenBCI Cyton Board
%Recording Application = ConcentrateToday (https://concentrate.today)
%Data type = RAW data with noise
%Day No = 7
%Subject ID = 3
%Session ID = 7
%Record starting timestamp (UTC+6) = 2022-03-15T15:55:05.604881
%Record ending timestamp (UTC+6)   = 2022-03-15T15:55:26.445420
%Recorded durations = ~20 seconds
Sample Index, EXG Channel 0, EXG Channel 1, EXG Channel 2, EXG Channel 3, EXG Channel 4, EXG Channel 5, EXG Channel 6, EXG Channel 7, Accel Channel 0, Accel Channel 1, Accel Channel 2, Other, Other, Other, Other, Other, Other, Other, Analog Channel 0, Analog Channel 1, Analog Channel 2, Timestamp, Timestamp (Formatted)
219.000000,-751.733870,6774.746689,2837.933938,5149.081963,-8463.577445,10200.643265,23600.268197,1620.412066,0.078000,0.982000,0.068000,192.000000,0.000000,0.000000,0.000000,0.000000,0.000000,0.000000,0.000000,0.000000,0.000000,1647338105.604763,0.000000
220.000000,-749.051660,6772.779736,2842.985433,5159.341414,-8459.040041,10208.779300,23591.327499,1642.093258,0.078000,0.982000,0.068000,192.000000,0.000000,0.000000,0.000000,0.000000,0.000000,0.000000,0.000000,0.000000,0.000000,1647338105.604774,0.000000
221.000000,-761.009843,6757.692308,2839.722078,5153.865237,-8460.224683,10213.160242,23611.913456,1652.620930,0.078000,0.982000,0.068000,192.000000,0.000000,0.000000,0.000000,0.000000,0.000000,0.000000,0.000000,0.000000,0.000000,1647338105.611006,0.000000
222.000000,-768.900009,6751.791448,2833.754162,5145.930367,-8462.124582,10198.676312,23600.782287,1627.654031,0.078000,0.982000,0.068000,192.000000,0.000000,0.000000,0.000000,0.000000,0.000000,0.000000,0.000000,0.000000,0.000000,1647338105.611012,0.000000
223.000000,-777.080748,6747.589320,2830.043772,5144.209283,-8463.488038,10193.311893,23592.400383,1621.797874,0.078000,0.986000,0.066000,192.000000,2.000000,112.000000,30.000000,208.000000,2.000000,16.000000,0.000000,0.000000,0.000000,1647338105.618942,0.000000
224.000000,-773.325655,6752.216131,2835.162322,5147.964376,-8458.883579,10203.794861,23618.931904,1653.827924,0.078000,0.986000,0.066000,192.000000,0.000000,0.000000,0.000000,0.000000,0.000000,0.000000,0.000000,0.000000,0.000000,1647338105.618947,0.000000
225.000000,-771.917495,6751.299709,2834.558825,5148.679632,-8459.263558,10211.841489,23629.034892,1669.250628,0.078000,0.986000,0.066000,192.000000,0.000000,0.000000,0.000000,0.000000,0.000000,0.000000,0.000000,0.000000,0.000000,1647338105.627015,0.000000
226.000000,-761.568637,6759.681613,2841.867845,5154.893417,-8453.407401,10222.682085,23638.266163,1661.047537,0.078000,0.986000,0.066000,192.000000,0.000000,0.000000,0.000000,0.000000,0.000000,0.000000,0.000000,0.000000,0.000000,1647338105.627020,0.000000
227.000000,-764.183791,6757.021756,2839.386802,5149.819571,-8452.222759,10222.927955,23633.661703,1657.001872,0.078000,0.986000,0.066000,192.000000,0.000000,0.000000,0.000000,0.000000,0.000000,0.000000,0.000000,0.000000,0.000000,1647338105.634113,0.000000
228.000000,-764.317902,6754.853637,2838.604491,5148.523170,-8453.295643,10220.961001,23615.243866,1664.199133,0.078000,0.986000,0.066000,192.000000,0.000000,0.000000,0.000000,0.000000,0.000000,0.000000,0.000000,0.000000,0.000000,1647338105.634118,0.000000
229.000000,-770.822259,6746.382325,2829.373220,5139.738934,-8460.895236,10211.372103,23610.170020,1643.389659,0.078000,0.986000,0.066000,192.000000,0.000000,0.000000,0.000000,0.000000,0.000000,0.000000,0.000000,0.000000,0.000000,1647338105.641562,0.000000
230.000000,-787.362550,6727.606860,2815.716304,5122.036352,-8478.933093,10199.503326,23615.713253,1625.374153,0.078000,0.986000,0.066000,192.000000,0.000000,0.000000,0.000000,0.000000,0.000000,0.000000,0.000000,0.000000,0.000000,1647338105.641566,0.000000
231.000000,-777.684245,6737.285165,2824.209967,5134.508626,-8477.770803,10203.996027,23593.249749,1651.257473,0.078000,0.986000,0.066000,192.000000,0.000000,0.000000,0.000000,0.000000,0.000000,0.000000,0.000000,0.000000,0.000000,1647338105.648609,0.000000
232.000000,-774.867925,6740.459113,2828.032115,5138.822512,-8474.418041,10204.778338,23599.038851,1646.943587,0.078000,0.986000,0.066000,192.000000,0.000000,0.000000,0.000000,0.000000,0.000000,0.000000,0.000000,0.000000,0.000000,1647338105.648615,0.000000
233.000000,-774.040910,6741.487293,2829.797903,5143.605786,-8467.421945,10201.894963,23578.117618,1649.424630,0.084000,0.986000,0.062000,192.000000,2.000000,160.000000,30.000000,208.000000,1.000000,240.000000,0.000000,0.000000,0.000000,1647338105.656767,0.000000
234.000000,-752.650291,6764.330776,2846.964043,5166.851600,-8449.942881,10219.329324,23617.479040,1674.279770,0.084000,0.986000,0.062000,192.000000,0.000000,0.000000,0.000000,0.000000,0.000000,0.000000,0.000000,0.000000,0.000000,1647338105.663278,0.000000
235.000000,-764.116736,6755.278320,2830.691973,5154.669899,-8464.091535,10206.566478,23600.089383,1654.453773,0.084000,0.986000,0.062000,192.000000,0.000000,0.000000,0.000000,0.000000,0.000000,0.000000,0.000000,0.000000,0.000000,1647338105.663282,0.000000
236.000000,-769.861134,6750.405639,2821.773627,5147.226768,-8472.406384,10199.637437,23580.263386,1649.245816,0.084000,0.986000,0.062000,192.000000,0.000000,0.000000,0.000000,0.000000,0.000000,0.000000,0.000000,0.000000,0.000000,1647338105.671266,0.000000
237.000000,-770.934018,6753.445477,2821.214833,5150.490123,-8467.332538,10202.297294,23604.716194,1655.034918,0.084000,0.986000,0.062000,192.000000,0.000000,0.000000,0.000000,0.000000,0.000000,0.000000,0.000000,0.000000,0.000000,1647338105.671270,0.000000
238.000000,-776.589009,6744.482427,2820.432522,5141.661184,-8472.026404,10200.375044,23619.624808,1648.150581,0.084000,0.986000,0.062000,192.000000,0.000000,0.000000,0.000000,0.000000,0.000000,0.000000,0.000000,0.000000,0.000000,1647338105.679279,0.000000
239.000000,-776.030216,6741.867273,2820.074894,5138.129608,-8479.000149,10202.587867,23605.654968,1657.359500,0.084000,0.986000,0.062000,192.000000,0.000000,0.000000,0.000000,0.000000,0.000000,0.000000,0.000000,0.000000,0.000000,1647338105.679283,0.000000
240.000000,-776.656065,6739.967375,2813.883461,5134.553329,-8484.722195,10202.230239,23611.689939,1643.009680,0.084000,0.986000,0.062000,192.000000,0.000000,0.000000,0.000000,0.000000,0.000000,0.000000,0.000000,0.000000,0.000000,1647338105.686375,0.000000
241.000000,-777.214858,6734.982936,2809.144891,5130.865291,-8486.420928,10199.749196,23612.516953,1651.525694,0.084000,0.986000,0.062000,192.000000,0.000000,0.000000,0.000000,0.000000,0.000000,0.000000,0.000000,0.000000,0.000000,1647338105.686379,0.000000
242.000000,-781.282876,6727.964488,2806.037999,5121.924594,-8487.672626,10190.584980,23587.773572,1652.687985,0.084000,0.986000,0.062000,192.000000,0.000000,0.000000,0.000000,0.000000,0.000000,0.000000,0.000000,0.000000,0.000000,1647338105.693938,0.000000
243.000000,-774.778518,6731.607822,2811.648287,5125.344411,-8486.219762,10192.239009,23577.201197,1651.950377,0.080000,0.984000,0.066000,192.000000,2.000000,128.000000,30.000000,192.000000,2.000000,16.000000,0.000000,0.000000,0.000000,1647338105.693942,0.000000
244.000000,-757.478268,6749.802142,2828.993240,5144.566911,-8470.573541,10215.887155,23642.960029,1669.384738,0.080000,0.984000,0.066000,192.000000,0.000000,0.000000,0.000000,0.000000,0.000000,0.000000,0.000000,0.000000,0.000000,1647338105.701826,0.000000
245.000000,-770.442280,6739.542692,2818.197348,5137.906091,-8476.049718,10202.453757,23620.138898,1641.534465,0.080000,0.984000,0.066000,192.000000,0.000000,0.000000,0.000000,0.000000,0.000000,0.000000,0.000000,0.000000,0.000000,1647338105.701830,0.000000
246.000000,-775.627884,6734.938232,2810.865976,5131.446437,-8484.923361,10187.992178,23580.553958,1614.980592,0.080000,0.984000,0.066000,192.000000,0.000000,0.000000,0.000000,0.000000,0.000000,0.000000,0.000000,0.000000,0.000000,1647338105.709921,0.000000
247.000000,-763.580294,6746.002346,2818.711438,5140.320079,-8475.826201,10199.637437,23594.009709,1626.111761,0.080000,0.984000,0.066000,192.000000,0.000000,0.000000,0.000000,0.000000,0.000000,0.000000,0.000000,0.000000,0.000000,1647338105.709925,0.000000
248.000000,-777.192506,6732.680706,2816.722133,5135.380344,-8474.596855,10209.136928,23591.349851,1637.779371,0.080000,0.984000,0.066000,192.000000,0.000000,0.000000,0.000000,0.000000,0.000000,0.000000,0.000000,0.000000,0.000000,1647338105.715951,0.000000
249.000000,-779.382977,6731.876043,2824.657002,5141.057687,-8470.014747,10221.139815,23597.027194,1658.521790,0.080000,0.984000,0.066000,192.000000,0.000000,0.000000,0.000000,0.000000,0.000000,0.000000,0.000000,0.000000,0.000000,1647338105.723496,0.000000
250.000000,-783.205126,6726.377514,2821.438351,5134.240405,-8474.552152,10215.373065,23582.073877,1636.460619,0.080000,0.984000,0.066000,192.000000,0.000000,0.000000,0.000000,0.000000,0.000000,0.000000,0.000000,0.000000,0.000000,1647338105.723500,0.000000
251.000000,-783.562754,6725.036410,2821.058371,5127.803102,-8478.575466,10219.061103,23624.184564,1655.996043,0.080000,0.984000,0.066000,192.000000,0.000000,0.000000,0.000000,0.000000,0.000000,0.000000,0.000000,0.000000,0.000000,1647338105.731599,0.000000
252.000000,-778.153631,6730.266718,2829.015592,5136.632042,-8471.132335,10228.627649,23635.248677,1690.753006,0.080000,0.984000,0.066000,192.000000,0.000000,0.000000,0.000000,0.000000,0.000000,0.000000,0.000000,0.000000,0.000000,1647338105.731603,0.000000
253.000000,-783.652161,6727.629212,2826.176921,5137.682574,-8468.852457,10219.843414,23628.185526,1675.397357,0.084000,0.980000,0.062000,192.000000,2.000000,160.000000,30.000000,160.000000,1.000000,240.000000,0.000000,0.000000,0.000000,1647338105.739583,0.000000
254.000000,-781.953428,6731.250194,2823.807636,5135.670917,-8472.540495,10209.852184,23608.225418,1659.751136,0.084000,0.980000,0.062000,192.000000,0.000000,0.000000,0.000000,0.000000,0.000000,0.000000,0.000000,0.000000,0.000000,1647338105.739587,0.000000
255.000000,-773.795041,6741.129666,2828.546206,5145.662146,-8466.572579,10217.138853,23620.854154,1671.843430,0.084000,0.980000,0.062000,192.000000,0.000000,0.000000,0.000000,0.000000,0.000000,0.000000,0.000000,0.000000,0.000000,1647338105.746249,0.000000
0.000000,-766.240152,6750.092715,2832.949499,5150.758344,-8466.460820,10211.908545,23608.918322,1649.491686,0.084000,0.980000,0.062000,192.000000,0.000000,0.000000,0.000000,0.000000,0.000000,0.000000,0.000000,0.000000,0.000000,1647338105.746253,0.000000
1.000000,-774.890277,6738.738029,2825.931051,5139.738934,-8467.623111,10206.499422,23590.008746,1643.367308,0.084000,0.980000,0.062000,192.000000,0.000000,0.000000,0.000000,0.000000,0.000000,0.000000,0.000000,0.000000,0.000000,1647338105.754153,0.000000
2.000000,-787.630771,6722.018924,2809.815444,5127.780751,-8479.335425,10193.982445,23570.227453,1621.104970,0.084000,0.980000,0.062000,192.000000,0.000000,0.000000,0.000000,0.000000,0.000000,0.000000,0.000000,0.000000,0.000000,1647338105.754157,0.000000
3.000000,-775.739643,6732.323078,2818.510272,5144.455152,-8471.959349,10204.867745,23582.073877,1625.374153,0.084000,0.980000,0.062000,192.000000,0.000000,0.000000,0.000000,0.000000,0.000000,0.000000,0.000000,0.000000,0.000000,1647338105.762231,0.000000
4.000000,-760.674567,6745.018869,2834.894101,5160.257835,-8457.363660,10226.727751,23631.203011,1647.949415,0.084000,0.980000,0.062000,192.000000,0.000000,0.000000,0.000000,0.000000,0.000000,0.000000,0.000000,0.000000,0.000000,1647338105.762234,0.000000
5.000000,-767.380091,6738.715677,2826.378086,5151.451248,-8462.459858,10215.730693,23632.342950,1626.625851,0.084000,0.980000,0.062000,192.000000,0.000000,0.000000,0.000000,0.000000,0.000000,0.000000,0.000000,0.000000,0.000000,1647338105.768831,0.000000
6.000000,-778.466556,6731.026677,2817.906775,5140.633004,-8472.361681,10200.822079,23585.024307,1627.341107,0.084000,0.980000,0.062000,192.000000,0.000000,0.000000,0.000000,0.000000,0.000000,0.000000,0.000000,0.000000,0.000000,1647338105.768834,0.000000
7.000000,-780.053530,6730.199662,2819.761970,5134.888605,-8475.245056,10203.906620,23599.485886,1650.028127,0.078000,0.984000,0.058000,192.000000,2.000000,112.000000,30.000000,192.000000,1.000000,208.000000,0.000000,0.000000,0.000000,1647338105.775879,0.000000
8.000000,-774.979684,6733.373610,2824.500540,5132.251100,-8475.580332,10203.236068,23599.821162,1639.791028,0.078000,0.984000,0.058000,192.000000,0.000000,0.000000,0.000000,0.000000,0.000000,0.000000,0.000000,0.000000,0.000000,1647338105.783846,0.000000
9.000000,-793.844556,6712.765302,2808.384932,5109.988762,-8493.305265,10185.600541,23593.808543,1610.644354,0.078000,0.984000,0.058000,192.000000,0.000000,0.000000,0.000000,0.000000,0.000000,0.000000,0.000000,0.000000,0.000000,1647338105.783850,0.000000
10.000000,-791.542326,6716.095712,2806.060351,5115.084960,-8493.595838,10185.220562,23587.505351,1631.409124,0.078000,0.984000,0.058000,192.000000,0.000000,0.000000,0.000000,0.000000,0.000000,0.000000,0.000000,0.000000,0.000000,1647338105.791820,0.000000
11.000000,-771.671626,6739.185064,2826.199272,5137.526111,-8478.821335,10207.214678,23616.316750,1665.048500,0.078000,0.984000,0.058000,192.000000,0.000000,0.000000,0.000000,0.000000,0.000000,0.000000,0.000000,0.000000,0.000000,1647338105.791824,0.000000
12.000000,-768.810602,6737.173407,2829.753200,5137.280242,-8476.496753,10209.561611,23629.459575,1649.514037,0.078000,0.984000,0.058000,192.000000,0.000000,0.000000,0.000000,0.000000,0.000000,0.000000,0.000000,0.000000,0.000000,1647338105.798520,0.000000
13.000000,-785.015617,6719.202604,2815.157511,5122.326925,-8485.169230,10192.239009,23606.370223,1647.077697,0.078000,0.984000,0.058000,192.000000,0.000000,0.000000,0.000000,0.000000,0.000000,0.000000,0.000000,0.000000,0.000000,1647338105.798524,0.000000
14.000000,-784.523879,6719.806101,2815.805711,5125.634983,-8491.852402,10188.550972,23594.657909,1654.051441,0.078000,0.984000,0.058000,192.000000,0.000000,0.000000,0.000000,0.000000,0.000000,0.000000,0.000000,0.000000,0.000000,1647338105.806371,0.000000
15.000000,-772.900972,6730.110255,2825.416961,5139.157789,-8484.342216,10201.090300,23621.234133,1657.448907,0.078000,0.984000,0.058000,192.000000,0.000000,0.000000,0.000000,0.000000,0.000000,0.000000,0.000000,0.000000,0.000000,1647338105.806375,0.000000
16.000000,-776.387844,6726.399866,2822.757104,5133.502797,-8482.576428,10192.864858,23612.673415,1644.328433,0.078000,0.984000,0.058000,192.000000,0.000000,0.000000,0.000000,0.000000,0.000000,0.000000,0.000000,0.000000,0.000000,1647338105.814394,0.000000
17.000000,-790.156518,6713.234688,2810.977734,5117.431893,-8492.366492,10174.424669,23593.227398,1638.516979,0.078000,0.984000,0.058000,192.000000,0.000000,0.000000,0.000000,0.000000,0.000000,0.000000,0.000000,0.000000,0.000000,1647338105.814398,0.000000
18.000000,-780.455861,6720.946040,2817.862072,5122.259870,-8494.020521,10174.245855,23585.158418,1636.617081,0.084000,0.980000,0.060000,192.000000,2.000000,160.000000,30.000000,160.000000,1.000000,224.000000,0.000000,0.000000,0.000000,1647338105.821606,0.000000
19.000000,-774.309131,6726.601032,2820.656040,5123.310402,-8488.723157,10176.749251,23556.682295,1637.958185,0.084000,0.980000,0.060000,192.000000,0.000000,0.000000,0.000000,0.000000,0.000000,0.000000,0.000000,0.000000,0.000000,1647338105.821610,0.000000
20.000000,-778.377149,6722.711828,2817.683258,5120.985820,-8491.383015,10173.977634,23564.460702,1622.826054,0.084000,0.980000,0.060000,192.000000,0.000000,0.000000,0.000000,0.000000,0.000000,0.000000,0.000000,0.000000,0.000000,1647338105.829113,0.000000
21.000000,-773.348006,6730.736104,2824.388781,5128.138379,-8486.108003,10190.093242,23601.609302,1635.499494,0.084000,0.980000,0.060000,192.000000,0.000000,0.000000,0.000000,0.000000,0.000000,0.000000,0.000000,0.000000,0.000000,1647338105.829118,0.000000
22.000000,-775.583181,6730.914918,2822.824159,5129.323021,-8484.632788,10194.273018,23606.571389,1640.439229,0.084000,0.980000,0.060000,192.000000,0.000000,0.000000,0.000000,0.000000,0.000000,0.000000,0.000000,0.000000,0.000000,1647338105.836097,0.000000
23.000000,-774.622056,6733.351258,2825.908700,5134.754495,-8485.057471,10200.978541,23618.149593,1641.534465,0.084000,0.980000,0.060000,192.000000,0.000000,0.000000,0.000000,0.000000,0.000000,0.000000,0.000000,0.000000,0.000000,1647338105.844074,0.000000
24.000000,-771.738681,6738.179235,2830.691973,5135.626213,-8483.470498,10204.331303,23607.934845,1644.417840,0.084000,0.980000,0.060000,192.000000,0.000000,0.000000,0.000000,0.000000,0.000000,0.000000,0.000000,0.000000,0.000000,1647338105.844078,0.000000
25.000000,-772.543344,6733.865349,2827.115694,5127.043143,-8484.073995,10207.885231,23625.346854,1659.058232,0.084000,0.980000,0.060000,192.000000,0.000000,0.000000,0.000000,0.000000,0.000000,0.000000,0.000000,0.000000,0.000000,1647338105.851195,0.000000
26.000000,-773.303303,6729.395000,2824.791113,5124.338582,-8486.242114,10199.190402,23611.287607,1651.883322,0.084000,0.980000,0.060000,192.000000,0.000000,0.000000,0.000000,0.000000,0.000000,0.000000,0.000000,0.000000,0.000000,1647338105.851200,0.000000
27.000000,-780.746434,6721.124854,2820.365467,5123.198643,-8484.744547,10193.043672,23604.403270,1652.978558,0.084000,0.980000,0.060000,192.000000,0.000000,0.000000,0.000000,0.000000,0.000000,0.000000,0.000000,0.000000,0.000000,1647338105.858818,0.000000
28.000000,-772.945675,6724.678782,2825.662831,5130.127684,-8478.374300,10195.971751,23609.343005,1649.759907,0.088000,0.984000,0.064000,192.000000,2.000000,192.000000,30.000000,192.000000,2.000000,0.000000,0.000000,0.000000,0.000000,1647338105.858821,0.000000
29.000000,-766.262503,6730.445532,2829.306165,5140.588300,-8472.741660,10199.279809,23622.664645,1649.022299,0.088000,0.984000,0.064000,192.000000,0.000000,0.000000,0.000000,0.000000,0.000000,0.000000,0.000000,0.000000,0.000000,1647338105.866669,0.000000
30.000000,-766.195448,6730.870215,2827.518025,5144.902187,-8474.194524,10193.803632,23613.679244,1647.636491,0.088000,0.984000,0.064000,192.000000,0.000000,0.000000,0.000000,0.000000,0.000000,0.000000,0.000000,0.000000,0.000000,1647338105.866673,0.000000
31.000000,-771.895143,6727.003363,2824.455836,5138.666050,-8481.905875,10184.482954,23578.676412,1631.766752,0.088000,0.984000,0.064000,192.000000,0.000000,0.000000,0.000000,0.000000,0.000000,0.000000,0.000000,0.000000,0.000000,1647338105.874810,0.000000
32.000000,-772.811565,6726.131645,2826.780418,5135.447399,-8478.173134,10183.968864,23552.301353,1631.319717,0.088000,0.984000,0.064000,192.000000,0.000000,0.000000,0.000000,0.000000,0.000000,0.000000,0.000000,0.000000,0.000000,1647338105.874813,0.000000
33.000000,-776.767823,6720.878985,2826.467493,5128.674821,-8477.815506,10185.153506,23574.988374,1618.981554,0.088000,0.984000,0.064000,192.000000,0.000000,0.000000,0.000000,0.000000,0.000000,0.000000,0.000000,0.000000,0.000000,1647338105.881461,0.000000
34.000000,-769.570562,6729.015020,2829.797903,5141.817646,-8473.635730,10193.356597,23636.098043,1618.601575,0.088000,0.984000,0.064000,192.000000,0.000000,0.000000,0.000000,0.000000,0.000000,0.000000,0.000000,0.000000,0.000000,1647338105.881466,0.000000
35.000000,-770.241114,6726.086941,2828.657964,5144.678670,-8469.455954,10193.423652,23630.353645,1663.394471,0.088000,0.984000,0.064000,192.000000,0.000000,0.000000,0.000000,0.000000,0.000000,0.000000,0.000000,0.000000,0.000000,1647338105.889719,0.000000
36.000000,-777.080748,6716.565098,2820.879557,5136.028544,-8481.145916,10176.570437,23595.395517,1641.310947,0.088000,0.984000,0.064000,192.000000,0.000000,0.000000,0.000000,0.000000,0.000000,0.000000,0.000000,0.000000,0.000000,1647338105.889722,0.000000
37.000000,-785.373245,6707.669104,2814.218737,5125.657335,-8489.617227,10163.248797,23558.135159,1618.109836,0.088000,0.984000,0.064000,192.000000,0.000000,0.000000,0.000000,0.000000,0.000000,0.000000,0.000000,0.000000,0.000000,1647338105.896350,0.000000
38.000000,-786.133204,6707.825566,2815.001048,5123.712733,-8491.830050,10169.216713,23599.709403,1639.567511,0.086000,0.982000,0.060000,192.000000,2.000000,176.000000,30.000000,176.000000,1.000000,224.000000,0.000000,0.000000,0.000000,1647338105.896354,0.000000
39.000000,-785.373245,6712.586488,2818.778493,5124.673858,-8493.595838,10169.417878,23602.570427,1641.556816,0.086000,0.982000,0.060000,192.000000,0.000000,0.000000,0.000000,0.000000,0.000000,0.000000,0.000000,0.000000,0.000000,1647338105.903593,0.000000
40.000000,-785.820280,6715.492215,2821.348944,5123.444512,-8497.373283,10167.093297,23562.381990,1629.866854,0.086000,0.982000,0.060000,192.000000,0.000000,0.000000,0.000000,0.000000,0.000000,0.000000,0.000000,0.000000,0.000000,1647338105.910992,0.000000
41.000000,-783.249829,6717.906203,2821.885386,5133.435742,-8492.053567,10177.822134,23596.401345,1636.013584,0.086000,0.982000,0.060000,192.000000,0.000000,0.000000,0.000000,0.000000,0.000000,0.000000,0.000000,0.000000,0.000000,1647338105.910996,0.000000
42.000000,-775.426719,6727.830378,2822.444179,5133.100466,-8485.213934,10182.203076,23609.767688,1634.359555,0.086000,0.982000,0.060000,192.000000,0.000000,0.000000,0.000000,0.000000,0.000000,0.000000,0.000000,0.000000,0.000000,1647338105.918942,0.000000
43.000000,-769.928190,6732.054857,2823.159435,5132.876948,-8486.018596,10182.471297,23612.718119,1634.717182,0.086000,0.982000,0.060000,192.000000,0.000000,0.000000,0.000000,0.000000,0.000000,0.000000,0.000000,0.000000,0.000000,1647338105.918946,0.000000
44.000000,-780.500565,6711.357142,2817.146816,5123.600975,-8493.171155,10177.106878,23600.737584,1627.519921,0.086000,0.982000,0.060000,192.000000,0.000000,0.000000,0.000000,0.000000,0.000000,0.000000,0.000000,0.000000,0.000000,1647338105.927073,0.000000
45.000000,-788.480137,6696.560287,2815.068104,5115.643753,-8500.726044,10172.368309,23585.203121,1619.741514,0.086000,0.982000,0.060000,192.000000,0.000000,0.000000,0.000000,0.000000,0.000000,0.000000,0.000000,0.000000,0.000000,1647338105.927077,0.000000
46.000000,-776.633713,6708.205546,2823.561767,5128.071323,-8496.143937,10179.140887,23578.944633,1627.944604,0.086000,0.982000,0.060000,192.000000,0.000000,0.000000,0.000000,0.000000,0.000000,0.000000,0.000000,0.000000,0.000000,1647338105.933670,0.000000
47.000000,-773.638579,6712.631191,2826.802770,5133.368687,-8485.325692,10190.517925,23582.699726,1641.378002,0.086000,0.982000,0.060000,192.000000,0.000000,0.000000,0.000000,0.000000,0.000000,0.000000,0.000000,0.000000,0.000000,1647338105.933673,0.000000
48.000000,-777.818355,6712.519433,2822.265365,5128.250137,-8490.891277,10184.371195,23588.645290,1635.253624,0.084000,0.984000,0.054000,192.000000,2.000000,160.000000,30.000000,192.000000,1.000000,176.000000,0.000000,0.000000,0.000000,1647338105.941621,0.000000
49.000000,-767.268332,6722.063627,2830.133179,5134.553329,-8489.125489,10186.762832,23604.403270,1631.297366,0.084000,0.984000,0.054000,192.000000,0.000000,0.000000,0.000000,0.000000,0.000000,0.000000,0.000000,0.000000,0.000000,1647338105.941625,0.000000
50.000000,-762.239189,6729.596165,2832.390706,5145.371574,-8483.872829,10185.444079,23572.686144,1648.038822,0.084000,0.984000,0.054000,192.000000,0.000000,0.000000,0.000000,0.000000,0.000000,0.000000,0.000000,0.000000,0.000000,1647338105.949583,0.000000
51.000000,-760.607512,6726.601032,2837.308089,5146.332699,-8475.893256,10183.857105,23561.040886,1632.839636,0.084000,0.984000,0.054000,192.000000,0.000000,0.000000,0.000000,0.000000,0.000000,0.000000,0.000000,0.000000,0.000000,1647338105.949587,0.000000
52.000000,-749.565750,6735.497026,2849.914473,5158.290882,-8464.315053,10199.950361,23619.893029,1643.032031,0.084000,0.984000,0.054000,192.000000,0.000000,0.000000,0.000000,0.000000,0.000000,0.000000,0.000000,0.000000,0.000000,1647338105.956718,0.000000
53.000000,-761.322768,6725.818721,2840.906720,5146.958547,-8472.764012,10188.439213,23616.897895,1627.139941,0.084000,0.984000,0.054000,192.000000,0.000000,0.000000,0.000000,0.000000,0.000000,0.000000,0.000000,0.000000,0.000000,1647338105.956722,0.000000
54.000000,-771.895143,6710.731293,2831.988374,5135.559158,-8484.208105,10173.150620,23581.448028,1616.098179,0.084000,0.984000,0.054000,192.000000,0.000000,0.000000,0.000000,0.000000,0.000000,0.000000,0.000000,0.000000,0.000000,1647338105.963293,0.000000
55.000000,-773.057434,6708.116139,2827.696839,5133.323983,-8491.025387,10171.608349,23602.860999,1630.626813,0.084000,0.984000,0.054000,192.000000,0.000000,0.000000,0.000000,0.000000,0.000000,0.000000,0.000000,0.000000,0.000000,1647338105.971292,0.000000
56.000000,-763.714405,6719.023790,2834.268252,5141.594129,-8481.011806,10177.822134,23596.758973,1614.645316,0.084000,0.984000,0.054000,192.000000,0.000000,0.000000,0.000000,0.000000,0.000000,0.000000,0.000000,0.000000,0.000000,1647338105.971295,0.000000
57.000000,-765.279027,6718.062665,2834.894101,5143.650489,-8476.809678,10177.844486,23586.119543,1624.256566,0.084000,0.984000,0.054000,192.000000,0.000000,0.000000,0.000000,0.000000,0.000000,0.000000,0.000000,0.000000,0.000000,1647338105.979284,0.000000
58.000000,-758.081765,6724.321154,2840.280871,5150.065440,-8474.127468,10183.655940,23590.142857,1652.866799,0.088000,0.980000,0.058000,192.000000,2.000000,192.000000,30.000000,160.000000,1.000000,208.000000,0.000000,0.000000,0.000000,1647338105.979288,0.000000
59.000000,-761.009843,6722.801235,2838.448028,5145.125704,-8472.898122,10181.644283,23584.711383,1639.254587,0.088000,0.980000,0.058000,192.000000,0.000000,0.000000,0.000000,0.000000,0.000000,0.000000,0.000000,0.000000,0.000000,1647338105.986393,0.000000
60.000000,-756.450088,6727.048067,2841.241996,5149.484295,-8472.451088,10184.974692,23587.326537,1631.967918,0.088000,0.980000,0.058000,192.000000,0.000000,0.000000,0.000000,0.000000,0.000000,0.000000,0.000000,0.000000,0.000000,1647338105.986397,0.000000
61.000000,-780.008826,6699.242496,2817.571499,5123.735085,-8494.355797,10167.339166,23587.639461,1607.112778,0.088000,0.980000,0.058000,192.000000,0.000000,0.000000,0.000000,0.000000,0.000000,0.000000,0.000000,0.000000,0.000000,1647338105.993903,0.000000
62.000000,-761.613341,6717.727389,2832.480113,5139.649527,-8483.582256,10187.791012,23612.718119,1643.456715,0.088000,0.980000,0.058000,192.000000,0.000000,0.000000,0.000000,0.000000,0.000000,0.000000,0.000000,0.000000,0.000000,1647338105.993906,0.000000
63.000000,-752.560884,6727.249232,2838.202159,5143.806951,-8475.736794,10194.541239,23592.914473,1636.907653,0.088000,0.980000,0.058000,192.000000,0.000000,0.000000,0.000000,0.000000,0.000000,0.000000,0.000000,0.000000,0.000000,1647338106.002061,0.000000
64.000000,-762.373300,6720.923689,2830.557863,5136.319117,-8483.470498,10185.220562,23573.311993,1631.967918,0.088000,0.980000,0.058000,192.000000,0.000000,0.000000,0.000000,0.000000,0.000000,0.000000,0.000000,0.000000,0.000000,1647338106.002086,0.000000
65.000000,-774.242076,6707.467938,2816.498615,5127.981916,-8496.099233,10176.592788,23591.059278,1620.121493,0.088000,0.980000,0.058000,192.000000,0.000000,0.000000,0.000000,0.000000,0.000000,0.000000,0.000000,0.000000,0.000000,1647338106.008980,0.000000
66.000000,-767.313035,6713.167633,2821.415999,5136.006193,-8496.702730,10177.464506,23599.396479,1621.596708,0.088000,0.980000,0.058000,192.000000,0.000000,0.000000,0.000000,0.000000,0.000000,0.000000,0.000000,0.000000,0.000000,1647338106.008984,0.000000
67.000000,-757.925303,6723.762360,2825.662831,5143.494027,-8489.550172,10181.934855,23595.663738,1630.693868,0.088000,0.980000,0.058000,192.000000,0.000000,0.000000,0.000000,0.000000,0.000000,0.000000,0.000000,0.000000,0.000000,1647338106.016466,0.000000
68.000000,-763.245018,6720.141377,2819.873729,5133.703963,-8494.981646,10177.375099,23589.382898,1615.382924,0.092000,0.978000,0.064000,192.000000,2.000000,224.000000,30.000000,144.000000,2.000000,0.000000,0.000000,0.000000,0.000000,1647338106.016470,0.000000
69.000000,-764.183791,6719.403770,2819.896080,5134.955661,-8497.730911,10173.038861,23570.562729,1600.027275,0.092000,0.978000,0.064000,192.000000,0.000000,0.000000,0.000000,0.000000,0.000000,0.000000,0.000000,0.000000,0.000000,1647338106.023466,0.000000
70.000000,-755.354852,6723.538843,2832.435409,5146.355050,-8486.108003,10187.478088,23581.716249,1633.487837,0.092000,0.978000,0.064000,192.000000,0.000000,0.000000,0.000000,0.000000,0.000000,0.000000,0.000000,0.000000,0.000000,1647338106.031594,0.000000
71.000000,-769.838783,6705.165709,2820.320764,5132.429914,-8495.875716,10173.552951,23571.993240,1615.941717,0.092000,0.978000,0.064000,192.000000,0.000000,0.000000,0.000000,0.000000,0.000000,0.000000,0.000000,0.000000,0.000000,1647338106.031598,0.000000
72.000000,-773.124489,6702.394092,2819.046714,5125.590280,-8496.993303,10171.362480,23588.779400,1625.351802,0.092000,0.978000,0.064000,192.000000,0.000000,0.000000,0.000000,0.000000,0.000000,0.000000,0.000000,0.000000,0.000000,1647338106.038671,0.000000
73.000000,-765.659006,6710.217203,2827.115694,5132.228748,-8491.137146,10180.727861,23603.777421,1638.986366,0.092000,0.978000,0.064000,192.000000,0.000000,0.000000,0.000000,0.000000,0.000000,0.000000,0.000000,0.000000,0.000000,1647338106.038675,0.000000
74.000000,-770.486983,6706.260944,2824.344078,5126.394943,-8490.958332,10174.223503,23590.880464,1631.364421,0.092000,0.978000,0.064000,192.000000,0.000000,0.000000,0.000000,0.000000,0.000000,0.000000,0.000000,0.000000,0.000000,1647338106.046068,0.000000
75.000000,-768.028291,6703.958714,2826.534549,5124.830320,-8497.932076,10168.814381,23577.938804,1626.134113,0.092000,0.978000,0.064000,192.000000,0.000000,0.000000,0.000000,0.000000,0.000000,0.000000,0.000000,0.000000,0.000000,1647338106.046072,0.000000
76.000000,-756.651253,6717.325058,2839.856188,5135.737972,-8484.297512,10183.074794,23594.479095,1655.504305,0.092000,0.978000,0.064000,192.000000,0.000000,0.000000,0.000000,0.000000,0.000000,0.000000,0.000000,0.000000,0.000000,1647338106.054173,0.000000
77.000000,-770.330521,6704.316342,2826.735714,5120.561137,-8487.672626,10168.657919,23592.959177,1627.743438,0.092000,0.978000,0.064000,192.000000,0.000000,0.000000,0.000000,0.000000,0.000000,0.000000,0.000000,0.000000,0.000000,1647338106.054177,0.000000
78.000000,-768.631788,6703.556383,2820.611336,5117.901280,-8496.076881,10160.052497,23567.522891,1614.779426,0.092000,0.988000,0.058000,192.000000,2.000000,224.000000,30.000000,224.000000,1.000000,208.000000,0.000000,0.000000,0.000000,1647338106.062256,0.000000
79.000000,-765.502544,6706.462110,2825.595775,5120.471730,-8493.975817,10158.286710,23529.189650,1635.410087,0.092000,0.988000,0.058000,192.000000,0.000000,0.000000,0.000000,0.000000,0.000000,0.000000,0.000000,0.000000,0.000000,1647338106.062260,0.000000
80.000000,-758.551152,6713.659372,2831.362525,5125.277355,-8486.890314,10168.322643,23563.052543,1633.912520,0.092000,0.988000,0.058000,192.000000,0.000000,0.000000,0.000000,0.000000,0.000000,0.000000,0.000000,0.000000,0.000000,1647338106.068897,0.000000
81.000000,-762.529762,6706.953848,2828.389743,5118.571832,-8485.616265,10167.540332,23600.737584,1615.740551,0.092000,0.988000,0.058000,192.000000,0.000000,0.000000,0.000000,0.000000,0.000000,0.000000,0.000000,0.000000,0.000000,1647338106.068901,0.000000
82.000000,-760.540457,6705.031598,2832.480113,5130.015925,-8486.935018,10167.674442,23632.432357,1596.540403,0.092000,0.988000,0.058000,192.000000,0.000000,0.000000,0.000000,0.000000,0.000000,0.000000,0.000000,0.000000,0.000000,1647338106.076744,0.000000
83.000000,-756.539495,6705.925668,2833.754162,5136.050896,-8491.338312,10171.630701,23607.376052,1626.938775,0.092000,0.988000,0.058000,192.000000,0.000000,0.000000,0.000000,0.000000,0.000000,0.000000,0.000000,0.000000,0.000000,1647338106.076748,0.000000
84.000000,-765.614303,6701.388264,2820.253708,5129.300669,-8500.502527,10158.621986,23560.325630,1622.155502,0.092000,0.988000,0.058000,192.000000,0.000000,0.000000,0.000000,0.000000,0.000000,0.000000,0.000000,0.000000,0.000000,1647338106.084074,0.000000
85.000000,-749.230474,6720.230784,2829.574386,5151.563007,-8488.544344,10169.417878,23587.192427,1602.798891,0.092000,0.988000,0.058000,192.000000,0.000000,0.000000,0.000000,0.000000,0.000000,0.000000,0.000000,0.000000,0.000000,1647338106.092326,0.000000
86.000000,-734.590082,6733.373610,2843.343060,5161.241312,-8471.646425,10186.047576,23599.731755,1647.614139,0.092000,0.988000,0.058000,192.000000,0.000000,0.000000,0.000000,0.000000,0.000000,0.000000,0.000000,0.000000,0.000000,1647338106.092344,0.000000
87.000000,-722.318974,6746.829360,2853.893084,5171.567818,-8461.990471,10189.690911,23608.337177,1646.742421,0.092000,0.988000,0.058000,192.000000,0.000000,0.000000,0.000000,0.000000,0.000000,0.000000,0.000000,0.000000,0.000000,1647338106.098637,0.000000
88.000000,-707.902099,6759.145172,2866.790040,5179.435632,-8452.848608,10195.323550,23598.949444,1647.301215,0.086000,0.984000,0.056000,192.000000,2.000000,176.000000,30.000000,192.000000,1.000000,192.000000,0.000000,0.000000,0.000000,1647338106.098653,0.000000
89.000000,-716.351058,6749.176294,2858.855171,5165.957530,-8461.677547,10184.393547,23583.683203,1644.842523,0.086000,0.984000,0.056000,192.000000,0.000000,0.000000,0.000000,0.000000,0.000000,0.000000,0.000000,0.000000,0.000000,1647338106.106773,0.000000
90.000000,-741.295605,6722.309497,2834.737639,5137.727277,-8481.727061,10164.187570,23575.256595,1612.097217,0.086000,0.984000,0.056000,192.000000,0.000000,0.000000,0.000000,0.000000,0.000000,0.000000,0.000000,0.000000,0.000000,1647338106.106789,0.000000
91.000000,-753.410250,6706.998552,2822.779456,5123.064533,-8497.865021,10153.749305,23574.071953,1594.171118,0.086000,0.984000,0.056000,192.000000,0.000000,0.000000,0.000000,0.000000,0.000000,0.000000,0.000000,0.000000,0.000000,1647338106.114861,0.000000
92.000000,-743.262558,6714.598145,2832.882444,5133.994536,-8491.762995,10164.478143,23574.831912,1597.054493,0.086000,0.984000,0.056000,192.000000,0.000000,0.000000,0.000000,0.000000,0.000000,0.000000,0.000000,0.000000,0.000000,1647338106.114878,0.000000
93.000000,-740.379183,6713.525261,2833.374182,5137.123780,-8495.920419,10164.366384,23555.542356,1599.066150,0.086000,0.984000,0.056000,192.000000,0.000000,0.000000,0.000000,0.000000,0.000000,0.000000,0.000000,0.000000,0.000000,1647338106.121987,0.000000
94.000000,-736.601739,6718.196776,2840.660851,5141.214149,-8494.176983,10170.110782,23563.723095,1608.364476,0.086000,0.984000,0.056000,192.000000,0.000000,0.000000,0.000000,0.000000,0.000000,0.000000,0.000000,0.000000,0.000000,1647338106.122003,0.000000
95.000000,-751.152724,6704.271639,2833.038906,5128.138379,-8496.367454,10162.734707,23564.281889,1599.043798,0.086000,0.984000,0.056000,192.000000,0.000000,0.000000,0.000000,0.000000,0.000000,0.000000,0.000000,0.000000,0.000000,1647338106.129495,0.000000
96.000000,-749.878675,6705.366874,2831.809560,5130.932347,-8496.143937,10159.069021,23557.554013,1607.671572,0.086000,0.984000,0.056000,192.000000,0.000000,0.000000,0.000000,0.000000,0.000000,0.000000,0.000000,0.000000,0.000000,1647338106.129511,0.000000
97.000000,-738.971023,6714.709904,2841.934901,5142.175274,-8486.465631,10167.450925,23549.999124,1619.585051,0.086000,0.984000,0.056000,192.000000,0.000000,0.000000,0.000000,0.000000,0.000000,0.000000,0.000000,0.000000,0.000000,1647338106.137558,0.000000
98.000000,-736.132352,6723.002401,2847.232264,5148.657280,-8480.654178,10178.716204,23560.616202,1629.844502,0.090000,0.984000,0.050000,192.000000,2.000000,208.000000,30.000000,192.000000,1.000000,144.000000,0.000000,0.000000,0.000000,1647338106.137574,0.000000
99.000000,-746.682375,6714.016999,2840.303223,5137.570815,-8486.555038,10171.742460,23559.140987,1621.261432,0.090000,0.984000,0.050000,192.000000,0.000000,0.000000,0.000000,0.000000,0.000000,0.000000,0.000000,0.000000,0.000000,1647338106.144645,0.000000
100.000000,-747.308224,6710.641886,2839.498560,5140.811818,-8483.626960,10170.580169,23561.622031,1622.021392,0.090000,0.984000,0.050000,192.000000,0.000000,0.000000,0.000000,0.000000,0.000000,0.000000,0.000000,0.000000,0.000000,1647338106.144661,0.000000
101.000000,-755.623073,6697.946095,2832.323650,5137.839036,-8487.538515,10165.483971,23564.170130,1616.411104,0.090000,0.984000,0.050000,192.000000,0.000000,0.000000,0.000000,0.000000,0.000000,0.000000,0.000000,0.000000,0.000000,1647338106.151202,0.000000
102.000000,-754.729003,6698.527241,2831.943671,5134.754495,-8493.707597,10166.869779,23592.333328,1584.649275,0.090000,0.984000,0.050000,192.000000,0.000000,0.000000,0.000000,0.000000,0.000000,0.000000,0.000000,0.000000,0.000000,1647338106.159074,0.000000
103.000000,-758.394689,6700.047159,2827.763895,5132.094637,-8502.804756,10166.825076,23588.310014,1626.961127,0.090000,0.984000,0.050000,192.000000,0.000000,0.000000,0.000000,0.000000,0.000000,0.000000,0.000000,0.000000,0.000000,1647338106.159090,0.000000
104.000000,-749.319881,6709.501947,2833.217720,5141.527074,-8499.608457,10177.531562,23585.627804,1662.679215,0.090000,0.984000,0.050000,192.000000,0.000000,0.000000,0.000000,0.000000,0.000000,0.000000,0.000000,0.000000,0.000000,1647338106.167221,0.000000
105.000000,-737.942843,6715.693380,2843.343060,5155.563969,-8487.002073,10189.243876,23606.951369,1654.610235,0.090000,0.984000,0.050000,192.000000,0.000000,0.000000,0.000000,0.000000,0.000000,0.000000,0.000000,0.000000,0.000000,1647338106.167237,0.000000
106.000000,-742.144971,6711.804177,2844.348889,5154.781658,-8483.358739,10187.791012,23592.892121,1647.636491,0.090000,0.984000,0.050000,192.000000,0.000000,0.000000,0.000000,0.000000,0.000000,0.000000,0.000000,0.000000,0.000000,1647338106.174459,0.000000
107.000000,-740.937977,6713.592316,2841.532569,5151.786524,-8486.309169,10180.392585,23563.656040,1630.090371,0.090000,0.984000,0.050000,192.000000,0.000000,0.000000,0.000000,0.000000,0.000000,0.000000,0.000000,0.000000,0.000000,1647338106.174475,0.000000
108.000000,-737.853436,6715.000476,2842.940729,5151.250082,-8484.990416,10182.538352,23574.027249,1620.680287,0.086000,0.980000,0.044000,192.000000,2.000000,176.000000,30.000000,160.000000,1.000000,96.000000,0.000000,0.000000,0.000000,1647338106.181627,0.000000
109.000000,-747.442335,6704.249287,2835.229377,5143.292861,-8488.164364,10175.832829,23571.479150,1623.831883,0.086000,0.980000,0.044000,192.000000,0.000000,0.000000,0.000000,0.000000,0.000000,0.000000,0.000000,0.000000,0.000000,1647338106.181644,0.000000
110.000000,-730.052677,6720.454302,2849.579197,5157.195646,-8482.241152,10184.550009,23572.842607,1635.812418,0.086000,0.980000,0.044000,192.000000,0.000000,0.000000,0.000000,0.000000,0.000000,0.000000,0.000000,0.000000,0.000000,1647338106.189827,0.000000
111.000000,-722.430733,6725.461093,2856.731755,5161.978920,-8475.915608,10193.200134,23609.007729,1638.785200,0.086000,0.980000,0.044000,192.000000,0.000000,0.000000,0.000000,0.000000,0.000000,0.000000,0.000000,0.000000,0.000000,1647338106.189844,0.000000
112.000000,-719.748523,6725.483444,2858.855171,5160.861333,-8471.735832,10188.863896,23617.724910,1641.355651,0.086000,0.980000,0.044000,192.000000,0.000000,0.000000,0.000000,0.000000,0.000000,0.000000,0.000000,0.000000,0.000000,1647338106.197848,0.000000
113.000000,-730.723230,6712.474729,2846.002918,5145.103353,-8479.782460,10172.681233,23594.590854,1642.205017,0.086000,0.980000,0.044000,192.000000,0.000000,0.000000,0.000000,0.000000,0.000000,0.000000,0.000000,0.000000,0.000000,1647338106.197865,0.000000
114.000000,-735.282986,6709.054912,2841.420810,5139.358954,-8487.650274,10160.812457,23587.885331,1613.259508,0.086000,0.980000,0.044000,192.000000,0.000000,0.000000,0.000000,0.000000,0.000000,0.000000,0.000000,0.000000,0.000000,1647338106.204527,0.000000
115.000000,-724.397686,6718.912032,2852.820200,5151.317138,-8478.575466,10172.636530,23594.836723,1622.356668,0.086000,0.980000,0.044000,192.000000,0.000000,0.000000,0.000000,0.000000,0.000000,0.000000,0.000000,0.000000,0.000000,1647338106.204543,0.000000
116.000000,-726.632860,6715.671029,2852.619034,5143.717545,-8478.821335,10174.178800,23575.882444,1625.038877,0.086000,0.980000,0.044000,192.000000,0.000000,0.000000,0.000000,0.000000,0.000000,0.000000,0.000000,0.000000,0.000000,1647338106.211321,0.000000
117.000000,-724.285927,6717.570927,2851.456744,5148.299652,-8478.955445,10176.592788,23572.440275,1624.256566,0.086000,0.980000,0.044000,192.000000,0.000000,0.000000,0.000000,0.000000,0.000000,0.000000,0.000000,0.000000,0.000000,1647338106.219494,0.000000
118.000000,-728.912738,6713.435854,2843.901854,5147.249120,-8478.329596,10173.508248,23553.240127,1621.797874,0.086000,0.980000,0.044000,192.000000,0.000000,0.000000,0.000000,0.000000,0.000000,0.000000,0.000000,0.000000,0.000000,1647338106.219511,0.000000
119.000000,-734.277157,6707.892622,2845.198255,5139.403658,-8478.620169,10170.177838,23542.958324,1626.000002,0.086000,0.974000,0.048000,192.000000,2.000000,176.000000,30.000000,112.000000,1.000000,128.000000,0.000000,0.000000,0.000000,1647338106.227506,0.000000
120.000000,-729.292718,6714.128758,2852.708441,5148.411411,-8471.333500,10177.151582,23608.225418,1634.314851,0.086000,0.974000,0.048000,192.000000,0.000000,0.000000,0.000000,0.000000,0.000000,0.000000,0.000000,0.000000,0.000000,1647338106.227523,0.000000
121.000000,-726.230529,6715.939250,2854.653043,5156.614501,-8464.225646,10175.274035,23603.129220,1608.029200,0.086000,0.974000,0.048000,192.000000,0.000000,0.000000,0.000000,0.000000,0.000000,0.000000,0.000000,0.000000,0.000000,1647338106.234097,0.000000
122.000000,-730.656174,6712.497081,2852.999014,5153.440553,-8458.950634,10172.055384,23602.637482,1601.904822,0.086000,0.974000,0.048000,192.000000,0.000000,0.000000,0.000000,0.000000,0.000000,0.000000,0.000000,0.000000,0.000000,1647338106.234114,0.000000
123.000000,-728.264538,6714.866366,2854.518933,5155.496914,-8460.872884,10167.272111,23585.761915,1627.721086,0.086000,0.974000,0.048000,192.000000,0.000000,0.000000,0.000000,0.000000,0.000000,0.000000,0.000000,0.000000,0.000000,1647338106.242019,0.000000
124.000000,-722.676602,6718.286183,2858.318729,5155.787487,-8456.313128,10167.495628,23576.418886,1623.027220,0.086000,0.974000,0.048000,192.000000,0.000000,0.000000,0.000000,0.000000,0.000000,0.000000,0.000000,0.000000,0.000000,1647338106.242036,0.000000
125.000000,-714.406456,6726.489273,2868.131145,5157.821495,-8448.646480,10175.654015,23582.990299,1638.628738,0.086000,0.974000,0.048000,192.000000,0.000000,0.000000,0.000000,0.000000,0.000000,0.000000,0.000000,0.000000,0.000000,1647338106.250102,0.000000
126.000000,-717.580404,6719.783750,2863.973721,5148.925501,-8452.245111,10176.928064,23580.844531,1645.580130,0.086000,0.974000,0.048000,192.000000,0.000000,0.000000,0.000000,0.000000,0.000000,0.000000,0.000000,0.000000,0.000000,1647338106.250118,0.000000
127.000000,-730.812637,6704.249287,2848.863941,5133.815722,-8467.936035,10165.908654,23576.016554,1621.954336,0.086000,0.974000,0.048000,192.000000,0.000000,0.000000,0.000000,0.000000,0.000000,0.000000,0.000000,0.000000,0.000000,1647338106.256742,0.000000
128.000000,-724.040058,6708.741988,2848.998052,5139.984803,-8470.730003,10176.637492,23592.847418,1661.516924,0.086000,0.974000,0.048000,192.000000,0.000000,0.000000,0.000000,0.000000,0.000000,0.000000,0.000000,0.000000,0.000000,1647338106.256758,0.000000
129.000000,-726.074067,6711.021866,2849.445087,5143.136399,-8462.504561,10178.939721,23599.061203,1652.933854,0.092000,0.984000,0.048000,192.000000,2.000000,224.000000,30.000000,192.000000,1.000000,128.000000,0.000000,0.000000,0.000000,1647338106.264771,0.000000
130.000000,-736.065297,6704.249287,2836.570482,5135.469751,-8471.378204,10160.566588,23559.968002,1629.241005,0.092000,0.984000,0.048000,192.000000,0.000000,0.000000,0.000000,0.000000,0.000000,0.000000,0.000000,0.000000,0.000000,1647338106.264788,0.000000
131.000000,-745.877712,6695.599162,2826.959232,5125.277355,-8479.871867,10155.112762,23571.948537,1624.167159,0.092000,0.984000,0.048000,192.000000,0.000000,0.000000,0.000000,0.000000,0.000000,0.000000,0.000000,0.000000,0.000000,1647338106.271792,0.000000
132.000000,-736.065297,6706.015075,2838.202159,5132.787541,-8480.765936,10163.517018,23602.615130,1637.935834,0.092000,0.984000,0.048000,192.000000,0.000000,0.000000,0.000000,0.000000,0.000000,0.000000,0.000000,0.000000,0.000000,1647338106.279764,0.000000
133.000000,-737.540512,6702.148223,2838.738601,5136.408524,-8477.971968,10163.740535,23601.989281,1634.985403,0.092000,0.984000,0.048000,192.000000,0.000000,0.000000,0.000000,0.000000,0.000000,0.000000,0.000000,0.000000,0.000000,1647338106.279780,0.000000
134.000000,-737.138180,6700.158918,2838.917415,5136.363821,-8480.721233,10158.197303,23580.084572,1642.652052,0.092000,0.984000,0.048000,192.000000,0.000000,0.000000,0.000000,0.000000,0.000000,0.000000,0.000000,0.000000,0.000000,1647338106.286419,0.000000
135.000000,-738.211064,6700.181270,2839.029174,5136.408524,-8477.949617,10159.650166,23582.252691,1665.786107,0.092000,0.984000,0.048000,192.000000,0.000000,0.000000,0.000000,0.000000,0.000000,0.000000,0.000000,0.000000,0.000000,1647338106.286436,0.000000
136.000000,-733.919529,6710.083092,2842.091363,5142.890530,-8473.680433,10167.205056,23605.342043,1655.236084,0.092000,0.984000,0.048000,192.000000,0.000000,0.000000,0.000000,0.000000,0.000000,0.000000,0.000000,0.000000,0.000000,1647338106.294362,0.000000
137.000000,-739.596872,6704.428101,2839.073877,5136.341469,-8475.826201,10160.812457,23586.834799,1654.677290,0.092000,0.984000,0.048000,192.000000,0.000000,0.000000,0.000000,0.000000,0.000000,0.000000,0.000000,0.000000,0.000000,1647338106.294377,0.000000
138.000000,-734.523026,6711.066569,2844.661813,5140.722411,-8472.808715,10164.724012,23591.796886,1662.276883,0.092000,0.984000,0.048000,192.000000,0.000000,0.000000,0.000000,0.000000,0.000000,0.000000,0.000000,0.000000,0.000000,1647338106.302406,0.000000
139.000000,-733.494846,6712.362970,2844.594758,5144.499856,-8472.071108,10171.004852,23623.178735,1665.115555,0.086000,0.980000,0.054000,192.000000,2.000000,176.000000,30.000000,160.000000,1.000000,176.000000,0.000000,0.000000,0.000000,1647338106.302422,0.000000
140.000000,-721.648421,6719.068494,2855.077726,5158.134420,-8464.650329,10179.945550,23620.764747,1676.783166,0.086000,0.980000,0.054000,192.000000,0.000000,0.000000,0.000000,0.000000,0.000000,0.000000,0.000000,0.000000,0.000000,1647338106.309574,0.000000
141.000000,-733.114866,6710.507776,2842.761915,5149.528998,-8475.021538,10168.881436,23594.367337,1673.497459,0.086000,0.980000,0.054000,192.000000,0.000000,0.000000,0.000000,0.000000,0.000000,0.000000,0.000000,0.000000,0.000000,1647338106.309590,0.000000
142.000000,-738.188712,6710.507776,2836.503427,5146.444457,-8480.005977,10163.405259,23569.936880,1640.461581,0.086000,0.980000,0.054000,192.000000,0.000000,0.000000,0.000000,0.000000,0.000000,0.000000,0.000000,0.000000,0.000000,1647338106.317027,0.000000
143.000000,-739.753334,6711.066569,2831.116656,5144.611614,-8481.727061,10158.934910,23557.866938,1633.778409,0.086000,0.980000,0.054000,192.000000,0.000000,0.000000,0.000000,0.000000,0.000000,0.000000,0.000000,0.000000,0.000000,1647338106.317043,0.000000
144.000000,-741.787343,6707.803215,2829.641441,5139.068382,-8483.291684,10158.152599,23582.073877,1647.323566,0.086000,0.980000,0.054000,192.000000,0.000000,0.000000,0.000000,0.000000,0.000000,0.000000,0.000000,0.000000,0.000000,1647338106.324813,0.000000
145.000000,-739.216893,6700.561249,2837.755124,5138.956623,-8481.570599,10164.209922,23571.657964,1654.319662,0.086000,0.980000,0.054000,192.000000,0.000000,0.000000,0.000000,0.000000,0.000000,0.000000,0.000000,0.000000,0.000000,1647338106.324830,0.000000
146.000000,-748.872846,6691.061758,2836.726944,5130.150036,-8481.034157,10169.551989,23590.187560,1677.051386,0.086000,0.980000,0.054000,192.000000,0.000000,0.000000,0.000000,0.000000,0.000000,0.000000,0.000000,0.000000,0.000000,1647338106.331795,0.000000
147.000000,-739.529817,6704.204584,2842.538398,5135.536806,-8484.185753,10167.316814,23576.888272,1664.333244,0.086000,0.980000,0.054000,192.000000,0.000000,0.000000,0.000000,0.000000,0.000000,0.000000,0.000000,0.000000,0.000000,1647338106.339179,0.000000
148.000000,-736.020593,6707.892622,2846.338194,5145.840960,-8482.062338,10168.099125,23572.216758,1670.189401,0.086000,0.980000,0.054000,192.000000,0.000000,0.000000,0.000000,0.000000,0.000000,0.000000,0.000000,0.000000,0.000000,1647338106.339195,0.000000
149.000000,-736.646442,6705.031598,2846.517008,5146.176236,-8484.409271,10165.796896,23593.137991,1667.037805,0.090000,0.980000,0.056000,192.000000,2.000000,208.000000,30.000000,160.000000,1.000000,192.000000,0.000000,0.000000,0.000000,1647338106.346641,0.000000
150.000000,-752.247960,6685.607932,2830.088476,5129.926518,-8495.942771,10150.776523,23574.362525,1670.927009,0.090000,0.980000,0.056000,192.000000,0.000000,0.000000,0.000000,0.000000,0.000000,0.000000,0.000000,0.000000,0.000000,1647338106.346659,0.000000
151.000000,-742.010861,6696.269714,2837.039868,5137.749629,-8493.752300,10159.449000,23572.753200,1668.289503,0.090000,0.980000,0.056000,192.000000,0.000000,0.000000,0.000000,0.000000,0.000000,0.000000,0.000000,0.000000,0.000000,1647338106.354451,0.000000
152.000000,-745.967119,6696.135604,2832.703630,5136.632042,-8492.232381,10161.237140,23585.001956,1665.473183,0.090000,0.980000,0.056000,192.000000,0.000000,0.000000,0.000000,0.000000,0.000000,0.000000,0.000000,0.000000,0.000000,1647338106.354462,0.000000
153.000000,-748.001128,6701.701188,2833.664755,5145.460981,-8492.925285,10162.555893,23604.403270,1661.025186,0.090000,0.980000,0.056000,192.000000,0.000000,0.000000,0.000000,0.000000,0.000000,0.000000,0.000000,0.000000,0.000000,1647338106.361867,0.000000
154.000000,-752.069146,6698.594296,2834.044735,5143.985765,-8493.729948,10156.923253,23586.991261,1655.794878,0.090000,0.980000,0.056000,192.000000,0.000000,0.000000,0.000000,0.000000,0.000000,0.000000,0.000000,0.000000,0.000000,1647338106.361884,0.000000
155.000000,-730.924395,6712.854709,2849.825066,5158.112068,-8489.483117,10161.527713,23574.228415,1654.565532,0.090000,0.980000,0.056000,192.000000,0.000000,0.000000,0.000000,0.000000,0.000000,0.000000,0.000000,0.000000,0.000000,1647338106.369320,0.000000
156.000000,-720.933166,6722.354200,2861.112697,5167.812725,-8476.720271,10177.106878,23604.313863,1670.792898,0.090000,0.980000,0.056000,192.000000,0.000000,0.000000,0.000000,0.000000,0.000000,0.000000,0.000000,0.000000,0.000000,1647338106.369335,0.000000
157.000000,-742.480247,6702.371741,2840.929072,5151.183027,-8490.176021,10159.717221,23576.843569,1661.494572,0.090000,0.980000,0.056000,192.000000,0.000000,0.000000,0.000000,0.000000,0.000000,0.000000,0.000000,0.000000,0.000000,1647338106.377314,0.000000
158.000000,-741.072087,6703.265810,2841.197293,5155.116934,-8490.846573,10158.197303,23571.009764,1649.514037,0.090000,0.980000,0.056000,192.000000,0.000000,0.000000,0.000000,0.000000,0.000000,0.000000,0.000000,0.000000,0.000000,1647338106.377331,0.000000
159.000000,-730.276195,6713.748779,2848.506313,5163.320024,-8490.332483,10166.221579,23585.426639,1666.188439,0.092000,0.982000,0.054000,192.000000,2.000000,224.000000,30.000000,176.000000,1.000000,176.000000,0.000000,0.000000,0.000000,1647338106.385265,0.000000
160.000000,-738.211064,6707.892622,2842.896026,5159.497876,-8487.158535,10164.992233,23594.344985,1674.995026,0.092000,0.982000,0.054000,192.000000,0.000000,0.000000,0.000000,0.000000,0.000000,0.000000,0.000000,0.000000,0.000000,1647338106.385282,0.000000
161.000000,-738.099305,6709.278430,2844.214778,5164.437612,-8486.644445,10167.294463,23602.503372,1668.289503,0.092000,0.982000,0.054000,192.000000,0.000000,0.000000,0.000000,0.000000,0.000000,0.000000,0.000000,0.000000,0.000000,1647338106.391471,0.000000
162.000000,-748.828143,6700.874174,2836.123447,5156.256873,-8489.281951,10156.610329,23583.638499,1656.644244,0.092000,0.982000,0.054000,192.000000,0.000000,0.000000,0.000000,0.000000,0.000000,0.000000,0.000000,0.000000,0.000000,1647338106.391487,0.000000
163.000000,-742.949634,6705.143357,2842.381935,5153.932292,-8486.711500,10159.001965,23576.530644,1655.079622,0.092000,0.982000,0.054000,192.000000,0.000000,0.000000,0.000000,0.000000,0.000000,0.000000,0.000000,0.000000,0.000000,1647338106.398817,0.000000
164.000000,-741.139143,6705.389226,2843.097191,5159.162600,-8482.867000,10161.170085,23551.697856,1648.575264,0.092000,0.982000,0.054000,192.000000,0.000000,0.000000,0.000000,0.000000,0.000000,0.000000,0.000000,0.000000,0.000000,1647338106.406950,0.000000
165.000000,-747.554093,6701.522374,2833.932976,5152.948815,-8489.170192,10165.528675,23610.617055,1655.571360,0.092000,0.982000,0.054000,192.000000,0.000000,0.000000,0.000000,0.000000,0.000000,0.000000,0.000000,0.000000,0.000000,1647338106.406966,0.000000
166.000000,-749.699861,6699.890697,2829.306165,5146.735030,-8498.066187,10162.980576,23608.381880,1654.789049,0.092000,0.982000,0.054000,192.000000,0.000000,0.000000,0.000000,0.000000,0.000000,0.000000,0.000000,0.000000,0.000000,1647338106.414794,0.000000
167.000000,-746.570617,6702.438796,2835.184674,5151.250082,-8495.361626,10167.585035,23599.552941,1648.351747,0.092000,0.982000,0.054000,192.000000,0.000000,0.000000,0.000000,0.000000,0.000000,0.000000,0.000000,0.000000,0.000000,1647338106.414810,0.000000
168.000000,-756.025404,6691.240572,2827.026287,5145.997422,-8502.313018,10163.762887,23593.987357,1653.693814,0.092000,0.982000,0.054000,192.000000,0.000000,0.000000,0.000000,0.000000,0.000000,0.000000,0.000000,0.000000,0.000000,1647338106.421494,0.000000
169.000000,-746.525913,6697.208488,2835.296432,5153.395850,-8499.854326,10166.333338,23588.354717,1654.006738,0.088000,0.986000,0.052000,192.000000,2.000000,192.000000,30.000000,208.000000,1.000000,160.000000,0.000000,0.000000,0.000000,1647338106.421510,0.000000
170.000000,-750.504524,6689.363025,2830.580214,5147.562045,-8500.569582,10162.846465,23573.043772,1635.544197,0.088000,0.986000,0.052000,192.000000,0.000000,0.000000,0.000000,0.000000,0.000000,0.000000,0.000000,0.000000,0.000000,1647338106.429532,0.000000
171.000000,-762.909742,6677.538953,2816.051580,5135.469751,-8511.186661,10154.017526,23566.695877,1629.129246,0.088000,0.986000,0.052000,192.000000,0.000000,0.000000,0.000000,0.000000,0.000000,0.000000,0.000000,0.000000,0.000000,1647338106.429549,0.000000
172.000000,-764.988454,6680.757604,2817.236223,5140.342431,-8508.795024,10154.799837,23583.124409,1641.825037,0.088000,0.986000,0.052000,192.000000,0.000000,0.000000,0.000000,0.000000,0.000000,0.000000,0.000000,0.000000,0.000000,1647338106.437520,0.000000
173.000000,-764.586123,6682.344578,2821.751275,5143.941062,-8510.381998,10156.610329,23575.636575,1638.986366,0.088000,0.986000,0.052000,192.000000,0.000000,0.000000,0.000000,0.000000,0.000000,0.000000,0.000000,0.000000,0.000000,1647338106.437536,0.000000
174.000000,-768.005939,6678.455374,2819.985487,5137.682574,-8516.729893,10149.189550,23548.814481,1632.258491,0.088000,0.986000,0.052000,192.000000,0.000000,0.000000,0.000000,0.000000,0.000000,0.000000,0.000000,0.000000,0.000000,1647338106.444599,0.000000
175.000000,-756.450088,6689.497136,2829.261461,5145.237463,-8506.269277,10157.973785,23573.557862,1654.498476,0.088000,0.986000,0.052000,192.000000,0.000000,0.000000,0.000000,0.000000,0.000000,0.000000,0.000000,0.000000,0.000000,1647338106.444615,0.000000
176.000000,-754.907817,6691.754662,2834.648232,5142.890530,-8505.665780,10165.059288,23583.616147,1671.977540,0.088000,0.986000,0.052000,192.000000,0.000000,0.000000,0.000000,0.000000,0.000000,0.000000,0.000000,0.000000,0.000000,1647338106.452183,0.000000
177.000000,-758.752317,6688.692473,2834.670584,5144.388097,-8506.336332,10163.293500,23564.326592,1661.963959,0.088000,0.986000,0.052000,192.000000,0.000000,0.000000,0.000000,0.000000,0.000000,0.000000,0.000000,0.000000,0.000000,1647338106.452199,0.000000
178.000000,-768.251809,6682.366929,2823.986450,5138.643699,-8512.125434,10158.174951,23576.575348,1655.481953,0.088000,0.986000,0.052000,192.000000,0.000000,0.000000,0.000000,0.000000,0.000000,0.000000,0.000000,0.000000,0.000000,1647338106.459049,0.000000
179.000000,-766.687187,6684.825621,2825.953403,5136.699097,-8518.920364,10164.455791,23613.701596,1647.748250,0.088000,0.982000,0.052000,192.000000,2.000000,192.000000,30.000000,176.000000,1.000000,160.000000,0.000000,0.000000,0.000000,1647338106.466480,0.000000
180.000000,-763.602646,6687.060796,2828.993240,5148.769039,-8512.885393,10165.595730,23605.766726,1627.296403,0.088000,0.982000,0.052000,192.000000,0.000000,0.000000,0.000000,0.000000,0.000000,0.000000,0.000000,0.000000,0.000000,1647338106.466497,0.000000
181.000000,-760.831030,6690.726482,2830.893139,5152.233559,-8509.018541,10159.136076,23581.492732,1636.840598,0.088000,0.982000,0.052000,192.000000,0.000000,0.000000,0.000000,0.000000,0.000000,0.000000,0.000000,0.000000,0.000000,1647338106.474561,0.000000
182.000000,-753.320843,6695.554459,2837.218682,5157.217998,-8504.078806,10159.627814,23603.196276,1656.890113,0.088000,0.982000,0.052000,192.000000,0.000000,0.000000,0.000000,0.000000,0.000000,0.000000,0.000000,0.000000,0.000000,1647338106.474577,0.000000
183.000000,-744.134276,6698.683703,2843.901854,5160.146077,-8504.369379,10160.052497,23608.650101,1651.995081,0.088000,0.982000,0.052000,192.000000,0.000000,0.000000,0.000000,0.000000,0.000000,0.000000,0.000000,0.000000,0.000000,1647338106.482522,0.000000
184.000000,-748.023480,6693.229877,2840.929072,5156.703908,-8506.693960,10160.298367,23598.345947,1646.787124,0.088000,0.982000,0.052000,192.000000,0.000000,0.000000,0.000000,0.000000,0.000000,0.000000,0.000000,0.000000,0.000000,1647338106.482538,0.000000
185.000000,-760.898085,6683.640979,2829.082647,5139.403658,-8512.080730,10150.843579,23590.254616,1639.746325,0.088000,0.982000,0.052000,192.000000,0.000000,0.000000,0.000000,0.000000,0.000000,0.000000,0.000000,0.000000,0.000000,1647338106.489168,0.000000
186.000000,-765.211971,6678.701243,2825.104037,5134.150998,-8519.054475,10144.138055,23592.333328,1635.186569,0.088000,0.982000,0.052000,192.000000,0.000000,0.000000,0.000000,0.000000,0.000000,0.000000,0.000000,0.000000,0.000000,1647338106.489183,0.000000
187.000000,-758.327634,6685.160897,2832.413057,5142.599957,-8517.042818,10140.628831,23584.465514,1628.615156,0.088000,0.982000,0.052000,192.000000,0.000000,0.000000,0.000000,0.000000,0.000000,0.000000,0.000000,0.000000,0.000000,1647338106.497167,0.000000
188.000000,-750.437468,6696.493232,2840.414982,5154.513437,-8506.917477,10146.552044,23584.487866,1635.320680,0.088000,0.982000,0.052000,192.000000,0.000000,0.000000,0.000000,0.000000,0.000000,0.000000,0.000000,0.000000,0.000000,1647338106.497183,0.000000
189.000000,-764.943750,6684.870325,2825.193444,5142.532902,-8512.684228,10138.103084,23588.198255,1627.318755,0.086000,0.982000,0.052000,192.000000,2.000000,176.000000,30.000000,176.000000,1.000000,160.000000,0.000000,0.000000,0.000000,1647338106.505193,0.000000
190.000000,-765.480192,6685.250304,2821.572461,5141.460018,-8517.512204,10136.471407,23595.641386,1635.208921,0.086000,0.982000,0.052000,192.000000,0.000000,0.000000,0.000000,0.000000,0.000000,0.000000,0.000000,0.000000,0.000000,1647338106.505210,0.000000
191.000000,-760.831030,6688.021921,2826.556900,5147.070306,-8518.272164,10141.366439,23590.321671,1636.147694,0.086000,0.982000,0.052000,192.000000,0.000000,0.000000,0.000000,0.000000,0.000000,0.000000,0.000000,0.000000,0.000000,1647338106.512284,0.000000
192.000000,-755.690128,6693.855726,2831.139008,5147.785562,-8516.618135,10143.489855,23573.468455,1628.838674,0.086000,0.982000,0.052000,192.000000,0.000000,0.000000,0.000000,0.000000,0.000000,0.000000,0.000000,0.000000,0.000000,1647338106.512295,0.000000
193.000000,-754.416079,6696.448528,2833.955328,5147.271472,-8517.601611,10146.663802,23571.501502,1627.743438,0.086000,0.982000,0.052000,192.000000,0.000000,0.000000,0.000000,0.000000,0.000000,0.000000,0.000000,0.000000,0.000000,1647338106.518825,0.000000
194.000000,-751.085669,6696.292066,2836.369316,5156.368632,-8511.611344,10153.235215,23571.769723,1636.438267,0.086000,0.982000,0.052000,192.000000,0.000000,0.000000,0.000000,0.000000,0.000000,0.000000,0.000000,0.000000,0.000000,1647338106.526771,0.000000
195.000000,-753.499657,6693.028711,2831.183711,5152.568835,-8509.689094,10151.804704,23581.582139,1638.405220,0.086000,0.982000,0.052000,192.000000,0.000000,0.000000,0.000000,0.000000,0.000000,0.000000,0.000000,0.000000,0.000000,1647338106.526788,0.000000
196.000000,-759.378166,6689.452432,2825.551072,5147.852617,-8515.724065,10143.422800,23579.369316,1604.229403,0.086000,0.982000,0.052000,192.000000,0.000000,0.000000,0.000000,0.000000,0.000000,0.000000,0.000000,0.000000,0.000000,1647338106.534821,0.000000
197.000000,-775.247905,6678.343615,2808.720208,5135.380344,-8528.509263,10132.246927,23555.140025,1639.679270,0.086000,0.982000,0.052000,192.000000,0.000000,0.000000,0.000000,0.000000,0.000000,0.000000,0.000000,0.000000,0.000000,1647338106.534837,0.000000
198.000000,-772.118660,6681.472860,2811.648287,5137.235539,-8526.318792,10138.013677,23564.348944,1640.372174,0.086000,0.982000,0.052000,192.000000,0.000000,0.000000,0.000000,0.000000,0.000000,0.000000,0.000000,0.000000,0.000000,1647338106.541914,0.000000
199.000000,-774.175021,6677.606008,2811.313011,5137.146132,-8527.123454,10145.434457,23578.519950,1642.003851,0.086000,0.988000,0.054000,192.000000,2.000000,176.000000,30.000000,224.000000,1.000000,176.000000,0.000000,0.000000,0.000000,1647338106.541930,0.000000
200.000000,-759.892256,6686.099671,2826.892176,5147.830266,-8518.830957,10153.190512,23547.965115,1651.168066,0.086000,0.988000,0.054000,192.000000,0.000000,0.000000,0.000000,0.000000,0.000000,0.000000,0.000000,0.000000,0.000000,1647338106.549480,0.000000
201.000000,-747.196465,6695.062720,2843.767744,5158.559103,-8502.916515,10166.869779,23576.374182,1680.359445,0.086000,0.988000,0.054000,192.000000,0.000000,0.000000,0.000000,0.000000,0.000000,0.000000,0.000000,0.000000,0.000000,1647338106.549497,0.000000
202.000000,-771.090480,6673.113307,2825.841645,5133.771018,-8515.522899,10151.961166,23610.795869,1656.934816,0.086000,0.988000,0.054000,192.000000,0.000000,0.000000,0.000000,0.000000,0.000000,0.000000,0.000000,0.000000,0.000000,1647338106.557497,0.000000
203.000000,-767.871829,6682.746909,2825.774589,5135.201530,-8518.942716,10145.993250,23572.775551,1636.728839,0.086000,0.988000,0.054000,192.000000,0.000000,0.000000,0.000000,0.000000,0.000000,0.000000,0.000000,0.000000,0.000000,1647338106.557512,0.000000
204.000000,-764.340253,6686.144374,2826.892176,5136.453228,-8519.009771,10149.770695,23551.273173,1636.438267,0.086000,0.988000,0.054000,192.000000,0.000000,0.000000,0.000000,0.000000,0.000000,0.000000,0.000000,0.000000,0.000000,1647338106.564688,0.000000
205.000000,-763.222666,6683.193944,2828.345040,5140.633004,-8517.042818,10154.978651,23579.011688,1640.260415,0.086000,0.988000,0.054000,192.000000,0.000000,0.000000,0.000000,0.000000,0.000000,0.000000,0.000000,0.000000,0.000000,1647338106.564706,0.000000
206.000000,-756.472439,6686.457299,2835.005860,5149.931329,-8512.348951,10161.304195,23606.213761,1627.296403,0.086000,0.988000,0.054000,192.000000,0.000000,0.000000,0.000000,0.000000,0.000000,0.000000,0.000000,0.000000,0.000000,1647338106.571708,0.000000
207.000000,-758.573503,6683.976255,2831.720153,5150.825399,-8513.824167,10165.036936,23613.969816,1640.618043,0.086000,0.988000,0.054000,192.000000,0.000000,0.000000,0.000000,0.000000,0.000000,0.000000,0.000000,0.000000,0.000000,1647338106.571717,0.000000
208.000000,-758.081765,6682.389281,2832.055429,5149.417239,-8519.613268,10165.439268,23605.051470,1647.502380,0.086000,0.988000,0.054000,192.000000,0.000000,0.000000,0.000000,0.000000,0.000000,0.000000,0.000000,0.000000,0.000000,1647338106.578957,0.000000
209.000000,-753.969044,6686.747871,2838.291566,5151.317138,-8510.896088,10168.792029,23609.007729,1643.613177,0.086000,0.988000,0.054000,192.000000,0.000000,0.000000,0.000000,0.000000,0.000000,0.000000,0.000000,0.000000,0.000000,1647338106.587056,0.000000
210.000000,-750.035137,6691.821717,2839.140932,5152.702946,-8510.627867,10167.048593,23601.117563,1641.467409,0.084000,0.978000,0.052000,192.000000,2.000000,160.000000,30.000000,144.000000,1.000000,160.000000,0.000000,0.000000,0.000000,1647338106.587072,0.000000
211.000000,-755.734832,6684.892676,2830.937842,5148.478466,-8511.007847,10162.466486,23599.374127,1629.308060,0.084000,0.978000,0.052000,192.000000,0.000000,0.000000,0.000000,0.000000,0.000000,0.000000,0.000000,0.000000,0.000000,1647338106.594320,0.000000
212.000000,-761.121602,6676.980159,2824.478188,5139.873044,-8520.015600,10152.810532,23590.858113,1628.771618,0.084000,0.978000,0.052000,192.000000,0.000000,0.000000,0.000000,0.000000,0.000000,0.000000,0.000000,0.000000,0.000000,1647338106.594336,0.000000
213.000000,-761.009843,6677.494249,2826.333383,5142.935233,-8522.384885,10150.553006,23576.642403,1640.305119,0.084000,0.978000,0.052000,192.000000,0.000000,0.000000,0.000000,0.000000,0.000000,0.000000,0.000000,0.000000,0.000000,1647338106.601697,0.000000
214.000000,-754.684300,6685.004435,2830.379049,5151.138324,-8516.104044,10152.765829,23563.521929,1640.305119,0.084000,0.978000,0.052000,192.000000,0.000000,0.000000,0.000000,0.000000,0.000000,0.000000,0.000000,0.000000,0.000000,1647338106.601713,0.000000
215.000000,-757.210047,6680.243514,2827.719191,5145.796257,-8514.338257,10147.848445,23567.321726,1633.197264,0.084000,0.978000,0.052000,192.000000,0.000000,0.000000,0.000000,0.000000,0.000000,0.000000,0.000000,0.000000,0.000000,1647338106.609718,0.000000
216.000000,-762.216838,6674.297950,2824.567595,5140.856521,-8523.435417,10140.405314,23568.975755,1613.706543,0.084000,0.978000,0.052000,192.000000,0.000000,0.000000,0.000000,0.000000,0.000000,0.000000,0.000000,0.000000,0.000000,1647338106.609734,0.000000
217.000000,-759.601684,6683.037482,2820.700743,5144.119876,-8527.212861,10135.018544,23563.454874,1615.718200,0.084000,0.978000,0.052000,192.000000,0.000000,0.000000,0.000000,0.000000,0.000000,0.000000,0.000000,0.000000,0.000000,1647338106.617602,0.000000
218.000000,-734.411268,6708.339656,2843.052488,5166.784545,-8506.403387,10151.625890,23566.874691,1642.830866,0.084000,0.978000,0.052000,192.000000,0.000000,0.000000,0.000000,0.000000,0.000000,0.000000,0.000000,0.000000,0.000000,1647338106.617613,0.000000
219.000000,-728.711573,6709.323133,2851.948482,5173.199495,-8497.507393,10165.171047,23572.619089,1660.131116,0.084000,0.978000,0.052000,192.000000,0.000000,0.000000,0.000000,0.000000,0.000000,0.000000,0.000000,0.000000,0.000000,1647338106.624390,0.000000
220.000000,-737.384050,6704.003418,2849.869770,5171.143135,-8490.913628,10175.318739,23593.227398,1665.964921,0.082000,0.984000,0.046000,192.000000,2.000000,144.000000,30.000000,192.000000,1.000000,112.000000,0.000000,0.000000,0.000000,1647338106.624407,0.000000
221.000000,-758.551152,6680.712900,2828.680316,5145.796257,-8511.499585,10161.281843,23571.725019,1633.018450,0.082000,0.984000,0.046000,192.000000,0.000000,0.000000,0.000000,0.000000,0.000000,0.000000,0.000000,0.000000,0.000000,1647338106.632179,0.000000
222.000000,-774.644408,6659.344633,2812.095322,5125.009134,-8529.246870,10146.552044,23549.395627,1602.754188,0.082000,0.984000,0.046000,192.000000,0.000000,0.000000,0.000000,0.000000,0.000000,0.000000,0.000000,0.000000,0.000000,1647338106.632195,0.000000
223.000000,-771.962198,6660.104592,2811.514176,5121.969297,-8539.103989,10143.422800,23535.470490,1619.674458,0.082000,0.984000,0.046000,192.000000,0.000000,0.000000,0.000000,0.000000,0.000000,0.000000,0.000000,0.000000,0.000000,1647338106.639388,0.000000
224.000000,-763.624998,6665.513714,2825.126389,5134.441571,-8527.436379,10153.190512,23542.779510,1630.515055,0.082000,0.984000,0.046000,192.000000,0.000000,0.000000,0.000000,0.000000,0.000000,0.000000,0.000000,0.000000,0.000000,1647338106.639404,0.000000
225.000000,-756.383032,6670.408746,2832.167188,5143.851655,-8512.594821,10163.606425,23579.101095,1627.363459,0.082000,0.984000,0.046000,192.000000,0.000000,0.000000,0.000000,0.000000,0.000000,0.000000,0.000000,0.000000,0.000000,1647338106.647530,0.000000
226.000000,-759.668739,6668.620606,2829.350868,5137.615518,-8514.561774,10164.478143,23630.197183,1635.298328,0.082000,0.984000,0.046000,192.000000,0.000000,0.000000,0.000000,0.000000,0.000000,0.000000,0.000000,0.000000,0.000000,1647338106.653999,0.000000
227.000000,-755.623073,6673.962673,2833.687107,5138.911919,-8517.266335,10159.963090,23605.274988,1637.801723,0.082000,0.984000,0.046000,192.000000,0.000000,0.000000,0.000000,0.000000,0.000000,0.000000,0.000000,0.000000,0.000000,1647338106.654015,0.000000
228.000000,-744.715422,6686.949037,2843.030136,5151.965338,-8507.096291,10165.081640,23587.751220,1641.199188,0.082000,0.984000,0.046000,192.000000,0.000000,0.000000,0.000000,0.000000,0.000000,0.000000,0.000000,0.000000,0.000000,1647338106.662024,0.000000
229.000000,-747.442335,6685.026787,2842.448991,5154.826362,-8499.474347,10168.657919,23597.630691,1647.301215,0.082000,0.984000,0.046000,192.000000,0.000000,0.000000,0.000000,0.000000,0.000000,0.000000,0.000000,0.000000,0.000000,1647338106.662039,0.000000
230.000000,-759.288759,6673.090955,2832.167188,5152.032393,-8506.872774,10159.069021,23583.347927,1629.464523,0.080000,0.980000,0.054000,192.000000,2.000000,128.000000,30.000000,160.000000,1.000000,176.000000,0.000000,0.000000,0.000000,1647338106.669942,0.000000
231.000000,-757.053585,6670.162877,2830.244938,5151.138324,-8516.886356,10152.072925,23570.719191,1608.632697,0.080000,0.980000,0.054000,192.000000,0.000000,0.000000,0.000000,0.000000,0.000000,0.000000,0.000000,0.000000,0.000000,1647338106.669958,0.000000
232.000000,-743.441372,6682.031653,2841.286700,5161.375423,-8512.818338,10159.449000,23563.186653,1599.826109,0.080000,0.980000,0.054000,192.000000,0.000000,0.000000,0.000000,0.000000,0.000000,0.000000,0.000000,0.000000,0.000000,1647338106.676560,0.000000
233.000000,-738.523989,6691.084110,2846.807581,5166.404565,-8503.363550,10163.628777,23553.709513,1609.146787,0.080000,0.980000,0.054000,192.000000,0.000000,0.000000,0.000000,0.000000,0.000000,0.000000,0.000000,0.000000,0.000000,1647338106.676577,0.000000
234.000000,-744.916587,6687.306665,2841.599624,5160.414298,-8502.916515,10162.533541,23569.445141,1631.744400,0.080000,0.980000,0.054000,192.000000,0.000000,0.000000,0.000000,0.000000,0.000000,0.000000,0.000000,0.000000,0.000000,1647338106.684576,0.000000
235.000000,-750.258654,6681.204639,2831.518988,5153.731126,-8508.772672,10159.985442,23587.751220,1646.697718,0.080000,0.980000,0.054000,192.000000,0.000000,0.000000,0.000000,0.000000,0.000000,0.000000,0.000000,0.000000,0.000000,1647338106.684593,0.000000
236.000000,-745.542436,6683.305703,2834.000031,5156.435687,-8510.247887,10162.108858,23577.312956,1637.600558,0.080000,0.980000,0.054000,192.000000,0.000000,0.000000,0.000000,0.000000,0.000000,0.000000,0.000000,0.000000,0.000000,1647338106.692521,0.000000
237.000000,-743.709593,6688.871287,2838.202159,5159.073193,-8503.721178,10165.148695,23559.565670,1631.587938,0.080000,0.980000,0.054000,192.000000,0.000000,0.000000,0.000000,0.000000,0.000000,0.000000,0.000000,0.000000,0.000000,1647338106.692537,0.000000
238.000000,-748.738736,6683.417461,2833.888273,5149.931329,-8510.091425,10158.890207,23560.146816,1624.144807,0.080000,0.980000,0.054000,192.000000,0.000000,0.000000,0.000000,0.000000,0.000000,0.000000,0.000000,0.000000,0.000000,1647338106.699625,0.000000
239.000000,-750.258654,6678.008339,2834.983508,5152.881760,-8515.545251,10152.877587,23557.464606,1610.331429,0.080000,0.980000,0.054000,192.000000,0.000000,0.000000,0.000000,0.000000,0.000000,0.000000,0.000000,0.000000,0.000000,1647338106.699636,0.000000
240.000000,-738.702803,6686.479650,2845.555883,5161.218960,-8511.074902,10160.499532,23569.288679,1626.827017,0.074000,0.982000,0.054000,192.000000,2.000000,80.000000,30.000000,176.000000,1.000000,176.000000,0.000000,0.000000,0.000000,1647338106.706194,0.000000
241.000000,-742.010861,6683.976255,2841.532569,5159.341414,-8511.454882,10162.354727,23571.836778,1648.307043,0.074000,0.982000,0.054000,192.000000,0.000000,0.000000,0.000000,0.000000,0.000000,0.000000,0.000000,0.000000,0.000000,1647338106.714206,0.000000
242.000000,-748.582274,6678.008339,2835.676412,5149.059611,-8519.188585,10152.698773,23564.483054,1623.541310,0.074000,0.982000,0.054000,192.000000,0.000000,0.000000,0.000000,0.000000,0.000000,0.000000,0.000000,0.000000,0.000000,1647338106.714222,0.000000
243.000000,-752.627939,6670.833429,2832.524816,5143.494027,-8522.630754,10149.234253,23573.736676,1612.030162,0.074000,0.982000,0.054000,192.000000,0.000000,0.000000,0.000000,0.000000,0.000000,0.000000,0.000000,0.000000,0.000000,1647338106.722236,0.000000
244.000000,-754.796059,6668.665310,2830.826084,5141.303556,-8528.665725,10152.028221,23576.418886,1617.886319,0.074000,0.982000,0.054000,192.000000,0.000000,0.000000,0.000000,0.000000,0.000000,0.000000,0.000000,0.000000,0.000000,1647338106.722252,0.000000
245.000000,-755.578370,6670.296987,2834.603528,5144.097524,-8526.564661,10153.458733,23564.617165,1619.965031,0.074000,0.982000,0.054000,192.000000,0.000000,0.000000,0.000000,0.000000,0.000000,0.000000,0.000000,0.000000,0.000000,1647338106.729409,0.000000
246.000000,-748.761088,6674.365005,2841.711383,5149.774867,-8518.361571,10163.941701,23593.629729,1613.103046,0.074000,0.982000,0.054000,192.000000,0.000000,0.000000,0.000000,0.000000,0.000000,0.000000,0.000000,0.000000,0.000000,1647338106.729425,0.000000
247.000000,-742.323785,6678.254208,2840.191464,5152.099449,-8520.797911,10164.008756,23590.902816,1610.577298,0.074000,0.982000,0.054000,192.000000,0.000000,0.000000,0.000000,0.000000,0.000000,0.000000,0.000000,0.000000,0.000000,1647338106.736870,0.000000
248.000000,-741.876750,6677.963636,2838.090400,5149.126667,-8524.821225,10159.381945,23553.933031,1618.556871,0.074000,0.982000,0.054000,192.000000,0.000000,0.000000,0.000000,0.000000,0.000000,0.000000,0.000000,0.000000,0.000000,1647338106.736886,0.000000
249.000000,-740.759163,6681.025825,2840.638499,5148.031431,-8523.703638,10166.936835,23577.469418,1627.497569,0.074000,0.982000,0.054000,192.000000,0.000000,0.000000,0.000000,0.000000,0.000000,0.000000,0.000000,0.000000,0.000000,1647338106.744895,0.000000
250.000000,-734.724192,6687.396072,2847.522837,5153.395850,-8514.785292,10173.463544,23603.308034,1638.472276,0.074000,0.982000,0.058000,192.000000,2.000000,80.000000,30.000000,176.000000,1.000000,208.000000,0.000000,0.000000,0.000000,1647338106.744911,0.000000
251.000000,-748.917550,6672.308644,2834.827046,5140.789466,-8525.581184,10157.996137,23586.745392,1616.366400,0.074000,0.982000,0.058000,192.000000,0.000000,0.000000,0.000000,0.000000,0.000000,0.000000,0.000000,0.000000,0.000000,1647338106.752897,0.000000
252.000000,-761.389823,6654.427249,2818.443217,5122.416332,-8544.289594,10143.713372,23559.029229,1611.359610,0.074000,0.982000,0.058000,192.000000,0.000000,0.000000,0.000000,0.000000,0.000000,0.000000,0.000000,0.000000,0.000000,1647338106.752913,0.000000
253.000000,-754.684300,6660.015185,2823.986450,5121.522262,-8542.032068,10145.188587,23549.306220,1614.488854,0.074000,0.982000,0.058000,192.000000,0.000000,0.000000,0.000000,0.000000,0.000000,0.000000,0.000000,0.000000,0.000000,1647338106.759475,0.000000
254.000000,-758.126468,6656.193037,2825.282851,5125.769094,-8539.327507,10145.143884,23538.107996,1606.598688,0.074000,0.982000,0.058000,192.000000,0.000000,0.000000,0.000000,0.000000,0.000000,0.000000,0.000000,0.000000,0.000000,1647338106.759491,0.000000
255.000000,-748.626977,6664.507886,2837.285738,5134.754495,-8529.962126,10152.475256,23555.788226,1602.150691,0.074000,0.982000,0.058000,192.000000,0.000000,0.000000,0.000000,0.000000,0.000000,0.000000,0.000000,0.000000,0.000000,1647338106.766511,0.000000
0.000000,-732.623128,6681.964598,2850.652081,5146.623271,-8517.288687,10167.428573,23585.024307,1635.924177,0.074000,0.982000,0.058000,192.000000,0.000000,0.000000,0.000000,0.000000,0.000000,0.000000,0.000000,0.000000,0.000000,1647338106.774527,0.000000
1.000000,-738.881616,6679.237685,2846.405249,5146.667975,-8519.680324,10165.103992,23576.217720,1646.384793,0.074000,0.982000,0.058000,192.000000,0.000000,0.000000,0.000000,0.000000,0.000000,0.000000,0.000000,0.000000,0.000000,1647338106.774545,0.000000
2.000000,-752.270311,6668.508848,2832.949499,5134.106294,-8533.448998,10151.983518,23567.589947,1618.400409,0.074000,0.982000,0.058000,192.000000,0.000000,0.000000,0.000000,0.000000,0.000000,0.000000,0.000000,0.000000,0.000000,1647338106.782473,0.000000
3.000000,-748.157590,6675.817868,2834.067086,5139.180140,-8534.812455,10151.849407,23558.604545,1594.595801,0.074000,0.982000,0.058000,192.000000,0.000000,0.000000,0.000000,0.000000,0.000000,0.000000,0.000000,0.000000,0.000000,1647338106.782489,0.000000
4.000000,-748.649329,6674.856743,2836.726944,5141.884701,-8533.359591,10155.358631,23556.794054,1620.568528,0.074000,0.984000,0.056000,192.000000,2.000000,80.000000,30.000000,192.000000,1.000000,192.000000,0.000000,0.000000,0.000000,1647338106.789161,0.000000
5.000000,-735.238282,6682.478688,2842.113714,5152.166504,-8523.256603,10165.662785,23568.126389,1640.707450,0.074000,0.984000,0.056000,192.000000,0.000000,0.000000,0.000000,0.000000,0.000000,0.000000,0.000000,0.000000,0.000000,1647338106.789177,0.000000
6.000000,-724.867073,6688.804232,2847.969872,5161.084850,-8519.210937,10164.589902,23560.035057,1631.632642,0.074000,0.984000,0.056000,192.000000,0.000000,0.000000,0.000000,0.000000,0.000000,0.000000,0.000000,0.000000,0.000000,1647338106.797164,0.000000
7.000000,-729.940919,6685.138546,2842.225473,5156.882722,-8520.864966,10158.487875,23537.660961,1620.903804,0.074000,0.984000,0.056000,192.000000,0.000000,0.000000,0.000000,0.000000,0.000000,0.000000,0.000000,0.000000,0.000000,1647338106.797181,0.000000
8.000000,-730.946747,6682.679854,2842.873674,5150.870103,-8524.262431,10152.184683,23542.064255,1609.415008,0.074000,0.984000,0.056000,192.000000,0.000000,0.000000,0.000000,0.000000,0.000000,0.000000,0.000000,0.000000,0.000000,1647338106.805195,0.000000
9.000000,-722.386029,6692.894601,2850.652081,5159.274359,-8515.209975,10163.338204,23584.018479,1623.697772,0.074000,0.984000,0.056000,192.000000,0.000000,0.000000,0.000000,0.000000,0.000000,0.000000,0.000000,0.000000,0.000000,1647338106.805211,0.000000
10.000000,-736.400573,6681.405804,2841.778438,5151.697117,-8521.826091,10152.855236,23589.941691,1615.427627,0.074000,0.984000,0.056000,192.000000,0.000000,0.000000,0.000000,0.000000,0.000000,0.000000,0.000000,0.000000,0.000000,1647338106.811803,0.000000
11.000000,-741.385012,6675.817868,2838.470380,5141.907053,-8535.684173,10139.578299,23570.495673,1601.971877,0.074000,0.984000,0.056000,192.000000,0.000000,0.000000,0.000000,0.000000,0.000000,0.000000,0.000000,0.000000,0.000000,1647338106.811819,0.000000
12.000000,-726.856378,6692.313456,2851.769668,5158.380289,-8525.268260,10150.284785,23562.449045,1619.629755,0.074000,0.984000,0.056000,192.000000,0.000000,0.000000,0.000000,0.000000,0.000000,0.000000,0.000000,0.000000,0.000000,1647338106.819794,0.000000
13.000000,-729.359773,6689.228915,2849.601549,5153.485257,-8525.424722,10143.176930,23533.972923,1612.588955,0.074000,0.984000,0.056000,192.000000,0.000000,0.000000,0.000000,0.000000,0.000000,0.000000,0.000000,0.000000,0.000000,1647338106.819810,0.000000
14.000000,-741.988509,6676.711938,2835.341136,5138.397829,-8536.555891,10127.597764,23545.282906,1591.578316,0.074000,0.980000,0.056000,192.000000,2.000000,80.000000,30.000000,160.000000,1.000000,192.000000,0.000000,0.000000,0.000000,1647338106.826802,0.000000
15.000000,-725.448218,6691.173517,2847.031098,5153.149981,-8531.258527,10136.963145,23580.576310,1584.805737,0.074000,0.980000,0.056000,192.000000,0.000000,0.000000,0.000000,0.000000,0.000000,0.000000,0.000000,0.000000,0.000000,1647338106.834786,0.000000
16.000000,-719.614413,6697.901392,2855.345947,5162.023623,-8524.105969,10147.759038,23577.692935,1607.962144,0.074000,0.980000,0.056000,192.000000,0.000000,0.000000,0.000000,0.000000,0.000000,0.000000,0.000000,0.000000,0.000000,1647338106.834803,0.000000
17.000000,-727.035192,6692.961656,2851.322633,5157.285053,-8521.982553,10150.351840,23576.620051,1627.765790,0.074000,0.980000,0.056000,192.000000,0.000000,0.000000,0.000000,0.000000,0.000000,0.000000,0.000000,0.000000,0.000000,1647338106.841427,0.000000
18.000000,-731.371430,6689.385377,2845.555883,5154.222864,-8524.463597,10151.782352,23574.340174,1632.526712,0.074000,0.980000,0.056000,192.000000,0.000000,0.000000,0.000000,0.000000,0.000000,0.000000,0.000000,0.000000,0.000000,1647338106.841443,0.000000
19.000000,-740.535646,6682.925723,2835.855226,5148.143190,-8526.095274,10142.864006,23561.085589,1611.806644,0.074000,0.980000,0.056000,192.000000,0.000000,0.000000,0.000000,0.000000,0.000000,0.000000,0.000000,0.000000,0.000000,1647338106.849398,0.000000
20.000000,-730.857340,6689.385377,2842.113714,5153.820533,-8526.005867,10148.071962,23562.560804,1618.221595,0.074000,0.980000,0.056000,192.000000,0.000000,0.000000,0.000000,0.000000,0.000000,0.000000,0.000000,0.000000,0.000000,1647338106.849414,0.000000
21.000000,-735.618262,6683.238647,2836.190502,5145.215111,-8535.214786,10151.782352,23590.031098,1614.086522,0.074000,0.980000,0.056000,192.000000,0.000000,0.000000,0.000000,0.000000,0.000000,0.000000,0.000000,0.000000,0.000000,1647338106.857503,0.000000
22.000000,-736.065297,6681.584618,2837.129275,5139.403658,-8531.929080,10151.692945,23593.473267,1636.058287,0.074000,0.980000,0.056000,192.000000,0.000000,0.000000,0.000000,0.000000,0.000000,0.000000,0.000000,0.000000,0.000000,1647338106.857519,0.000000
23.000000,-731.930224,6680.042348,2838.515084,5137.235539,-8537.628774,10147.133189,23571.568557,1627.654031,0.074000,0.980000,0.056000,192.000000,0.000000,0.000000,0.000000,0.000000,0.000000,0.000000,0.000000,0.000000,0.000000,1647338106.864544,0.000000
24.000000,-729.695049,6684.177421,2842.873674,5143.426972,-8530.140940,10151.581186,23560.772665,1626.759961,0.072000,0.984000,0.056000,192.000000,2.000000,64.000000,30.000000,192.000000,1.000000,192.000000,0.000000,0.000000,0.000000,1647338106.864561,0.000000
25.000000,-741.183846,6671.906313,2835.698764,5127.914861,-8537.673478,10144.316869,23557.866938,1608.789159,0.072000,0.984000,0.056000,192.000000,0.000000,0.000000,0.000000,0.000000,0.000000,0.000000,0.000000,0.000000,0.000000,1647338106.872099,0.000000
26.000000,-741.608529,6672.733327,2836.905758,5132.452265,-8539.528673,10138.952451,23534.442310,1597.725045,0.072000,0.984000,0.056000,192.000000,0.000000,0.000000,0.000000,0.000000,0.000000,0.000000,0.000000,0.000000,0.000000,1647338106.872114,0.000000
27.000000,-730.030326,6686.680816,2847.858113,5147.919672,-8523.435417,10152.072925,23538.733845,1624.256566,0.072000,0.984000,0.056000,192.000000,0.000000,0.000000,0.000000,0.000000,0.000000,0.000000,0.000000,0.000000,0.000000,1647338106.880053,0.000000
28.000000,-731.773762,6687.396072,2843.611281,5146.287995,-8521.423760,10153.369326,23560.035057,1615.874662,0.072000,0.984000,0.056000,192.000000,0.000000,0.000000,0.000000,0.000000,0.000000,0.000000,0.000000,0.000000,0.000000,1647338106.880069,0.000000
29.000000,-728.421000,6691.508793,2846.382898,5151.272434,-8520.306172,10163.628777,23590.388726,1633.420781,0.072000,0.984000,0.056000,192.000000,0.000000,0.000000,0.000000,0.000000,0.000000,0.000000,0.000000,0.000000,0.000000,1647338106.887114,0.000000
30.000000,-739.798038,6678.455374,2835.944633,5141.057687,-8527.436379,10158.510227,23588.555883,1629.464523,0.072000,0.984000,0.056000,192.000000,0.000000,0.000000,0.000000,0.000000,0.000000,0.000000,0.000000,0.000000,0.000000,1647338106.887130,0.000000
31.000000,-748.761088,6662.697394,2825.796941,5126.082018,-8544.222539,10145.657974,23581.291566,1609.437360,0.072000,0.984000,0.056000,192.000000,0.000000,0.000000,0.000000,0.000000,0.000000,0.000000,0.000000,0.000000,0.000000,1647338106.894332,0.000000
32.000000,-734.567730,6673.292121,2838.626842,5135.112123,-8545.161312,10152.788180,23575.793037,1625.910595,0.072000,0.984000,0.056000,192.000000,0.000000,0.000000,0.000000,0.000000,0.000000,0.000000,0.000000,0.000000,0.000000,1647338106.901686,0.000000
33.000000,-717.222776,6689.787708,2852.641386,5151.205379,-8532.018487,10163.539370,23566.919394,1632.526712,0.072000,0.984000,0.056000,192.000000,0.000000,0.000000,0.000000,0.000000,0.000000,0.000000,0.000000,0.000000,0.000000,1647338106.901702,0.000000
34.000000,-710.316087,6698.303723,2858.139915,5157.240350,-8519.121530,10170.043727,23561.443217,1631.096200,0.070000,0.984000,0.050000,192.000000,2.000000,48.000000,30.000000,192.000000,1.000000,144.000000,0.000000,0.000000,0.000000,1647338106.909706,0.000000
35.000000,-724.442390,6681.249342,2845.689994,5142.488199,-8529.135111,10156.520922,23551.653153,1615.360572,0.070000,0.984000,0.050000,192.000000,0.000000,0.000000,0.000000,0.000000,0.000000,0.000000,0.000000,0.000000,0.000000,1647338106.909722,0.000000
36.000000,-731.080858,6674.208543,2840.191464,5134.441571,-8540.579205,10147.691983,23543.070083,1599.781406,0.070000,0.984000,0.050000,192.000000,0.000000,0.000000,0.000000,0.000000,0.000000,0.000000,0.000000,0.000000,0.000000,1647338106.916799,0.000000
37.000000,-716.105189,6692.872249,2856.307072,5151.808876,-8532.152597,10164.366384,23577.312956,1611.694886,0.070000,0.984000,0.050000,192.000000,0.000000,0.000000,0.000000,0.000000,0.000000,0.000000,0.000000,0.000000,0.000000,1647338106.916814,0.000000
38.000000,-717.111017,6688.133679,2857.581122,5149.238425,-8527.078751,10165.215750,23580.889235,1620.345011,0.070000,0.984000,0.050000,192.000000,0.000000,0.000000,0.000000,0.000000,0.000000,0.000000,0.000000,0.000000,0.000000,1647338106.924342,0.000000
39.000000,-713.847663,6691.642903,2858.542247,5150.423068,-8521.624925,10162.801762,23566.338249,1620.032086,0.070000,0.984000,0.050000,192.000000,0.000000,0.000000,0.000000,0.000000,0.000000,0.000000,0.000000,0.000000,0.000000,1647338106.924359,0.000000
40.000000,-715.792264,6692.492270,2857.536418,5147.807914,-8519.076826,10164.411088,23590.791057,1625.843540,0.070000,0.984000,0.050000,192.000000,0.000000,0.000000,0.000000,0.000000,0.000000,0.000000,0.000000,0.000000,0.000000,1647338106.932117,0.000000
41.000000,-717.133369,6690.972351,2856.195313,5144.030469,-8526.318792,10163.695832,23606.973720,1632.414953,0.070000,0.984000,0.050000,192.000000,0.000000,0.000000,0.000000,0.000000,0.000000,0.000000,0.000000,0.000000,0.000000,1647338106.932133,0.000000
42.000000,-711.299564,6694.660389,2860.866828,5151.875931,-8527.078751,10160.276015,23566.025325,1622.311964,0.070000,0.984000,0.050000,192.000000,0.000000,0.000000,0.000000,0.000000,0.000000,0.000000,0.000000,0.000000,0.000000,1647338106.940358,0.000000
43.000000,-711.880709,6693.185174,2858.497543,5149.327832,-8533.828978,10157.638509,23561.689086,1609.638525,0.070000,0.984000,0.050000,192.000000,0.000000,0.000000,0.000000,0.000000,0.000000,0.000000,0.000000,0.000000,0.000000,1647338106.940375,0.000000
44.000000,-713.847663,6691.464089,2859.212799,5147.852617,-8530.766789,10161.326547,23586.655985,1619.093313,0.080000,0.982000,0.052000,192.000000,2.000000,128.000000,30.000000,176.000000,1.000000,160.000000,0.000000,0.000000,0.000000,1647338106.946973,0.000000
45.000000,-719.972041,6686.591409,2855.949444,5147.494989,-8530.587975,10154.039878,23566.472359,1622.155502,0.080000,0.982000,0.052000,192.000000,0.000000,0.000000,0.000000,0.000000,0.000000,0.000000,0.000000,0.000000,0.000000,1647338106.946989,0.000000
46.000000,-719.077971,6690.748834,2857.134087,5150.624234,-8530.543271,10155.582149,23554.514176,1619.808569,0.080000,0.982000,0.052000,192.000000,0.000000,0.000000,0.000000,0.000000,0.000000,0.000000,0.000000,0.000000,0.000000,1647338106.953940,0.000000
47.000000,-724.129465,6686.144374,2850.428563,5146.332699,-8532.018487,10156.610329,23582.945595,1628.078714,0.080000,0.982000,0.052000,192.000000,0.000000,0.000000,0.000000,0.000000,0.000000,0.000000,0.000000,0.000000,0.000000,1647338106.961991,0.000000
48.000000,-719.525006,6689.228915,2850.741488,5146.891492,-8534.723048,10152.452904,23562.359638,1631.990270,0.080000,0.982000,0.052000,192.000000,0.000000,0.000000,0.000000,0.000000,0.000000,0.000000,0.000000,0.000000,0.000000,1647338106.962006,0.000000
49.000000,-713.735904,6694.101595,2861.649139,5152.211207,-8526.385847,10166.556855,23603.822124,1664.959093,0.080000,0.982000,0.052000,192.000000,0.000000,0.000000,0.000000,0.000000,0.000000,0.000000,0.000000,0.000000,0.000000,1647338106.969926,0.000000
50.000000,-722.654250,6681.830487,2855.502409,5142.108219,-8529.917423,10163.137038,23612.896933,1657.515962,0.080000,0.982000,0.052000,192.000000,0.000000,0.000000,0.000000,0.000000,0.000000,0.000000,0.000000,0.000000,0.000000,1647338106.969942,0.000000
51.000000,-735.037116,6670.095822,2840.437334,5131.200568,-8541.026240,10150.150675,23583.035002,1638.360517,0.080000,0.982000,0.052000,192.000000,0.000000,0.000000,0.000000,0.000000,0.000000,0.000000,0.000000,0.000000,0.000000,1647338106.976616,0.000000
52.000000,-727.482227,6676.667235,2845.801752,5137.302594,-8540.534501,10151.558835,23572.775551,1635.790066,0.080000,0.982000,0.052000,192.000000,0.000000,0.000000,0.000000,0.000000,0.000000,0.000000,0.000000,0.000000,0.000000,1647338106.976632,0.000000
53.000000,-723.771837,6680.958769,2848.193389,5139.180140,-8534.879510,10158.532579,23567.791112,1648.217636,0.080000,0.982000,0.052000,192.000000,0.000000,0.000000,0.000000,0.000000,0.000000,0.000000,0.000000,0.000000,0.000000,1647338106.984554,0.000000
54.000000,-730.633823,6673.694452,2837.911587,5124.383286,-8541.696792,10153.548140,23562.985487,1644.820171,0.080000,0.982000,0.052000,192.000000,0.000000,0.000000,0.000000,0.000000,0.000000,0.000000,0.000000,0.000000,0.000000,1647338106.984570,0.000000
55.000000,-732.153741,6670.632263,2832.480113,5124.115065,-8549.899882,10148.206073,23550.870842,1638.271110,0.076000,0.982000,0.052000,192.000000,2.000000,96.000000,30.000000,176.000000,1.000000,160.000000,0.000000,0.000000,0.000000,1647338106.992479,0.000000
56.000000,-717.289831,6685.406767,2847.411078,5142.130571,-8545.317774,10155.604500,23560.392685,1649.916369,0.076000,0.982000,0.052000,192.000000,0.000000,0.000000,0.000000,0.000000,0.000000,0.000000,0.000000,0.000000,0.000000,1647338106.992495,0.000000
57.000000,-725.872901,6680.690549,2844.460648,5139.962451,-8543.373173,10152.676422,23572.060296,1646.228331,0.076000,0.982000,0.052000,192.000000,0.000000,0.000000,0.000000,0.000000,0.000000,0.000000,0.000000,0.000000,0.000000,1647338106.999724,0.000000
58.000000,-723.101285,6683.395110,2840.079706,5141.795294,-8548.357612,10150.553006,23580.352793,1650.765735,0.076000,0.982000,0.052000,192.000000,0.000000,0.000000,0.000000,0.000000,0.000000,0.000000,0.000000,0.000000,0.000000,1647338106.999742,0.000000
59.000000,-709.176148,6695.152127,2856.351776,5157.150943,-8531.347934,10167.160352,23601.765764,1683.667503,0.076000,0.982000,0.052000,192.000000,0.000000,0.000000,0.000000,0.000000,0.000000,0.000000,0.000000,0.000000,0.000000,1647338107.007244,0.000000
60.000000,-727.638689,6678.075394,2847.522837,5145.952719,-8536.712353,10156.207997,23607.934845,1665.696700,0.076000,0.982000,0.052000,192.000000,0.000000,0.000000,0.000000,0.000000,0.000000,0.000000,0.000000,0.000000,0.000000,1647338107.007255,0.000000
61.000000,-722.162512,6686.613761,2857.737584,5150.713641,-8538.500492,10155.179817,23588.779400,1654.118497,0.076000,0.982000,0.052000,192.000000,0.000000,0.000000,0.000000,0.000000,0.000000,0.000000,0.000000,0.000000,0.000000,1647338107.014163,0.000000
62.000000,-718.496826,6695.375645,2863.079651,5159.207303,-8527.659896,10159.337242,23591.439258,1659.840543,0.076000,0.982000,0.052000,192.000000,0.000000,0.000000,0.000000,0.000000,0.000000,0.000000,0.000000,0.000000,0.000000,1647338107.022281,0.000000
63.000000,-711.143102,6702.259982,2869.807526,5168.080946,-8517.601611,10166.154524,23599.374127,1666.657825,0.076000,0.982000,0.052000,192.000000,0.000000,0.000000,0.000000,0.000000,0.000000,0.000000,0.000000,0.000000,0.000000,1647338107.022297,0.000000
64.000000,-713.490035,6700.695360,2868.131145,5165.197571,-8517.378094,10163.964053,23595.417869,1667.060157,0.076000,0.982000,0.052000,192.000000,0.000000,0.000000,0.000000,0.000000,0.000000,0.000000,0.000000,0.000000,0.000000,1647338107.029378,0.000000
65.000000,-709.980811,6707.780863,2875.216648,5170.271417,-8513.533594,10170.781335,23582.565615,1674.458584,0.074000,0.984000,0.046000,192.000000,2.000000,80.000000,30.000000,192.000000,1.000000,112.000000,0.000000,0.000000,0.000000,1647338107.029394,0.000000
66.000000,-722.453084,6694.258057,2862.520857,5154.222864,-8526.274088,10161.684175,23580.710421,1667.395433,0.074000,0.984000,0.046000,192.000000,0.000000,0.000000,0.000000,0.000000,0.000000,0.000000,0.000000,0.000000,0.000000,1647338107.036819,0.000000
67.000000,-721.559015,6696.001493,2862.654968,5156.994481,-8525.312963,10161.639471,23580.419848,1670.658788,0.074000,0.984000,0.046000,192.000000,0.000000,0.000000,0.000000,0.000000,0.000000,0.000000,0.000000,0.000000,0.000000,1647338107.036835,0.000000
68.000000,-731.304375,6692.358159,2855.703575,5151.406545,-8531.236175,10149.882454,23556.324667,1643.769639,0.074000,0.984000,0.046000,192.000000,0.000000,0.000000,0.000000,0.000000,0.000000,0.000000,0.000000,0.000000,0.000000,1647338107.044924,0.000000
69.000000,-735.059468,6688.983046,2851.434392,5143.002289,-8535.326545,10147.982555,23567.098208,1632.884339,0.074000,0.984000,0.046000,192.000000,0.000000,0.000000,0.000000,0.000000,0.000000,0.000000,0.000000,0.000000,0.000000,1647338107.044940,0.000000
70.000000,-741.899102,6680.847011,2843.655985,5133.055762,-8539.707487,10145.635622,23564.304240,1661.583979,0.074000,0.984000,0.046000,192.000000,0.000000,0.000000,0.000000,0.000000,0.000000,0.000000,0.000000,0.000000,0.000000,1647338107.051939,0.000000
71.000000,-745.430678,6674.767336,2835.229377,5126.909033,-8552.179760,10132.224576,23540.477281,1663.595636,0.074000,0.984000,0.046000,192.000000,0.000000,0.000000,0.000000,0.000000,0.000000,0.000000,0.000000,0.000000,0.000000,1647338107.051955,0.000000
72.000000,-745.453029,6677.717766,2834.402363,5128.026620,-8559.108801,10125.027314,23517.007949,1644.104915,0.074000,0.984000,0.046000,192.000000,0.000000,0.000000,0.000000,0.000000,0.000000,0.000000,0.000000,0.000000,0.000000,1647338107.059536,0.000000
73.000000,-749.610454,6676.756641,2837.755124,5135.000364,-8553.431458,10137.164311,23580.978642,1656.800706,0.074000,0.984000,0.046000,192.000000,0.000000,0.000000,0.000000,0.000000,0.000000,0.000000,0.000000,0.000000,0.000000,1647338107.059551,0.000000
74.000000,-743.173151,6680.176458,2844.125371,5143.538731,-8545.384830,10145.412105,23597.653043,1669.921180,0.074000,0.984000,0.046000,192.000000,0.000000,0.000000,0.000000,0.000000,0.000000,0.000000,0.000000,0.000000,0.000000,1647338107.067282,0.000000
75.000000,-750.124544,6669.469973,2832.301299,5129.367725,-8554.481990,10137.566642,23581.157456,1662.343939,0.076000,0.984000,0.052000,192.000000,2.000000,96.000000,30.000000,192.000000,1.000000,160.000000,0.000000,0.000000,0.000000,1647338107.067294,0.000000
76.000000,-740.647404,6675.951979,2846.159380,5135.916786,-8552.068001,10146.082657,23583.504389,1673.609218,0.076000,0.984000,0.052000,192.000000,0.000000,0.000000,0.000000,0.000000,0.000000,0.000000,0.000000,0.000000,0.000000,1647338107.074359,0.000000
77.000000,-735.975890,6681.070528,2852.462572,5142.152922,-8541.674440,10153.726954,23575.569519,1669.988235,0.076000,0.984000,0.052000,192.000000,0.000000,0.000000,0.000000,0.000000,0.000000,0.000000,0.000000,0.000000,0.000000,1647338107.081504,0.000000
78.000000,-737.316994,6681.249342,2844.505351,5141.750591,-8540.758019,10153.436381,23567.813464,1647.189456,0.076000,0.984000,0.052000,192.000000,0.000000,0.000000,0.000000,0.000000,0.000000,0.000000,0.000000,0.000000,0.000000,1647338107.081521,0.000000
79.000000,-739.999204,6676.667235,2839.766781,5139.202492,-8540.959184,10155.783314,23567.053505,1646.943587,0.076000,0.984000,0.052000,192.000000,0.000000,0.000000,0.000000,0.000000,0.000000,0.000000,0.000000,0.000000,0.000000,1647338107.089190,0.000000
80.000000,-745.520085,6671.012243,2831.027249,5133.055762,-8550.212806,10150.687116,23552.614278,1643.099087,0.076000,0.984000,0.052000,192.000000,0.000000,0.000000,0.000000,0.000000,0.000000,0.000000,0.000000,0.000000,0.000000,1647338107.089206,0.000000
81.000000,-743.843704,6672.733327,2832.144836,5136.833207,-8558.170028,10154.531617,23567.589947,1650.765735,0.076000,0.984000,0.052000,192.000000,0.000000,0.000000,0.000000,0.000000,0.000000,0.000000,0.000000,0.000000,0.000000,1647338107.097121,0.000000
82.000000,-736.512332,6678.276560,2840.459685,5143.046992,-8554.526693,10161.952396,23567.277022,1666.233142,0.076000,0.984000,0.052000,192.000000,0.000000,0.000000,0.000000,0.000000,0.000000,0.000000,0.000000,0.000000,0.000000,1647338107.097137,0.000000
83.000000,-743.217855,6672.018072,2834.000031,5134.083943,-8556.426591,10152.587015,23544.411188,1653.716165,0.076000,0.984000,0.052000,192.000000,0.000000,0.000000,0.000000,0.000000,0.000000,0.000000,0.000000,0.000000,0.000000,1647338107.105243,0.000000
84.000000,-746.950596,6669.604083,2833.061258,5130.865291,-8558.952339,10145.322698,23555.542356,1643.836694,0.076000,0.984000,0.052000,192.000000,0.000000,0.000000,0.000000,0.000000,0.000000,0.000000,0.000000,0.000000,0.000000,1647338107.105259,0.000000
85.000000,-738.032250,6678.477726,2842.136066,5147.137361,-8553.118533,10147.110837,23583.973775,1660.734613,0.078000,0.988000,0.050000,192.000000,2.000000,112.000000,30.000000,224.000000,1.000000,144.000000,0.000000,0.000000,0.000000,1647338107.111713,0.000000
86.000000,-729.002145,6685.898505,2850.048584,5155.362803,-8549.899882,10152.654070,23585.448991,1670.055290,0.078000,0.988000,0.050000,192.000000,0.000000,0.000000,0.000000,0.000000,0.000000,0.000000,0.000000,0.000000,0.000000,1647338107.111729,0.000000
87.000000,-737.272291,6680.176458,2843.097191,5150.534827,-8552.447981,10151.737648,23600.402308,1669.071814,0.078000,0.988000,0.050000,192.000000,0.000000,0.000000,0.000000,0.000000,0.000000,0.000000,0.000000,0.000000,0.000000,1647338107.119836,0.000000
88.000000,-719.770875,6699.086034,2861.783250,5171.478411,-8538.858120,10163.517018,23604.000938,1658.499439,0.078000,0.988000,0.050000,192.000000,0.000000,0.000000,0.000000,0.000000,0.000000,0.000000,0.000000,0.000000,0.000000,1647338107.119851,0.000000
89.000000,-735.864131,6681.852839,2845.622938,5153.820533,-8549.564606,10152.296442,23569.713362,1674.168011,0.078000,0.988000,0.050000,192.000000,0.000000,0.000000,0.000000,0.000000,0.000000,0.000000,0.000000,0.000000,0.000000,1647338107.127821,0.000000
90.000000,-741.921454,6676.644883,2836.905758,5148.746687,-8560.405202,10142.349916,23547.316914,1671.374043,0.078000,0.988000,0.050000,192.000000,0.000000,0.000000,0.000000,0.000000,0.000000,0.000000,0.000000,0.000000,0.000000,1647338107.127837,0.000000
91.000000,-733.494846,6688.111328,2846.181732,5156.770963,-8558.058269,10149.368364,23564.684220,1666.434308,0.078000,0.988000,0.050000,192.000000,0.000000,0.000000,0.000000,0.000000,0.000000,0.000000,0.000000,0.000000,0.000000,1647338107.133972,0.000000
92.000000,-733.383087,6687.329017,2849.355680,5152.144152,-8556.694812,10156.900901,23567.209967,1678.705416,0.078000,0.988000,0.050000,192.000000,0.000000,0.000000,0.000000,0.000000,0.000000,0.000000,0.000000,0.000000,0.000000,1647338107.133988,0.000000
93.000000,-752.605588,6667.368909,2832.927147,5127.400771,-8571.804592,10141.299384,23571.635612,1665.160258,0.078000,0.988000,0.050000,192.000000,0.000000,0.000000,0.000000,0.000000,0.000000,0.000000,0.000000,0.000000,0.000000,1647338107.141389,0.000000
94.000000,-753.901989,6667.190095,2834.268252,5132.720486,-8571.022281,10139.041858,23575.614223,1655.996043,0.078000,0.988000,0.050000,192.000000,0.000000,0.000000,0.000000,0.000000,0.000000,0.000000,0.000000,0.000000,0.000000,1647338107.149320,0.000000
95.000000,-749.208122,6671.839258,2838.760953,5141.348260,-8567.490705,10142.036991,23578.274081,1649.648148,0.080000,0.980000,0.058000,192.000000,2.000000,128.000000,30.000000,160.000000,1.000000,208.000000,0.000000,0.000000,0.000000,1647338107.149331,0.000000
96.000000,-753.991396,6667.882999,2831.720153,5137.503760,-8571.335205,10135.823206,23564.728923,1629.084543,0.080000,0.980000,0.058000,192.000000,0.000000,0.000000,0.000000,0.000000,0.000000,0.000000,0.000000,0.000000,0.000000,1647338107.157440,0.000000
97.000000,-749.766916,6677.360139,2832.725982,5140.923576,-8577.526638,10141.075866,23555.654115,1662.790974,0.080000,0.980000,0.058000,192.000000,0.000000,0.000000,0.000000,0.000000,0.000000,0.000000,0.000000,0.000000,0.000000,1647338107.157456,0.000000
98.000000,-729.002145,6701.589430,2845.108848,5157.374460,-8565.389641,10154.866893,23568.439313,1670.792898,0.080000,0.980000,0.058000,192.000000,0.000000,0.000000,0.000000,0.000000,0.000000,0.000000,0.000000,0.000000,0.000000,1647338107.164084,0.000000
99.000000,-730.142084,6690.502964,2838.246863,5148.120838,-8565.255531,10145.143884,23558.984525,1656.487782,0.080000,0.980000,0.058000,192.000000,0.000000,0.000000,0.000000,0.000000,0.000000,0.000000,0.000000,0.000000,0.000000,1647338107.164101,0.000000
100.000000,-738.501637,6676.734290,2842.113714,5147.964376,-8561.925121,10150.508303,23557.196386,1653.783221,0.080000,0.980000,0.058000,192.000000,0.000000,0.000000,0.000000,0.000000,0.000000,0.000000,0.000000,0.000000,0.000000,1647338107.172063,0.000000
101.000000,-744.402497,6669.894656,2847.411078,5146.064478,-8558.751173,10159.896035,23572.216758,1659.661729,0.080000,0.980000,0.058000,192.000000,0.000000,0.000000,0.000000,0.000000,0.000000,0.000000,0.000000,0.000000,0.000000,1647338107.172079,0.000000
102.000000,-747.487038,6664.373775,2841.599624,5134.776847,-8570.217618,10152.385849,23558.090455,1656.308968,0.080000,0.980000,0.058000,192.000000,0.000000,0.000000,0.000000,0.000000,0.000000,0.000000,0.000000,0.000000,0.000000,1647338107.180112,0.000000
103.000000,-754.639596,6658.830542,2829.954365,5125.456169,-8577.660749,10143.981593,23569.623955,1648.508209,0.080000,0.980000,0.058000,192.000000,0.000000,0.000000,0.000000,0.000000,0.000000,0.000000,0.000000,0.000000,0.000000,1647338107.180128,0.000000
104.000000,-757.746489,6652.840275,2827.182749,5122.550443,-8581.348787,10140.405314,23588.645290,1653.783221,0.080000,0.980000,0.058000,192.000000,0.000000,0.000000,0.000000,0.000000,0.000000,0.000000,0.000000,0.000000,0.000000,1647338107.187176,0.000000
105.000000,-752.918512,6657.981176,2829.507331,5126.350239,-8584.701548,10138.192491,23575.927147,1648.687023,0.068000,0.986000,0.058000,192.000000,2.000000,32.000000,30.000000,208.000000,1.000000,208.000000,0.000000,0.000000,0.000000,1647338107.187192,0.000000
106.000000,-739.663928,6672.867438,2843.834799,5140.074210,-8574.956188,10150.865930,23573.982546,1653.939683,0.068000,0.986000,0.058000,192.000000,0.000000,0.000000,0.000000,0.000000,0.000000,0.000000,0.000000,0.000000,0.000000,1647338107.194742,0.000000
107.000000,-743.128448,6674.297950,2843.097191,5140.923576,-8573.615083,10147.535520,23566.807636,1650.609273,0.068000,0.986000,0.058000,192.000000,0.000000,0.000000,0.000000,0.000000,0.000000,0.000000,0.000000,0.000000,0.000000,1647338107.194758,0.000000
108.000000,-733.628957,6683.216296,2851.903779,5156.055707,-8561.411030,10156.811494,23572.686144,1660.376985,0.068000,0.986000,0.058000,192.000000,0.000000,0.000000,0.000000,0.000000,0.000000,0.000000,0.000000,0.000000,0.000000,1647338107.201568,0.000000
109.000000,-737.652271,6680.064700,2849.467438,5151.808876,-8561.545141,10152.475256,23540.700798,1665.406128,0.068000,0.986000,0.058000,192.000000,0.000000,0.000000,0.000000,0.000000,0.000000,0.000000,0.000000,0.000000,0.000000,1647338107.209734,0.000000
110.000000,-741.675585,6674.990854,2843.879502,5145.125704,-8564.406164,10153.816361,23546.445196,1661.449869,0.068000,0.986000,0.058000,192.000000,0.000000,0.000000,0.000000,0.000000,0.000000,0.000000,0.000000,0.000000,0.000000,1647338107.209750,0.000000
111.000000,-752.940864,6662.809153,2834.782342,5134.195701,-8575.738499,10149.681288,23575.077781,1637.935834,0.068000,0.986000,0.058000,192.000000,0.000000,0.000000,0.000000,0.000000,0.000000,0.000000,0.000000,0.000000,0.000000,1647338107.216847,0.000000
112.000000,-749.722213,6667.927702,2837.241034,5136.609690,-8579.091260,10157.169122,23592.400383,1653.894979,0.068000,0.986000,0.058000,192.000000,0.000000,0.000000,0.000000,0.000000,0.000000,0.000000,0.000000,0.000000,0.000000,1647338107.216863,0.000000
113.000000,-742.927282,6673.582694,2844.840627,5144.097524,-8572.653958,10157.392640,23584.174941,1659.751136,0.068000,0.986000,0.058000,192.000000,0.000000,0.000000,0.000000,0.000000,0.000000,0.000000,0.000000,0.000000,0.000000,1647338107.224326,0.000000
114.000000,-742.390840,6675.259075,2842.784267,5143.136399,-8571.871647,10151.447076,23555.363542,1642.205017,0.068000,0.986000,0.058000,192.000000,0.000000,0.000000,0.000000,0.000000,0.000000,0.000000,0.000000,0.000000,0.000000,1647338107.224341,0.000000
115.000000,-739.865093,6675.817868,2844.393592,5147.427934,-8567.557760,10160.410125,23574.071953,1668.982407,0.074000,0.986000,0.058000,192.000000,2.000000,80.000000,30.000000,208.000000,1.000000,208.000000,0.000000,0.000000,0.000000,1647338107.232300,0.000000
116.000000,-741.206198,6673.336825,2843.320709,5146.645623,-8571.201095,10157.057364,23570.562729,1665.428479,0.074000,0.986000,0.058000,192.000000,0.000000,0.000000,0.000000,0.000000,0.000000,0.000000,0.000000,0.000000,0.000000,1647338107.232316,0.000000
117.000000,-747.040003,6666.497191,2836.414020,5137.995498,-8580.007682,10141.187625,23539.471452,1632.213787,0.074000,0.986000,0.058000,192.000000,0.000000,0.000000,0.000000,0.000000,0.000000,0.000000,0.000000,0.000000,0.000000,1647338107.240316,0.000000
118.000000,-741.340308,6671.459278,2841.219645,5138.978975,-8579.337130,10139.287727,23534.911696,1625.038877,0.074000,0.986000,0.058000,192.000000,0.000000,0.000000,0.000000,0.000000,0.000000,0.000000,0.000000,0.000000,0.000000,1647338107.240332,0.000000
119.000000,-740.557997,6677.561304,2846.472305,5144.499856,-8571.089336,10150.843579,23554.692990,1656.979520,0.074000,0.986000,0.058000,192.000000,0.000000,0.000000,0.000000,0.000000,0.000000,0.000000,0.000000,0.000000,0.000000,1647338107.246706,0.000000
120.000000,-745.385974,6678.455374,2841.934901,5142.823475,-8570.038804,10150.418896,23566.919394,1653.984386,0.074000,0.986000,0.058000,192.000000,0.000000,0.000000,0.000000,0.000000,0.000000,0.000000,0.000000,0.000000,0.000000,1647338107.246722,0.000000
121.000000,-754.863114,6667.950054,2834.849398,5132.206396,-8581.281731,10145.099180,23580.486903,1669.384738,0.074000,0.986000,0.058000,192.000000,0.000000,0.000000,0.000000,0.000000,0.000000,0.000000,0.000000,0.000000,0.000000,1647338107.254763,0.000000
122.000000,-746.525913,6671.459278,2842.516046,5136.162655,-8581.751118,10149.569529,23565.511234,1653.827924,0.074000,0.986000,0.058000,192.000000,0.000000,0.000000,0.000000,0.000000,0.000000,0.000000,0.000000,0.000000,0.000000,1647338107.254780,0.000000
123.000000,-755.220742,6664.619644,2835.385839,5128.294841,-8584.388624,10145.523863,23579.548130,1665.830811,0.074000,0.986000,0.058000,192.000000,0.000000,0.000000,0.000000,0.000000,0.000000,0.000000,0.000000,0.000000,0.000000,1647338107.262036,0.000000
124.000000,-748.492867,6672.599217,2844.237130,5135.782675,-8578.465411,10152.542311,23582.275043,1663.059194,0.074000,0.986000,0.058000,192.000000,0.000000,0.000000,0.000000,0.000000,0.000000,0.000000,0.000000,0.000000,0.000000,1647338107.269215,0.000000
125.000000,-738.278119,6684.020958,2853.177828,5146.511513,-8567.691871,10158.465524,23578.274081,1660.108764,0.074000,0.984000,0.060000,192.000000,2.000000,80.000000,30.000000,192.000000,1.000000,224.000000,0.000000,0.000000,0.000000,1647338107.269231,0.000000
126.000000,-738.658099,6683.037482,2852.775497,5143.762248,-8565.456696,10156.051535,23570.540377,1651.995081,0.074000,0.984000,0.060000,192.000000,0.000000,0.000000,0.000000,0.000000,0.000000,0.000000,0.000000,0.000000,0.000000,1647338107.276574,0.000000
127.000000,-744.782477,6680.534086,2847.724002,5140.320079,-8568.563589,10151.648241,23567.746409,1638.628738,0.074000,0.984000,0.060000,192.000000,0.000000,0.000000,0.000000,0.000000,0.000000,0.000000,0.000000,0.000000,0.000000,1647338107.276590,0.000000
128.000000,-737.294643,6684.579752,2853.736622,5154.535789,-8560.114629,10161.304195,23575.860092,1656.174857,0.074000,0.984000,0.060000,192.000000,0.000000,0.000000,0.000000,0.000000,0.000000,0.000000,0.000000,0.000000,0.000000,1647338107.284528,0.000000
129.000000,-738.747506,6677.650711,2851.210874,5152.658242,-8557.924158,10162.019451,23574.966022,1661.092241,0.074000,0.984000,0.060000,192.000000,0.000000,0.000000,0.000000,0.000000,0.000000,0.000000,0.000000,0.000000,0.000000,1647338107.284546,0.000000
130.000000,-743.664890,6672.800383,2844.058316,5145.908015,-8565.434344,10154.084582,23570.763894,1651.704508,0.074000,0.984000,0.060000,192.000000,0.000000,0.000000,0.000000,0.000000,0.000000,0.000000,0.000000,0.000000,0.000000,1647338107.292513,0.000000
131.000000,-737.741677,6680.958769,2849.087459,5152.680594,-8567.580112,10154.956300,23557.017572,1648.687023,0.074000,0.984000,0.060000,192.000000,0.000000,0.000000,0.000000,0.000000,0.000000,0.000000,0.000000,0.000000,0.000000,1647338107.292529,0.000000
132.000000,-734.523026,6685.473822,2854.630691,5153.172332,-8559.689946,10157.817323,23550.200290,1648.731726,0.074000,0.984000,0.060000,192.000000,0.000000,0.000000,0.000000,0.000000,0.000000,0.000000,0.000000,0.000000,0.000000,1647338107.299160,0.000000
133.000000,-749.386936,6670.498153,2842.605453,5133.234576,-8567.736574,10141.947584,23539.247935,1635.320680,0.074000,0.984000,0.060000,192.000000,0.000000,0.000000,0.000000,0.000000,0.000000,0.000000,0.000000,0.000000,0.000000,1647338107.299176,0.000000
134.000000,-746.972948,6671.235761,2843.074839,5131.669954,-8568.720051,10144.182759,23541.840737,1635.208921,0.074000,0.984000,0.060000,192.000000,0.000000,0.000000,0.000000,0.000000,0.000000,0.000000,0.000000,0.000000,0.000000,1647338107.307202,0.000000
135.000000,-746.749431,6670.274636,2843.678337,5123.153940,-8572.497496,10145.322698,23546.221679,1635.566549,0.074000,0.984000,0.060000,192.000000,2.000000,80.000000,30.000000,192.000000,1.000000,224.000000,0.000000,0.000000,0.000000,1647338107.307218,0.000000
136.000000,-736.802904,6682.344578,2851.501447,5136.699097,-8568.407126,10150.217730,23534.419958,1644.641357,0.074000,0.984000,0.060000,192.000000,0.000000,0.000000,0.000000,0.000000,0.000000,0.000000,0.000000,0.000000,0.000000,1647338107.315053,0.000000
137.000000,-742.882579,6675.795516,2843.365412,5133.256928,-8570.284673,10146.954375,23553.821272,1652.553875,0.074000,0.984000,0.060000,192.000000,0.000000,0.000000,0.000000,0.000000,0.000000,0.000000,0.000000,0.000000,0.000000,1647338107.315070,0.000000
138.000000,-745.073050,6672.330996,2840.370278,5127.289012,-8576.789031,10142.998116,23590.120505,1642.361479,0.074000,0.984000,0.060000,192.000000,0.000000,0.000000,0.000000,0.000000,0.000000,0.000000,0.000000,0.000000,0.000000,1647338107.322332,0.000000
139.000000,-746.190637,6672.532162,2838.068049,5129.211262,-8575.246760,10140.517073,23565.421827,1622.356668,0.074000,0.984000,0.060000,192.000000,0.000000,0.000000,0.000000,0.000000,0.000000,0.000000,0.000000,0.000000,0.000000,1647338107.328867,0.000000
140.000000,-733.137218,6682.679854,2848.282796,5144.276338,-8568.809458,10146.708506,23536.029284,1648.195284,0.074000,0.984000,0.060000,192.000000,0.000000,0.000000,0.000000,0.000000,0.000000,0.000000,0.000000,0.000000,0.000000,1647338107.328884,0.000000
141.000000,-738.993375,6673.314473,2845.622938,5142.041164,-8569.502362,10150.150675,23576.575348,1666.858991,0.074000,0.984000,0.060000,192.000000,0.000000,0.000000,0.000000,0.000000,0.000000,0.000000,0.000000,0.000000,0.000000,1647338107.336891,0.000000
142.000000,-753.142029,6659.836371,2836.503427,5127.803102,-8579.091260,10133.722142,23571.143874,1622.222557,0.074000,0.984000,0.060000,192.000000,0.000000,0.000000,0.000000,0.000000,0.000000,0.000000,0.000000,0.000000,0.000000,1647338107.336906,0.000000
143.000000,-739.194541,6678.097746,2853.155476,5145.840960,-8569.077679,10139.555948,23560.549147,1608.342124,0.074000,0.984000,0.060000,192.000000,0.000000,0.000000,0.000000,0.000000,0.000000,0.000000,0.000000,0.000000,0.000000,1647338107.344810,0.000000
144.000000,-724.688259,6689.854764,2865.739508,5170.204362,-8554.236120,10151.916462,23541.371350,1623.921290,0.074000,0.984000,0.060000,192.000000,0.000000,0.000000,0.000000,0.000000,0.000000,0.000000,0.000000,0.000000,0.000000,1647338107.344827,0.000000
145.000000,-733.427791,6678.902409,2856.396479,5158.894379,-8559.354670,10152.095276,23525.993350,1643.076735,0.072000,0.972000,0.066000,192.000000,2.000000,64.000000,30.000000,96.000000,2.000000,16.000000,0.000000,0.000000,0.000000,1647338107.351629,0.000000
146.000000,-734.210102,6680.087051,2854.273063,5161.487181,-8566.708394,10154.911596,23554.067141,1651.145715,0.072000,0.972000,0.066000,192.000000,0.000000,0.000000,0.000000,0.000000,0.000000,0.000000,0.000000,0.000000,0.000000,1647338107.351638,0.000000
147.000000,-742.457896,6672.889790,2848.729831,5148.322004,-8570.664653,10151.804704,23577.134142,1652.308005,0.072000,0.972000,0.066000,192.000000,0.000000,0.000000,0.000000,0.000000,0.000000,0.000000,0.000000,0.000000,0.000000,1647338107.359240,0.000000
148.000000,-733.316032,6684.155069,2855.234188,5152.501780,-8565.188475,10157.996137,23573.803732,1647.278863,0.072000,0.972000,0.066000,192.000000,0.000000,0.000000,0.000000,0.000000,0.000000,0.000000,0.000000,0.000000,0.000000,1647338107.359255,0.000000
149.000000,-731.371430,6685.674988,2854.720098,5149.260777,-8564.428516,10160.365422,23573.222586,1643.791991,0.072000,0.972000,0.066000,192.000000,0.000000,0.000000,0.000000,0.000000,0.000000,0.000000,0.000000,0.000000,0.000000,1647338107.367379,0.000000
150.000000,-739.328651,6673.158011,2844.103020,5135.514454,-8573.257455,10150.575358,23560.280926,1648.642319,0.072000,0.972000,0.066000,192.000000,0.000000,0.000000,0.000000,0.000000,0.000000,0.000000,0.000000,0.000000,0.000000,1647338107.367396,0.000000
151.000000,-748.090535,6665.692528,2836.570482,5128.026620,-8581.996987,10138.863044,23521.701815,1629.397467,0.072000,0.972000,0.066000,192.000000,0.000000,0.000000,0.000000,0.000000,0.000000,0.000000,0.000000,0.000000,0.000000,1647338107.374537,0.000000
152.000000,-746.168285,6670.006415,2842.158418,5130.306498,-8577.593693,10146.417933,23544.299429,1634.225444,0.072000,0.972000,0.066000,192.000000,0.000000,0.000000,0.000000,0.000000,0.000000,0.000000,0.000000,0.000000,0.000000,1647338107.374553,0.000000
153.000000,-725.962308,6690.659427,2860.777421,5147.293824,-8560.651071,10166.422745,23595.887255,1653.045613,0.072000,0.972000,0.066000,192.000000,0.000000,0.000000,0.000000,0.000000,0.000000,0.000000,0.000000,0.000000,0.000000,1647338107.381056,0.000000
154.000000,-719.010916,6696.292066,2863.951369,5153.261739,-8553.722030,10170.222541,23597.496581,1662.947436,0.072000,0.972000,0.066000,192.000000,0.000000,0.000000,0.000000,0.000000,0.000000,0.000000,0.000000,0.000000,0.000000,1647338107.381072,0.000000
155.000000,-733.181922,6682.501040,2852.596683,5146.086829,-8560.248740,10152.855236,23575.904796,1645.647186,0.072000,0.972000,0.066000,192.000000,0.000000,0.000000,0.000000,0.000000,0.000000,0.000000,0.000000,0.000000,0.000000,1647338107.389000,0.000000
156.000000,-721.670773,6690.927647,2861.649139,5161.464830,-8553.476161,10156.565625,23576.173017,1651.145715,0.066000,0.982000,0.058000,192.000000,2.000000,16.000000,30.000000,176.000000,1.000000,208.000000,0.000000,0.000000,0.000000,1647338107.397055,0.000000
157.000000,-723.190692,6690.681778,2860.710366,5161.978920,-8558.862932,10153.369326,23547.406321,1643.456715,0.066000,0.982000,0.058000,192.000000,0.000000,0.000000,0.000000,0.000000,0.000000,0.000000,0.000000,0.000000,0.000000,1647338107.397072,0.000000
158.000000,-733.830122,6681.718729,2856.798811,5156.882722,-8557.678289,10142.081695,23514.616312,1631.386773,0.066000,0.982000,0.058000,192.000000,0.000000,0.000000,0.000000,0.000000,0.000000,0.000000,0.000000,0.000000,0.000000,1647338107.403790,0.000000
159.000000,-723.123637,6692.536973,2867.661758,5174.227676,-8546.055382,10154.799837,23567.187615,1635.611252,0.066000,0.982000,0.058000,192.000000,0.000000,0.000000,0.000000,0.000000,0.000000,0.000000,0.000000,0.000000,0.000000,1647338107.403802,0.000000
160.000000,-735.662965,6679.997644,2858.363433,5158.939082,-8557.186551,10147.781390,23559.319801,1622.423723,0.066000,0.982000,0.058000,192.000000,0.000000,0.000000,0.000000,0.000000,0.000000,0.000000,0.000000,0.000000,0.000000,1647338107.411749,0.000000
161.000000,-759.601684,6656.930644,2839.565616,5136.050896,-8579.761813,10132.693962,23535.939877,1626.424685,0.066000,0.982000,0.058000,192.000000,0.000000,0.000000,0.000000,0.000000,0.000000,0.000000,0.000000,0.000000,0.000000,1647338107.411765,0.000000
162.000000,-758.215875,6661.624510,2840.683203,5138.219015,-8582.198153,10129.922346,23506.793202,1621.417895,0.066000,0.982000,0.058000,192.000000,0.000000,0.000000,0.000000,0.000000,0.000000,0.000000,0.000000,0.000000,0.000000,1647338107.419677,0.000000
163.000000,-760.451050,6661.915083,2837.509255,5140.968280,-8582.108746,10125.496700,23500.758231,1600.451958,0.066000,0.982000,0.058000,192.000000,0.000000,0.000000,0.000000,0.000000,0.000000,0.000000,0.000000,0.000000,0.000000,1647338107.419694,0.000000
164.000000,-742.457896,6676.153144,2856.754107,5156.748612,-8566.574283,10142.908709,23542.913621,1620.702639,0.066000,0.982000,0.058000,192.000000,0.000000,0.000000,0.000000,0.000000,0.000000,0.000000,0.000000,0.000000,0.000000,1647338107.427769,0.000000
165.000000,-727.258709,6687.910162,2867.080613,5163.767059,-8562.752135,10153.592843,23569.243976,1641.735630,0.066000,0.982000,0.058000,192.000000,0.000000,0.000000,0.000000,0.000000,0.000000,0.000000,0.000000,0.000000,0.000000,1647338107.427786,0.000000
166.000000,-732.287852,6682.098708,2860.196276,5154.446382,-8564.786144,10151.357669,23566.226490,1641.869741,0.074000,0.980000,0.056000,192.000000,2.000000,80.000000,30.000000,160.000000,1.000000,192.000000,0.000000,0.000000,0.000000,1647338107.434389,0.000000
167.000000,-737.428753,6673.917970,2857.268197,5149.193722,-8571.424612,10144.965070,23561.152644,1633.554892,0.074000,0.980000,0.056000,192.000000,0.000000,0.000000,0.000000,0.000000,0.000000,0.000000,0.000000,0.000000,0.000000,1647338107.434405,0.000000
168.000000,-742.770820,6665.200790,2852.283758,5139.426010,-8572.184571,10137.924270,23552.681333,1623.697772,0.074000,0.980000,0.056000,192.000000,0.000000,0.000000,0.000000,0.000000,0.000000,0.000000,0.000000,0.000000,0.000000,1647338107.442317,0.000000
169.000000,-740.557997,6663.077374,2853.602511,5134.598033,-8573.391565,10141.053515,23568.774589,1631.945566,0.074000,0.980000,0.056000,192.000000,0.000000,0.000000,0.000000,0.000000,0.000000,0.000000,0.000000,0.000000,0.000000,1647338107.442333,0.000000
170.000000,-751.219779,6651.901502,2846.338194,5128.808931,-8579.024205,10134.996192,23563.700743,1615.874662,0.074000,0.980000,0.056000,192.000000,0.000000,0.000000,0.000000,0.000000,0.000000,0.000000,0.000000,0.000000,0.000000,1647338107.449323,0.000000
