%OpenBCI Raw EEG Data
%Number of channels = 8
%Sample Rate = 256 Hz
%Board = OpenBCI_GUI$BoardCytonSerial
%Channels = Fp1, Fp2, F3, F4, Fz, Pz, O1, O2
%Data recorded at AIMS Lab (http://aimsl.uiu.ac.bd) by Rana Depto (mail@ranadepto.com)
%Brainwaves were obtained via the Ultracortex Mark IV Headset using the OpenBCI Cyton Board
%Recording Application = ConcentrateToday (https://concentrate.today)
%Data type = RAW data with noise
%Day No = 8
%Subject ID = 6
%Session ID = 7
%Record starting timestamp (UTC+6) = 2022-03-27T16:03:12.346644
%Record ending timestamp (UTC+6)   = 2022-03-27T16:03:38.202273
%Recorded durations = ~25 seconds
Sample Index, EXG Channel 0, EXG Channel 1, EXG Channel 2, EXG Channel 3, EXG Channel 4, EXG Channel 5, EXG Channel 6, EXG Channel 7, Accel Channel 0, Accel Channel 1, Accel Channel 2, Other, Other, Other, Other, Other, Other, Other, Analog Channel 0, Analog Channel 1, Analog Channel 2, Timestamp, Timestamp (Formatted)
219.000000,-31227.599827,-24518.857839,-10629.349724,-29912.579645,-33500.615776,30059.140034,37621.964529,7837.438028,0.096000,0.972000,0.172000,192.000000,0.000000,0.000000,0.000000,0.000000,0.000000,0.000000,0.000000,0.000000,0.000000,1648375392.347036,0.000000
220.000000,-31228.605655,-24520.735386,-10634.088294,-29918.189933,-33504.616738,30045.974856,37602.384401,7815.265097,0.096000,0.972000,0.172000,192.000000,0.000000,0.000000,0.000000,0.000000,0.000000,0.000000,0.000000,0.000000,0.000000,1648375392.347047,0.000000
221.000000,-31224.917617,-24518.343749,-10636.167006,-29918.636968,-33505.309642,30042.309170,37604.261947,7825.099865,0.096000,0.972000,0.172000,192.000000,0.000000,0.000000,0.000000,0.000000,0.000000,0.000000,0.000000,0.000000,0.000000,1648375392.354946,0.000000
222.000000,-31224.515286,-24516.376795,-10635.027067,-29916.401794,-33503.119171,30050.266391,37626.993671,7848.613900,0.096000,0.972000,0.172000,192.000000,0.000000,0.000000,0.000000,0.000000,0.000000,0.000000,0.000000,0.000000,0.000000,1648375392.354952,0.000000
223.000000,-31224.850562,-24513.091089,-10635.496454,-29915.038337,-33502.627433,30052.412159,37626.233712,7843.472999,0.096000,0.976000,0.172000,192.000000,3.000000,0.000000,30.000000,128.000000,5.000000,96.000000,0.000000,0.000000,0.000000,1648375392.362094,0.000000
224.000000,-31225.476411,-24512.979330,-10636.658744,-29916.334738,-33504.504979,30046.690112,37607.167674,7826.597431,0.096000,0.976000,0.172000,192.000000,0.000000,0.000000,0.000000,0.000000,0.000000,0.000000,0.000000,0.000000,0.000000,1648375392.368587,0.000000
225.000000,-31224.850562,-24512.040557,-10635.831730,-29916.826477,-33505.622566,30041.258638,37597.824645,7809.855975,0.096000,0.976000,0.172000,192.000000,0.000000,0.000000,0.000000,0.000000,0.000000,0.000000,0.000000,0.000000,0.000000,1648375392.368592,0.000000
226.000000,-31230.371443,-24514.611008,-10638.469236,-29921.922674,-33507.075430,30041.728025,37603.725505,7817.902603,0.096000,0.976000,0.172000,192.000000,0.000000,0.000000,0.000000,0.000000,0.000000,0.000000,0.000000,0.000000,0.000000,1648375392.376642,0.000000
227.000000,-31233.567743,-24517.606141,-10638.491587,-29923.666110,-33507.254244,30048.299438,37618.455305,7844.143551,0.096000,0.976000,0.172000,192.000000,0.000000,0.000000,0.000000,0.000000,0.000000,0.000000,0.000000,0.000000,0.000000,1648375392.376646,0.000000
228.000000,-31230.751423,-24516.019167,-10634.602384,-29920.089831,-33504.504979,30051.652199,37626.703099,7853.084249,0.096000,0.976000,0.172000,192.000000,0.000000,0.000000,0.000000,0.000000,0.000000,0.000000,0.000000,0.000000,0.000000,1648375392.384588,0.000000
229.000000,-31221.855428,-24509.917141,-10627.427474,-29913.160791,-33498.268842,30050.199336,37615.259005,7841.528397,0.096000,0.976000,0.172000,192.000000,0.000000,0.000000,0.000000,0.000000,0.000000,0.000000,0.000000,0.000000,0.000000,1648375392.384593,0.000000
230.000000,-31213.406469,-24503.189266,-10619.872584,-29909.048070,-33492.792665,30052.903897,37617.963567,7834.420542,0.096000,0.976000,0.172000,192.000000,0.000000,0.000000,0.000000,0.000000,0.000000,0.000000,0.000000,0.000000,0.000000,1648375392.391734,0.000000
231.000000,-31213.473524,-24502.071679,-10619.850233,-29906.835247,-33492.032706,30058.178909,37632.648663,7838.734429,0.096000,0.976000,0.172000,192.000000,0.000000,0.000000,0.000000,0.000000,0.000000,0.000000,0.000000,0.000000,0.000000,1648375392.391739,0.000000
232.000000,-31216.245141,-24504.642129,-10621.593669,-29909.070421,-33495.608985,30059.564717,37638.281302,7843.562406,0.096000,0.976000,0.172000,192.000000,0.000000,0.000000,0.000000,0.000000,0.000000,0.000000,0.000000,0.000000,0.000000,1648375392.400611,0.000000
233.000000,-31220.693138,-24506.318510,-10621.146634,-29908.243407,-33496.033668,30059.810586,37633.520381,7847.786885,0.096000,0.976000,0.172000,192.000000,0.000000,0.000000,0.000000,0.000000,0.000000,0.000000,0.000000,0.000000,0.000000,1648375392.400616,0.000000
234.000000,-31217.161562,-24499.903560,-10616.497471,-29899.950910,-33490.602194,30064.303287,37628.066555,7867.456420,0.092000,0.980000,0.176000,192.000000,2.000000,224.000000,30.000000,160.000000,5.000000,128.000000,0.000000,0.000000,0.000000,1648375392.407209,0.000000
235.000000,-31212.802972,-24495.433211,-10612.809433,-29895.726430,-33485.863624,30069.511243,37641.924637,7879.705176,0.092000,0.980000,0.176000,192.000000,0.000000,0.000000,0.000000,0.000000,0.000000,0.000000,0.000000,0.000000,0.000000,1648375392.407219,0.000000
236.000000,-31211.059536,-24495.679080,-10611.624791,-29896.039354,-33486.847101,30065.622040,37643.109279,7871.077403,0.092000,0.980000,0.176000,192.000000,0.000000,0.000000,0.000000,0.000000,0.000000,0.000000,0.000000,0.000000,0.000000,1648375392.415306,0.000000
237.000000,-31208.824361,-24492.594539,-10609.814299,-29891.837226,-33486.422418,30063.431569,37640.918808,7860.482676,0.092000,0.980000,0.176000,192.000000,0.000000,0.000000,0.000000,0.000000,0.000000,0.000000,0.000000,0.000000,0.000000,1648375392.415311,0.000000
238.000000,-31208.422030,-24494.181513,-10610.417796,-29890.853750,-33485.953031,30060.056455,37634.816782,7843.361240,0.092000,0.980000,0.176000,192.000000,0.000000,0.000000,0.000000,0.000000,0.000000,0.000000,0.000000,0.000000,0.000000,1648375392.421360,0.000000
239.000000,-31213.741745,-24501.602292,-10617.346837,-29896.352279,-33492.747962,30053.239173,37627.373651,7835.269908,0.092000,0.980000,0.176000,192.000000,0.000000,0.000000,0.000000,0.000000,0.000000,0.000000,0.000000,0.000000,0.000000,1648375392.428857,0.000000
240.000000,-31213.406469,-24503.479839,-10616.564526,-29894.720601,-33495.631337,30052.300400,37623.886779,7835.828702,0.092000,0.980000,0.176000,192.000000,0.000000,0.000000,0.000000,0.000000,0.000000,0.000000,0.000000,0.000000,0.000000,1648375392.428861,0.000000
241.000000,-31208.600844,-24500.395298,-10610.887183,-29889.222072,-33492.412685,30055.362589,37622.098639,7836.856882,0.092000,0.980000,0.176000,192.000000,0.000000,0.000000,0.000000,0.000000,0.000000,0.000000,0.000000,0.000000,0.000000,1648375392.436803,0.000000
242.000000,-31201.828265,-24495.477914,-10604.159308,-29882.225976,-33485.215424,30058.335371,37627.239540,7838.153283,0.092000,0.980000,0.176000,192.000000,0.000000,0.000000,0.000000,0.000000,0.000000,0.000000,0.000000,0.000000,0.000000,1648375392.436807,0.000000
243.000000,-31209.494914,-24502.183438,-10611.870660,-29890.362011,-33490.222214,30053.149766,37627.306596,7838.846187,0.092000,0.980000,0.176000,192.000000,0.000000,0.000000,0.000000,0.000000,0.000000,0.000000,0.000000,0.000000,0.000000,1648375392.444986,0.000000
244.000000,-31215.216960,-24505.916179,-10615.826919,-29894.653546,-33496.056020,30046.645408,37614.655508,7825.479844,0.100000,0.976000,0.174000,192.000000,3.000000,32.000000,30.000000,128.000000,5.000000,112.000000,0.000000,0.000000,0.000000,1648375392.444991,0.000000
245.000000,-31213.361766,-24501.624644,-10613.837613,-29890.652584,-33496.525406,30043.963199,37607.011212,7817.142644,0.100000,0.976000,0.174000,192.000000,0.000000,0.000000,0.000000,0.000000,0.000000,0.000000,0.000000,0.000000,0.000000,1648375392.451455,0.000000
246.000000,-31206.879760,-24495.030879,-10609.657837,-29888.059782,-33492.993831,30049.148804,37622.635081,7816.360333,0.100000,0.976000,0.174000,192.000000,0.000000,0.000000,0.000000,0.000000,0.000000,0.000000,0.000000,0.000000,0.000000,1648375392.451459,0.000000
247.000000,-31209.897245,-24496.036708,-10610.171927,-29890.741991,-33495.743095,30052.658028,37638.191895,7833.638231,0.100000,0.976000,0.174000,192.000000,0.000000,0.000000,0.000000,0.000000,0.000000,0.000000,0.000000,0.000000,0.000000,1648375392.459476,0.000000
248.000000,-31209.204341,-24497.444868,-10609.613134,-29891.479598,-33495.519578,30055.317885,37639.063613,7852.793676,0.100000,0.976000,0.174000,192.000000,0.000000,0.000000,0.000000,0.000000,0.000000,0.000000,0.000000,0.000000,0.000000,1648375392.459479,0.000000
249.000000,-31208.466734,-24497.355461,-10609.881355,-29890.876101,-33495.474874,30051.808661,37630.346433,7838.175635,0.100000,0.976000,0.174000,192.000000,0.000000,0.000000,0.000000,0.000000,0.000000,0.000000,0.000000,0.000000,0.000000,1648375392.467505,0.000000
250.000000,-31207.885588,-24497.400164,-10609.501375,-29889.892625,-33493.351459,30049.975818,37627.440706,7835.024039,0.100000,0.976000,0.174000,192.000000,0.000000,0.000000,0.000000,0.000000,0.000000,0.000000,0.000000,0.000000,0.000000,1648375392.467509,0.000000
251.000000,-31203.638757,-24491.968690,-10603.220535,-29884.952889,-33488.188206,30056.122548,37629.988805,7852.368993,0.100000,0.976000,0.174000,192.000000,0.000000,0.000000,0.000000,0.000000,0.000000,0.000000,0.000000,0.000000,0.000000,1648375392.474104,0.000000
252.000000,-31207.259739,-24497.288406,-10606.774462,-29889.177369,-33493.664383,30049.484080,37614.096715,7838.890891,0.100000,0.976000,0.174000,192.000000,0.000000,0.000000,0.000000,0.000000,0.000000,0.000000,0.000000,0.000000,0.000000,1648375392.474109,0.000000
253.000000,-31203.124667,-24495.723783,-10605.321599,-29884.707020,-33490.602194,30052.546269,37625.764325,7843.405943,0.100000,0.976000,0.174000,192.000000,0.000000,0.000000,0.000000,0.000000,0.000000,0.000000,0.000000,0.000000,0.000000,1648375392.481132,0.000000
254.000000,-31203.616405,-24496.819019,-10609.523727,-29886.137532,-33490.378677,30052.792138,37627.507761,7849.373859,0.100000,0.970000,0.174000,192.000000,3.000000,32.000000,30.000000,80.000000,5.000000,112.000000,0.000000,0.000000,0.000000,1648375392.481136,0.000000
255.000000,-31204.577530,-24499.389470,-10613.636448,-29888.395058,-33494.960784,30049.305266,37628.781811,7846.445781,0.100000,0.970000,0.174000,192.000000,0.000000,0.000000,0.000000,0.000000,0.000000,0.000000,0.000000,0.000000,0.000000,1648375392.489160,0.000000
0.000000,-31203.459943,-24498.383641,-10613.725855,-29888.216244,-33495.229005,30048.053568,37628.513590,7840.120237,0.100000,0.970000,0.174000,192.000000,0.000000,0.000000,0.000000,0.000000,0.000000,0.000000,0.000000,0.000000,0.000000,1648375392.497181,0.000000
1.000000,-31203.392888,-24500.127077,-10613.703503,-29888.506816,-33494.513749,30048.925286,37630.055860,7851.184350,0.100000,0.970000,0.174000,192.000000,0.000000,0.000000,0.000000,0.000000,0.000000,0.000000,0.000000,0.000000,0.000000,1648375392.497193,0.000000
2.000000,-31204.018736,-24503.233970,-10617.905631,-29894.631194,-33499.274671,30042.309170,37629.407660,7848.233920,0.100000,0.970000,0.174000,192.000000,0.000000,0.000000,0.000000,0.000000,0.000000,0.000000,0.000000,0.000000,0.000000,1648375392.503913,0.000000
3.000000,-31203.728164,-24498.651862,-10614.686980,-29891.323136,-33495.564281,30041.593914,37628.692404,7846.222263,0.100000,0.970000,0.174000,192.000000,0.000000,0.000000,0.000000,0.000000,0.000000,0.000000,0.000000,0.000000,0.000000,1648375392.503918,0.000000
4.000000,-31204.577530,-24494.092106,-10609.590782,-29885.444627,-33488.814055,30048.522955,37630.569950,7845.775228,0.100000,0.970000,0.174000,192.000000,0.000000,0.000000,0.000000,0.000000,0.000000,0.000000,0.000000,0.000000,0.000000,1648375392.511759,0.000000
5.000000,-31207.393850,-24499.367118,-10612.027122,-29889.982032,-33490.490435,30047.517127,37620.578721,7837.505083,0.100000,0.970000,0.174000,192.000000,0.000000,0.000000,0.000000,0.000000,0.000000,0.000000,0.000000,0.000000,0.000000,1648375392.511763,0.000000
6.000000,-31209.830190,-24504.396260,-10613.815262,-29892.038392,-33495.117247,30045.527821,37612.956776,7829.749027,0.100000,0.970000,0.174000,192.000000,0.000000,0.000000,0.000000,0.000000,0.000000,0.000000,0.000000,0.000000,0.000000,1648375392.519777,0.000000
7.000000,-31214.188780,-24510.185362,-10618.911459,-29898.274529,-33499.319374,30041.884487,37616.153075,7819.958963,0.100000,0.970000,0.174000,192.000000,0.000000,0.000000,0.000000,0.000000,0.000000,0.000000,0.000000,0.000000,0.000000,1648375392.519781,0.000000
8.000000,-31217.452135,-24511.817039,-10623.717084,-29900.152075,-33500.481665,30040.722196,37612.643851,7815.935649,0.100000,0.972000,0.174000,192.000000,3.000000,32.000000,30.000000,96.000000,5.000000,112.000000,0.000000,0.000000,0.000000,1648375392.526863,0.000000
9.000000,-31214.926388,-24509.760679,-10618.732645,-29893.401848,-33496.279537,30049.081749,37623.842075,7832.654754,0.100000,0.972000,0.174000,192.000000,0.000000,0.000000,0.000000,0.000000,0.000000,0.000000,0.000000,0.000000,0.000000,1648375392.526867,0.000000
10.000000,-31208.533789,-24503.636301,-10612.317695,-29886.539863,-33489.574014,30054.736740,37628.759459,7849.552673,0.100000,0.972000,0.174000,192.000000,0.000000,0.000000,0.000000,0.000000,0.000000,0.000000,0.000000,0.000000,0.000000,1648375392.535866,0.000000
11.000000,-31206.522132,-24501.244664,-10609.590782,-29884.170578,-33487.830578,30054.177946,37627.373651,7842.020135,0.100000,0.972000,0.174000,192.000000,0.000000,0.000000,0.000000,0.000000,0.000000,0.000000,0.000000,0.000000,0.000000,1648375392.535885,0.000000
12.000000,-31211.506571,-24505.558551,-10613.167061,-29889.646755,-33491.675078,30050.713426,37619.461133,7835.940461,0.100000,0.972000,0.174000,192.000000,0.000000,0.000000,0.000000,0.000000,0.000000,0.000000,0.000000,0.000000,0.000000,1648375392.542429,0.000000
13.000000,-31214.859332,-24509.157182,-10616.720988,-29893.044221,-33493.887901,30050.489909,37622.769192,7855.341775,0.100000,0.972000,0.174000,192.000000,0.000000,0.000000,0.000000,0.000000,0.000000,0.000000,0.000000,0.000000,0.000000,1648375392.542434,0.000000
14.000000,-31211.148943,-24507.838429,-10615.558698,-29889.825569,-33491.540967,30052.009827,37626.457229,7851.787847,0.100000,0.972000,0.174000,192.000000,0.000000,0.000000,0.000000,0.000000,0.000000,0.000000,0.000000,0.000000,0.000000,1648375392.549462,0.000000
15.000000,-31212.177123,-24507.637263,-10616.788044,-29888.998555,-33491.608023,30052.278048,37633.319215,7840.656679,0.100000,0.972000,0.174000,192.000000,0.000000,0.000000,0.000000,0.000000,0.000000,0.000000,0.000000,0.000000,0.000000,1648375392.556579,0.000000
16.000000,-31211.439516,-24503.569246,-10614.843442,-29886.003421,-33488.724648,30052.725083,37629.161791,7841.416638,0.100000,0.972000,0.174000,192.000000,0.000000,0.000000,0.000000,0.000000,0.000000,0.000000,0.000000,0.000000,0.000000,1648375392.556582,0.000000
17.000000,-31209.271396,-24503.457487,-10615.648105,-29885.824607,-33488.009392,30057.374246,37640.471773,7858.672185,0.100000,0.972000,0.174000,192.000000,0.000000,0.000000,0.000000,0.000000,0.000000,0.000000,0.000000,0.000000,0.000000,1648375392.564058,0.000000
18.000000,-31211.037184,-24504.195095,-10618.285610,-29885.131703,-33488.054095,30061.174042,37639.734166,7866.562351,0.102000,0.980000,0.170000,192.000000,3.000000,48.000000,30.000000,160.000000,5.000000,80.000000,0.000000,0.000000,0.000000,1648375392.564062,0.000000
19.000000,-31211.774792,-24503.368080,-10617.458596,-29885.556386,-33488.188206,30061.241098,37634.615616,7862.628444,0.102000,0.980000,0.170000,192.000000,0.000000,0.000000,0.000000,0.000000,0.000000,0.000000,0.000000,0.000000,0.000000,1648375392.572060,0.000000
20.000000,-31214.367594,-24503.748060,-10619.447901,-29887.635098,-33488.277613,30059.698827,37633.073346,7853.330118,0.102000,0.980000,0.170000,192.000000,0.000000,0.000000,0.000000,0.000000,0.000000,0.000000,0.000000,0.000000,0.000000,1648375392.572064,0.000000
21.000000,-31215.842809,-24506.251455,-10620.073750,-29890.898453,-33489.484607,30060.034103,37637.431936,7858.962757,0.102000,0.980000,0.170000,192.000000,0.000000,0.000000,0.000000,0.000000,0.000000,0.000000,0.000000,0.000000,0.000000,1648375392.580073,0.000000
22.000000,-31217.452135,-24510.163010,-10621.727779,-29895.860540,-33493.127941,30056.994266,37627.485410,7847.071629,0.102000,0.980000,0.170000,192.000000,0.000000,0.000000,0.000000,0.000000,0.000000,0.000000,0.000000,0.000000,0.000000,1648375392.580084,0.000000
23.000000,-31218.949702,-24514.052214,-10624.454692,-29898.989785,-33496.480703,30050.601667,37622.925654,7832.319478,0.102000,0.980000,0.170000,192.000000,0.000000,0.000000,0.000000,0.000000,0.000000,0.000000,0.000000,0.000000,0.000000,1648375392.586850,0.000000
24.000000,-31211.506571,-24507.793725,-10616.720988,-29888.417409,-33489.194034,30060.414083,37642.818706,7846.423429,0.102000,0.980000,0.170000,192.000000,0.000000,0.000000,0.000000,0.000000,0.000000,0.000000,0.000000,0.000000,0.000000,1648375392.586869,0.000000
25.000000,-31211.484219,-24507.324339,-10617.972686,-29889.333831,-33489.931642,30057.262487,37629.318253,7829.816083,0.102000,0.980000,0.170000,192.000000,0.000000,0.000000,0.000000,0.000000,0.000000,0.000000,0.000000,0.000000,0.000000,1648375392.594713,0.000000
26.000000,-31206.991518,-24503.524542,-10615.201070,-29886.964546,-33487.227081,30056.860156,37622.791543,7837.795655,0.102000,0.980000,0.170000,192.000000,0.000000,0.000000,0.000000,0.000000,0.000000,0.000000,0.000000,0.000000,0.000000,1648375392.594718,0.000000
27.000000,-31207.326795,-24505.133868,-10615.983381,-29888.439761,-33487.629412,30056.904859,37615.661337,7854.917092,0.102000,0.980000,0.170000,192.000000,0.000000,0.000000,0.000000,0.000000,0.000000,0.000000,0.000000,0.000000,0.000000,1648375392.602679,0.000000
28.000000,-31208.936120,-24509.514810,-10620.006695,-29892.999517,-33489.529310,30056.279010,37625.205532,7847.429257,0.102000,0.964000,0.172000,192.000000,3.000000,48.000000,30.000000,32.000000,5.000000,96.000000,0.000000,0.000000,0.000000,1648375392.602683,0.000000
29.000000,-31213.920559,-24512.353481,-10624.074712,-29896.911072,-33493.619680,30055.831975,37630.815820,7845.149379,0.102000,0.964000,0.172000,192.000000,0.000000,0.000000,0.000000,0.000000,0.000000,0.000000,0.000000,0.000000,0.000000,1648375392.608853,0.000000
30.000000,-31217.988577,-24513.538124,-10624.208823,-29897.179293,-33495.586633,30058.536537,37631.642834,7857.800467,0.102000,0.964000,0.172000,192.000000,0.000000,0.000000,0.000000,0.000000,0.000000,0.000000,0.000000,0.000000,0.000000,1648375392.617705,0.000000
31.000000,-31215.239312,-24512.331130,-10621.884241,-29894.362973,-33491.719781,30067.320772,37646.149116,7864.193066,0.102000,0.964000,0.172000,192.000000,0.000000,0.000000,0.000000,0.000000,0.000000,0.000000,0.000000,0.000000,0.000000,1648375392.617708,0.000000
32.000000,-31211.126591,-24509.760679,-10621.258392,-29893.267738,-33491.071581,30067.700752,37641.097622,7856.146438,0.102000,0.964000,0.172000,192.000000,0.000000,0.000000,0.000000,0.000000,0.000000,0.000000,0.000000,0.000000,0.000000,1648375392.624387,0.000000
33.000000,-31207.684422,-24505.379737,-10619.291439,-29889.736162,-33487.092970,30069.108912,37629.809991,7851.430220,0.102000,0.964000,0.172000,192.000000,0.000000,0.000000,0.000000,0.000000,0.000000,0.000000,0.000000,0.000000,0.000000,1648375392.624391,0.000000
34.000000,-31209.383155,-24506.139696,-10621.705427,-29890.496122,-33485.640107,30067.678400,37620.355203,7843.830626,0.102000,0.964000,0.172000,192.000000,0.000000,0.000000,0.000000,0.000000,0.000000,0.000000,0.000000,0.000000,0.000000,1648375392.632420,0.000000
35.000000,-31205.136324,-24505.580903,-10619.961991,-29889.624404,-33484.746037,30068.505415,37634.034471,7840.679030,0.102000,0.964000,0.172000,192.000000,0.000000,0.000000,0.000000,0.000000,0.000000,0.000000,0.000000,0.000000,0.000000,1648375392.632424,0.000000
36.000000,-31206.678594,-24508.643092,-10621.638372,-29891.904282,-33487.852930,30065.532633,37638.326006,7840.410810,0.102000,0.964000,0.172000,192.000000,0.000000,0.000000,0.000000,0.000000,0.000000,0.000000,0.000000,0.000000,0.000000,1648375392.638967,0.000000
37.000000,-31213.004138,-24515.259208,-10630.802587,-29900.889683,-33496.592462,30055.004961,37614.297880,7836.409847,0.102000,0.964000,0.172000,192.000000,0.000000,0.000000,0.000000,0.000000,0.000000,0.000000,0.000000,0.000000,0.000000,1648375392.638971,0.000000
38.000000,-31210.009004,-24509.224237,-10627.852157,-29897.201645,-33492.792665,30055.675513,37620.466962,7846.870464,0.108000,0.972000,0.166000,192.000000,3.000000,96.000000,30.000000,96.000000,5.000000,48.000000,0.000000,0.000000,0.000000,1648375392.647028,0.000000
39.000000,-31210.053707,-24505.089164,-10623.493567,-29892.083096,-33487.919985,30061.554022,37632.268683,7856.302900,0.108000,0.972000,0.166000,192.000000,0.000000,0.000000,0.000000,0.000000,0.000000,0.000000,0.000000,0.000000,0.000000,1648375392.647033,0.000000
40.000000,-31210.567797,-24508.844257,-10626.131073,-29894.810008,-33489.708124,30061.129339,37637.074308,7853.486580,0.108000,0.972000,0.166000,192.000000,0.000000,0.000000,0.000000,0.000000,0.000000,0.000000,0.000000,0.000000,0.000000,1648375392.655012,0.000000
41.000000,-31207.147981,-24506.072641,-10624.879375,-29892.641889,-33487.405895,30068.259545,37649.993616,7862.673147,0.108000,0.972000,0.166000,192.000000,0.000000,0.000000,0.000000,0.000000,0.000000,0.000000,0.000000,0.000000,0.000000,1648375392.655016,0.000000
42.000000,-31206.365670,-24499.545932,-10623.650029,-29888.886796,-33483.717857,30072.305211,37650.463003,7861.197932,0.108000,0.972000,0.166000,192.000000,0.000000,0.000000,0.000000,0.000000,0.000000,0.000000,0.000000,0.000000,0.000000,1648375392.662118,0.000000
43.000000,-31210.947777,-24501.781106,-10629.640297,-29894.653546,-33489.842235,30063.185699,37636.224942,7836.253385,0.108000,0.972000,0.166000,192.000000,0.000000,0.000000,0.000000,0.000000,0.000000,0.000000,0.000000,0.000000,0.000000,1648375392.662129,0.000000
44.000000,-31210.768963,-24499.165952,-10630.534366,-29892.753648,-33491.004526,30059.117682,37620.422258,7829.190234,0.108000,0.972000,0.166000,192.000000,0.000000,0.000000,0.000000,0.000000,0.000000,0.000000,0.000000,0.000000,0.000000,1648375392.668669,0.000000
45.000000,-31208.287920,-24498.204827,-10631.093160,-29893.938290,-33491.093933,30064.459749,37628.960625,7844.724696,0.108000,0.972000,0.166000,192.000000,0.000000,0.000000,0.000000,0.000000,0.000000,0.000000,0.000000,0.000000,0.000000,1648375392.676654,0.000000
46.000000,-31211.171295,-24502.362252,-10635.831730,-29900.286186,-33495.206654,30066.404351,37636.761384,7859.968586,0.108000,0.972000,0.166000,192.000000,0.000000,0.000000,0.000000,0.000000,0.000000,0.000000,0.000000,0.000000,0.000000,1648375392.676658,0.000000
47.000000,-31216.692175,-24506.810249,-10638.491587,-29899.302709,-33498.090029,30062.157519,37623.037413,7856.705231,0.108000,0.972000,0.166000,192.000000,0.000000,0.000000,0.000000,0.000000,0.000000,0.000000,0.000000,0.000000,0.000000,1648375392.684611,0.000000
48.000000,-31216.155734,-24508.017243,-10638.357477,-29899.168599,-33497.061848,30060.749359,37619.707003,7851.899606,0.098000,0.972000,0.174000,192.000000,3.000000,16.000000,30.000000,96.000000,5.000000,112.000000,0.000000,0.000000,0.000000,1648375392.684615,0.000000
49.000000,-31215.239312,-24508.620740,-10636.412875,-29899.839151,-33496.905386,30061.397560,37637.230770,7845.216435,0.098000,0.972000,0.174000,192.000000,0.000000,0.000000,0.000000,0.000000,0.000000,0.000000,0.000000,0.000000,0.000000,1648375392.691823,0.000000
50.000000,-31213.451173,-24509.961845,-10632.143692,-29899.302709,-33493.329107,30061.330505,37632.581607,7842.109542,0.098000,0.972000,0.174000,192.000000,0.000000,0.000000,0.000000,0.000000,0.000000,0.000000,0.000000,0.000000,0.000000,1648375392.691828,0.000000
51.000000,-31214.144077,-24511.504115,-10631.808416,-29899.995613,-33492.412685,30062.090464,37631.419317,7849.686784,0.098000,0.972000,0.174000,192.000000,0.000000,0.000000,0.000000,0.000000,0.000000,0.000000,0.000000,0.000000,0.000000,1648375392.699292,0.000000
52.000000,-31214.188780,-24513.448717,-10631.830768,-29899.481523,-33491.898595,30066.560813,37642.595189,7870.898589,0.098000,0.972000,0.174000,192.000000,0.000000,0.000000,0.000000,0.000000,0.000000,0.000000,0.000000,0.000000,0.000000,1648375392.699296,0.000000
53.000000,-31215.082850,-24514.298083,-10632.769541,-29900.308538,-33494.357287,30065.778502,37631.419317,7872.351452,0.098000,0.972000,0.174000,192.000000,0.000000,0.000000,0.000000,0.000000,0.000000,0.000000,0.000000,0.000000,0.000000,1648375392.707213,0.000000
54.000000,-31212.557103,-24511.235894,-10627.718047,-29897.335756,-33490.870415,30065.197356,37620.735183,7854.246539,0.098000,0.972000,0.174000,192.000000,0.000000,0.000000,0.000000,0.000000,0.000000,0.000000,0.000000,0.000000,0.000000,1648375392.707217,0.000000
55.000000,-31212.512399,-24515.415670,-10628.612116,-29901.783753,-33492.703258,30061.956353,37624.110296,7834.353487,0.098000,0.972000,0.174000,192.000000,0.000000,0.000000,0.000000,0.000000,0.000000,0.000000,0.000000,0.000000,0.000000,1648375392.714397,0.000000
56.000000,-31210.187818,-24515.326263,-10625.996962,-29902.253139,-33494.491398,30061.509319,37631.441668,7827.111522,0.098000,0.972000,0.174000,192.000000,0.000000,0.000000,0.000000,0.000000,0.000000,0.000000,0.000000,0.000000,0.000000,1648375392.714401,0.000000
57.000000,-31212.914731,-24514.968635,-10626.823977,-29901.515532,-33496.078372,30066.672572,37642.975169,7855.319423,0.098000,0.972000,0.174000,192.000000,0.000000,0.000000,0.000000,0.000000,0.000000,0.000000,0.000000,0.000000,0.000000,1648375392.721877,0.000000
58.000000,-31218.256798,-24516.645016,-10631.361381,-29901.180256,-33497.911215,30067.857214,37640.494125,7866.316481,0.104000,0.968000,0.172000,192.000000,3.000000,64.000000,30.000000,64.000000,5.000000,96.000000,0.000000,0.000000,0.000000,1648375392.721880,0.000000
59.000000,-31211.461867,-24511.124135,-10626.846329,-29893.826532,-33491.071581,30073.422798,37637.074308,7867.836400,0.104000,0.968000,0.172000,192.000000,0.000000,0.000000,0.000000,0.000000,0.000000,0.000000,0.000000,0.000000,0.000000,1648375392.728874,0.000000
60.000000,-31213.562931,-24511.727632,-10625.415817,-29894.608843,-33489.551662,30071.992287,37624.356165,7839.762609,0.104000,0.968000,0.172000,192.000000,0.000000,0.000000,0.000000,0.000000,0.000000,0.000000,0.000000,0.000000,0.000000,1648375392.728878,0.000000
61.000000,-31224.403527,-24522.009435,-10633.730666,-29904.264796,-33496.681869,30064.526804,37615.616633,7818.282583,0.104000,0.968000,0.172000,192.000000,0.000000,0.000000,0.000000,0.000000,0.000000,0.000000,0.000000,0.000000,0.000000,1648375392.736885,0.000000
62.000000,-31221.766021,-24516.488554,-10631.719009,-29898.699212,-33493.016183,30070.718237,37631.642834,7844.948214,0.104000,0.968000,0.172000,192.000000,0.000000,0.000000,0.000000,0.000000,0.000000,0.000000,0.000000,0.000000,0.000000,1648375392.744075,0.000000
63.000000,-31215.641643,-24511.012377,-10626.958087,-29895.279395,-33489.126979,30079.725990,37644.606846,7873.200819,0.104000,0.968000,0.172000,192.000000,0.000000,0.000000,0.000000,0.000000,0.000000,0.000000,0.000000,0.000000,0.000000,1648375392.744079,0.000000
64.000000,-31211.730088,-24511.302949,-10624.968782,-29895.726430,-33488.143502,30079.815397,37651.692349,7872.306749,0.104000,0.968000,0.172000,192.000000,0.000000,0.000000,0.000000,0.000000,0.000000,0.000000,0.000000,0.000000,0.000000,1648375392.752090,0.000000
65.000000,-31214.904036,-24512.465240,-10628.343895,-29899.168599,-33492.122113,30072.349915,37643.265741,7856.392307,0.104000,0.968000,0.172000,192.000000,0.000000,0.000000,0.000000,0.000000,0.000000,0.000000,0.000000,0.000000,0.000000,1648375392.752101,0.000000
66.000000,-31210.120763,-24507.726670,-10625.952259,-29895.838189,-33489.909290,30073.109874,37644.495087,7865.735336,0.104000,0.968000,0.172000,192.000000,0.000000,0.000000,0.000000,0.000000,0.000000,0.000000,0.000000,0.000000,0.000000,1648375392.759551,0.000000
67.000000,-31211.841847,-24511.079432,-10630.064980,-29900.085020,-33492.010354,30069.064208,37635.777907,7860.057993,0.104000,0.968000,0.172000,192.000000,0.000000,0.000000,0.000000,0.000000,0.000000,0.000000,0.000000,0.000000,0.000000,1648375392.759556,0.000000
68.000000,-31211.685385,-24510.274769,-10631.808416,-29899.973261,-33493.440866,30066.225537,37633.252160,7850.558502,0.102000,0.972000,0.172000,192.000000,3.000000,48.000000,30.000000,96.000000,5.000000,96.000000,0.000000,0.000000,0.000000,1648375392.767465,0.000000
69.000000,-31210.187818,-24506.743193,-10626.712218,-29895.592319,-33488.992869,30066.471406,37633.989767,7849.910301,0.102000,0.972000,0.172000,192.000000,0.000000,0.000000,0.000000,0.000000,0.000000,0.000000,0.000000,0.000000,0.000000,1648375392.767470,0.000000
70.000000,-31207.974995,-24507.838429,-10623.381808,-29894.720601,-33487.204729,30062.872775,37617.762401,7835.001687,0.102000,0.972000,0.172000,192.000000,0.000000,0.000000,0.000000,0.000000,0.000000,0.000000,0.000000,0.000000,0.000000,1648375392.774080,0.000000
71.000000,-31208.220864,-24506.698490,-10622.800663,-29894.385325,-33486.131845,30064.258583,37627.574817,7837.661545,0.102000,0.972000,0.172000,192.000000,0.000000,0.000000,0.000000,0.000000,0.000000,0.000000,0.000000,0.000000,0.000000,1648375392.774084,0.000000
72.000000,-31209.606672,-24507.100821,-10624.901727,-29896.978128,-33488.121151,30064.750321,37639.577703,7837.169807,0.102000,0.972000,0.172000,192.000000,0.000000,0.000000,0.000000,0.000000,0.000000,0.000000,0.000000,0.000000,0.000000,1648375392.782077,0.000000
73.000000,-31206.410373,-24502.697528,-10624.387637,-29896.262872,-33487.696467,30060.279973,37621.852770,7818.059065,0.102000,0.972000,0.172000,192.000000,0.000000,0.000000,0.000000,0.000000,0.000000,0.000000,0.000000,0.000000,0.000000,1648375392.782080,0.000000
74.000000,-31208.422030,-24499.188304,-10626.421645,-29897.045183,-33487.987040,30058.357723,37610.341622,7819.668391,0.102000,0.972000,0.172000,192.000000,0.000000,0.000000,0.000000,0.000000,0.000000,0.000000,0.000000,0.000000,0.000000,1648375392.790109,0.000000
75.000000,-31207.818533,-24499.210656,-10626.376942,-29896.419334,-33486.243604,30062.269278,37617.494180,7843.182426,0.102000,0.972000,0.172000,192.000000,0.000000,0.000000,0.000000,0.000000,0.000000,0.000000,0.000000,0.000000,0.000000,1648375392.790113,0.000000
76.000000,-31211.126591,-24503.256321,-10628.634468,-29899.503875,-33488.992869,30061.732836,37620.668128,7850.245577,0.102000,0.972000,0.172000,192.000000,0.000000,0.000000,0.000000,0.000000,0.000000,0.000000,0.000000,0.000000,0.000000,1648375392.797322,0.000000
77.000000,-31207.416202,-24500.149429,-10624.834672,-29892.932462,-33484.746037,30069.265374,37634.503857,7861.019118,0.102000,0.972000,0.172000,192.000000,0.000000,0.000000,0.000000,0.000000,0.000000,0.000000,0.000000,0.000000,0.000000,1648375392.803754,0.000000
78.000000,-31207.438553,-24502.317548,-10625.147596,-29895.949947,-33486.623584,30067.343124,37618.790581,7855.632348,0.102000,0.972000,0.172000,192.000000,0.000000,0.000000,0.000000,0.000000,0.000000,0.000000,0.000000,0.000000,0.000000,1648375392.803758,0.000000
79.000000,-31203.974033,-24500.015318,-10621.906593,-29893.155979,-33483.270822,30069.958278,37631.061689,7852.368993,0.106000,0.974000,0.176000,192.000000,3.000000,80.000000,30.000000,112.000000,5.000000,128.000000,0.000000,0.000000,0.000000,1648375392.811811,0.000000
80.000000,-31207.952643,-24507.838429,-10627.293363,-29899.034488,-33486.981212,30070.047685,37639.801221,7858.180446,0.106000,0.974000,0.176000,192.000000,0.000000,0.000000,0.000000,0.000000,0.000000,0.000000,0.000000,0.000000,0.000000,1648375392.811816,0.000000
81.000000,-31211.730088,-24509.827734,-10628.142730,-29899.973261,-33489.082276,30072.059342,37649.390119,7850.893778,0.106000,0.974000,0.176000,192.000000,0.000000,0.000000,0.000000,0.000000,0.000000,0.000000,0.000000,0.000000,0.000000,1648375392.819731,0.000000
82.000000,-31211.730088,-24509.715975,-10629.059151,-29901.180256,-33489.529310,30067.656048,37632.805125,7837.639193,0.106000,0.974000,0.176000,192.000000,0.000000,0.000000,0.000000,0.000000,0.000000,0.000000,0.000000,0.000000,0.000000,1648375392.819735,0.000000
83.000000,-31206.633890,-24506.318510,-10627.673343,-29901.694346,-33488.076447,30064.079769,37625.004366,7835.783998,0.106000,0.974000,0.176000,192.000000,0.000000,0.000000,0.000000,0.000000,0.000000,0.000000,0.000000,0.000000,0.000000,1648375392.826901,0.000000
84.000000,-31204.555178,-24502.518714,-10625.326410,-29900.397944,-33484.567223,30064.839728,37625.876084,7841.371935,0.106000,0.974000,0.176000,192.000000,0.000000,0.000000,0.000000,0.000000,0.000000,0.000000,0.000000,0.000000,0.000000,1648375392.826904,0.000000
85.000000,-31203.325832,-24505.156220,-10625.706390,-29900.241482,-33483.337877,30067.700752,37636.023776,7847.161036,0.106000,0.974000,0.176000,192.000000,0.000000,0.000000,0.000000,0.000000,0.000000,0.000000,0.000000,0.000000,0.000000,1648375392.834448,0.000000
86.000000,-31200.867140,-24503.859818,-10623.538270,-29898.296881,-33481.393275,30066.873737,37629.385308,7835.627536,0.106000,0.974000,0.176000,192.000000,0.000000,0.000000,0.000000,0.000000,0.000000,0.000000,0.000000,0.000000,0.000000,1648375392.834473,0.000000
87.000000,-31200.621271,-24503.323377,-10622.040704,-29898.989785,-33480.879185,30065.331467,37619.841113,7841.081362,0.106000,0.974000,0.176000,192.000000,0.000000,0.000000,0.000000,0.000000,0.000000,0.000000,0.000000,0.000000,0.000000,1648375392.842735,0.000000
88.000000,-31200.800085,-24503.099859,-10619.783177,-29896.955776,-33479.940412,30068.192490,37629.139439,7854.090077,0.106000,0.974000,0.176000,192.000000,0.000000,0.000000,0.000000,0.000000,0.000000,0.000000,0.000000,0.000000,0.000000,1648375392.842742,0.000000
89.000000,-31191.166483,-24492.728650,-10609.836651,-29885.712848,-33471.446749,30074.786255,37633.833305,7848.636252,0.108000,0.978000,0.170000,192.000000,3.000000,96.000000,30.000000,144.000000,5.000000,80.000000,0.000000,0.000000,0.000000,1648375392.849938,0.000000
90.000000,-31190.160655,-24491.946339,-10610.686017,-29884.662316,-33467.803415,30080.105970,37633.922712,7849.284452,0.108000,0.978000,0.170000,192.000000,0.000000,0.000000,0.000000,0.000000,0.000000,0.000000,0.000000,0.000000,0.000000,1648375392.849946,0.000000
91.000000,-31195.525073,-24497.221350,-10617.346837,-29889.356183,-33474.128958,30076.730857,37629.564122,7851.229054,0.108000,0.978000,0.170000,192.000000,0.000000,0.000000,0.000000,0.000000,0.000000,0.000000,0.000000,0.000000,0.000000,1648375392.856525,0.000000
92.000000,-31197.357917,-24501.535237,-10619.582012,-29892.574834,-33476.677057,30073.400447,37638.661282,7851.117295,0.108000,0.978000,0.170000,192.000000,0.000000,0.000000,0.000000,0.000000,0.000000,0.000000,0.000000,0.000000,0.000000,1648375392.864402,0.000000
93.000000,-31196.709716,-24505.715013,-10622.197166,-29895.547616,-33480.052171,30068.036028,37634.034471,7846.982222,0.108000,0.978000,0.170000,192.000000,0.000000,0.000000,0.000000,0.000000,0.000000,0.000000,0.000000,0.000000,0.000000,1648375392.864414,0.000000
94.000000,-31198.810780,-24509.112478,-10625.281706,-29898.162770,-33482.823787,30063.208051,37627.731279,7840.231996,0.108000,0.978000,0.170000,192.000000,0.000000,0.000000,0.000000,0.000000,0.000000,0.000000,0.000000,0.000000,0.000000,1648375392.872266,0.000000
95.000000,-31199.503684,-24511.012377,-10626.220480,-29900.889683,-33483.181415,30063.163348,37621.316328,7839.337926,0.108000,0.978000,0.170000,192.000000,0.000000,0.000000,0.000000,0.000000,0.000000,0.000000,0.000000,0.000000,0.000000,1648375392.872283,0.000000
96.000000,-31203.504646,-24515.750946,-10632.322506,-29908.176352,-33489.864587,30059.944696,37616.935386,7834.264080,0.108000,0.978000,0.170000,192.000000,0.000000,0.000000,0.000000,0.000000,0.000000,0.000000,0.000000,0.000000,0.000000,1648375392.879454,0.000000
97.000000,-31206.768001,-24512.755813,-10631.406084,-29908.735145,-33491.004526,30057.083673,37599.679840,7827.424446,0.108000,0.978000,0.170000,192.000000,0.000000,0.000000,0.000000,0.000000,0.000000,0.000000,0.000000,0.000000,0.000000,1648375392.879465,0.000000
98.000000,-31206.075097,-24508.486630,-10626.935736,-29903.683651,-33489.529310,30059.363551,37606.519473,7824.675181,0.108000,0.978000,0.170000,192.000000,0.000000,0.000000,0.000000,0.000000,0.000000,0.000000,0.000000,0.000000,0.000000,1648375392.886904,0.000000
99.000000,-31204.063440,-24506.251455,-10624.208823,-29901.113200,-33485.014258,30068.147787,37638.013081,7842.958908,0.104000,0.974000,0.166000,192.000000,3.000000,64.000000,30.000000,112.000000,5.000000,48.000000,0.000000,0.000000,0.000000,1648375392.886915,0.000000
100.000000,-31210.500742,-24514.901580,-10629.752055,-29907.014061,-33488.545834,30072.729894,37640.807049,7855.833513,0.104000,0.974000,0.166000,192.000000,0.000000,0.000000,0.000000,0.000000,0.000000,0.000000,0.000000,0.000000,0.000000,1648375392.895029,0.000000
101.000000,-31216.491010,-24519.215467,-10634.557680,-29908.042241,-33492.926776,30068.192490,37629.407660,7848.099810,0.104000,0.974000,0.166000,192.000000,0.000000,0.000000,0.000000,0.000000,0.000000,0.000000,0.000000,0.000000,0.000000,1648375392.895040,0.000000
102.000000,-31207.706774,-24506.922007,-10626.153425,-29896.620500,-33482.756732,30073.914537,37626.881913,7865.891798,0.104000,0.974000,0.166000,192.000000,0.000000,0.000000,0.000000,0.000000,0.000000,0.000000,0.000000,0.000000,0.000000,1648375392.903063,0.000000
103.000000,-31203.191722,-24501.781106,-10624.253526,-29894.966471,-33478.264031,30076.350877,37633.833305,7856.951100,0.104000,0.974000,0.166000,192.000000,0.000000,0.000000,0.000000,0.000000,0.000000,0.000000,0.000000,0.000000,0.000000,1648375392.903074,0.000000
104.000000,-31200.844789,-24499.702394,-10623.024180,-29892.261910,-33476.744113,30074.987420,37639.264779,7840.835493,0.104000,0.974000,0.166000,192.000000,0.000000,0.000000,0.000000,0.000000,0.000000,0.000000,0.000000,0.000000,0.000000,1648375392.909602,0.000000
105.000000,-31200.822437,-24499.031842,-10621.213689,-29888.886796,-33471.692618,30075.367400,37628.401831,7848.502141,0.104000,0.974000,0.166000,192.000000,0.000000,0.000000,0.000000,0.000000,0.000000,0.000000,0.000000,0.000000,0.000000,1648375392.909615,0.000000
106.000000,-31203.437591,-24501.222313,-10621.571317,-29888.529168,-33471.200880,30079.927156,37639.577703,7867.054089,0.104000,0.974000,0.166000,192.000000,0.000000,0.000000,0.000000,0.000000,0.000000,0.000000,0.000000,0.000000,0.000000,1648375392.916407,0.000000
107.000000,-31198.363745,-24496.975481,-10618.218555,-29886.651622,-33468.630429,30083.749304,37649.032491,7868.730470,0.104000,0.974000,0.166000,192.000000,0.000000,0.000000,0.000000,0.000000,0.000000,0.000000,0.000000,0.000000,0.000000,1648375392.924437,0.000000
108.000000,-31195.569777,-24495.008528,-10618.173852,-29887.769209,-33472.117301,30080.485950,37640.695291,7863.567217,0.104000,0.974000,0.166000,192.000000,0.000000,0.000000,0.000000,0.000000,0.000000,0.000000,0.000000,0.000000,0.000000,1648375392.924445,0.000000
109.000000,-31193.401658,-24494.583844,-10617.346837,-29888.953851,-33474.240717,30076.373229,37633.050994,7852.748973,0.102000,0.970000,0.170000,192.000000,3.000000,48.000000,30.000000,80.000000,5.000000,80.000000,0.000000,0.000000,0.000000,1648375392.932436,0.000000
110.000000,-31196.374440,-24496.707260,-10621.817186,-29892.127799,-33475.805339,30073.243984,37625.272587,7847.764533,0.102000,0.970000,0.170000,192.000000,0.000000,0.000000,0.000000,0.000000,0.000000,0.000000,0.000000,0.000000,0.000000,1648375392.932444,0.000000
111.000000,-31201.492989,-24499.970615,-10624.812320,-29892.686593,-33476.386485,30074.205109,37628.781811,7848.256272,0.102000,0.970000,0.170000,192.000000,0.000000,0.000000,0.000000,0.000000,0.000000,0.000000,0.000000,0.000000,0.000000,1648375392.939102,0.000000
112.000000,-31199.235463,-24500.507057,-10621.750131,-29890.160846,-33472.832557,30074.629793,37632.067517,7836.611013,0.102000,0.970000,0.170000,192.000000,0.000000,0.000000,0.000000,0.000000,0.000000,0.000000,0.000000,0.000000,0.000000,1648375392.939111,0.000000
113.000000,-31199.168408,-24498.651862,-10620.498433,-29890.071439,-33471.156176,30075.099179,37633.095698,7838.846187,0.102000,0.970000,0.170000,192.000000,0.000000,0.000000,0.000000,0.000000,0.000000,0.000000,0.000000,0.000000,0.000000,1648375392.947001,0.000000
114.000000,-31202.632928,-24503.882170,-10624.141768,-29893.871235,-33476.319429,30068.974801,37621.986881,7841.304879,0.102000,0.970000,0.170000,192.000000,0.000000,0.000000,0.000000,0.000000,0.000000,0.000000,0.000000,0.000000,0.000000,1648375392.947009,0.000000
115.000000,-31204.309309,-24501.557589,-10621.928945,-29889.959680,-33473.793682,30066.873737,37606.050087,7842.131894,0.102000,0.970000,0.170000,192.000000,0.000000,0.000000,0.000000,0.000000,0.000000,0.000000,0.000000,0.000000,0.000000,1648375392.955091,0.000000
116.000000,-31203.079963,-24501.088202,-10618.352666,-29885.712848,-33468.585726,30070.584127,37622.813895,7844.925862,0.102000,0.970000,0.170000,192.000000,0.000000,0.000000,0.000000,0.000000,0.000000,0.000000,0.000000,0.000000,0.000000,1648375392.955104,0.000000
117.000000,-31197.760248,-24500.887036,-10616.408064,-29884.818779,-33467.222269,30073.847481,37635.710852,7862.069650,0.102000,0.970000,0.170000,192.000000,0.000000,0.000000,0.000000,0.000000,0.000000,0.000000,0.000000,0.000000,0.000000,1648375392.961719,0.000000
118.000000,-31192.507588,-24492.460429,-10614.038779,-29881.533072,-33463.556583,30074.473330,37636.068480,7866.517647,0.102000,0.970000,0.170000,192.000000,0.000000,0.000000,0.000000,0.000000,0.000000,0.000000,0.000000,0.000000,0.000000,1648375392.961727,0.000000
119.000000,-31193.625175,-24487.319528,-10614.441110,-29879.744933,-33462.908383,30075.322697,37637.521343,7858.359260,0.106000,0.970000,0.174000,192.000000,3.000000,80.000000,30.000000,80.000000,5.000000,112.000000,0.000000,0.000000,0.000000,1648375392.969683,0.000000
120.000000,-31203.415239,-24495.612025,-10623.426512,-29889.669107,-33470.686790,30065.085598,37622.433915,7831.514815,0.106000,0.970000,0.174000,192.000000,0.000000,0.000000,0.000000,0.000000,0.000000,0.000000,0.000000,0.000000,0.000000,1648375392.969691,0.000000
121.000000,-31202.789390,-24498.428345,-10624.946430,-29891.189026,-33473.257240,30060.347028,37611.302747,7822.015324,0.106000,0.970000,0.174000,192.000000,0.000000,0.000000,0.000000,0.000000,0.000000,0.000000,0.000000,0.000000,0.000000,1648375392.976694,0.000000
122.000000,-31194.787466,-24488.615929,-10614.888145,-29882.449494,-33463.221307,30074.696848,37629.340604,7851.430220,0.106000,0.970000,0.174000,192.000000,0.000000,0.000000,0.000000,0.000000,0.000000,0.000000,0.000000,0.000000,0.000000,1648375392.976702,0.000000
123.000000,-31196.866178,-24490.784048,-10615.558698,-29885.824607,-33463.891860,30079.234252,37637.119012,7862.293167,0.106000,0.970000,0.174000,192.000000,0.000000,0.000000,0.000000,0.000000,0.000000,0.000000,0.000000,0.000000,0.000000,1648375392.984847,0.000000
124.000000,-31202.699983,-24497.511923,-10622.688904,-29890.630232,-33469.815072,30076.753208,37629.809991,7872.552618,0.106000,0.970000,0.174000,192.000000,0.000000,0.000000,0.000000,0.000000,0.000000,0.000000,0.000000,0.000000,0.000000,1648375392.991213,0.000000
125.000000,-31199.682498,-24493.421554,-10619.000866,-29885.221110,-33465.456482,30081.938813,37628.379479,7876.598284,0.106000,0.970000,0.174000,192.000000,0.000000,0.000000,0.000000,0.000000,0.000000,0.000000,0.000000,0.000000,0.000000,1648375392.991218,0.000000
126.000000,-31199.034297,-24492.616891,-10617.682113,-29883.768247,-33462.953086,30087.370287,37639.242427,7867.232903,0.106000,0.970000,0.174000,192.000000,0.000000,0.000000,0.000000,0.000000,0.000000,0.000000,0.000000,0.000000,0.000000,1648375392.999254,0.000000
127.000000,-31203.370536,-24494.382679,-10621.459558,-29887.724505,-33466.462310,30083.950470,37634.705023,7861.600263,0.106000,0.970000,0.174000,192.000000,0.000000,0.000000,0.000000,0.000000,0.000000,0.000000,0.000000,0.000000,0.000000,1648375392.999260,0.000000
128.000000,-31197.424972,-24492.616891,-10619.045570,-29885.779904,-33465.501185,30085.135112,37637.878971,7871.904418,0.106000,0.970000,0.174000,192.000000,0.000000,0.000000,0.000000,0.000000,0.000000,0.000000,0.000000,0.000000,0.000000,1648375393.007289,0.000000
129.000000,-31196.910882,-24491.387545,-10616.273953,-29882.918880,-33463.623639,30090.588938,37657.280285,7873.871371,0.102000,0.966000,0.178000,192.000000,3.000000,48.000000,30.000000,48.000000,5.000000,144.000000,0.000000,0.000000,0.000000,1648375393.007301,0.000000
130.000000,-31202.208245,-24494.740307,-10620.766654,-29889.020907,-33469.189223,30084.129284,37640.069442,7858.783944,0.102000,0.966000,0.178000,192.000000,0.000000,0.000000,0.000000,0.000000,0.000000,0.000000,0.000000,0.000000,0.000000,1648375393.014369,0.000000
131.000000,-31213.831152,-24507.726670,-10627.226308,-29899.995613,-33476.945278,30074.965069,37630.301729,7840.388458,0.102000,0.966000,0.178000,192.000000,0.000000,0.000000,0.000000,0.000000,0.000000,0.000000,0.000000,0.000000,0.000000,1648375393.014375,0.000000
132.000000,-31214.188780,-24507.257284,-10627.785102,-29899.123895,-33477.682886,30073.109874,37634.794430,7828.094998,0.102000,0.966000,0.178000,192.000000,0.000000,0.000000,0.000000,0.000000,0.000000,0.000000,0.000000,0.000000,0.000000,1648375393.021921,0.000000
133.000000,-31207.550312,-24499.322414,-10622.644201,-29893.379497,-33471.603211,30083.056400,37652.899343,7861.242635,0.102000,0.966000,0.178000,192.000000,0.000000,0.000000,0.000000,0.000000,0.000000,0.000000,0.000000,0.000000,0.000000,1648375393.021927,0.000000
134.000000,-31206.365670,-24496.327281,-10618.732645,-29889.691459,-33467.959877,30084.084580,37644.115108,7877.760575,0.102000,0.966000,0.178000,192.000000,0.000000,0.000000,0.000000,0.000000,0.000000,0.000000,0.000000,0.000000,0.000000,1648375393.029936,0.000000
135.000000,-31202.789390,-24489.509999,-10613.882317,-29884.259985,-33466.059979,30077.110836,37619.528189,7863.768383,0.102000,0.966000,0.178000,192.000000,0.000000,0.000000,0.000000,0.000000,0.000000,0.000000,0.000000,0.000000,0.000000,1648375393.029942,0.000000
136.000000,-31191.032373,-24477.216539,-10604.427529,-29874.358162,-33455.755825,30077.937851,37609.671069,7848.613900,0.102000,0.966000,0.178000,192.000000,0.000000,0.000000,0.000000,0.000000,0.000000,0.000000,0.000000,0.000000,0.000000,1648375393.039359,0.000000
137.000000,-31194.541597,-24482.178626,-10612.407102,-29884.729372,-33463.131900,30071.478197,37613.314404,7834.018211,0.102000,0.966000,0.178000,192.000000,0.000000,0.000000,0.000000,0.000000,0.000000,0.000000,0.000000,0.000000,0.000000,1648375393.039366,0.000000
138.000000,-31201.291824,-24487.766562,-10619.134977,-29890.786694,-33468.853947,30073.221633,37628.513590,7850.402039,0.102000,0.966000,0.178000,192.000000,0.000000,0.000000,0.000000,0.000000,0.000000,0.000000,0.000000,0.000000,0.000000,1648375393.045659,0.000000
139.000000,-31202.387059,-24493.309795,-10619.738474,-29891.300785,-33469.748017,30075.702676,37630.637006,7853.575987,0.098000,0.974000,0.184000,192.000000,3.000000,16.000000,30.000000,112.000000,5.000000,192.000000,0.000000,0.000000,0.000000,1648375393.052261,0.000000
140.000000,-31205.605710,-24497.467220,-10621.727779,-29891.412543,-33470.440921,30078.653107,37628.021852,7852.458400,0.098000,0.974000,0.184000,192.000000,0.000000,0.000000,0.000000,0.000000,0.000000,0.000000,0.000000,0.000000,0.000000,1648375393.052268,0.000000
141.000000,-31202.476466,-24496.595501,-10619.358494,-29888.439761,-33466.059979,30086.252700,37633.028642,7860.795601,0.098000,0.974000,0.184000,192.000000,0.000000,0.000000,0.000000,0.000000,0.000000,0.000000,0.000000,0.000000,0.000000,1648375393.059083,0.000000
142.000000,-31205.851579,-24497.109592,-10622.152462,-29891.256081,-33467.155214,30085.738610,37637.789564,7854.581816,0.098000,0.974000,0.184000,192.000000,0.000000,0.000000,0.000000,0.000000,0.000000,0.000000,0.000000,0.000000,0.000000,1648375393.059095,0.000000
143.000000,-31209.383155,-24496.863722,-10625.996962,-29892.843055,-33470.977363,30079.949508,37637.119012,7851.899606,0.098000,0.974000,0.184000,192.000000,0.000000,0.000000,0.000000,0.000000,0.000000,0.000000,0.000000,0.000000,0.000000,1648375393.066992,0.000000
144.000000,-31210.098411,-24497.221350,-10627.271012,-29892.217206,-33469.636258,30076.529691,37630.949930,7854.090077,0.098000,0.974000,0.184000,192.000000,0.000000,0.000000,0.000000,0.000000,0.000000,0.000000,0.000000,0.000000,0.000000,1648375393.066998,0.000000
145.000000,-31211.573626,-24499.657690,-10629.193262,-29891.926633,-33470.083293,30073.355743,37621.517494,7853.933615,0.098000,0.974000,0.184000,192.000000,0.000000,0.000000,0.000000,0.000000,0.000000,0.000000,0.000000,0.000000,0.000000,1648375393.075001,0.000000
146.000000,-31201.649451,-24490.940510,-10617.458596,-29881.488369,-33463.042493,30079.681287,37620.802238,7858.828647,0.098000,0.974000,0.184000,192.000000,0.000000,0.000000,0.000000,0.000000,0.000000,0.000000,0.000000,0.000000,0.000000,1648375393.075009,0.000000
147.000000,-31196.262681,-24483.005641,-10611.870660,-29876.727447,-33458.303923,30084.397505,37628.781811,7865.936502,0.098000,0.974000,0.184000,192.000000,0.000000,0.000000,0.000000,0.000000,0.000000,0.000000,0.000000,0.000000,0.000000,1648375393.082134,0.000000
148.000000,-31201.403582,-24488.213597,-10619.269087,-29885.355220,-33463.489528,30079.591880,37626.054898,7856.995804,0.098000,0.974000,0.184000,192.000000,0.000000,0.000000,0.000000,0.000000,0.000000,0.000000,0.000000,0.000000,0.000000,1648375393.082141,0.000000
149.000000,-31204.242254,-24493.689775,-10624.611154,-29887.679802,-33468.317505,30077.490816,37629.586474,7854.738278,0.094000,0.968000,0.178000,192.000000,2.000000,240.000000,30.000000,64.000000,5.000000,144.000000,0.000000,0.000000,0.000000,1648375393.089562,0.000000
150.000000,-31202.722335,-24491.499304,-10621.973648,-29883.276508,-33466.127034,30082.408200,37640.360014,7862.539037,0.094000,0.968000,0.178000,192.000000,0.000000,0.000000,0.000000,0.000000,0.000000,0.000000,0.000000,0.000000,0.000000,1648375393.089580,0.000000
151.000000,-31204.152847,-24491.901635,-10622.755959,-29884.997593,-33465.791758,30082.430551,37638.281302,7863.656624,0.094000,0.968000,0.178000,192.000000,0.000000,0.000000,0.000000,0.000000,0.000000,0.000000,0.000000,0.000000,0.000000,1648375393.098047,0.000000
152.000000,-31205.002213,-24496.148467,-10624.007657,-29889.490293,-33467.825767,30079.927156,37632.268683,7855.386478,0.094000,0.968000,0.178000,192.000000,0.000000,0.000000,0.000000,0.000000,0.000000,0.000000,0.000000,0.000000,0.000000,1648375393.098054,0.000000
153.000000,-31207.527960,-24501.557589,-10624.722913,-29893.580662,-33469.613906,30078.250775,37627.775982,7846.311670,0.094000,0.968000,0.178000,192.000000,0.000000,0.000000,0.000000,0.000000,0.000000,0.000000,0.000000,0.000000,0.000000,1648375393.104679,0.000000
154.000000,-31214.255835,-24507.078470,-10627.382770,-29896.665203,-33472.363171,30073.623964,37615.035488,7834.375839,0.094000,0.968000,0.178000,192.000000,0.000000,0.000000,0.000000,0.000000,0.000000,0.000000,0.000000,0.000000,0.000000,1648375393.112121,0.000000
155.000000,-31220.179048,-24515.125098,-10632.255451,-29904.197741,-33477.839348,30072.171101,37618.075325,7846.714002,0.094000,0.968000,0.178000,192.000000,0.000000,0.000000,0.000000,0.000000,0.000000,0.000000,0.000000,0.000000,0.000000,1648375393.112133,0.000000
156.000000,-31219.061460,-24514.655711,-10632.836596,-29906.567026,-33477.995810,30078.027258,37643.198686,7858.515723,0.094000,0.968000,0.178000,192.000000,0.000000,0.000000,0.000000,0.000000,0.000000,0.000000,0.000000,0.000000,0.000000,1648375393.119281,0.000000
157.000000,-31221.117821,-24517.449679,-10635.339991,-29910.925616,-33482.712028,30073.109874,37632.492200,7839.382629,0.094000,0.968000,0.178000,192.000000,0.000000,0.000000,0.000000,0.000000,0.000000,0.000000,0.000000,0.000000,0.000000,1648375393.119292,0.000000
158.000000,-31221.408394,-24516.309740,-10640.123265,-29912.266721,-33485.573052,30070.740589,37624.646738,7846.423429,0.094000,0.968000,0.178000,192.000000,0.000000,0.000000,0.000000,0.000000,0.000000,0.000000,0.000000,0.000000,0.000000,1648375393.127439,0.000000
159.000000,-31224.358824,-24517.874362,-10642.850178,-29912.244369,-33486.198900,30070.315906,37634.839134,7862.628444,0.098000,0.964000,0.176000,192.000000,3.000000,16.000000,30.000000,32.000000,5.000000,128.000000,0.000000,0.000000,0.000000,1648375393.127452,0.000000
160.000000,-31224.649396,-24515.147449,-10638.402180,-29908.578683,-33484.075485,30066.985496,37623.663261,7850.357336,0.098000,0.964000,0.176000,192.000000,0.000000,0.000000,0.000000,0.000000,0.000000,0.000000,0.000000,0.000000,0.000000,1648375393.134571,0.000000
161.000000,-31215.887513,-24509.492458,-10630.042628,-29899.392116,-33474.643049,30077.647278,37638.370709,7867.456420,0.098000,0.964000,0.176000,192.000000,0.000000,0.000000,0.000000,0.000000,0.000000,0.000000,0.000000,0.000000,0.000000,1648375393.134583,0.000000
162.000000,-31218.100335,-24510.453583,-10630.512015,-29899.794447,-33473.771331,30082.743476,37650.306541,7889.182316,0.098000,0.964000,0.176000,192.000000,0.000000,0.000000,0.000000,0.000000,0.000000,0.000000,0.000000,0.000000,0.000000,1648375393.142115,0.000000
163.000000,-31222.615388,-24512.353481,-10636.122303,-29905.136514,-33480.230985,30077.580223,37648.294884,7878.095851,0.098000,0.964000,0.176000,192.000000,0.000000,0.000000,0.000000,0.000000,0.000000,0.000000,0.000000,0.000000,0.000000,1648375393.142131,0.000000
164.000000,-31225.945798,-24514.856877,-10639.072733,-29907.282282,-33482.421456,30074.115702,37638.773041,7867.299958,0.098000,0.964000,0.176000,192.000000,0.000000,0.000000,0.000000,0.000000,0.000000,0.000000,0.000000,0.000000,0.000000,1648375393.150255,0.000000
165.000000,-31230.907885,-24518.276694,-10643.923061,-29911.350299,-33485.975383,30072.662839,37633.363918,7869.959816,0.098000,0.964000,0.176000,192.000000,0.000000,0.000000,0.000000,0.000000,0.000000,0.000000,0.000000,0.000000,0.000000,1648375393.150273,0.000000
166.000000,-31231.176106,-24518.880191,-10645.308870,-29911.462058,-33486.556528,30075.300345,37640.918808,7876.352415,0.098000,0.964000,0.176000,192.000000,0.000000,0.000000,0.000000,0.000000,0.000000,0.000000,0.000000,0.000000,0.000000,1648375393.158057,0.000000
167.000000,-31229.879705,-24521.070662,-10644.124227,-29912.914921,-33485.930680,30075.568566,37641.991692,7867.210551,0.098000,0.964000,0.176000,192.000000,0.000000,0.000000,0.000000,0.000000,0.000000,0.000000,0.000000,0.000000,0.000000,1648375393.158076,0.000000
168.000000,-31223.531809,-24514.767470,-10638.960974,-29906.209398,-33482.622621,30072.238156,37633.542732,7849.865597,0.098000,0.964000,0.176000,192.000000,0.000000,0.000000,0.000000,0.000000,0.000000,0.000000,0.000000,0.000000,0.000000,1648375393.164015,0.000000
169.000000,-31221.408394,-24512.755813,-10635.563509,-29903.326023,-33478.979287,30072.193452,37628.871218,7847.585720,0.098000,0.964000,0.176000,192.000000,0.000000,0.000000,0.000000,0.000000,0.000000,0.000000,0.000000,0.000000,0.000000,1648375393.171597,0.000000
170.000000,-31220.156696,-24513.582827,-10635.094122,-29903.594244,-33478.867528,30071.813473,37630.055860,7858.582778,0.100000,0.970000,0.178000,192.000000,3.000000,32.000000,30.000000,80.000000,5.000000,144.000000,0.000000,0.000000,0.000000,1648375393.171609,0.000000
171.000000,-31214.904036,-24508.464278,-10630.824939,-29899.258006,-33475.291249,30074.003944,37636.247294,7867.679938,0.100000,0.970000,0.178000,192.000000,0.000000,0.000000,0.000000,0.000000,0.000000,0.000000,0.000000,0.000000,0.000000,1648375393.179645,0.000000
172.000000,-31216.245141,-24508.844257,-10632.143692,-29899.682689,-33476.140615,30074.294516,37631.464020,7866.070612,0.100000,0.970000,0.178000,192.000000,0.000000,0.000000,0.000000,0.000000,0.000000,0.000000,0.000000,0.000000,0.000000,1648375393.179656,0.000000
173.000000,-31221.676614,-24512.509944,-10638.290422,-29904.331852,-33483.069656,30068.103083,37627.753631,7853.017193,0.100000,0.970000,0.178000,192.000000,0.000000,0.000000,0.000000,0.000000,0.000000,0.000000,0.000000,0.000000,0.000000,1648375393.187785,0.000000
174.000000,-31221.564856,-24513.761641,-10636.323468,-29902.476657,-33483.740209,30068.885394,37633.028642,7852.637214,0.100000,0.970000,0.178000,192.000000,0.000000,0.000000,0.000000,0.000000,0.000000,0.000000,0.000000,0.000000,0.000000,1648375393.187800,0.000000
175.000000,-31224.671748,-24520.154240,-10639.072733,-29904.510665,-33488.255261,30062.895127,37624.467924,7841.081362,0.100000,0.970000,0.178000,192.000000,0.000000,0.000000,0.000000,0.000000,0.000000,0.000000,0.000000,0.000000,0.000000,1648375393.194260,0.000000
176.000000,-31219.016757,-24514.566304,-10632.143692,-29896.955776,-33483.539043,30067.812510,37632.916884,7857.152266,0.100000,0.970000,0.178000,192.000000,0.000000,0.000000,0.000000,0.000000,0.000000,0.000000,0.000000,0.000000,0.000000,1648375393.194273,0.000000
177.000000,-31215.216960,-24510.900618,-10628.857986,-29893.625366,-33480.320392,30067.164310,37629.765288,7860.706194,0.100000,0.970000,0.178000,192.000000,0.000000,0.000000,0.000000,0.000000,0.000000,0.000000,0.000000,0.000000,0.000000,1648375393.202551,0.000000
178.000000,-31215.172257,-24512.398185,-10628.947393,-29893.401848,-33480.879185,30064.973839,37631.575779,7852.726621,0.100000,0.970000,0.178000,192.000000,0.000000,0.000000,0.000000,0.000000,0.000000,0.000000,0.000000,0.000000,0.000000,1648375393.202569,0.000000
179.000000,-31212.713565,-24509.939493,-10627.405122,-29889.736162,-33480.633316,30064.772673,37629.742936,7841.550749,0.100000,0.970000,0.178000,192.000000,0.000000,0.000000,0.000000,0.000000,0.000000,0.000000,0.000000,0.000000,0.000000,1648375393.210337,0.000000
180.000000,-31208.891417,-24506.832600,-10623.582974,-29883.745895,-33476.699409,30068.885394,37632.916884,7844.992917,0.106000,0.972000,0.188000,192.000000,3.000000,80.000000,30.000000,96.000000,5.000000,224.000000,0.000000,0.000000,0.000000,1648375393.210355,0.000000
181.000000,-31205.940986,-24505.826772,-10626.332238,-29886.383401,-33478.956935,30064.124473,37625.361994,7831.738333,0.106000,0.972000,0.188000,192.000000,0.000000,0.000000,0.000000,0.000000,0.000000,0.000000,0.000000,0.000000,0.000000,1648375393.217456,0.000000
182.000000,-31207.706774,-24505.893827,-10624.834672,-29885.489331,-33480.700371,30064.057417,37634.190933,7837.952118,0.106000,0.972000,0.188000,192.000000,0.000000,0.000000,0.000000,0.000000,0.000000,0.000000,0.000000,0.000000,0.000000,1648375393.217472,0.000000
183.000000,-31204.957510,-24502.317548,-10619.559660,-29879.722581,-33477.727589,30073.847481,37665.908058,7875.704214,0.106000,0.972000,0.188000,192.000000,0.000000,0.000000,0.000000,0.000000,0.000000,0.000000,0.000000,0.000000,0.000000,1648375393.223977,0.000000
184.000000,-31203.951681,-24504.977406,-10622.867718,-29882.024811,-33480.052171,30076.239118,37675.742826,7891.126918,0.106000,0.972000,0.188000,192.000000,0.000000,0.000000,0.000000,0.000000,0.000000,0.000000,0.000000,0.000000,0.000000,1648375393.223991,0.000000
185.000000,-31202.141190,-24507.771374,-10623.247698,-29883.030639,-33480.879185,30069.444188,37665.729244,7880.867467,0.106000,0.972000,0.188000,192.000000,0.000000,0.000000,0.000000,0.000000,0.000000,0.000000,0.000000,0.000000,0.000000,1648375393.232084,0.000000
186.000000,-31197.156751,-24503.233970,-10619.783177,-29878.761456,-33478.152272,30071.142920,37670.646628,7880.956874,0.106000,0.972000,0.188000,192.000000,0.000000,0.000000,0.000000,0.000000,0.000000,0.000000,0.000000,0.000000,0.000000,1648375393.240041,0.000000
187.000000,-31196.396792,-24501.512885,-10619.850233,-29877.800331,-33478.956935,30070.941755,37660.208364,7871.904418,0.106000,0.972000,0.188000,192.000000,0.000000,0.000000,0.000000,0.000000,0.000000,0.000000,0.000000,0.000000,0.000000,1648375393.240053,0.000000
188.000000,-31200.442457,-24510.475935,-10624.789968,-29884.461151,-33485.058962,30064.772673,37649.211305,7852.234882,0.106000,0.972000,0.188000,192.000000,0.000000,0.000000,0.000000,0.000000,0.000000,0.000000,0.000000,0.000000,0.000000,1648375393.246784,0.000000
189.000000,-31196.486198,-24509.470106,-10622.353628,-29879.990802,-33483.248470,30065.130301,37650.127727,7846.646946,0.106000,0.972000,0.188000,192.000000,0.000000,0.000000,0.000000,0.000000,0.000000,0.000000,0.000000,0.000000,0.000000,1648375393.246801,0.000000
190.000000,-31195.390963,-24502.764583,-10620.476081,-29875.006363,-33477.437017,30067.588993,37649.904209,7849.329156,0.092000,0.970000,0.180000,192.000000,2.000000,224.000000,30.000000,80.000000,5.000000,160.000000,0.000000,0.000000,0.000000,1648375393.254789,0.000000
191.000000,-31202.521169,-24505.960882,-10628.433302,-29882.784770,-33482.644973,30059.989400,37643.645721,7833.504121,0.092000,0.970000,0.180000,192.000000,0.000000,0.000000,0.000000,0.000000,0.000000,0.000000,0.000000,0.000000,0.000000,1648375393.254807,0.000000
192.000000,-31197.290861,-24502.339900,-10623.962954,-29880.370781,-33480.320392,30065.957316,37649.792451,7852.212531,0.092000,0.970000,0.180000,192.000000,0.000000,0.000000,0.000000,0.000000,0.000000,0.000000,0.000000,0.000000,0.000000,1648375393.262784,0.000000
193.000000,-31191.747629,-24498.607158,-10615.446939,-29876.079247,-33475.335953,30076.864967,37661.102433,7877.000615,0.092000,0.970000,0.180000,192.000000,0.000000,0.000000,0.000000,0.000000,0.000000,0.000000,0.000000,0.000000,0.000000,1648375393.262819,0.000000
194.000000,-31186.763190,-24493.063926,-10611.244811,-29873.151168,-33471.379694,30077.580223,37651.468831,7870.138630,0.092000,0.970000,0.180000,192.000000,0.000000,0.000000,0.000000,0.000000,0.000000,0.000000,0.000000,0.000000,0.000000,1648375393.269762,0.000000
195.000000,-31184.460960,-24489.174722,-10609.031988,-29869.127854,-33467.937525,30079.591880,37643.869238,7868.663415,0.092000,0.970000,0.180000,192.000000,0.000000,0.000000,0.000000,0.000000,0.000000,0.000000,0.000000,0.000000,0.000000,1648375393.269778,0.000000
196.000000,-31190.004193,-24494.539141,-10616.944506,-29878.292069,-33475.760636,30072.886356,37640.360014,7870.295092,0.092000,0.970000,0.180000,192.000000,0.000000,0.000000,0.000000,0.000000,0.000000,0.000000,0.000000,0.000000,0.000000,1648375393.277309,0.000000
197.000000,-31190.227710,-24494.896769,-10617.369189,-29878.560290,-33477.749941,30069.399484,37645.545619,7863.634272,0.092000,0.970000,0.180000,192.000000,0.000000,0.000000,0.000000,0.000000,0.000000,0.000000,0.000000,0.000000,0.000000,1648375393.277320,0.000000
198.000000,-31188.193701,-24493.578016,-10614.329352,-29875.229880,-33476.297078,30067.097255,37650.105375,7849.865597,0.092000,0.970000,0.180000,192.000000,0.000000,0.000000,0.000000,0.000000,0.000000,0.000000,0.000000,0.000000,0.000000,1648375393.285330,0.000000
199.000000,-31181.443474,-24488.593577,-10607.377959,-29869.619592,-33469.658610,30074.518034,37663.382311,7866.092964,0.092000,0.970000,0.180000,192.000000,0.000000,0.000000,0.000000,0.000000,0.000000,0.000000,0.000000,0.000000,0.000000,1648375393.285342,0.000000
200.000000,-31179.364762,-24483.810304,-10604.740453,-29865.439816,-33464.741226,30075.054476,37656.967361,7879.302845,0.088000,0.970000,0.182000,192.000000,2.000000,192.000000,30.000000,80.000000,5.000000,176.000000,0.000000,0.000000,0.000000,1648375393.292458,0.000000
201.000000,-31178.850672,-24481.463370,-10606.238020,-29864.545746,-33464.048322,30066.247888,37628.446535,7860.683842,0.088000,0.970000,0.182000,192.000000,0.000000,0.000000,0.000000,0.000000,0.000000,0.000000,0.000000,0.000000,0.000000,1648375393.299477,0.000000
202.000000,-31171.675762,-24475.204882,-10600.135994,-29858.957810,-33459.667380,30065.286763,37621.606901,7846.781057,0.088000,0.970000,0.182000,192.000000,0.000000,0.000000,0.000000,0.000000,0.000000,0.000000,0.000000,0.000000,0.000000,1648375393.299489,0.000000
203.000000,-31171.206376,-24473.304984,-10598.794889,-29858.756645,-33457.812185,30069.645354,37657.950837,7856.816990,0.088000,0.970000,0.182000,192.000000,0.000000,0.000000,0.000000,0.000000,0.000000,0.000000,0.000000,0.000000,0.000000,1648375393.306868,0.000000
204.000000,-31175.542614,-24477.462408,-10601.722968,-29861.036523,-33458.728607,30072.439322,37672.479471,7872.820839,0.088000,0.970000,0.182000,192.000000,0.000000,0.000000,0.000000,0.000000,0.000000,0.000000,0.000000,0.000000,0.000000,1648375393.306884,0.000000
205.000000,-31174.670896,-24483.318565,-10605.701578,-29866.199775,-33463.221307,30073.065170,37664.097567,7881.068633,0.088000,0.970000,0.182000,192.000000,0.000000,0.000000,0.000000,0.000000,0.000000,0.000000,0.000000,0.000000,0.000000,1648375393.314932,0.000000
206.000000,-31170.155844,-24482.737420,-10608.272029,-29868.725523,-33465.970572,30071.232327,37658.397872,7882.767365,0.088000,0.970000,0.182000,192.000000,0.000000,0.000000,0.000000,0.000000,0.000000,0.000000,0.000000,0.000000,0.000000,1648375393.314950,0.000000
207.000000,-31179.655335,-24483.899711,-10613.211764,-29870.625421,-33466.618772,30067.477234,37650.150079,7875.815973,0.088000,0.970000,0.182000,192.000000,0.000000,0.000000,0.000000,0.000000,0.000000,0.000000,0.000000,0.000000,0.000000,1648375393.322892,0.000000
208.000000,-31190.697097,-24494.248568,-10620.766654,-29880.616651,-33477.369961,30057.173080,37626.434878,7852.413696,0.088000,0.970000,0.182000,192.000000,0.000000,0.000000,0.000000,0.000000,0.000000,0.000000,0.000000,0.000000,0.000000,1648375393.322908,0.000000
209.000000,-31188.797198,-24493.220388,-10615.916326,-29877.018020,-33475.648877,30059.609420,37634.325043,7852.637214,0.088000,0.970000,0.182000,192.000000,0.000000,0.000000,0.000000,0.000000,0.000000,0.000000,0.000000,0.000000,0.000000,1648375393.329703,0.000000
210.000000,-31186.584376,-24489.062964,-10610.350741,-29870.133683,-33469.323333,30067.857214,37647.020834,7854.984147,0.096000,0.970000,0.182000,192.000000,3.000000,0.000000,30.000000,80.000000,5.000000,176.000000,0.000000,0.000000,0.000000,1648375393.329719,0.000000
211.000000,-31187.634908,-24490.337013,-10614.597573,-29873.039409,-33471.737322,30067.857214,37642.103451,7848.837417,0.096000,0.970000,0.182000,192.000000,0.000000,0.000000,0.000000,0.000000,0.000000,0.000000,0.000000,0.000000,0.000000,1648375393.337739,0.000000
212.000000,-31185.600899,-24488.146542,-10614.686980,-29871.854767,-33472.162005,30068.527766,37644.763308,7856.392307,0.096000,0.970000,0.182000,192.000000,0.000000,0.000000,0.000000,0.000000,0.000000,0.000000,0.000000,0.000000,0.000000,1648375393.337756,0.000000
213.000000,-31181.622288,-24482.580958,-10611.468328,-29868.300839,-33468.317505,30074.070999,37651.826459,7861.175580,0.096000,0.970000,0.182000,192.000000,0.000000,0.000000,0.000000,0.000000,0.000000,0.000000,0.000000,0.000000,0.000000,1648375393.345531,0.000000
214.000000,-31182.046972,-24483.720897,-10616.005733,-29873.017058,-33470.463272,30073.333391,37643.422203,7850.223225,0.096000,0.970000,0.182000,192.000000,0.000000,0.000000,0.000000,0.000000,0.000000,0.000000,0.000000,0.000000,0.000000,1648375393.345566,0.000000
215.000000,-31182.002268,-24486.023126,-10616.877451,-29875.609860,-33471.402046,30072.059342,37632.313386,7835.336964,0.096000,0.970000,0.182000,192.000000,0.000000,0.000000,0.000000,0.000000,0.000000,0.000000,0.000000,0.000000,0.000000,1648375393.352900,0.000000
216.000000,-31185.444437,-24490.828751,-10616.899802,-29877.040372,-33471.871432,30070.405313,37632.112221,7824.675181,0.096000,0.970000,0.182000,192.000000,0.000000,0.000000,0.000000,0.000000,0.000000,0.000000,0.000000,0.000000,0.000000,1648375393.359185,0.000000
217.000000,-31182.896338,-24491.119324,-10614.530517,-29878.672049,-33470.239755,30075.568566,37641.812878,7850.714964,0.096000,0.970000,0.182000,192.000000,0.000000,0.000000,0.000000,0.000000,0.000000,0.000000,0.000000,0.000000,0.000000,1648375393.359197,0.000000
218.000000,-31180.392942,-24488.817094,-10612.854137,-29873.039409,-33467.758711,30080.932984,37643.735128,7873.714909,0.096000,0.970000,0.182000,192.000000,0.000000,0.000000,0.000000,0.000000,0.000000,0.000000,0.000000,0.000000,0.000000,1648375393.367206,0.000000
219.000000,-31185.399733,-24489.442943,-10611.647142,-29873.039409,-33467.043455,30081.558833,37635.286168,7874.743089,0.096000,0.970000,0.182000,192.000000,0.000000,0.000000,0.000000,0.000000,0.000000,0.000000,0.000000,0.000000,0.000000,1648375393.367218,0.000000
220.000000,-31184.282146,-24487.341879,-10613.949372,-29873.329982,-33467.445787,30078.720162,37643.086927,7862.919016,0.104000,0.974000,0.182000,192.000000,3.000000,64.000000,30.000000,112.000000,5.000000,176.000000,0.000000,0.000000,0.000000,1648375393.375317,0.000000
221.000000,-31180.370591,-24483.162103,-10614.843442,-29873.218223,-33467.803415,30073.579261,37633.878009,7839.382629,0.104000,0.974000,0.182000,192.000000,0.000000,0.000000,0.000000,0.000000,0.000000,0.000000,0.000000,0.000000,0.000000,1648375393.375329,0.000000
222.000000,-31178.694210,-24477.752981,-10610.127224,-29870.625421,-33464.607115,30074.473330,37642.952817,7843.629461,0.104000,0.974000,0.182000,192.000000,0.000000,0.000000,0.000000,0.000000,0.000000,0.000000,0.000000,0.000000,0.000000,1648375393.381697,0.000000
223.000000,-31174.313268,-24471.740362,-10601.834727,-29864.143415,-33457.365150,30079.033086,37663.739939,7862.181409,0.104000,0.974000,0.182000,192.000000,0.000000,0.000000,0.000000,0.000000,0.000000,0.000000,0.000000,0.000000,0.000000,1648375393.381707,0.000000
224.000000,-31174.246213,-24470.153388,-10598.124337,-29861.282392,-33454.325313,30074.272165,37645.053881,7858.493371,0.104000,0.974000,0.182000,192.000000,0.000000,0.000000,0.000000,0.000000,0.000000,0.000000,0.000000,0.000000,0.000000,1648375393.389824,0.000000
225.000000,-31167.630096,-24463.514920,-10590.234171,-29852.296990,-33444.781118,30084.978650,37645.322102,7880.711005,0.104000,0.974000,0.182000,192.000000,0.000000,0.000000,0.000000,0.000000,0.000000,0.000000,0.000000,0.000000,0.000000,1648375393.389836,0.000000
226.000000,-31166.400750,-24464.923080,-10593.877506,-29853.749854,-33445.384615,30089.493703,37662.957628,7894.211458,0.104000,0.974000,0.182000,192.000000,0.000000,0.000000,0.000000,0.000000,0.000000,0.000000,0.000000,0.000000,0.000000,1648375393.397895,0.000000
227.000000,-31167.406579,-24464.453693,-10596.783232,-29853.168708,-33447.329217,30087.929080,37659.806032,7880.152211,0.104000,0.974000,0.182000,192.000000,0.000000,0.000000,0.000000,0.000000,0.000000,0.000000,0.000000,0.000000,0.000000,1648375393.397907,0.000000
228.000000,-31162.913878,-24461.279745,-10592.581104,-29847.647828,-33442.992978,30090.007793,37660.521288,7880.174563,0.104000,0.974000,0.182000,192.000000,0.000000,0.000000,0.000000,0.000000,0.000000,0.000000,0.000000,0.000000,0.000000,1648375393.405112,0.000000
229.000000,-31159.985800,-24463.470216,-10592.379939,-29849.681836,-33442.031853,30085.850368,37661.616523,7872.753784,0.104000,0.974000,0.182000,192.000000,0.000000,0.000000,0.000000,0.000000,0.000000,0.000000,0.000000,0.000000,0.000000,1648375393.405123,0.000000
230.000000,-31170.312306,-24472.947356,-10601.588857,-29862.422331,-33453.095967,30069.600650,37633.341567,7845.082324,0.098000,0.974000,0.182000,192.000000,3.000000,16.000000,30.000000,112.000000,5.000000,176.000000,0.000000,0.000000,0.000000,1648375393.411623,0.000000
231.000000,-31164.389093,-24464.252527,-10593.542229,-29854.554517,-33448.983246,30073.422798,37638.169544,7858.471019,0.098000,0.974000,0.182000,192.000000,0.000000,0.000000,0.000000,0.000000,0.000000,0.000000,0.000000,0.000000,0.000000,1648375393.419500,0.000000
232.000000,-31157.124776,-24462.419684,-10589.049529,-29850.911182,-33443.328255,30077.647278,37652.474660,7868.641063,0.098000,0.974000,0.182000,192.000000,0.000000,0.000000,0.000000,0.000000,0.000000,0.000000,0.000000,0.000000,0.000000,1648375393.419515,0.000000
233.000000,-31157.750625,-24462.285574,-10589.295398,-29846.954924,-33441.160135,30075.590918,37647.110241,7860.236807,0.098000,0.974000,0.182000,192.000000,0.000000,0.000000,0.000000,0.000000,0.000000,0.000000,0.000000,0.000000,0.000000,1648375393.427574,0.000000
234.000000,-31163.629134,-24464.476045,-10593.139898,-29850.665313,-33445.228153,30071.880528,37632.805125,7850.022060,0.098000,0.974000,0.182000,192.000000,0.000000,0.000000,0.000000,0.000000,0.000000,0.000000,0.000000,0.000000,0.000000,1648375393.427591,0.000000
235.000000,-31166.870137,-24463.470216,-10599.353683,-29853.638095,-33448.871487,30072.461673,37631.419317,7854.157132,0.098000,0.974000,0.182000,192.000000,0.000000,0.000000,0.000000,0.000000,0.000000,0.000000,0.000000,0.000000,0.000000,1648375393.434551,0.000000
236.000000,-31168.479463,-24463.626678,-10603.667570,-29855.627400,-33450.212592,30076.417932,37640.047090,7863.455458,0.098000,0.974000,0.182000,192.000000,0.000000,0.000000,0.000000,0.000000,0.000000,0.000000,0.000000,0.000000,0.000000,1648375393.434567,0.000000
237.000000,-31165.439625,-24461.995001,-10601.968837,-29854.286296,-33449.743205,30079.278955,37656.050939,7863.969548,0.098000,0.974000,0.182000,192.000000,0.000000,0.000000,0.000000,0.000000,0.000000,0.000000,0.000000,0.000000,0.000000,1648375393.441915,0.000000
238.000000,-31168.278297,-24463.850196,-10605.612171,-29858.600182,-33454.191202,30075.009772,37653.726358,7853.441877,0.098000,0.974000,0.182000,192.000000,0.000000,0.000000,0.000000,0.000000,0.000000,0.000000,0.000000,0.000000,0.000000,1648375393.441922,0.000000
239.000000,-31176.682553,-24473.237929,-10614.418759,-29869.507834,-33462.930735,30065.800853,37638.236599,7842.623632,0.098000,0.974000,0.182000,192.000000,0.000000,0.000000,0.000000,0.000000,0.000000,0.000000,0.000000,0.000000,0.000000,1648375393.450325,0.000000
240.000000,-31172.145149,-24473.282632,-10614.307000,-29868.904337,-33464.875336,30066.136130,37635.643796,7854.112429,0.100000,0.974000,0.178000,192.000000,3.000000,32.000000,30.000000,112.000000,5.000000,144.000000,0.000000,0.000000,0.000000,1648375393.450337,0.000000
241.000000,-31173.799178,-24471.807417,-10611.758901,-29867.674991,-33463.355418,30067.700752,37633.475677,7844.367068,0.100000,0.974000,0.178000,192.000000,0.000000,0.000000,0.000000,0.000000,0.000000,0.000000,0.000000,0.000000,0.000000,1648375393.458030,0.000000
242.000000,-31176.257870,-24475.294289,-10613.256468,-29870.580717,-33464.517708,30065.242060,37624.065593,7839.337926,0.100000,0.974000,0.178000,192.000000,0.000000,0.000000,0.000000,0.000000,0.000000,0.000000,0.000000,0.000000,0.000000,1648375393.458039,0.000000
243.000000,-31174.112102,-24474.869606,-10612.518860,-29871.899470,-33464.607115,30067.968973,37631.285206,7847.563368,0.100000,0.974000,0.178000,192.000000,0.000000,0.000000,0.000000,0.000000,0.000000,0.000000,0.000000,0.000000,0.000000,1648375393.464552,0.000000
244.000000,-31174.961469,-24476.031897,-10611.602439,-29870.670124,-33464.629467,30076.552043,37650.083023,7861.309691,0.100000,0.974000,0.178000,192.000000,0.000000,0.000000,0.000000,0.000000,0.000000,0.000000,0.000000,0.000000,0.000000,1648375393.464560,0.000000
245.000000,-31177.911899,-24480.569301,-10615.066959,-29876.436874,-33467.065807,30075.345048,37650.686520,7859.208627,0.100000,0.974000,0.178000,192.000000,0.000000,0.000000,0.000000,0.000000,0.000000,0.000000,0.000000,0.000000,0.000000,1648375393.471670,0.000000
246.000000,-31179.431817,-24483.318565,-10619.336142,-29880.214319,-33470.195051,30074.629793,37655.782718,7854.894740,0.100000,0.974000,0.178000,192.000000,0.000000,0.000000,0.000000,0.000000,0.000000,0.000000,0.000000,0.000000,0.000000,1648375393.471677,0.000000
247.000000,-31182.382248,-24483.698545,-10622.688904,-29880.504892,-33472.743150,30072.640487,37646.618503,7847.339850,0.100000,0.974000,0.178000,192.000000,0.000000,0.000000,0.000000,0.000000,0.000000,0.000000,0.000000,0.000000,0.000000,1648375393.479588,0.000000
248.000000,-31184.505663,-24481.619833,-10622.085407,-29879.543767,-33472.318467,30070.472368,37635.174410,7838.622670,0.100000,0.974000,0.178000,192.000000,0.000000,0.000000,0.000000,0.000000,0.000000,0.000000,0.000000,0.000000,0.000000,1648375393.487654,0.000000
249.000000,-31190.093600,-24485.598443,-10626.779273,-29882.650659,-33476.364133,30069.891223,37640.784698,7850.737316,0.100000,0.974000,0.178000,192.000000,0.000000,0.000000,0.000000,0.000000,0.000000,0.000000,0.000000,0.000000,0.000000,1648375393.487666,0.000000
250.000000,-31183.544538,-24480.502245,-10624.879375,-29878.828511,-33474.598345,30068.840691,37630.882875,7850.178522,0.096000,0.970000,0.172000,192.000000,3.000000,0.000000,30.000000,80.000000,5.000000,96.000000,0.000000,0.000000,0.000000,1648375393.494391,0.000000
251.000000,-31171.899280,-24473.081466,-10615.335180,-29869.798406,-33466.909345,30071.366438,37627.843038,7840.366106,0.096000,0.970000,0.172000,192.000000,0.000000,0.000000,0.000000,0.000000,0.000000,0.000000,0.000000,0.000000,0.000000,1648375393.494408,0.000000
252.000000,-31172.815701,-24472.969708,-10610.976590,-29869.083151,-33463.780101,30080.932984,37655.961532,7865.668281,0.096000,0.970000,0.172000,192.000000,0.000000,0.000000,0.000000,0.000000,0.000000,0.000000,0.000000,0.000000,0.000000,1648375393.502388,0.000000
253.000000,-31175.453207,-24475.249586,-10612.630619,-29871.854767,-33464.607115,30082.050572,37659.873087,7871.144458,0.096000,0.970000,0.172000,192.000000,0.000000,0.000000,0.000000,0.000000,0.000000,0.000000,0.000000,0.000000,0.000000,1648375393.502405,0.000000
254.000000,-31175.095579,-24475.294289,-10612.809433,-29871.564194,-33465.255316,30076.820263,37648.786622,7858.046336,0.096000,0.970000,0.172000,192.000000,0.000000,0.000000,0.000000,0.000000,0.000000,0.000000,0.000000,0.000000,0.000000,1648375393.510244,0.000000
255.000000,-31174.939117,-24473.752019,-10610.529555,-29870.178386,-33461.991961,30081.447075,37650.753576,7865.422412,0.096000,0.970000,0.172000,192.000000,0.000000,0.000000,0.000000,0.000000,0.000000,0.000000,0.000000,0.000000,0.000000,1648375393.510256,0.000000
0.000000,-31174.156806,-24472.388562,-10611.065997,-29871.161863,-33463.623639,30078.049609,37638.013081,7863.209589,0.096000,0.970000,0.172000,192.000000,0.000000,0.000000,0.000000,0.000000,0.000000,0.000000,0.000000,0.000000,0.000000,1648375393.517096,0.000000
1.000000,-31169.753512,-24467.359420,-10605.388654,-29864.657505,-33459.689732,30077.982554,37625.563160,7856.884045,0.096000,0.970000,0.172000,192.000000,0.000000,0.000000,0.000000,0.000000,0.000000,0.000000,0.000000,0.000000,0.000000,1648375393.517121,0.000000
2.000000,-31170.915803,-24468.991097,-10604.494584,-29864.299877,-33457.923944,30078.474293,37636.001424,7856.928749,0.096000,0.970000,0.172000,192.000000,0.000000,0.000000,0.000000,0.000000,0.000000,0.000000,0.000000,0.000000,0.000000,1648375393.525113,0.000000
3.000000,-31169.820567,-24469.751056,-10607.556773,-29865.596278,-33458.415682,30079.502473,37649.859506,7869.289263,0.096000,0.970000,0.172000,192.000000,0.000000,0.000000,0.000000,0.000000,0.000000,0.000000,0.000000,0.000000,0.000000,1648375393.525130,0.000000
4.000000,-31165.551384,-24465.258356,-10609.411968,-29863.115235,-33458.326275,30075.143883,37641.343491,7864.953025,0.096000,0.970000,0.172000,192.000000,0.000000,0.000000,0.000000,0.000000,0.000000,0.000000,0.000000,0.000000,0.000000,1648375393.533175,0.000000
5.000000,-31163.986762,-24464.006658,-10610.909535,-29861.841185,-33457.163984,30068.773635,37636.783735,7852.100772,0.092000,0.972000,0.176000,192.000000,2.000000,224.000000,30.000000,96.000000,5.000000,128.000000,0.000000,0.000000,0.000000,1648375393.533193,0.000000
6.000000,-31162.846823,-24465.638335,-10606.774462,-29859.606011,-33454.794700,30069.332429,37643.846887,7842.444818,0.092000,0.972000,0.176000,192.000000,0.000000,0.000000,0.000000,0.000000,0.000000,0.000000,0.000000,0.000000,0.000000,1648375393.540199,0.000000
7.000000,-31167.652448,-24466.353591,-10606.953276,-29861.729427,-33454.012388,30066.605516,37631.084041,7831.179539,0.092000,0.972000,0.176000,192.000000,0.000000,0.000000,0.000000,0.000000,0.000000,0.000000,0.000000,0.000000,0.000000,1648375393.546874,0.000000
8.000000,-31171.541652,-24468.208786,-10610.976590,-29862.467034,-33453.721816,30062.895127,37627.485410,7825.479844,0.092000,0.972000,0.176000,192.000000,0.000000,0.000000,0.000000,0.000000,0.000000,0.000000,0.000000,0.000000,0.000000,1648375393.546891,0.000000
9.000000,-31171.675762,-24472.008583,-10614.418759,-29867.227956,-33456.806357,30058.380074,37617.963567,7829.972545,0.092000,0.972000,0.176000,192.000000,0.000000,0.000000,0.000000,0.000000,0.000000,0.000000,0.000000,0.000000,0.000000,1648375393.554732,0.000000
10.000000,-31168.658277,-24467.068847,-10611.423625,-29863.741084,-33453.721816,30064.526804,37624.199703,7852.234882,0.092000,0.972000,0.176000,192.000000,0.000000,0.000000,0.000000,0.000000,0.000000,0.000000,0.000000,0.000000,0.000000,1648375393.554748,0.000000
11.000000,-31158.644695,-24456.630582,-10598.973703,-29848.899525,-33443.931752,30082.899938,37661.840041,7881.269798,0.092000,0.972000,0.176000,192.000000,0.000000,0.000000,0.000000,0.000000,0.000000,0.000000,0.000000,0.000000,0.000000,1648375393.562735,0.000000
12.000000,-31157.080073,-24456.161196,-10597.342026,-29849.234801,-33440.400176,30083.458732,37657.213230,7866.025909,0.092000,0.972000,0.176000,192.000000,0.000000,0.000000,0.000000,0.000000,0.000000,0.000000,0.000000,0.000000,0.000000,1648375393.562752,0.000000
13.000000,-31164.009114,-24463.134940,-10603.645218,-29856.946153,-33447.686845,30073.445150,37640.628235,7836.342792,0.092000,0.972000,0.176000,192.000000,0.000000,0.000000,0.000000,0.000000,0.000000,0.000000,0.000000,0.000000,0.000000,1648375393.569730,0.000000
14.000000,-31164.590259,-24462.442036,-10605.545116,-29858.376665,-33448.782080,30072.126397,37633.833305,7834.286432,0.092000,0.972000,0.176000,192.000000,0.000000,0.000000,0.000000,0.000000,0.000000,0.000000,0.000000,0.000000,0.000000,1648375393.569741,0.000000
15.000000,-31162.623306,-24460.050399,-10604.874564,-29858.153147,-33447.463327,30075.412104,37636.068480,7858.381612,0.094000,0.976000,0.176000,192.000000,2.000000,240.000000,30.000000,128.000000,5.000000,128.000000,0.000000,0.000000,0.000000,1648375393.577293,0.000000
16.000000,-31164.836128,-24461.592670,-10606.953276,-29860.723598,-33450.480813,30074.741551,37636.135535,7866.964682,0.094000,0.976000,0.176000,192.000000,0.000000,0.000000,0.000000,0.000000,0.000000,0.000000,0.000000,0.000000,0.000000,1648375393.577305,0.000000
17.000000,-31169.932326,-24463.157292,-10610.864831,-29863.741084,-33454.906458,30069.310077,37633.028642,7857.778115,0.094000,0.976000,0.176000,192.000000,0.000000,0.000000,0.000000,0.000000,0.000000,0.000000,0.000000,0.000000,0.000000,1648375393.585366,0.000000
18.000000,-31159.806986,-24454.529518,-10601.901782,-29853.146357,-33444.781118,30075.613269,37636.090831,7859.052164,0.094000,0.976000,0.176000,192.000000,0.000000,0.000000,0.000000,0.000000,0.000000,0.000000,0.000000,0.000000,0.000000,1648375393.585376,0.000000
19.000000,-31159.047027,-24454.730684,-10601.588857,-29854.643924,-33443.194144,30073.243984,37624.982014,7849.955004,0.094000,0.976000,0.176000,192.000000,0.000000,0.000000,0.000000,0.000000,0.000000,0.000000,0.000000,0.000000,0.000000,1648375393.592378,0.000000
20.000000,-31160.946925,-24454.574222,-10603.891087,-29857.884927,-33445.496374,30070.405313,37624.825552,7838.667373,0.094000,0.976000,0.176000,192.000000,0.000000,0.000000,0.000000,0.000000,0.000000,0.000000,0.000000,0.000000,0.000000,1648375393.592394,0.000000
21.000000,-31171.854576,-24461.659725,-10607.936753,-29863.584621,-33450.257295,30071.835824,37636.046128,7842.578929,0.094000,0.976000,0.176000,192.000000,0.000000,0.000000,0.000000,0.000000,0.000000,0.000000,0.000000,0.000000,0.000000,1648375393.598955,0.000000
22.000000,-31175.810835,-24462.285574,-10604.986323,-29861.751778,-33449.765557,30076.239118,37647.154945,7839.404981,0.094000,0.976000,0.176000,192.000000,0.000000,0.000000,0.000000,0.000000,0.000000,0.000000,0.000000,0.000000,0.000000,1648375393.606915,0.000000
23.000000,-31174.805006,-24463.939603,-10606.126261,-29862.042351,-33450.637275,30077.244947,37632.425145,7827.983240,0.094000,0.976000,0.176000,192.000000,0.000000,0.000000,0.000000,0.000000,0.000000,0.000000,0.000000,0.000000,0.000000,1648375393.606932,0.000000
24.000000,-31174.045047,-24468.387600,-10611.356570,-29863.964601,-33452.872450,30082.855234,37628.334776,7865.310653,0.094000,0.976000,0.176000,192.000000,0.000000,0.000000,0.000000,0.000000,0.000000,0.000000,0.000000,0.000000,0.000000,1648375393.615085,0.000000
25.000000,-31181.175254,-24471.539196,-10616.050436,-29866.982087,-33455.956990,30083.123455,37644.092756,7876.821801,0.098000,0.978000,0.174000,192.000000,3.000000,16.000000,30.000000,144.000000,5.000000,112.000000,0.000000,0.000000,0.000000,1648375393.615102,0.000000
26.000000,-31183.231614,-24470.667478,-10616.072788,-29864.702209,-33454.012388,30088.219653,37661.996503,7878.162906,0.098000,0.978000,0.174000,192.000000,0.000000,0.000000,0.000000,0.000000,0.000000,0.000000,0.000000,0.000000,0.000000,1648375393.622248,0.000000
27.000000,-31180.772922,-24471.382734,-10617.123320,-29863.830491,-33454.258258,30086.498569,37658.241410,7867.612883,0.098000,0.978000,0.174000,192.000000,0.000000,0.000000,0.000000,0.000000,0.000000,0.000000,0.000000,0.000000,0.000000,1648375393.622264,0.000000
28.000000,-31174.603841,-24465.995963,-10611.535384,-29859.784825,-33448.536211,30089.828979,37654.933352,7849.060935,0.098000,0.978000,0.174000,192.000000,0.000000,0.000000,0.000000,0.000000,0.000000,0.000000,0.000000,0.000000,0.000000,1648375393.629717,0.000000
29.000000,-31178.582451,-24468.834635,-10615.424587,-29865.596278,-33454.101795,30080.798874,37629.005328,7830.754856,0.098000,0.978000,0.174000,192.000000,0.000000,0.000000,0.000000,0.000000,0.000000,0.000000,0.000000,0.000000,0.000000,1648375393.629734,0.000000
30.000000,-31177.241347,-24465.817149,-10612.496509,-29862.958773,-33450.816089,30090.410124,37642.863410,7863.298996,0.098000,0.978000,0.174000,192.000000,0.000000,0.000000,0.000000,0.000000,0.000000,0.000000,0.000000,0.000000,0.000000,1648375393.637753,0.000000
31.000000,-31177.576623,-24466.487702,-10611.915363,-29863.785787,-33451.866621,30095.685136,37645.500916,7876.687691,0.098000,0.978000,0.174000,192.000000,0.000000,0.000000,0.000000,0.000000,0.000000,0.000000,0.000000,0.000000,0.000000,1648375393.637770,0.000000
32.000000,-31178.023658,-24467.091199,-10613.234116,-29866.825624,-33454.414720,30087.951432,37627.127782,7847.116333,0.098000,0.978000,0.174000,192.000000,0.000000,0.000000,0.000000,0.000000,0.000000,0.000000,0.000000,0.000000,0.000000,1648375393.645770,0.000000
33.000000,-31174.983820,-24464.029010,-10607.735587,-29863.003476,-33450.212592,30091.885339,37637.677805,7846.222263,0.098000,0.978000,0.174000,192.000000,0.000000,0.000000,0.000000,0.000000,0.000000,0.000000,0.000000,0.000000,0.000000,1648375393.645786,0.000000
34.000000,-31173.463902,-24465.705391,-10606.036855,-29862.154110,-33449.966723,30099.216711,37660.767157,7877.358243,0.098000,0.978000,0.174000,192.000000,0.000000,0.000000,0.000000,0.000000,0.000000,0.000000,0.000000,0.000000,0.000000,1648375393.652304,0.000000
35.000000,-31167.965373,-24464.341934,-10604.673398,-29860.298915,-33447.910362,30100.557816,37663.091739,7880.375729,0.104000,0.972000,0.178000,192.000000,3.000000,64.000000,30.000000,96.000000,5.000000,144.000000,0.000000,0.000000,0.000000,1648375393.652321,0.000000
36.000000,-31166.423102,-24464.498396,-10605.165136,-29859.337790,-33446.993941,30095.796895,37657.816727,7868.775173,0.104000,0.972000,0.178000,192.000000,0.000000,0.000000,0.000000,0.000000,0.000000,0.000000,0.000000,0.000000,0.000000,1648375393.659418,0.000000
37.000000,-31169.753512,-24464.319583,-10606.260372,-29859.516604,-33447.865659,30092.064153,37644.852715,7855.162961,0.104000,0.972000,0.178000,192.000000,0.000000,0.000000,0.000000,0.000000,0.000000,0.000000,0.000000,0.000000,0.000000,1648375393.667377,0.000000
38.000000,-31175.967297,-24465.906556,-10608.383788,-29861.729427,-33450.078481,30089.873682,37637.722509,7862.203760,0.104000,0.972000,0.178000,192.000000,0.000000,0.000000,0.000000,0.000000,0.000000,0.000000,0.000000,0.000000,0.000000,1648375393.667394,0.000000
39.000000,-31175.676724,-24466.532405,-10610.060169,-29863.361104,-33452.984208,30086.431514,37634.660320,7866.092964,0.104000,0.972000,0.178000,192.000000,0.000000,0.000000,0.000000,0.000000,0.000000,0.000000,0.000000,0.000000,0.000000,1648375393.675361,0.000000
40.000000,-31178.738913,-24467.001792,-10613.770558,-29865.037485,-33455.152327,30081.335316,37639.510648,7854.984147,0.104000,0.972000,0.178000,192.000000,0.000000,0.000000,0.000000,0.000000,0.000000,0.000000,0.000000,0.000000,0.000000,1648375393.675377,0.000000
41.000000,-31175.632021,-24464.252527,-10613.971724,-29863.159938,-33453.945333,30081.156502,37650.530058,7865.154191,0.104000,0.972000,0.178000,192.000000,0.000000,0.000000,0.000000,0.000000,0.000000,0.000000,0.000000,0.000000,0.000000,1648375393.681944,0.000000
42.000000,-31171.899280,-24463.827844,-10612.608267,-29861.394150,-33453.073615,30081.201205,37644.897419,7865.690633,0.104000,0.972000,0.178000,192.000000,0.000000,0.000000,0.000000,0.000000,0.000000,0.000000,0.000000,0.000000,0.000000,1648375393.681960,0.000000
43.000000,-31171.273431,-24462.553795,-10609.568430,-29860.164804,-33450.033778,30083.525787,37637.722509,7862.248464,0.104000,0.972000,0.178000,192.000000,0.000000,0.000000,0.000000,0.000000,0.000000,0.000000,0.000000,0.000000,0.000000,1648375393.690007,0.000000
44.000000,-31177.263698,-24462.665553,-10614.664628,-29866.937383,-33453.900630,30079.658935,37630.614654,7854.425353,0.104000,0.972000,0.178000,192.000000,0.000000,0.000000,0.000000,0.000000,0.000000,0.000000,0.000000,0.000000,0.000000,1648375393.690023,0.000000
45.000000,-31178.694210,-24462.866719,-10616.184546,-29870.446607,-33456.336970,30079.368362,37640.404718,7859.834475,0.104000,0.968000,0.178000,192.000000,3.000000,64.000000,30.000000,64.000000,5.000000,144.000000,0.000000,0.000000,0.000000,1648375393.698074,0.000000
46.000000,-31184.572719,-24469.169911,-10622.353628,-29876.794502,-33461.477871,30074.115702,37636.180238,7852.905435,0.104000,0.968000,0.178000,192.000000,0.000000,0.000000,0.000000,0.000000,0.000000,0.000000,0.000000,0.000000,0.000000,1648375393.698091,0.000000
47.000000,-31186.070286,-24469.035801,-10623.828843,-29873.955831,-33463.601287,30072.193452,37631.039337,7853.106600,0.104000,0.968000,0.178000,192.000000,0.000000,0.000000,0.000000,0.000000,0.000000,0.000000,0.000000,0.000000,0.000000,1648375393.705175,0.000000
48.000000,-31179.700038,-24465.168949,-10619.179680,-29868.032619,-33456.962819,30077.088484,37639.175372,7856.816990,0.104000,0.968000,0.178000,192.000000,0.000000,0.000000,0.000000,0.000000,0.000000,0.000000,0.000000,0.000000,0.000000,1648375393.705191,0.000000
49.000000,-31181.331716,-24468.097027,-10618.576183,-29867.987915,-33456.426377,30080.396543,37652.452308,7864.818915,0.104000,0.968000,0.178000,192.000000,0.000000,0.000000,0.000000,0.000000,0.000000,0.000000,0.000000,0.000000,0.000000,1648375393.712654,0.000000
50.000000,-31185.176216,-24473.953184,-10622.867718,-29875.028715,-33460.807319,30078.563700,37647.557276,7866.919978,0.104000,0.968000,0.178000,192.000000,0.000000,0.000000,0.000000,0.000000,0.000000,0.000000,0.000000,0.000000,0.000000,1648375393.712671,0.000000
51.000000,-31192.149960,-24484.190283,-10632.926003,-29885.087000,-33471.580860,30064.459749,37613.806142,7845.305842,0.104000,0.968000,0.178000,192.000000,0.000000,0.000000,0.000000,0.000000,0.000000,0.000000,0.000000,0.000000,0.000000,1648375393.719726,0.000000
52.000000,-31192.395829,-24484.324394,-10632.344858,-29884.461151,-33470.060941,30067.298420,37617.404773,7836.432199,0.104000,0.968000,0.178000,192.000000,0.000000,0.000000,0.000000,0.000000,0.000000,0.000000,0.000000,0.000000,0.000000,1648375393.719742,0.000000
53.000000,-31194.027507,-24482.111571,-10631.473140,-29883.902357,-33468.473967,30070.092388,37631.709889,7835.918109,0.104000,0.968000,0.178000,192.000000,0.000000,0.000000,0.000000,0.000000,0.000000,0.000000,0.000000,0.000000,0.000000,1648375393.727592,0.000000
54.000000,-31191.881739,-24478.669402,-10630.020276,-29883.365915,-33468.585726,30068.438359,37630.860523,7832.207719,0.104000,0.968000,0.178000,192.000000,0.000000,0.000000,0.000000,0.000000,0.000000,0.000000,0.000000,0.000000,0.000000,1648375393.734910,0.000000
55.000000,-31190.741800,-24474.601385,-10627.338067,-29881.533072,-33466.775235,30070.874699,37638.102488,7852.100772,0.106000,0.966000,0.176000,192.000000,3.000000,80.000000,30.000000,48.000000,5.000000,128.000000,0.000000,0.000000,0.000000,1648375393.734927,0.000000
56.000000,-31180.080018,-24466.822978,-10620.051398,-29874.805197,-33460.315580,30073.758074,37635.934369,7857.174618,0.106000,0.966000,0.176000,192.000000,0.000000,0.000000,0.000000,0.000000,0.000000,0.000000,0.000000,0.000000,0.000000,1648375393.742279,0.000000
57.000000,-31181.175254,-24476.970670,-10617.771520,-29876.682744,-33458.370979,30082.966993,37659.202535,7888.914095,0.106000,0.966000,0.176000,192.000000,0.000000,0.000000,0.000000,0.000000,0.000000,0.000000,0.000000,0.000000,0.000000,1648375393.742296,0.000000
58.000000,-31185.757361,-24477.507112,-10619.112625,-29876.861558,-33457.789833,30081.268261,37658.040244,7879.906342,0.106000,0.966000,0.176000,192.000000,0.000000,0.000000,0.000000,0.000000,0.000000,0.000000,0.000000,0.000000,0.000000,1648375393.750359,0.000000
59.000000,-31186.874948,-24474.869606,-10619.961991,-29877.733276,-33457.856889,30073.556909,37640.248256,7849.731487,0.106000,0.966000,0.176000,192.000000,0.000000,0.000000,0.000000,0.000000,0.000000,0.000000,0.000000,0.000000,0.000000,1648375393.750375,0.000000
60.000000,-31188.506626,-24475.294289,-10618.956163,-29875.654563,-33456.426377,30074.719200,37636.850791,7847.608071,0.106000,0.966000,0.176000,192.000000,0.000000,0.000000,0.000000,0.000000,0.000000,0.000000,0.000000,0.000000,0.000000,1648375393.757438,0.000000
61.000000,-31187.165521,-24478.781161,-10619.582012,-29875.140473,-33456.828708,30073.534557,37631.620482,7841.371935,0.106000,0.966000,0.176000,192.000000,0.000000,0.000000,0.000000,0.000000,0.000000,0.000000,0.000000,0.000000,0.000000,1648375393.757454,0.000000
62.000000,-31189.512454,-24482.782123,-10623.091236,-29876.414523,-33459.779139,30071.902880,37629.027680,7844.322365,0.106000,0.966000,0.176000,192.000000,0.000000,0.000000,0.000000,0.000000,0.000000,0.000000,0.000000,0.000000,0.000000,1648375393.764927,0.000000
63.000000,-31196.463847,-24484.078525,-10625.929907,-29877.509758,-33461.679037,30075.076827,37630.502895,7863.522513,0.106000,0.966000,0.176000,192.000000,0.000000,0.000000,0.000000,0.000000,0.000000,0.000000,0.000000,0.000000,0.000000,1648375393.764944,0.000000
64.000000,-31195.882701,-24484.436153,-10626.198128,-29878.225014,-33463.310714,30078.474293,37634.034471,7870.295092,0.106000,0.966000,0.176000,192.000000,0.000000,0.000000,0.000000,0.000000,0.000000,0.000000,0.000000,0.000000,0.000000,1648375393.772940,0.000000
65.000000,-31187.478445,-24478.132961,-10621.191337,-29872.704133,-33458.147461,30084.241043,37650.015968,7870.004519,0.104000,0.966000,0.176000,192.000000,3.000000,64.000000,30.000000,48.000000,5.000000,128.000000,0.000000,0.000000,0.000000,1648375393.772975,0.000000
66.000000,-31188.260757,-24479.965804,-10624.164119,-29877.532110,-33459.354455,30081.759999,37646.350282,7876.598284,0.104000,0.966000,0.176000,192.000000,0.000000,0.000000,0.000000,0.000000,0.000000,0.000000,0.000000,0.000000,0.000000,1648375393.780983,0.000000
67.000000,-31191.345297,-24480.904577,-10623.582974,-29878.135607,-33458.952124,30077.401409,37638.616578,7881.470964,0.104000,0.966000,0.176000,192.000000,0.000000,0.000000,0.000000,0.000000,0.000000,0.000000,0.000000,0.000000,0.000000,1648375393.780999,0.000000
68.000000,-31189.110123,-24477.998850,-10620.163157,-29873.799369,-33455.420548,30076.373229,37645.366805,7875.435993,0.104000,0.966000,0.176000,192.000000,0.000000,0.000000,0.000000,0.000000,0.000000,0.000000,0.000000,0.000000,0.000000,1648375393.786905,0.000000
69.000000,-31181.756399,-24474.310812,-10614.977552,-29868.703171,-33450.771386,30078.720162,37643.444555,7872.016176,0.104000,0.966000,0.176000,192.000000,0.000000,0.000000,0.000000,0.000000,0.000000,0.000000,0.000000,0.000000,0.000000,1648375393.794405,0.000000
70.000000,-31188.037239,-24479.094086,-10619.783177,-29874.358162,-33455.062920,30070.852348,37632.134573,7855.028850,0.104000,0.966000,0.176000,192.000000,0.000000,0.000000,0.000000,0.000000,0.000000,0.000000,0.000000,0.000000,0.000000,1648375393.794422,0.000000
71.000000,-31184.997402,-24475.696620,-10616.475119,-29871.363028,-33454.235906,30070.628830,37634.749727,7844.255310,0.104000,0.966000,0.176000,192.000000,0.000000,0.000000,0.000000,0.000000,0.000000,0.000000,0.000000,0.000000,0.000000,1648375393.802512,0.000000
72.000000,-31179.878852,-24471.606251,-10612.876488,-29867.876156,-33452.023083,30071.925231,37630.145267,7837.885062,0.104000,0.966000,0.176000,192.000000,0.000000,0.000000,0.000000,0.000000,0.000000,0.000000,0.000000,0.000000,0.000000,1648375393.802524,0.000000
73.000000,-31178.694210,-24470.645126,-10613.032951,-29869.552537,-33453.453595,30073.042819,37626.859561,7854.470057,0.104000,0.966000,0.176000,192.000000,0.000000,0.000000,0.000000,0.000000,0.000000,0.000000,0.000000,0.000000,0.000000,1648375393.810451,0.000000
74.000000,-31177.420160,-24467.024144,-10613.412930,-29866.803273,-33452.380711,30073.847481,37617.158904,7863.053127,0.104000,0.966000,0.176000,192.000000,0.000000,0.000000,0.000000,0.000000,0.000000,0.000000,0.000000,0.000000,0.000000,1648375393.810467,0.000000
75.000000,-31178.046009,-24467.024144,-10614.999904,-29867.607935,-33451.330179,30072.908708,37621.316328,7858.091039,0.106000,0.968000,0.180000,192.000000,3.000000,80.000000,30.000000,64.000000,5.000000,160.000000,0.000000,0.000000,0.000000,1648375393.818599,0.000000
76.000000,-31180.594108,-24475.249586,-10618.665590,-29876.727447,-33455.733473,30067.656048,37630.346433,7847.362202,0.106000,0.968000,0.180000,192.000000,0.000000,0.000000,0.000000,0.000000,0.000000,0.000000,0.000000,0.000000,0.000000,1648375393.818617,0.000000
77.000000,-31185.064457,-24478.959975,-10620.632544,-29878.336773,-33457.946295,30062.962182,37623.484447,7847.496313,0.106000,0.968000,0.180000,192.000000,0.000000,0.000000,0.000000,0.000000,0.000000,0.000000,0.000000,0.000000,0.000000,1648375393.826616,0.000000
78.000000,-31185.422085,-24477.507112,-10619.470253,-29877.576813,-33456.739301,30060.794063,37609.693421,7840.746086,0.106000,0.968000,0.180000,192.000000,0.000000,0.000000,0.000000,0.000000,0.000000,0.000000,0.000000,0.000000,0.000000,1648375393.826634,0.000000
79.000000,-31181.264661,-24473.975536,-10615.424587,-29874.916956,-33453.900630,30062.068112,37621.584549,7828.542033,0.106000,0.968000,0.180000,192.000000,0.000000,0.000000,0.000000,0.000000,0.000000,0.000000,0.000000,0.000000,0.000000,1648375393.833764,0.000000
80.000000,-31180.974088,-24472.947356,-10612.541212,-29873.017058,-33452.336008,30070.941755,37647.624331,7848.122161,0.106000,0.968000,0.180000,192.000000,0.000000,0.000000,0.000000,0.000000,0.000000,0.000000,0.000000,0.000000,0.000000,1648375393.833781,0.000000
81.000000,-31177.174291,-24468.074676,-10606.975628,-29865.842148,-33446.390444,30078.451941,37646.171468,7876.441822,0.106000,0.968000,0.180000,192.000000,0.000000,0.000000,0.000000,0.000000,0.000000,0.000000,0.000000,0.000000,0.000000,1648375393.840065,0.000000
82.000000,-31171.429893,-24462.419684,-10603.756977,-29861.282392,-33440.131955,30077.647278,37635.017948,7869.155153,0.106000,0.968000,0.180000,192.000000,0.000000,0.000000,0.000000,0.000000,0.000000,0.000000,0.000000,0.000000,0.000000,1648375393.840082,0.000000
83.000000,-31173.218033,-24463.671382,-10610.797776,-29868.546709,-33445.563429,30071.299383,37626.010195,7848.904472,0.106000,0.968000,0.180000,192.000000,0.000000,0.000000,0.000000,0.000000,0.000000,0.000000,0.000000,0.000000,0.000000,1648375393.846837,0.000000
84.000000,-31168.412407,-24461.212690,-10607.914401,-29866.043313,-33444.490545,30072.729894,37627.038375,7850.334984,0.106000,0.968000,0.180000,192.000000,0.000000,0.000000,0.000000,0.000000,0.000000,0.000000,0.000000,0.000000,0.000000,1648375393.854823,0.000000
85.000000,-31170.334657,-24462.844367,-10609.054340,-29868.367895,-33446.502202,30074.406275,37623.529151,7845.551711,0.110000,0.964000,0.178000,192.000000,3.000000,112.000000,30.000000,32.000000,5.000000,144.000000,0.000000,0.000000,0.000000,1648375393.854840,0.000000
86.000000,-31166.065474,-24457.211728,-10602.214706,-29860.298915,-33439.729624,30085.895072,37638.705985,7860.706194,0.110000,0.964000,0.178000,192.000000,0.000000,0.000000,0.000000,0.000000,0.000000,0.000000,0.000000,0.000000,0.000000,1648375393.862881,0.000000
87.000000,-31165.126701,-24456.541175,-10601.387692,-29859.494252,-33436.175696,30089.448999,37644.204515,7861.712022,0.110000,0.964000,0.178000,192.000000,0.000000,0.000000,0.000000,0.000000,0.000000,0.000000,0.000000,0.000000,0.000000,1648375393.862898,0.000000
88.000000,-31162.556250,-24452.942545,-10599.130165,-29857.080264,-33434.834592,30087.817322,37638.169544,7854.492409,0.110000,0.964000,0.178000,192.000000,0.000000,0.000000,0.000000,0.000000,0.000000,0.000000,0.000000,0.000000,0.000000,1648375393.869506,0.000000
89.000000,-31163.182099,-24451.333219,-10599.800718,-29857.884927,-33434.901647,30084.553967,37633.833305,7857.062859,0.110000,0.964000,0.178000,192.000000,0.000000,0.000000,0.000000,0.000000,0.000000,0.000000,0.000000,0.000000,0.000000,1648375393.869522,0.000000
90.000000,-31164.679666,-24452.830786,-10602.348817,-29859.740121,-33437.181525,30082.318793,37643.086927,7871.300920,0.110000,0.964000,0.178000,192.000000,0.000000,0.000000,0.000000,0.000000,0.000000,0.000000,0.000000,0.000000,0.000000,1648375393.877500,0.000000
91.000000,-31166.132530,-24452.160234,-10602.974666,-29858.823700,-33436.667435,30080.597708,37646.998483,7872.284397,0.110000,0.964000,0.178000,192.000000,0.000000,0.000000,0.000000,0.000000,0.000000,0.000000,0.000000,0.000000,0.000000,1648375393.877516,0.000000
92.000000,-31169.306477,-24455.311829,-10608.070863,-29863.294049,-33439.975493,30075.188586,37637.051956,7861.980243,0.110000,0.964000,0.178000,192.000000,0.000000,0.000000,0.000000,0.000000,0.000000,0.000000,0.000000,0.000000,0.000000,1648375393.885529,0.000000
93.000000,-31170.580527,-24458.530481,-10612.630619,-29868.300839,-33446.233981,30066.985496,37619.908168,7829.681972,0.110000,0.964000,0.178000,192.000000,0.000000,0.000000,0.000000,0.000000,0.000000,0.000000,0.000000,0.000000,0.000000,1648375393.885545,0.000000
94.000000,-31175.386152,-24463.805492,-10616.788044,-29876.056895,-33451.665455,30060.436435,37609.000517,7820.920088,0.110000,0.964000,0.178000,192.000000,0.000000,0.000000,0.000000,0.000000,0.000000,0.000000,0.000000,0.000000,0.000000,1648375393.892657,0.000000
95.000000,-31178.470692,-24467.515882,-10621.124282,-29877.956793,-33455.711121,30062.716313,37627.038375,7854.246539,0.110000,0.964000,0.178000,192.000000,0.000000,0.000000,0.000000,0.000000,0.000000,0.000000,0.000000,0.000000,0.000000,1648375393.892673,0.000000
96.000000,-31176.190815,-24470.466312,-10621.996000,-29878.202662,-33457.521612,30066.605516,37636.515514,7868.059917,0.112000,0.964000,0.166000,192.000000,3.000000,128.000000,30.000000,32.000000,5.000000,48.000000,0.000000,0.000000,0.000000,1648375393.899954,0.000000
97.000000,-31174.402675,-24468.521710,-10619.224384,-29874.425217,-33454.101795,30069.868871,37633.274511,7868.059917,0.112000,0.964000,0.166000,192.000000,0.000000,0.000000,0.000000,0.000000,0.000000,0.000000,0.000000,0.000000,0.000000,1648375393.899966,0.000000
98.000000,-31180.661163,-24470.935699,-10623.158291,-29880.214319,-33459.376807,30060.682304,37616.041317,7847.295147,0.112000,0.964000,0.166000,192.000000,0.000000,0.000000,0.000000,0.000000,0.000000,0.000000,0.000000,0.000000,0.000000,1648375393.907041,0.000000
99.000000,-31188.506626,-24476.724801,-10627.449826,-29885.958718,-33465.121205,30052.948600,37606.832398,7837.728600,0.112000,0.964000,0.166000,192.000000,0.000000,0.000000,0.000000,0.000000,0.000000,0.000000,0.000000,0.000000,0.000000,1648375393.914969,0.000000
100.000000,-31190.853559,-24477.976498,-10627.695695,-29884.595261,-33464.249487,30061.844595,37640.181201,7860.169752,0.112000,0.964000,0.166000,192.000000,0.000000,0.000000,0.000000,0.000000,0.000000,0.000000,0.000000,0.000000,0.000000,1648375393.914986,0.000000
101.000000,-31193.513416,-24481.686888,-10630.132035,-29885.377572,-33463.511880,30063.275106,37646.059709,7865.243598,0.112000,0.964000,0.166000,192.000000,0.000000,0.000000,0.000000,0.000000,0.000000,0.000000,0.000000,0.000000,0.000000,1648375393.922184,0.000000
102.000000,-31195.860350,-24484.391449,-10631.808416,-29887.165712,-33463.690694,30063.029237,37636.269645,7860.192103,0.112000,0.964000,0.166000,192.000000,0.000000,0.000000,0.000000,0.000000,0.000000,0.000000,0.000000,0.000000,0.000000,1648375393.922199,0.000000
103.000000,-31190.607690,-24477.484760,-10627.338067,-29882.695363,-33461.656685,30068.550118,37636.984901,7864.394231,0.112000,0.964000,0.166000,192.000000,0.000000,0.000000,0.000000,0.000000,0.000000,0.000000,0.000000,0.000000,0.000000,1648375393.929811,0.000000
104.000000,-31184.617422,-24470.041629,-10622.241869,-29876.369819,-33456.739301,30073.445150,37628.625349,7858.292205,0.112000,0.964000,0.166000,192.000000,0.000000,0.000000,0.000000,0.000000,0.000000,0.000000,0.000000,0.000000,0.000000,1648375393.929827,0.000000
105.000000,-31186.316155,-24472.545024,-10624.499395,-29878.113255,-33458.482737,30070.002981,37613.940253,7842.176597,0.112000,0.964000,0.166000,192.000000,0.000000,0.000000,0.000000,0.000000,0.000000,0.000000,0.000000,0.000000,0.000000,1648375393.937816,0.000000
106.000000,-31189.065419,-24477.820036,-10626.309887,-29881.644831,-33459.868546,30072.171101,37630.525247,7851.676089,0.108000,0.972000,0.170000,192.000000,3.000000,96.000000,30.000000,96.000000,5.000000,80.000000,0.000000,0.000000,0.000000,1648375393.937832,0.000000
107.000000,-31188.864254,-24477.775333,-10626.779273,-29880.795465,-33459.913249,30072.372266,37628.826514,7852.883083,0.108000,0.972000,0.170000,192.000000,0.000000,0.000000,0.000000,0.000000,0.000000,0.000000,0.000000,0.000000,0.000000,1648375393.944950,0.000000
108.000000,-31189.825379,-24478.021202,-10626.376942,-29879.722581,-33459.890897,30072.573432,37629.251197,7844.501179,0.108000,0.972000,0.170000,192.000000,0.000000,0.000000,0.000000,0.000000,0.000000,0.000000,0.000000,0.000000,0.000000,1648375393.944966,0.000000
109.000000,-31189.624213,-24478.647051,-10624.365285,-29877.018020,-33458.303923,30078.116665,37654.061634,7846.714002,0.108000,0.972000,0.170000,192.000000,0.000000,0.000000,0.000000,0.000000,0.000000,0.000000,0.000000,0.000000,0.000000,1648375393.952382,0.000000
110.000000,-31192.105257,-24485.933719,-10628.053323,-29880.661354,-33462.282534,30076.015601,37651.222962,7838.242690,0.108000,0.972000,0.170000,192.000000,0.000000,0.000000,0.000000,0.000000,0.000000,0.000000,0.000000,0.000000,0.000000,1648375393.952398,0.000000
111.000000,-31189.870082,-24482.290385,-10625.102893,-29874.604031,-33460.002656,30084.688078,37650.463003,7864.103659,0.108000,0.972000,0.170000,192.000000,0.000000,0.000000,0.000000,0.000000,0.000000,0.000000,0.000000,0.000000,0.000000,1648375393.960458,0.000000
112.000000,-31183.835111,-24473.237929,-10616.184546,-29864.054008,-33449.944371,30098.590863,37674.155852,7904.001523,0.108000,0.972000,0.170000,192.000000,0.000000,0.000000,0.000000,0.000000,0.000000,0.000000,0.000000,0.000000,0.000000,1648375393.960474,0.000000
113.000000,-31179.722390,-24468.812283,-10611.088349,-29859.382493,-33446.412795,30104.134095,37682.113073,7915.020933,0.108000,0.972000,0.170000,192.000000,0.000000,0.000000,0.000000,0.000000,0.000000,0.000000,0.000000,0.000000,0.000000,1648375393.967518,0.000000
114.000000,-31179.588280,-24469.281670,-10610.194279,-29855.046255,-33446.524554,30099.373174,37667.696198,7899.397063,0.108000,0.972000,0.170000,192.000000,0.000000,0.000000,0.000000,0.000000,0.000000,0.000000,0.000000,0.000000,0.000000,1648375393.967535,0.000000
115.000000,-31178.046009,-24468.991097,-10608.026160,-29852.565211,-33444.624656,30098.881435,37659.023721,7891.618656,0.108000,0.972000,0.170000,192.000000,0.000000,0.000000,0.000000,0.000000,0.000000,0.000000,0.000000,0.000000,0.000000,1648375393.974442,0.000000
116.000000,-31175.073227,-24468.678173,-10605.768634,-29849.503022,-33443.641179,30096.512150,37649.412471,7885.002540,0.108000,0.976000,0.174000,192.000000,3.000000,96.000000,30.000000,128.000000,5.000000,112.000000,0.000000,0.000000,0.000000,1648375393.982106,0.000000
117.000000,-31175.475559,-24473.282632,-10607.176793,-29852.453453,-33445.608133,30092.846464,37650.910038,7872.105583,0.108000,0.976000,0.174000,192.000000,0.000000,0.000000,0.000000,0.000000,0.000000,0.000000,0.000000,0.000000,0.000000,1648375393.982122,0.000000
118.000000,-31180.661163,-24478.781161,-10615.201070,-29859.047217,-33453.051263,30091.773581,37667.897364,7871.859714,0.108000,0.976000,0.174000,192.000000,0.000000,0.000000,0.000000,0.000000,0.000000,0.000000,0.000000,0.000000,0.000000,1648375393.989818,0.000000
119.000000,-31176.816663,-24475.629565,-10614.552869,-29856.476767,-33454.392368,30089.136075,37663.516422,7870.004519,0.108000,0.976000,0.174000,192.000000,0.000000,0.000000,0.000000,0.000000,0.000000,0.000000,0.000000,0.000000,0.000000,1648375393.989829,0.000000
120.000000,-31171.295782,-24473.953184,-10610.775424,-29854.308647,-33453.498298,30090.566586,37656.676788,7873.983130,0.108000,0.976000,0.174000,192.000000,0.000000,0.000000,0.000000,0.000000,0.000000,0.000000,0.000000,0.000000,0.000000,1648375393.998035,0.000000
121.000000,-31169.619402,-24473.975536,-10606.260372,-29852.118176,-33453.431243,30091.974746,37664.902230,7879.615769,0.108000,0.976000,0.174000,192.000000,0.000000,0.000000,0.000000,0.000000,0.000000,0.000000,0.000000,0.000000,0.000000,1648375393.998052,0.000000
122.000000,-31169.082960,-24471.293327,-10603.332293,-29850.732368,-33450.659627,30090.745400,37675.720474,7879.459307,0.108000,0.976000,0.174000,192.000000,0.000000,0.000000,0.000000,0.000000,0.000000,0.000000,0.000000,0.000000,0.000000,1648375394.005956,0.000000
123.000000,-31169.306477,-24470.712181,-10606.148613,-29851.514679,-33452.604229,30082.385848,37660.923619,7867.098792,0.108000,0.976000,0.174000,192.000000,0.000000,0.000000,0.000000,0.000000,0.000000,0.000000,0.000000,0.000000,0.000000,1648375394.005966,0.000000
124.000000,-31172.167501,-24474.623737,-10611.200107,-29856.029732,-33457.722778,30074.138054,37645.120936,7849.306804,0.108000,0.976000,0.174000,192.000000,0.000000,0.000000,0.000000,0.000000,0.000000,0.000000,0.000000,0.000000,0.000000,1648375394.012492,0.000000
125.000000,-31172.435721,-24475.763676,-10610.060169,-29853.347522,-33455.487604,30077.066133,37652.631122,7852.324289,0.108000,0.976000,0.174000,192.000000,0.000000,0.000000,0.000000,0.000000,0.000000,0.000000,0.000000,0.000000,0.000000,1648375394.012503,0.000000
126.000000,-31169.798216,-24474.489626,-10608.137918,-29852.632267,-33452.939505,30080.709467,37659.627218,7862.762554,0.106000,0.972000,0.176000,192.000000,3.000000,80.000000,30.000000,96.000000,5.000000,128.000000,0.000000,0.000000,0.000000,1648375394.020686,0.000000
127.000000,-31166.020771,-24473.908481,-10608.897878,-29853.593392,-33453.453595,30075.166234,37650.083023,7853.084249,0.106000,0.972000,0.176000,192.000000,0.000000,0.000000,0.000000,0.000000,0.000000,0.000000,0.000000,0.000000,0.000000,1648375394.020703,0.000000
128.000000,-31167.317172,-24471.896824,-10607.981456,-29852.006418,-33452.201897,30076.686153,37646.394985,7856.884045,0.106000,0.972000,0.176000,192.000000,0.000000,0.000000,0.000000,0.000000,0.000000,0.000000,0.000000,0.000000,0.000000,1648375394.027668,0.000000
129.000000,-31170.535823,-24473.617908,-10610.216631,-29856.476767,-33456.627543,30073.154577,37634.839134,7850.290281,0.106000,0.972000,0.176000,192.000000,0.000000,0.000000,0.000000,0.000000,0.000000,0.000000,0.000000,0.000000,0.000000,1648375394.027704,0.000000
130.000000,-31170.848748,-24475.428399,-10608.316732,-29856.320304,-33456.739301,30073.445150,37645.299750,7847.272795,0.106000,0.972000,0.176000,192.000000,0.000000,0.000000,0.000000,0.000000,0.000000,0.000000,0.000000,0.000000,0.000000,1648375394.034341,0.000000
131.000000,-31169.798216,-24474.556681,-10604.069901,-29852.587563,-33453.677112,30076.082656,37662.085910,7851.117295,0.106000,0.972000,0.176000,192.000000,0.000000,0.000000,0.000000,0.000000,0.000000,0.000000,0.000000,0.000000,0.000000,1648375394.042276,0.000000
132.000000,-31166.758378,-24473.416742,-10601.119471,-29850.687665,-33449.251467,30080.262432,37668.076178,7850.737316,0.106000,0.972000,0.176000,192.000000,0.000000,0.000000,0.000000,0.000000,0.000000,0.000000,0.000000,0.000000,0.000000,1648375394.042292,0.000000
133.000000,-31164.970239,-24470.712181,-10599.331331,-29848.161918,-33447.731548,30082.162330,37674.714646,7857.375784,0.106000,0.972000,0.176000,192.000000,0.000000,0.000000,0.000000,0.000000,0.000000,0.000000,0.000000,0.000000,0.000000,1648375394.050295,0.000000
134.000000,-31165.752550,-24468.767580,-10599.554849,-29845.680874,-33446.077519,30089.985441,37683.387123,7908.181299,0.106000,0.972000,0.176000,192.000000,0.000000,0.000000,0.000000,0.000000,0.000000,0.000000,0.000000,0.000000,0.000000,1648375394.050309,0.000000
135.000000,-31163.047989,-24465.437170,-10596.380901,-29841.277580,-33442.881220,30091.594767,37680.347285,7909.790624,0.106000,0.972000,0.176000,192.000000,0.000000,0.000000,0.000000,0.000000,0.000000,0.000000,0.000000,0.000000,0.000000,1648375394.057346,0.000000
136.000000,-31164.433797,-24465.101894,-10599.934828,-29842.059891,-33443.484717,30086.878548,37665.908058,7885.963665,0.098000,0.972000,0.172000,192.000000,3.000000,16.000000,30.000000,96.000000,5.000000,96.000000,0.000000,0.000000,0.000000,1648375394.057363,0.000000
137.000000,-31163.115044,-24462.956126,-10598.772538,-29839.802365,-33441.160135,30088.577281,37662.264724,7872.686729,0.098000,0.972000,0.172000,192.000000,0.000000,0.000000,0.000000,0.000000,0.000000,0.000000,0.000000,0.000000,0.000000,1648375394.064555,0.000000
138.000000,-31161.863346,-24463.805492,-10595.106851,-29837.053101,-33437.472098,30096.802723,37679.095588,7886.388348,0.098000,0.972000,0.172000,192.000000,0.000000,0.000000,0.000000,0.000000,0.000000,0.000000,0.000000,0.000000,0.000000,1648375394.064564,0.000000
139.000000,-31163.070341,-24464.096065,-10594.436299,-29837.433080,-33437.740319,30098.188531,37675.742826,7891.037511,0.098000,0.972000,0.172000,192.000000,0.000000,0.000000,0.000000,0.000000,0.000000,0.000000,0.000000,0.000000,0.000000,1648375394.072971,0.000000
140.000000,-31162.668009,-24461.190338,-10593.586933,-29836.807232,-33437.427394,30096.400392,37666.913887,7879.705176,0.098000,0.972000,0.172000,192.000000,0.000000,0.000000,0.000000,0.000000,0.000000,0.000000,0.000000,0.000000,0.000000,1648375394.072987,0.000000
141.000000,-31167.026599,-24466.241833,-10599.063110,-29843.624514,-33442.881220,30091.237139,37661.035378,7871.815011,0.098000,0.972000,0.172000,192.000000,0.000000,0.000000,0.000000,0.000000,0.000000,0.000000,0.000000,0.000000,0.000000,1648375394.079989,0.000000
142.000000,-31169.574698,-24470.220443,-10603.242886,-29847.089034,-33446.636313,30090.052496,37661.907096,7876.844153,0.098000,0.972000,0.172000,192.000000,0.000000,0.000000,0.000000,0.000000,0.000000,0.000000,0.000000,0.000000,0.000000,1648375394.080006,0.000000
143.000000,-31177.017829,-24474.355516,-10608.249677,-29852.498156,-33451.397234,30086.632679,37652.921695,7862.717851,0.098000,0.972000,0.172000,192.000000,0.000000,0.000000,0.000000,0.000000,0.000000,0.000000,0.000000,0.000000,0.000000,1648375394.087644,0.000000
144.000000,-31176.973126,-24476.657745,-10608.942581,-29851.380569,-33452.201897,30087.325583,37645.433860,7865.288301,0.098000,0.972000,0.172000,192.000000,0.000000,0.000000,0.000000,0.000000,0.000000,0.000000,0.000000,0.000000,0.000000,1648375394.087661,0.000000
145.000000,-31169.753512,-24470.958051,-10602.080596,-29844.965618,-33443.261199,30093.226444,37648.786622,7877.380595,0.098000,0.972000,0.172000,192.000000,0.000000,0.000000,0.000000,0.000000,0.000000,0.000000,0.000000,0.000000,0.000000,1648375394.094361,0.000000
146.000000,-31173.866233,-24475.406048,-10608.897878,-29852.900488,-33450.749034,30088.264357,37648.294884,7869.959816,0.104000,0.974000,0.178000,192.000000,3.000000,64.000000,30.000000,112.000000,5.000000,144.000000,0.000000,0.000000,0.000000,1648375394.102434,0.000000
147.000000,-31176.369628,-24474.288461,-10612.675323,-29853.861613,-33452.000731,30089.694868,37669.350227,7875.614807,0.104000,0.974000,0.178000,192.000000,0.000000,0.000000,0.000000,0.000000,0.000000,0.000000,0.000000,0.000000,0.000000,1648375394.102446,0.000000
148.000000,-31173.441550,-24466.353591,-10610.998942,-29847.960752,-33448.424452,30089.784275,37662.823518,7885.673092,0.104000,0.974000,0.178000,192.000000,0.000000,0.000000,0.000000,0.000000,0.000000,0.000000,0.000000,0.000000,0.000000,1648375394.109672,0.000000
149.000000,-31173.799178,-24466.822978,-10611.647142,-29849.771243,-33449.251467,30085.760961,37653.078157,7860.907359,0.104000,0.974000,0.178000,192.000000,0.000000,0.000000,0.000000,0.000000,0.000000,0.000000,0.000000,0.000000,0.000000,1648375394.109689,0.000000
150.000000,-31177.397809,-24472.500321,-10614.351703,-29854.241592,-33452.559525,30079.524825,37647.892552,7841.640156,0.104000,0.974000,0.178000,192.000000,0.000000,0.000000,0.000000,0.000000,0.000000,0.000000,0.000000,0.000000,0.000000,1648375394.117227,0.000000
151.000000,-31178.381285,-24475.249586,-10615.446939,-29856.700284,-33454.839403,30077.423761,37643.511610,7850.402039,0.104000,0.974000,0.178000,192.000000,0.000000,0.000000,0.000000,0.000000,0.000000,0.000000,0.000000,0.000000,0.000000,1648375394.117243,0.000000
152.000000,-31175.855538,-24475.137827,-10613.189413,-29855.739159,-33454.682941,30079.144845,37645.769137,7853.643042,0.104000,0.974000,0.178000,192.000000,0.000000,0.000000,0.000000,0.000000,0.000000,0.000000,0.000000,0.000000,0.000000,1648375394.125155,0.000000
153.000000,-31172.838053,-24473.684963,-10609.076692,-29854.241592,-33451.777214,30086.297403,37671.160718,7881.359205,0.104000,0.974000,0.178000,192.000000,0.000000,0.000000,0.000000,0.000000,0.000000,0.000000,0.000000,0.000000,0.000000,1648375394.125171,0.000000
154.000000,-31177.107236,-24475.137827,-10613.435282,-29858.555479,-33456.471080,30084.576319,37668.277343,7881.850944,0.104000,0.974000,0.178000,192.000000,0.000000,0.000000,0.000000,0.000000,0.000000,0.000000,0.000000,0.000000,0.000000,1648375394.133203,0.000000
155.000000,-31178.560099,-24476.255414,-10613.301171,-29858.622534,-33458.862717,30082.721124,37663.538773,7863.880141,0.104000,0.974000,0.178000,192.000000,0.000000,0.000000,0.000000,0.000000,0.000000,0.000000,0.000000,0.000000,0.000000,1648375394.133221,0.000000
