%OpenBCI Raw EEG Data
%Number of channels = 8
%Sample Rate = 256 Hz
%Board = OpenBCI_GUI$BoardCytonSerial
%Channels = Fp1, Fp2, F3, F4, Fz, Pz, O1, O2
%Data recorded at AIMS Lab (http://aimsl.uiu.ac.bd) by Rana Depto (mail@ranadepto.com)
%Brainwaves were obtained via the Ultracortex Mark IV Headset using the OpenBCI Cyton Board
%Recording Application = ConcentrateToday (https://concentrate.today)
%Data type = RAW data with noise
%Day No = 8
%Subject ID = 7
%Session ID = 7
%Record starting timestamp (UTC+6) = 2022-03-28T09:38:42.125021
%Record ending timestamp (UTC+6)   = 2022-03-28T09:39:08.068062
%Recorded durations = ~25 seconds
Sample Index, EXG Channel 0, EXG Channel 1, EXG Channel 2, EXG Channel 3, EXG Channel 4, EXG Channel 5, EXG Channel 6, EXG Channel 7, Accel Channel 0, Accel Channel 1, Accel Channel 2, Other, Other, Other, Other, Other, Other, Other, Analog Channel 0, Analog Channel 1, Analog Channel 2, Timestamp, Timestamp (Formatted)
218.000000,-51525.487188,-41086.551975,-989.958762,17727.816728,-25110.910846,55908.127833,16426.274648,23281.152342,0.082000,0.992000,0.030000,192.000000,0.000000,0.000000,0.000000,0.000000,0.000000,0.000000,0.000000,0.000000,0.000000,1648438722.127045,0.000000
219.000000,-51525.777760,-41087.781321,-990.115224,17728.599039,-25109.949721,55911.055912,16428.845099,23285.443876,0.082000,0.992000,0.030000,192.000000,0.000000,0.000000,0.000000,0.000000,0.000000,0.000000,0.000000,0.000000,0.000000,1648438722.127056,0.000000
220.000000,-51524.995449,-41083.288620,-989.131747,17729.470757,-25107.535733,55913.402845,16434.477739,23290.808295,0.082000,0.992000,0.030000,192.000000,0.000000,0.000000,0.000000,0.000000,0.000000,0.000000,0.000000,0.000000,0.000000,1648438722.134985,0.000000
221.000000,-51530.091647,-41085.099111,-997.044265,17725.961533,-25112.676634,55906.227935,16433.762483,23300.553656,0.082000,0.992000,0.030000,192.000000,0.000000,0.000000,0.000000,0.000000,0.000000,0.000000,0.000000,0.000000,0.000000,1648438722.134990,0.000000
222.000000,-51535.545473,-41088.854204,-1002.520442,17720.597115,-25118.599846,55900.215316,16433.963649,23315.596380,0.082000,0.992000,0.030000,192.000000,0.000000,0.000000,0.000000,0.000000,0.000000,0.000000,0.000000,0.000000,0.000000,1648438722.141595,0.000000
223.000000,-51535.523121,-41091.201137,-1005.940259,17715.232696,-25123.025492,55892.526316,16428.509823,23319.083252,0.078000,0.984000,0.030000,192.000000,2.000000,112.000000,30.000000,192.000000,0.000000,240.000000,0.000000,0.000000,0.000000,1648438722.141600,0.000000
224.000000,-51535.992507,-41094.240975,-1008.935393,17714.718606,-25125.975922,55894.135641,16428.733340,23323.307732,0.078000,0.984000,0.030000,192.000000,0.000000,0.000000,0.000000,0.000000,0.000000,0.000000,0.000000,0.000000,0.000000,1648438722.149503,0.000000
225.000000,-51542.273348,-41096.163225,-1007.549585,17713.288094,-25125.059500,55895.029711,16427.056960,23328.582743,0.078000,0.984000,0.030000,192.000000,0.000000,0.000000,0.000000,0.000000,0.000000,0.000000,0.000000,0.000000,0.000000,1648438722.149508,0.000000
226.000000,-51538.294737,-41094.263326,-1003.079236,17715.277399,-25121.483221,55897.644865,16420.887878,23328.716854,0.078000,0.984000,0.030000,192.000000,0.000000,0.000000,0.000000,0.000000,0.000000,0.000000,0.000000,0.000000,0.000000,1648438722.156548,0.000000
227.000000,-51536.685412,-41094.375085,-1000.352323,17719.859507,-25117.996349,55899.611819,16424.084178,23327.643970,0.078000,0.984000,0.030000,192.000000,0.000000,0.000000,0.000000,0.000000,0.000000,0.000000,0.000000,0.000000,0.000000,1648438722.156552,0.000000
228.000000,-51531.119827,-41088.608335,-995.814919,17727.593211,-25112.050785,55905.065644,16435.818843,23339.535098,0.078000,0.984000,0.030000,192.000000,0.000000,0.000000,0.000000,0.000000,0.000000,0.000000,0.000000,0.000000,0.000000,1648438722.164666,0.000000
229.000000,-51532.997374,-41088.898908,-998.228907,17725.559202,-25114.241256,55900.550592,16427.593401,23334.751825,0.078000,0.984000,0.030000,192.000000,0.000000,0.000000,0.000000,0.000000,0.000000,0.000000,0.000000,0.000000,0.000000,1648438722.171168,0.000000
230.000000,-51536.908929,-41090.240012,-1002.721608,17719.948914,-25118.398680,55898.248362,16418.049207,23331.354360,0.078000,0.984000,0.030000,192.000000,0.000000,0.000000,0.000000,0.000000,0.000000,0.000000,0.000000,0.000000,0.000000,1648438722.171173,0.000000
231.000000,-51543.905025,-41098.644268,-1004.263878,17718.093719,-25120.879724,55903.679836,16427.213422,23336.741130,0.078000,0.984000,0.030000,192.000000,0.000000,0.000000,0.000000,0.000000,0.000000,0.000000,0.000000,0.000000,0.000000,1648438722.179199,0.000000
232.000000,-51548.263615,-41104.947460,-1007.571937,17713.221039,-25124.947742,55899.678874,16436.020009,23347.693485,0.078000,0.984000,0.030000,192.000000,0.000000,0.000000,0.000000,0.000000,0.000000,0.000000,0.000000,0.000000,0.000000,1648438722.179204,0.000000
233.000000,-51544.150894,-41102.712286,-1007.817806,17714.338626,-25124.232486,55898.404825,16431.996695,23349.056941,0.078000,0.994000,0.026000,192.000000,2.000000,112.000000,31.000000,16.000000,0.000000,208.000000,0.000000,0.000000,0.000000,1648438722.187305,0.000000
234.000000,-51538.875882,-41098.756027,-1004.822672,17717.803147,-25121.237352,55899.120080,16428.375712,23346.933525,0.078000,0.994000,0.026000,192.000000,0.000000,0.000000,0.000000,0.000000,0.000000,0.000000,0.000000,0.000000,0.000000,1648438722.187309,0.000000
235.000000,-51544.329708,-41098.286640,-1000.933468,17716.462042,-25121.147945,55897.868383,16430.610887,23339.937429,0.078000,0.994000,0.026000,192.000000,0.000000,0.000000,0.000000,0.000000,0.000000,0.000000,0.000000,0.000000,0.000000,1648438722.193790,0.000000
236.000000,-51544.441467,-41099.180710,-1002.542794,17713.869240,-25123.651340,55895.744967,16441.987925,23348.609906,0.078000,0.994000,0.026000,192.000000,0.000000,0.000000,0.000000,0.000000,0.000000,0.000000,0.000000,0.000000,0.000000,1648438722.193794,0.000000
237.000000,-51545.491999,-41102.689934,-1005.046189,17710.896458,-25126.847640,55889.173554,16435.997657,23352.074427,0.078000,0.994000,0.026000,192.000000,0.000000,0.000000,0.000000,0.000000,0.000000,0.000000,0.000000,0.000000,0.000000,1648438722.201754,0.000000
238.000000,-51553.315109,-41109.261347,-1011.572899,17703.721548,-25134.715454,55881.529257,16432.801358,23359.942241,0.078000,0.994000,0.026000,192.000000,0.000000,0.000000,0.000000,0.000000,0.000000,0.000000,0.000000,0.000000,0.000000,1648438722.201759,0.000000
239.000000,-51550.208217,-41105.103922,-1008.935393,17703.565085,-25131.563858,55883.563266,16438.456349,23368.905290,0.078000,0.994000,0.026000,192.000000,0.000000,0.000000,0.000000,0.000000,0.000000,0.000000,0.000000,0.000000,0.000000,1648438722.210002,0.000000
240.000000,-51549.872941,-41106.892062,-1007.482530,17703.207457,-25130.602733,55882.691548,16440.669172,23377.220139,0.078000,0.994000,0.026000,192.000000,0.000000,0.000000,0.000000,0.000000,0.000000,0.000000,0.000000,0.000000,0.000000,1648438722.210006,0.000000
241.000000,-51557.986624,-41115.296318,-1014.456274,17697.798335,-25136.727111,55880.635188,16442.189091,23384.864436,0.078000,0.994000,0.026000,192.000000,0.000000,0.000000,0.000000,0.000000,0.000000,0.000000,0.000000,0.000000,0.000000,1648438722.216864,0.000000
242.000000,-51564.423926,-41118.447914,-1022.033515,17689.125858,-25144.572573,55876.880095,16441.004448,23402.857590,0.078000,0.994000,0.026000,192.000000,0.000000,0.000000,0.000000,0.000000,0.000000,0.000000,0.000000,0.000000,0.000000,1648438722.216867,0.000000
243.000000,-51555.103249,-41107.853187,-1013.517501,17701.955760,-25133.955495,55887.474822,16445.407742,23413.094689,0.074000,1.006000,0.034000,192.000000,2.000000,80.000000,31.000000,112.000000,1.000000,16.000000,0.000000,0.000000,0.000000,1648438722.223419,0.000000
244.000000,-51546.609586,-41099.091303,-1006.320239,17712.125803,-25125.864163,55894.292104,16460.763390,23422.705939,0.074000,1.006000,0.034000,192.000000,0.000000,0.000000,0.000000,0.000000,0.000000,0.000000,0.000000,0.000000,0.000000,1648438722.231530,0.000000
245.000000,-51549.850589,-41100.141835,-1011.461140,17710.918809,-25131.094471,55886.558400,16466.820713,23435.446433,0.074000,1.006000,0.034000,192.000000,0.000000,0.000000,0.000000,0.000000,0.000000,0.000000,0.000000,0.000000,0.000000,1648438722.231533,0.000000
246.000000,-51553.650386,-41105.170978,-1011.125864,17708.013083,-25132.413224,55881.328092,16461.098666,23443.247192,0.074000,1.006000,0.034000,192.000000,0.000000,0.000000,0.000000,0.000000,0.000000,0.000000,0.000000,0.000000,0.000000,1648438722.239505,0.000000
247.000000,-51557.114906,-41112.658812,-1005.672038,17711.164678,-25127.741710,55891.855763,16462.976213,23445.102387,0.074000,1.006000,0.034000,192.000000,0.000000,0.000000,0.000000,0.000000,0.000000,0.000000,0.000000,0.000000,0.000000,1648438722.239508,0.000000
248.000000,-51553.292758,-41114.514007,-1004.040361,17710.248257,-25128.456966,55895.253229,16469.748791,23447.225803,0.074000,1.006000,0.034000,192.000000,0.000000,0.000000,0.000000,0.000000,0.000000,0.000000,0.000000,0.000000,0.000000,1648438722.246566,0.000000
249.000000,-51548.710650,-41112.882330,-1006.253184,17705.397928,-25130.803899,55891.520487,16473.481533,23453.081960,0.074000,1.006000,0.034000,192.000000,0.000000,0.000000,0.000000,0.000000,0.000000,0.000000,0.000000,0.000000,0.000000,1648438722.246570,0.000000
250.000000,-51548.621243,-41110.468341,-1002.140463,17705.397928,-25127.853468,55892.995702,16470.240530,23447.605782,0.074000,1.006000,0.034000,192.000000,0.000000,0.000000,0.000000,0.000000,0.000000,0.000000,0.000000,0.000000,0.000000,1648438722.254060,0.000000
251.000000,-51546.006089,-41108.523739,-1000.240564,17709.935333,-25124.545410,55897.711920,16478.845951,23443.314248,0.074000,1.006000,0.034000,192.000000,0.000000,0.000000,0.000000,0.000000,0.000000,0.000000,0.000000,0.000000,0.000000,1648438722.254064,0.000000
252.000000,-51547.727173,-41109.596623,-1002.229870,17708.951856,-25127.920524,55896.884906,16488.904236,23457.842881,0.074000,1.006000,0.034000,192.000000,0.000000,0.000000,0.000000,0.000000,0.000000,0.000000,0.000000,0.000000,0.000000,1648438722.262054,0.000000
253.000000,-51550.588197,-41111.898853,-1002.386332,17704.548562,-25129.865125,55890.671121,16490.357100,23468.728181,0.070000,1.006000,0.032000,192.000000,2.000000,48.000000,31.000000,112.000000,1.000000,0.000000,0.000000,0.000000,0.000000,1648438722.262058,0.000000
254.000000,-51552.823371,-41111.027135,-1004.018009,17705.755556,-25129.328684,55889.955865,16492.234646,23494.052707,0.070000,1.006000,0.032000,192.000000,0.000000,0.000000,0.000000,0.000000,0.000000,0.000000,0.000000,0.000000,0.000000,1648438722.270051,0.000000
255.000000,-51548.420077,-41108.479036,-1001.335800,17706.783737,-25127.629951,55891.408729,16487.116097,23502.032280,0.070000,1.006000,0.032000,192.000000,0.000000,0.000000,0.000000,0.000000,0.000000,0.000000,0.000000,0.000000,0.000000,1648438722.270055,0.000000
0.000000,-51546.497827,-41105.729771,-997.781872,17708.415414,-25124.724224,55892.347502,16481.461106,23501.317024,0.070000,1.006000,0.032000,192.000000,0.000000,0.000000,0.000000,0.000000,0.000000,0.000000,0.000000,0.000000,0.000000,1648438722.276673,0.000000
1.000000,-51542.139237,-41099.873614,-993.937372,17716.864373,-25117.124631,55900.058854,16484.009204,23513.454022,0.070000,1.006000,0.032000,192.000000,0.000000,0.000000,0.000000,0.000000,0.000000,0.000000,0.000000,0.000000,0.000000,1648438722.276683,0.000000
2.000000,-51541.133409,-41099.851263,-992.596268,17719.814804,-25114.643587,55905.222107,16486.087917,23520.405414,0.070000,1.006000,0.032000,192.000000,0.000000,0.000000,0.000000,0.000000,0.000000,0.000000,0.000000,0.000000,0.000000,1648438722.283754,0.000000
3.000000,-51538.406496,-41096.990239,-991.322218,17719.859507,-25113.078965,55910.184194,16500.348330,23531.558935,0.070000,1.006000,0.032000,192.000000,0.000000,0.000000,0.000000,0.000000,0.000000,0.000000,0.000000,0.000000,0.000000,1648438722.291744,0.000000
4.000000,-51542.608624,-41100.946498,-997.379541,17721.088853,-25117.437555,55910.877098,16507.232667,23550.557917,0.070000,1.006000,0.032000,192.000000,0.000000,0.000000,0.000000,0.000000,0.000000,0.000000,0.000000,0.000000,0.000000,1648438722.291748,0.000000
5.000000,-51548.598891,-41107.182635,-1004.912079,17719.859507,-25123.718396,55911.257078,16502.427042,23563.924261,0.070000,1.006000,0.032000,192.000000,0.000000,0.000000,0.000000,0.000000,0.000000,0.000000,0.000000,0.000000,0.000000,1648438722.299696,0.000000
6.000000,-51555.326766,-41112.658812,-1009.114207,17714.070405,-25129.887477,55907.770205,16510.987760,23585.471342,0.070000,1.006000,0.032000,192.000000,0.000000,0.000000,0.000000,0.000000,0.000000,0.000000,0.000000,0.000000,0.000000,1648438722.299699,0.000000
7.000000,-51554.008013,-41110.870673,-1007.594288,17710.360016,-25130.110995,55908.172537,16521.716597,23602.793944,0.068000,0.998000,0.030000,192.000000,2.000000,32.000000,31.000000,48.000000,0.000000,240.000000,0.000000,0.000000,0.000000,1648438722.306466,0.000000
8.000000,-51551.951653,-41111.608280,-1009.605945,17701.799298,-25134.514288,55904.037464,16530.858461,23624.676302,0.068000,0.998000,0.030000,192.000000,0.000000,0.000000,0.000000,0.000000,0.000000,0.000000,0.000000,0.000000,0.000000,1648438722.306469,0.000000
9.000000,-51556.779630,-41116.816237,-1012.243451,17694.736146,-25139.297562,55895.320284,16525.784615,23640.076654,0.068000,0.998000,0.030000,192.000000,0.000000,0.000000,0.000000,0.000000,0.000000,0.000000,0.000000,0.000000,0.000000,1648438722.314345,0.000000
10.000000,-51557.874865,-41119.766667,-1012.601079,17694.959664,-25139.565782,55893.912124,16524.890545,23658.449788,0.068000,0.998000,0.030000,192.000000,0.000000,0.000000,0.000000,0.000000,0.000000,0.000000,0.000000,0.000000,0.000000,1648438722.314349,0.000000
11.000000,-51552.130467,-41116.749181,-1007.102550,17699.340606,-25134.223716,55893.845069,16529.316190,23680.198035,0.068000,0.998000,0.030000,192.000000,0.000000,0.000000,0.000000,0.000000,0.000000,0.000000,0.000000,0.000000,0.000000,1648438722.322395,0.000000
12.000000,-51553.538627,-41118.179693,-1006.208480,17697.753632,-25133.642570,55890.157031,16521.806004,23686.612986,0.068000,0.998000,0.030000,192.000000,0.000000,0.000000,0.000000,0.000000,0.000000,0.000000,0.000000,0.000000,0.000000,1648438722.322399,0.000000
13.000000,-51557.584293,-41122.605338,-1007.817806,17692.813896,-25137.017684,55886.625455,16519.570830,23691.776239,0.068000,0.998000,0.030000,192.000000,0.000000,0.000000,0.000000,0.000000,0.000000,0.000000,0.000000,0.000000,0.000000,1648438722.328967,0.000000
14.000000,-51556.801982,-41120.571330,-1007.571937,17693.730318,-25136.682407,55888.435947,16519.906106,23696.671271,0.068000,0.998000,0.030000,192.000000,0.000000,0.000000,0.000000,0.000000,0.000000,0.000000,0.000000,0.000000,0.000000,1648438722.328971,0.000000
15.000000,-51554.611511,-41118.470266,-1007.884861,17693.082117,-25136.458890,55890.559362,16520.040216,23701.007509,0.068000,0.998000,0.030000,192.000000,0.000000,0.000000,0.000000,0.000000,0.000000,0.000000,0.000000,0.000000,0.000000,1648438722.337061,0.000000
16.000000,-51555.796153,-41120.481923,-1011.125864,17689.192914,-25139.364617,55893.263923,16521.403673,23715.223219,0.068000,0.998000,0.030000,192.000000,0.000000,0.000000,0.000000,0.000000,0.000000,0.000000,0.000000,0.000000,0.000000,1648438722.337065,0.000000
17.000000,-51550.141162,-41114.446952,-1010.052980,17693.395042,-25136.637704,55898.069548,16515.212240,23725.281504,0.076000,0.994000,0.048000,192.000000,2.000000,96.000000,31.000000,16.000000,1.000000,128.000000,0.000000,0.000000,0.000000,1648438722.343946,0.000000
18.000000,-51553.225702,-41113.955213,-1013.070466,17692.098640,-25139.655189,55900.394130,16513.982894,23730.243591,0.076000,0.994000,0.048000,192.000000,0.000000,0.000000,0.000000,0.000000,0.000000,0.000000,0.000000,0.000000,0.000000,1648438722.352003,0.000000
19.000000,-51561.540551,-41119.766667,-1020.848873,17685.951911,-25147.187727,55894.090938,16507.187963,23746.359199,0.076000,0.994000,0.048000,192.000000,0.000000,0.000000,0.000000,0.000000,0.000000,0.000000,0.000000,0.000000,0.000000,1648438722.352007,0.000000
20.000000,-51553.784496,-41115.072801,-1018.054905,17688.365899,-25144.684332,55888.257133,16499.834239,23742.514699,0.076000,0.994000,0.048000,192.000000,0.000000,0.000000,0.000000,0.000000,0.000000,0.000000,0.000000,0.000000,0.000000,1648438722.358668,0.000000
21.000000,-51552.264577,-41114.402248,-1017.920794,17689.416431,-25145.198422,55882.490382,16503.164649,23745.554536,0.076000,0.994000,0.048000,192.000000,0.000000,0.000000,0.000000,0.000000,0.000000,0.000000,0.000000,0.000000,0.000000,1648438722.358672,0.000000
22.000000,-51548.353022,-41110.758914,-1012.109341,17692.836248,-25140.169280,55881.439851,16491.407632,23741.866498,0.076000,0.994000,0.048000,192.000000,0.000000,0.000000,0.000000,0.000000,0.000000,0.000000,0.000000,0.000000,0.000000,1648438722.366686,0.000000
23.000000,-51543.078010,-41108.635498,-1006.610812,17694.982015,-25136.324780,55887.832449,16492.927550,23740.078359,0.076000,0.994000,0.048000,192.000000,0.000000,0.000000,0.000000,0.000000,0.000000,0.000000,0.000000,0.000000,0.000000,1648438722.366691,0.000000
24.000000,-51538.182978,-41106.467379,-1000.531137,17699.050033,-25129.954532,55892.123984,16489.530085,23724.901524,0.076000,0.994000,0.048000,192.000000,0.000000,0.000000,0.000000,0.000000,0.000000,0.000000,0.000000,0.000000,0.000000,1648438722.374652,0.000000
25.000000,-51543.659156,-41108.143760,-1004.487396,17695.831382,-25132.234410,55889.620589,16486.557303,23707.467163,0.076000,0.994000,0.048000,192.000000,0.000000,0.000000,0.000000,0.000000,0.000000,0.000000,0.000000,0.000000,0.000000,1648438722.374656,0.000000
26.000000,-51549.604720,-41112.547053,-1011.729361,17689.125858,-25139.163451,55888.994740,16491.005300,23710.305835,0.076000,0.994000,0.048000,192.000000,0.000000,0.000000,0.000000,0.000000,0.000000,0.000000,0.000000,0.000000,0.000000,1648438722.381886,0.000000
27.000000,-51550.878769,-41116.391553,-1011.170567,17687.471829,-25139.319913,55889.888810,16481.595216,23709.925855,0.076000,0.994000,0.048000,192.000000,0.000000,0.000000,0.000000,0.000000,0.000000,0.000000,0.000000,0.000000,0.000000,1648438722.381891,0.000000
28.000000,-51549.649423,-41115.966870,-1011.997582,17690.511667,-25137.889402,55902.808118,16486.154972,23706.483687,0.082000,0.986000,0.054000,192.000000,2.000000,144.000000,30.000000,208.000000,1.000000,176.000000,0.000000,0.000000,0.000000,1648438722.389864,0.000000
29.000000,-51555.907912,-41120.258405,-1019.619527,17685.773097,-25144.751387,55896.884906,16490.267693,23711.043443,0.082000,0.986000,0.054000,192.000000,0.000000,0.000000,0.000000,0.000000,0.000000,0.000000,0.000000,0.000000,0.000000,1648438722.389868,0.000000
30.000000,-51558.724232,-41120.973661,-1022.145274,17685.683690,-25145.779567,55893.420386,16493.039309,23714.329149,0.082000,0.986000,0.054000,192.000000,0.000000,0.000000,0.000000,0.000000,0.000000,0.000000,0.000000,0.000000,0.000000,1648438722.397373,0.000000
31.000000,-51561.182923,-41122.203007,-1022.614661,17685.057841,-25145.533698,55891.408729,16492.815792,23713.323321,0.082000,0.986000,0.054000,192.000000,0.000000,0.000000,0.000000,0.000000,0.000000,0.000000,0.000000,0.000000,0.000000,1648438722.397377,0.000000
32.000000,-51560.177095,-41121.443048,-1024.067524,17685.393117,-25145.466643,55889.665292,16498.649597,23715.782012,0.082000,0.986000,0.054000,192.000000,0.000000,0.000000,0.000000,0.000000,0.000000,0.000000,0.000000,0.000000,0.000000,1648438722.404324,0.000000
33.000000,-51559.864171,-41119.230225,-1025.386277,17686.197780,-25146.316009,55889.218258,16508.082033,23720.185306,0.082000,0.986000,0.054000,192.000000,0.000000,0.000000,0.000000,0.000000,0.000000,0.000000,0.000000,0.000000,0.000000,1648438722.404328,0.000000
34.000000,-51557.718403,-41116.369202,-1022.301736,17690.265797,-25144.907849,55890.715824,16512.954713,23719.537106,0.082000,0.986000,0.054000,192.000000,0.000000,0.000000,0.000000,0.000000,0.000000,0.000000,0.000000,0.000000,0.000000,1648438722.411646,0.000000
35.000000,-51560.042984,-41122.314766,-1023.866358,17688.589417,-25148.037094,55892.414557,16518.341484,23719.894733,0.082000,0.986000,0.054000,192.000000,0.000000,0.000000,0.000000,0.000000,0.000000,0.000000,0.000000,0.000000,0.000000,1648438722.418955,0.000000
36.000000,-51561.272330,-41127.343908,-1026.637975,17683.001480,-25152.485091,55894.135641,16522.387150,23730.645922,0.082000,0.986000,0.054000,192.000000,0.000000,0.000000,0.000000,0.000000,0.000000,0.000000,0.000000,0.000000,0.000000,1648438722.418958,0.000000
37.000000,-51557.897217,-41123.655870,-1025.676850,17683.582626,-25151.099283,55891.296970,16528.176251,23737.463205,0.082000,0.986000,0.054000,192.000000,0.000000,0.000000,0.000000,0.000000,0.000000,0.000000,0.000000,0.000000,0.000000,1648438722.426925,0.000000
38.000000,-51553.851551,-41119.409039,-1022.838178,17687.672995,-25145.243126,55894.470918,16539.195661,23734.222202,0.092000,0.976000,0.064000,192.000000,2.000000,224.000000,30.000000,128.000000,2.000000,0.000000,0.000000,0.000000,0.000000,1648438722.426929,0.000000
39.000000,-51553.449220,-41117.084458,-1018.412533,17692.500972,-25138.448195,55903.590429,16550.729162,23743.431120,0.092000,0.976000,0.064000,192.000000,0.000000,0.000000,0.000000,0.000000,0.000000,0.000000,0.000000,0.000000,0.000000,1648438722.434187,0.000000
40.000000,-51562.009938,-41122.582987,-1023.531082,17686.108373,-25143.320876,55899.790633,16549.723333,23749.309629,0.092000,0.976000,0.064000,192.000000,0.000000,0.000000,0.000000,0.000000,0.000000,0.000000,0.000000,0.000000,0.000000,1648438722.434208,0.000000
41.000000,-51567.463764,-41127.343908,-1032.695297,17679.201684,-25151.993352,55895.409691,16555.110104,23766.229900,0.092000,0.976000,0.064000,192.000000,0.000000,0.000000,0.000000,0.000000,0.000000,0.000000,0.000000,0.000000,0.000000,1648438722.441555,0.000000
42.000000,-51565.072127,-41124.840513,-1030.102495,17680.162809,-25149.735826,55897.309589,16560.273356,23773.114237,0.092000,0.976000,0.064000,192.000000,0.000000,0.000000,0.000000,0.000000,0.000000,0.000000,0.000000,0.000000,0.000000,1648438722.441558,0.000000
43.000000,-51564.245112,-41124.371126,-1030.348364,17678.665242,-25149.311143,55894.090938,16562.508531,23781.496141,0.092000,0.976000,0.064000,192.000000,0.000000,0.000000,0.000000,0.000000,0.000000,0.000000,0.000000,0.000000,0.000000,1648438722.449576,0.000000
44.000000,-51556.801982,-41120.236053,-1019.775989,17687.605940,-25138.939934,55900.438833,16561.256833,23778.389249,0.092000,0.976000,0.064000,192.000000,0.000000,0.000000,0.000000,0.000000,0.000000,0.000000,0.000000,0.000000,0.000000,1648438722.449580,0.000000
45.000000,-51556.734926,-41122.203007,-1018.881919,17690.466963,-25137.822346,55897.801327,16557.635851,23777.294013,0.092000,0.976000,0.064000,192.000000,0.000000,0.000000,0.000000,0.000000,0.000000,0.000000,0.000000,0.000000,0.000000,1648438722.457603,0.000000
46.000000,-51551.258749,-41114.581062,-1014.523329,17700.212324,-25131.630913,55905.713845,16560.094543,23769.046219,0.092000,0.976000,0.064000,192.000000,0.000000,0.000000,0.000000,0.000000,0.000000,0.000000,0.000000,0.000000,0.000000,1648438722.457606,0.000000
47.000000,-51558.254845,-41117.665603,-1019.798341,17697.194838,-25135.944800,55905.691493,16580.814610,23775.349411,0.092000,0.976000,0.064000,192.000000,0.000000,0.000000,0.000000,0.000000,0.000000,0.000000,0.000000,0.000000,0.000000,1648438722.464155,0.000000
48.000000,-51555.840857,-41115.944519,-1016.602041,17700.726414,-25131.049768,55904.663313,16585.061441,23782.501970,0.106000,0.966000,0.074000,192.000000,3.000000,80.000000,30.000000,48.000000,2.000000,80.000000,0.000000,0.000000,0.000000,1648438722.464158,0.000000
49.000000,-51558.277197,-41119.029059,-1019.843044,17698.804164,-25133.866088,55904.283333,16586.424897,23790.928577,0.106000,0.966000,0.074000,192.000000,0.000000,0.000000,0.000000,0.000000,0.000000,0.000000,0.000000,0.000000,0.000000,1648438722.471212,0.000000
50.000000,-51553.985662,-41117.129161,-1018.725457,17702.447498,-25132.502631,55903.791595,16589.308273,23795.622444,0.106000,0.966000,0.074000,192.000000,0.000000,0.000000,0.000000,0.000000,0.000000,0.000000,0.000000,0.000000,0.000000,1648438722.479195,0.000000
51.000000,-51552.532798,-41114.782228,-1017.451408,17700.458193,-25132.904963,55899.544764,16588.101278,23796.292996,0.106000,0.966000,0.074000,192.000000,0.000000,0.000000,0.000000,0.000000,0.000000,0.000000,0.000000,0.000000,0.000000,1648438722.479199,0.000000
52.000000,-51550.364679,-41107.897891,-1013.316335,17698.692405,-25130.893306,55901.958752,16588.369499,23798.684633,0.106000,0.966000,0.074000,192.000000,0.000000,0.000000,0.000000,0.000000,0.000000,0.000000,0.000000,0.000000,0.000000,1648438722.487305,0.000000
53.000000,-51553.158647,-41105.305088,-1012.265803,17701.128745,-25129.619256,55909.066607,16604.507459,23807.960607,0.106000,0.966000,0.074000,192.000000,0.000000,0.000000,0.000000,0.000000,0.000000,0.000000,0.000000,0.000000,0.000000,1648438722.487309,0.000000
54.000000,-51559.797115,-41116.324498,-1019.172492,17695.205533,-25136.369483,55902.718711,16604.798031,23813.593246,0.106000,0.966000,0.074000,192.000000,0.000000,0.000000,0.000000,0.000000,0.000000,0.000000,0.000000,0.000000,0.000000,1648438722.493879,0.000000
55.000000,-51560.825296,-41118.269100,-1022.145274,17691.182219,-25139.386969,55899.008322,16608.955456,23829.395930,0.106000,0.966000,0.074000,192.000000,0.000000,0.000000,0.000000,0.000000,0.000000,0.000000,0.000000,0.000000,0.000000,1648438722.493883,0.000000
56.000000,-51559.417136,-41118.805542,-1022.078219,17690.981053,-25139.297562,55899.388301,16613.179936,23836.101453,0.106000,0.966000,0.074000,192.000000,0.000000,0.000000,0.000000,0.000000,0.000000,0.000000,0.000000,0.000000,0.000000,1648438722.501853,0.000000
57.000000,-51559.953578,-41120.236053,-1023.262861,17692.769193,-25140.750425,55902.674008,16614.901020,23840.571802,0.106000,0.966000,0.074000,192.000000,0.000000,0.000000,0.000000,0.000000,0.000000,0.000000,0.000000,0.000000,0.000000,1648438722.501856,0.000000
58.000000,-51561.249979,-41122.761801,-1025.140408,17690.601074,-25143.745559,55900.863516,16615.124537,23841.667037,0.124000,0.970000,0.078000,192.000000,3.000000,224.000000,30.000000,80.000000,2.000000,112.000000,0.000000,0.000000,0.000000,1648438722.509879,0.000000
59.000000,-51561.652310,-41122.068897,-1026.794437,17686.957739,-25147.433597,55891.229915,16608.530773,23840.191822,0.124000,0.970000,0.078000,192.000000,0.000000,0.000000,0.000000,0.000000,0.000000,0.000000,0.000000,0.000000,0.000000,1648438722.509883,0.000000
60.000000,-51555.594987,-41117.307975,-1022.435847,17691.137515,-25144.550222,55889.888810,16609.402491,23833.285133,0.124000,0.970000,0.078000,192.000000,0.000000,0.000000,0.000000,0.000000,0.000000,0.000000,0.000000,0.000000,0.000000,1648438722.517052,0.000000
61.000000,-51557.092554,-41119.632556,-1026.101533,17687.293015,-25148.752349,55877.818868,16611.034168,23814.196743,0.124000,0.970000,0.078000,192.000000,0.000000,0.000000,0.000000,0.000000,0.000000,0.000000,0.000000,0.000000,0.000000,1648438722.517056,0.000000
62.000000,-51557.584293,-41119.766667,-1027.152065,17689.908169,-25146.181899,55821.604231,16614.230468,23789.654528,0.124000,0.970000,0.078000,192.000000,0.000000,0.000000,0.000000,0.000000,0.000000,0.000000,0.000000,0.000000,0.000000,1648438722.524455,0.000000
63.000000,-51563.216932,-41123.544112,-1029.498998,17693.909132,-25143.343227,55807.433225,16639.778511,23780.535016,0.124000,0.970000,0.078000,192.000000,0.000000,0.000000,0.000000,0.000000,0.000000,0.000000,0.000000,0.000000,0.000000,1648438722.524459,0.000000
64.000000,-51569.989511,-41129.199103,-1026.369754,17695.384347,-25140.728073,55814.429321,16709.650065,23819.181182,0.124000,0.970000,0.078000,192.000000,0.000000,0.000000,0.000000,0.000000,0.000000,0.000000,0.000000,0.000000,0.000000,1648438722.531433,0.000000
65.000000,-51571.665892,-41135.234074,-1027.442637,17693.551504,-25141.800957,55818.027951,16765.060039,23862.252994,0.124000,0.970000,0.078000,192.000000,0.000000,0.000000,0.000000,0.000000,0.000000,0.000000,0.000000,0.000000,0.000000,1648438722.539560,0.000000
66.000000,-51563.619264,-41130.786077,-1020.960631,17698.982978,-25136.660056,55837.630431,16787.501191,23893.098401,0.124000,0.970000,0.078000,192.000000,0.000000,0.000000,0.000000,0.000000,0.000000,0.000000,0.000000,0.000000,0.000000,1648438722.539564,0.000000
67.000000,-51566.368528,-41128.506199,-1020.111265,17699.519420,-25136.324780,55834.612946,16779.655728,23913.974931,0.124000,0.970000,0.078000,192.000000,0.000000,0.000000,0.000000,0.000000,0.000000,0.000000,0.000000,0.000000,0.000000,1648438722.546663,0.000000
68.000000,-51561.361737,-41125.175789,-1017.362001,17700.771117,-25134.022550,55830.991963,16761.372001,23921.686282,0.140000,0.970000,0.082000,192.000000,4.000000,96.000000,30.000000,80.000000,2.000000,144.000000,0.000000,0.000000,0.000000,1648438722.546666,0.000000
69.000000,-51557.517237,-41123.566463,-1017.317297,17703.252161,-25134.469585,55828.645030,16744.496434,23921.820393,0.140000,0.970000,0.082000,192.000000,0.000000,0.000000,0.000000,0.000000,0.000000,0.000000,0.000000,0.000000,0.000000,1648438722.554136,0.000000
70.000000,-51550.878769,-41120.638385,-1012.735190,17707.677806,-25130.692140,55834.456484,16733.342914,23914.690186,0.140000,0.970000,0.082000,192.000000,0.000000,0.000000,0.000000,0.000000,0.000000,0.000000,0.000000,0.000000,0.000000,1648438722.554140,0.000000
71.000000,-51552.152819,-41121.085420,-1016.736152,17704.369748,-25134.558992,55838.077466,16731.599478,23914.041986,0.140000,0.970000,0.082000,192.000000,0.000000,0.000000,0.000000,0.000000,0.000000,0.000000,0.000000,0.000000,0.000000,1648438722.562078,0.000000
72.000000,-51560.311205,-41127.567426,-1025.699201,17694.490277,-25144.192594,55831.215481,16729.006675,23921.328654,0.140000,0.970000,0.082000,192.000000,0.000000,0.000000,0.000000,0.000000,0.000000,0.000000,0.000000,0.000000,0.000000,1648438722.562082,0.000000
73.000000,-51560.624130,-41127.232150,-1025.162759,17691.495143,-25144.818442,55831.148425,16725.989190,23918.691149,0.140000,0.970000,0.082000,192.000000,0.000000,0.000000,0.000000,0.000000,0.000000,0.000000,0.000000,0.000000,0.000000,1648438722.569242,0.000000
74.000000,-51554.119772,-41122.605338,-1021.005335,17695.205533,-25138.381140,55833.562414,16721.407082,23905.928303,0.140000,0.970000,0.082000,192.000000,0.000000,0.000000,0.000000,0.000000,0.000000,0.000000,0.000000,0.000000,0.000000,1648438722.569246,0.000000
75.000000,-51554.522104,-41124.013498,-1024.983945,17696.971321,-25138.559954,55833.964745,16720.937696,23891.600834,0.140000,0.970000,0.082000,192.000000,0.000000,0.000000,0.000000,0.000000,0.000000,0.000000,0.000000,0.000000,0.000000,1648438722.576687,0.000000
76.000000,-51554.209179,-41122.471228,-1026.637975,17698.692405,-25137.978809,55834.143559,16721.876469,23885.118828,0.140000,0.970000,0.082000,192.000000,0.000000,0.000000,0.000000,0.000000,0.000000,0.000000,0.000000,0.000000,0.000000,1648438722.576691,0.000000
77.000000,-51552.935130,-41117.978527,-1027.599100,17701.754594,-25137.017684,55834.836463,16710.700597,23871.238395,0.140000,0.970000,0.082000,192.000000,0.000000,0.000000,0.000000,0.000000,0.000000,0.000000,0.000000,0.000000,0.000000,1648438722.584711,0.000000
78.000000,-51551.750487,-41117.330327,-1028.157893,17704.503859,-25136.749463,55832.869510,16701.961065,23851.501805,0.144000,0.976000,0.076000,192.000000,4.000000,128.000000,30.000000,128.000000,2.000000,96.000000,0.000000,0.000000,0.000000,1648438722.584716,0.000000
79.000000,-51545.737868,-41110.848321,-1024.738076,17711.924638,-25131.206230,55830.209652,16703.726852,23844.773930,0.144000,0.976000,0.076000,192.000000,0.000000,0.000000,0.000000,0.000000,0.000000,0.000000,0.000000,0.000000,0.000000,1648438722.591716,0.000000
80.000000,-51547.682470,-41112.994088,-1026.705030,17709.756519,-25131.720320,55827.750960,16698.541248,23835.095624,0.144000,0.976000,0.076000,192.000000,0.000000,0.000000,0.000000,0.000000,0.000000,0.000000,0.000000,0.000000,0.000000,1648438722.598917,0.000000
81.000000,-51547.146028,-41113.239957,-1026.503864,17709.711815,-25129.373387,55831.528405,16705.269123,23840.147119,0.144000,0.976000,0.076000,192.000000,0.000000,0.000000,0.000000,0.000000,0.000000,0.000000,0.000000,0.000000,0.000000,1648438722.598921,0.000000
82.000000,-51535.947804,-41106.042696,-1019.083085,17714.718606,-25120.633855,55837.585728,16706.587876,23839.767139,0.144000,0.976000,0.076000,192.000000,0.000000,0.000000,0.000000,0.000000,0.000000,0.000000,0.000000,0.000000,0.000000,1648438722.606312,0.000000
83.000000,-51542.563920,-41109.641327,-1021.117094,17711.634065,-25123.293713,55837.921004,16708.778347,23843.432825,0.144000,0.976000,0.076000,192.000000,0.000000,0.000000,0.000000,0.000000,0.000000,0.000000,0.000000,0.000000,0.000000,1648438722.606316,0.000000
84.000000,-51546.475476,-41114.514007,-1022.972288,17706.336702,-25126.579419,55830.120245,16703.704501,23837.710778,0.144000,0.976000,0.076000,192.000000,0.000000,0.000000,0.000000,0.000000,0.000000,0.000000,0.000000,0.000000,0.000000,1648438722.614711,0.000000
85.000000,-51541.356926,-41110.647155,-1019.843044,17710.471774,-25123.114899,55834.501187,16703.168059,23835.475604,0.144000,0.976000,0.076000,192.000000,0.000000,0.000000,0.000000,0.000000,0.000000,0.000000,0.000000,0.000000,0.000000,1648438722.614719,0.000000
86.000000,-51535.880749,-41104.500425,-1017.496111,17713.824536,-25119.650378,55833.562414,16699.077690,23827.496031,0.144000,0.976000,0.076000,192.000000,0.000000,0.000000,0.000000,0.000000,0.000000,0.000000,0.000000,0.000000,0.000000,1648438722.622752,0.000000
87.000000,-51538.451199,-41108.791960,-1021.742943,17711.991693,-25124.970093,55829.852024,16698.451841,23818.421223,0.144000,0.976000,0.076000,192.000000,0.000000,0.000000,0.000000,0.000000,0.000000,0.000000,0.000000,0.000000,0.000000,1648438722.622769,0.000000
88.000000,-51541.803961,-41113.016440,-1026.436809,17707.901324,-25129.798070,55824.666420,16697.960102,23812.945046,0.148000,0.984000,0.080000,192.000000,4.000000,160.000000,30.000000,192.000000,2.000000,128.000000,0.000000,0.000000,0.000000,1648438722.629435,0.000000
89.000000,-51539.479380,-41109.238995,-1024.916890,17711.365844,-25128.278152,55828.265050,16698.451841,23803.803182,0.148000,0.984000,0.080000,192.000000,0.000000,0.000000,0.000000,0.000000,0.000000,0.000000,0.000000,0.000000,0.000000,1648438722.629450,0.000000
90.000000,-51540.842836,-41107.897891,-1027.867321,17708.638931,-25130.714492,55821.112492,16693.601512,23800.204551,0.148000,0.984000,0.080000,192.000000,0.000000,0.000000,0.000000,0.000000,0.000000,0.000000,0.000000,0.000000,0.000000,1648438722.637412,0.000000
91.000000,-51538.741772,-41104.701591,-1028.582576,17707.901324,-25130.558029,55824.845234,16693.355643,23799.846923,0.148000,0.984000,0.080000,192.000000,0.000000,0.000000,0.000000,0.000000,0.000000,0.000000,0.000000,0.000000,0.000000,1648438722.637428,0.000000
92.000000,-51534.673755,-41102.622879,-1025.989774,17710.315312,-25127.294675,55839.865606,16712.220515,23811.067499,0.148000,0.984000,0.080000,192.000000,0.000000,0.000000,0.000000,0.000000,0.000000,0.000000,0.000000,0.000000,0.000000,1648438722.645467,0.000000
93.000000,-51537.378316,-41111.183597,-1021.027687,17709.689463,-25122.623160,55849.119228,16716.042664,23811.670996,0.148000,0.984000,0.080000,192.000000,0.000000,0.000000,0.000000,0.000000,0.000000,0.000000,0.000000,0.000000,0.000000,1648438722.645482,0.000000
94.000000,-51540.753429,-41119.252577,-1017.809036,17707.789565,-25120.656207,55852.650804,16709.292437,23805.099583,0.148000,0.984000,0.080000,192.000000,0.000000,0.000000,0.000000,0.000000,0.000000,0.000000,0.000000,0.000000,0.000000,1648438722.653873,0.000000
95.000000,-51539.255862,-41123.499408,-1022.078219,17702.022815,-25126.355902,55839.977365,16699.524724,23795.957720,0.148000,0.984000,0.080000,192.000000,0.000000,0.000000,0.000000,0.000000,0.000000,0.000000,0.000000,0.000000,0.000000,1648438722.653890,0.000000
96.000000,-51541.334574,-41126.136914,-1026.772085,17702.223981,-25130.982713,55836.445789,16699.792945,23789.051031,0.148000,0.984000,0.080000,192.000000,0.000000,0.000000,0.000000,0.000000,0.000000,0.000000,0.000000,0.000000,0.000000,1648438722.660032,0.000000
97.000000,-51544.374412,-41126.136914,-1032.181207,17700.413489,-25134.424881,55839.507978,16706.453765,23796.136534,0.148000,0.984000,0.080000,192.000000,0.000000,0.000000,0.000000,0.000000,0.000000,0.000000,0.000000,0.000000,0.000000,1648438722.667041,0.000000
98.000000,-51542.407458,-41122.225359,-1031.398896,17699.631178,-25133.910791,55844.939452,16709.650065,23794.527208,0.144000,0.982000,0.084000,192.000000,4.000000,128.000000,30.000000,176.000000,2.000000,160.000000,0.000000,0.000000,0.000000,1648438722.667057,0.000000
99.000000,-51537.288909,-41118.224396,-1031.689469,17703.118050,-25132.547335,55848.269862,16709.895934,23789.721583,0.144000,0.982000,0.084000,192.000000,0.000000,0.000000,0.000000,0.000000,0.000000,0.000000,0.000000,0.000000,0.000000,1648438722.675132,0.000000
100.000000,-51541.423981,-41122.784152,-1039.400821,17699.318254,-25140.169280,55833.852987,16705.894972,23791.733240,0.144000,0.982000,0.084000,192.000000,0.000000,0.000000,0.000000,0.000000,0.000000,0.000000,0.000000,0.000000,0.000000,1648438722.675148,0.000000
101.000000,-51543.435638,-41123.633519,-1038.842027,17700.301731,-25138.492899,55829.606155,16696.708405,23787.195836,0.144000,0.982000,0.084000,192.000000,0.000000,0.000000,0.000000,0.000000,0.000000,0.000000,0.000000,0.000000,0.000000,1648438722.682163,0.000000
102.000000,-51541.535740,-41122.672394,-1037.232701,17700.525248,-25136.749463,55822.788873,16688.773535,23786.480580,0.144000,0.982000,0.084000,192.000000,0.000000,0.000000,0.000000,0.000000,0.000000,0.000000,0.000000,0.000000,0.000000,1648438722.682179,0.000000
103.000000,-51535.389010,-41122.493580,-1030.996565,17700.234675,-25134.558992,55827.125111,16686.985396,23773.315403,0.144000,0.982000,0.084000,192.000000,0.000000,0.000000,0.000000,0.000000,0.000000,0.000000,0.000000,0.000000,0.000000,1648438722.689663,0.000000
104.000000,-51535.545473,-41122.448876,-1032.292966,17698.848867,-25136.034207,55834.143559,16700.530553,23774.634156,0.144000,0.982000,0.084000,192.000000,0.000000,0.000000,0.000000,0.000000,0.000000,0.000000,0.000000,0.000000,0.000000,1648438722.689679,0.000000
105.000000,-51542.183941,-41128.685013,-1037.769143,17691.942178,-25142.292695,55826.119283,16704.240943,23780.870292,0.144000,0.982000,0.084000,192.000000,0.000000,0.000000,0.000000,0.000000,0.000000,0.000000,0.000000,0.000000,0.000000,1648438722.697730,0.000000
106.000000,-51539.613490,-41128.148571,-1034.639899,17692.992710,-25141.376274,55821.671286,16693.534457,23779.976223,0.144000,0.982000,0.084000,192.000000,0.000000,0.000000,0.000000,0.000000,0.000000,0.000000,0.000000,0.000000,0.000000,1648438722.697746,0.000000
107.000000,-51532.349173,-41122.426524,-1028.739039,17697.574818,-25135.944800,55843.464237,16697.647178,23776.645813,0.144000,0.982000,0.084000,192.000000,0.000000,0.000000,0.000000,0.000000,0.000000,0.000000,0.000000,0.000000,0.000000,1648438722.704835,0.000000
108.000000,-51532.393877,-41119.006708,-1028.761390,17700.391138,-25134.648399,55860.764487,16704.665626,23775.952909,0.142000,0.974000,0.084000,192.000000,4.000000,112.000000,30.000000,112.000000,2.000000,160.000000,0.000000,0.000000,0.000000,1648438722.704851,0.000000
109.000000,-51536.037211,-41124.616995,-1032.471780,17699.474716,-25137.084739,55858.261092,16699.860001,23777.763400,0.142000,0.974000,0.084000,192.000000,0.000000,0.000000,0.000000,0.000000,0.000000,0.000000,0.000000,0.000000,0.000000,1648438722.712025,0.000000
110.000000,-51540.306394,-41131.948368,-1039.065544,17693.238579,-25142.560916,55848.940414,16689.533495,23774.857673,0.142000,0.974000,0.084000,192.000000,0.000000,0.000000,0.000000,0.000000,0.000000,0.000000,0.000000,0.000000,0.000000,1648438722.712035,0.000000
111.000000,-51535.836045,-41124.795809,-1035.690431,17697.977149,-25136.369483,55856.472952,16692.059242,23780.400906,0.142000,0.974000,0.084000,192.000000,0.000000,0.000000,0.000000,0.000000,0.000000,0.000000,0.000000,0.000000,0.000000,1648438722.719389,0.000000
112.000000,-51528.862301,-41119.185522,-1029.163722,17703.118050,-25130.960361,55864.966615,16690.136992,23781.943176,0.142000,0.974000,0.084000,192.000000,0.000000,0.000000,0.000000,0.000000,0.000000,0.000000,0.000000,0.000000,0.000000,1648438722.727408,0.000000
113.000000,-51526.180092,-41113.619937,-1021.340611,17711.477603,-25125.484183,55869.504019,16699.122393,23783.954833,0.142000,0.974000,0.084000,192.000000,0.000000,0.000000,0.000000,0.000000,0.000000,0.000000,0.000000,0.000000,0.000000,1648438722.727424,0.000000
114.000000,-51528.437618,-41116.123333,-1023.307565,17710.739995,-25130.558029,55864.005490,16703.324521,23777.092847,0.142000,0.974000,0.084000,192.000000,0.000000,0.000000,0.000000,0.000000,0.000000,0.000000,0.000000,0.000000,0.000000,1648438722.734508,0.000000
115.000000,-51529.443446,-41118.358507,-1028.649632,17705.196763,-25136.056559,55855.288309,16703.905666,23784.737144,0.142000,0.974000,0.084000,192.000000,0.000000,0.000000,0.000000,0.000000,0.000000,0.000000,0.000000,0.000000,0.000000,1648438722.734525,0.000000
116.000000,-51541.245167,-41123.968795,-1035.198693,17699.586475,-25142.471509,55849.096876,16707.817222,23803.333795,0.142000,0.974000,0.084000,192.000000,0.000000,0.000000,0.000000,0.000000,0.000000,0.000000,0.000000,0.000000,0.000000,1648438722.741958,0.000000
117.000000,-51540.641670,-41123.700574,-1037.702088,17697.038376,-25145.064312,55839.999716,16706.520820,23818.220057,0.142000,0.974000,0.084000,192.000000,0.000000,0.000000,0.000000,0.000000,0.000000,0.000000,0.000000,0.000000,0.000000,1648438722.741975,0.000000
118.000000,-51537.668888,-41122.694745,-1036.383335,17701.620484,-25142.896192,55832.377771,16697.647178,23820.544639,0.132000,0.970000,0.088000,192.000000,4.000000,32.000000,30.000000,80.000000,2.000000,192.000000,0.000000,0.000000,0.000000,1648438722.749981,0.000000
119.000000,-51541.044002,-41128.752068,-1037.612681,17696.613693,-25143.656152,55823.146501,16684.593759,23817.571857,0.132000,0.970000,0.088000,192.000000,0.000000,0.000000,0.000000,0.000000,0.000000,0.000000,0.000000,0.000000,0.000000,1648438722.749997,0.000000
120.000000,-51534.092609,-41121.353641,-1031.354193,17703.565085,-25136.123614,55835.685830,16688.326500,23833.776871,0.132000,0.970000,0.088000,192.000000,0.000000,0.000000,0.000000,0.000000,0.000000,0.000000,0.000000,0.000000,0.000000,1648438722.757813,0.000000
121.000000,-51532.751505,-41115.609242,-1029.163722,17702.939237,-25133.955495,55839.507978,16702.899838,23851.345343,0.132000,0.970000,0.088000,192.000000,0.000000,0.000000,0.000000,0.000000,0.000000,0.000000,0.000000,0.000000,0.000000,1648438722.757828,0.000000
122.000000,-51529.689316,-41116.950347,-1023.933413,17705.174411,-25128.680483,55836.915176,16713.874544,23858.274383,0.132000,0.970000,0.088000,192.000000,0.000000,0.000000,0.000000,0.000000,0.000000,0.000000,0.000000,0.000000,0.000000,1648438722.764679,0.000000
123.000000,-51515.697123,-41112.122370,-1017.429056,17713.399853,-25121.147945,55839.463274,16718.948390,23861.135407,0.132000,0.970000,0.088000,192.000000,0.000000,0.000000,0.000000,0.000000,0.000000,0.000000,0.000000,0.000000,0.000000,1648438722.764695,0.000000
124.000000,-51515.898289,-41111.943556,-1020.781818,17712.483431,-25125.037149,55837.183396,16726.324466,23882.593081,0.132000,0.970000,0.088000,192.000000,0.000000,0.000000,0.000000,0.000000,0.000000,0.000000,0.000000,0.000000,0.000000,1648438722.772650,0.000000
125.000000,-51533.332650,-41119.140818,-1024.358097,17706.694330,-25130.200402,55835.752885,16724.826899,23904.587198,0.132000,0.970000,0.088000,192.000000,0.000000,0.000000,0.000000,0.000000,0.000000,0.000000,0.000000,0.000000,0.000000,1648438722.772666,0.000000
126.000000,-51532.460932,-41116.235091,-1022.882882,17707.856620,-25127.518192,55841.273766,16720.423605,23916.679492,0.132000,0.970000,0.088000,192.000000,0.000000,0.000000,0.000000,0.000000,0.000000,0.000000,0.000000,0.000000,0.000000,1648438722.779670,0.000000
127.000000,-51529.108170,-41114.782228,-1025.229815,17707.543696,-25130.133346,55836.177568,16722.636428,23927.855364,0.132000,0.970000,0.088000,192.000000,0.000000,0.000000,0.000000,0.000000,0.000000,0.000000,0.000000,0.000000,0.000000,1648438722.787651,0.000000
128.000000,-51528.951708,-41115.810408,-1032.114152,17706.023777,-25133.821384,55827.438036,16717.987265,23941.422873,0.132000,0.970000,0.088000,192.000000,0.000000,0.000000,0.000000,0.000000,0.000000,0.000000,0.000000,0.000000,0.000000,1648438722.787668,0.000000
129.000000,-51521.463874,-41112.256481,-1036.048059,17705.666149,-25133.396701,55838.479798,16718.970742,23958.700771,0.136000,0.972000,0.086000,192.000000,4.000000,64.000000,30.000000,96.000000,2.000000,176.000000,0.000000,0.000000,0.000000,1648438722.794313,0.000000
130.000000,-51526.515368,-41113.932862,-1042.485361,17699.161792,-25138.314085,55836.334030,16725.855079,23979.376135,0.136000,0.972000,0.086000,192.000000,0.000000,0.000000,0.000000,0.000000,0.000000,0.000000,0.000000,0.000000,0.000000,1648438722.794329,0.000000
131.000000,-51522.693220,-41109.373106,-1050.464934,17695.183181,-25144.080835,55822.051265,16718.858983,23994.374155,0.136000,0.972000,0.086000,192.000000,0.000000,0.000000,0.000000,0.000000,0.000000,0.000000,0.000000,0.000000,0.000000,1648438722.802137,0.000000
132.000000,-51508.231641,-41098.308992,-1054.264731,17687.181257,-25145.623105,55821.067789,16713.583972,23995.849370,0.136000,0.972000,0.086000,192.000000,0.000000,0.000000,0.000000,0.000000,0.000000,0.000000,0.000000,0.000000,0.000000,1648438722.802149,0.000000
133.000000,-51525.688353,-41104.679239,-1058.332748,17687.337719,-25149.288791,55829.449693,16719.820108,24004.924179,0.136000,0.972000,0.086000,192.000000,0.000000,0.000000,0.000000,0.000000,0.000000,0.000000,0.000000,0.000000,0.000000,1648438722.810146,0.000000
134.000000,-51525.241318,-41112.681164,-1053.303606,17694.691443,-25147.411245,55830.433170,16725.050417,24022.358539,0.136000,0.972000,0.086000,192.000000,0.000000,0.000000,0.000000,0.000000,0.000000,0.000000,0.000000,0.000000,0.000000,1648438722.810157,0.000000
135.000000,-51530.695144,-41126.695708,-1043.200617,17707.744862,-25141.666846,55832.064847,16729.431359,24038.362388,0.136000,0.972000,0.086000,192.000000,0.000000,0.000000,0.000000,0.000000,0.000000,0.000000,0.000000,0.000000,0.000000,1648438722.817428,0.000000
136.000000,-51538.294737,-41133.110658,-1041.524236,17708.750690,-25142.203288,55831.282536,16731.510071,24062.301107,0.136000,0.972000,0.086000,192.000000,0.000000,0.000000,0.000000,0.000000,0.000000,0.000000,0.000000,0.000000,0.000000,1648438722.817439,0.000000
137.000000,-51536.126618,-41120.481923,-1050.800210,17699.117088,-25149.042922,55832.020144,16735.421626,24086.508046,0.136000,0.972000,0.086000,192.000000,0.000000,0.000000,0.000000,0.000000,0.000000,0.000000,0.000000,0.000000,0.000000,1648438722.824713,0.000000
138.000000,-51513.059618,-41104.075742,-1059.606798,17680.319271,-25157.424826,55825.336972,16730.995981,24104.791773,0.136000,0.972000,0.086000,192.000000,0.000000,0.000000,0.000000,0.000000,0.000000,0.000000,0.000000,0.000000,0.000000,1648438722.824729,0.000000
139.000000,-51517.954650,-41105.126274,-1050.286120,17680.833361,-25154.429693,55814.831652,16719.864812,24116.057052,0.138000,0.970000,0.084000,192.000000,4.000000,80.000000,30.000000,80.000000,2.000000,160.000000,0.000000,0.000000,0.000000,1648438722.832761,0.000000
140.000000,-51519.362810,-41120.727792,-1051.001376,17691.606902,-25150.316972,55807.947315,16719.507184,24134.385483,0.138000,0.970000,0.084000,192.000000,0.000000,0.000000,0.000000,0.000000,0.000000,0.000000,0.000000,0.000000,0.000000,1648438722.832778,0.000000
141.000000,-51526.157740,-41108.881367,-1053.102440,17692.411565,-25150.316972,55806.829728,16721.988228,24145.024913,0.138000,0.970000,0.084000,192.000000,0.000000,0.000000,0.000000,0.000000,0.000000,0.000000,0.000000,0.000000,0.000000,1648438722.839992,0.000000
142.000000,-51535.657231,-41106.869710,-1047.536856,17700.525248,-25147.031265,55815.859832,16734.996943,24159.777064,0.138000,0.970000,0.084000,192.000000,0.000000,0.000000,0.000000,0.000000,0.000000,0.000000,0.000000,0.000000,0.000000,1648438722.846623,0.000000
143.000000,-51528.079990,-41124.304071,-1041.524236,17716.909077,-25137.643532,55811.367132,16734.102873,24174.797437,0.138000,0.970000,0.084000,192.000000,0.000000,0.000000,0.000000,0.000000,0.000000,0.000000,0.000000,0.000000,0.000000,1648438722.846639,0.000000
144.000000,-51518.446388,-41128.662661,-1043.446486,17713.288094,-25139.722245,55791.719948,16715.036835,24176.898501,0.138000,0.970000,0.084000,192.000000,0.000000,0.000000,0.000000,0.000000,0.000000,0.000000,0.000000,0.000000,0.000000,1648438722.854588,0.000000
145.000000,-51519.742789,-41115.631594,-1059.003301,17696.613693,-25152.641553,55770.083460,16705.492640,24180.653594,0.138000,0.970000,0.084000,192.000000,0.000000,0.000000,0.000000,0.000000,0.000000,0.000000,0.000000,0.000000,0.000000,1648438722.854604,0.000000
146.000000,-51511.360885,-41100.968850,-1048.654443,17698.178315,-25144.147890,55814.943411,16726.145652,24203.206504,0.138000,0.970000,0.084000,192.000000,0.000000,0.000000,0.000000,0.000000,0.000000,0.000000,0.000000,0.000000,0.000000,1648438722.862623,0.000000
147.000000,-51497.659266,-41099.136007,-1044.184094,17696.814859,-25138.716416,55850.929719,16753.683001,24238.097577,0.138000,0.970000,0.084000,192.000000,0.000000,0.000000,0.000000,0.000000,0.000000,0.000000,0.000000,0.000000,0.000000,1648438722.862639,0.000000
148.000000,-51491.959571,-41083.020399,-1059.070356,17687.293015,-25148.484129,55839.753847,16759.919138,24252.536804,0.138000,0.970000,0.084000,192.000000,0.000000,0.000000,0.000000,0.000000,0.000000,0.000000,0.000000,0.000000,0.000000,1648438722.869562,0.000000
149.000000,-51503.604830,-41100.499463,-1054.532952,17697.597170,-25145.421940,55822.677114,16760.924966,24264.025600,0.138000,0.962000,0.072000,192.000000,4.000000,80.000000,30.000000,16.000000,2.000000,64.000000,0.000000,0.000000,0.000000,1648438722.869579,0.000000
150.000000,-51535.679583,-41128.573254,-1056.388146,17701.776946,-25152.239222,55805.846251,16753.392429,24276.922557,0.138000,0.962000,0.072000,192.000000,0.000000,0.000000,0.000000,0.000000,0.000000,0.000000,0.000000,0.000000,0.000000,1648438722.877212,0.000000
151.000000,-51525.151911,-41137.446897,-1048.050946,17704.369748,-25146.897155,55835.194091,16765.350612,24293.574607,0.138000,0.962000,0.072000,192.000000,0.000000,0.000000,0.000000,0.000000,0.000000,0.000000,0.000000,0.000000,0.000000,1648438722.877228,0.000000
152.000000,-51508.768083,-41121.219530,-1046.039289,17689.818763,-25148.506480,55840.893786,16780.706260,24307.008005,0.138000,0.962000,0.072000,192.000000,0.000000,0.000000,0.000000,0.000000,0.000000,0.000000,0.000000,0.000000,0.000000,1648438722.885184,0.000000
153.000000,-51487.310408,-41102.533472,-1058.511562,17666.170617,-25160.241146,55832.064847,16789.311682,24335.662941,0.138000,0.962000,0.072000,192.000000,0.000000,0.000000,0.000000,0.000000,0.000000,0.000000,0.000000,0.000000,0.000000,1648438722.885201,0.000000
154.000000,-51477.900324,-41065.876611,-1069.329806,17659.465094,-25164.890309,55821.827748,16787.545894,24362.239166,0.138000,0.962000,0.072000,192.000000,0.000000,0.000000,0.000000,0.000000,0.000000,0.000000,0.000000,0.000000,0.000000,1648438722.893196,0.000000
155.000000,-51497.323990,-41097.280812,-1057.505734,17683.984957,-25155.122597,55816.463329,16783.857856,24388.211893,0.138000,0.962000,0.072000,192.000000,0.000000,0.000000,0.000000,0.000000,0.000000,0.000000,0.000000,0.000000,0.000000,1648438722.893213,0.000000
156.000000,-51491.847812,-41143.303054,-1032.225911,17722.854641,-25130.781547,55831.215481,16792.731499,24410.228361,0.138000,0.962000,0.072000,192.000000,0.000000,0.000000,0.000000,0.000000,0.000000,0.000000,0.000000,0.000000,0.000000,1648438722.899369,0.000000
157.000000,-51494.373559,-41146.141725,-1025.319222,17738.679676,-25125.081852,55828.019181,16793.670272,24423.952332,0.138000,0.962000,0.072000,192.000000,0.000000,0.000000,0.000000,0.000000,0.000000,0.000000,0.000000,0.000000,0.000000,1648438722.899384,0.000000
158.000000,-51493.457138,-41148.376900,-1026.928547,17740.937202,-25124.768928,55827.885071,16788.462316,24439.039760,0.138000,0.962000,0.072000,192.000000,0.000000,0.000000,0.000000,0.000000,0.000000,0.000000,0.000000,0.000000,0.000000,1648438722.906926,0.000000
159.000000,-51484.941123,-41148.309845,-1024.536911,17734.186975,-25126.065329,55827.236870,16780.192170,24456.854100,0.134000,0.958000,0.062000,192.000000,4.000000,48.000000,29.000000,240.000000,1.000000,240.000000,0.000000,0.000000,0.000000,1648438722.914866,0.000000
160.000000,-51469.898399,-41146.029967,-1028.292004,17723.815766,-25131.250934,55826.409856,16778.851065,24474.959013,0.134000,0.958000,0.062000,192.000000,0.000000,0.000000,0.000000,0.000000,0.000000,0.000000,0.000000,0.000000,0.000000,1648438722.914883,0.000000
161.000000,-51458.342547,-41139.033871,-1032.874111,17721.804109,-25132.457928,55832.780103,16789.870476,24505.357385,0.134000,0.958000,0.062000,192.000000,0.000000,0.000000,0.000000,0.000000,0.000000,0.000000,0.000000,0.000000,0.000000,1648438722.922889,0.000000
162.000000,-51455.570931,-41147.795754,-1034.796361,17715.947952,-25136.257724,55823.727646,16781.220350,24518.768432,0.134000,0.958000,0.062000,192.000000,0.000000,0.000000,0.000000,0.000000,0.000000,0.000000,0.000000,0.000000,0.000000,1648438722.922904,0.000000
163.000000,-51454.095716,-41153.853077,-1034.706954,17712.908115,-25137.040035,55812.998809,16767.339917,24531.397168,0.134000,0.958000,0.062000,192.000000,0.000000,0.000000,0.000000,0.000000,0.000000,0.000000,0.000000,0.000000,0.000000,1648438722.929344,0.000000
164.000000,-51462.097640,-41161.564429,-1038.394992,17707.364882,-25139.811652,55813.512899,16762.601347,24544.651752,0.134000,0.958000,0.062000,192.000000,0.000000,0.000000,0.000000,0.000000,0.000000,0.000000,0.000000,0.000000,0.000000,1648438722.929356,0.000000
165.000000,-51449.848884,-41162.212630,-1046.978062,17699.765289,-25146.204251,55819.749036,16782.069717,24573.954889,0.134000,0.958000,0.062000,192.000000,0.000000,0.000000,0.000000,0.000000,0.000000,0.000000,0.000000,0.000000,0.000000,1648438722.937299,0.000000
166.000000,-51455.168600,-41161.542077,-1054.264731,17695.116126,-25152.127463,55813.445844,16778.873417,24601.000500,0.134000,0.958000,0.062000,192.000000,0.000000,0.000000,0.000000,0.000000,0.000000,0.000000,0.000000,0.000000,0.000000,1648438722.937310,0.000000
167.000000,-51453.894550,-41187.380694,-1047.894484,17705.599094,-25147.478300,55816.396274,16774.380717,24619.686558,0.134000,0.958000,0.062000,192.000000,0.000000,0.000000,0.000000,0.000000,0.000000,0.000000,0.000000,0.000000,0.000000,1648438722.945416,0.000000
168.000000,-51457.113201,-41201.551700,-1032.829408,17716.730263,-25140.616314,55819.078483,16766.602310,24620.580628,0.134000,0.958000,0.062000,192.000000,0.000000,0.000000,0.000000,0.000000,0.000000,0.000000,0.000000,0.000000,0.000000,1648438722.945427,0.000000
169.000000,-51448.887759,-41207.273746,-1022.569957,17724.486318,-25138.068216,55817.156233,16770.826789,24638.819651,0.134000,0.968000,0.052000,192.000000,4.000000,48.000000,30.000000,64.000000,1.000000,160.000000,0.000000,0.000000,0.000000,1648438722.952061,0.000000
170.000000,-51454.363937,-41222.785857,-1016.937317,17729.716626,-25135.184841,55820.844271,16774.492475,24663.183053,0.134000,0.968000,0.052000,192.000000,0.000000,0.000000,0.000000,0.000000,0.000000,0.000000,0.000000,0.000000,0.000000,1648438722.952077,0.000000
171.000000,-51451.704079,-41230.385450,-1015.484454,17730.878917,-25133.664922,55821.336010,16771.139714,24673.956594,0.134000,0.968000,0.052000,192.000000,0.000000,0.000000,0.000000,0.000000,0.000000,0.000000,0.000000,0.000000,0.000000,1648438722.959931,0.000000
172.000000,-51444.350355,-41236.509828,-1022.994640,17724.955705,-25137.487070,55821.291306,16772.391411,24694.274329,0.134000,0.968000,0.052000,192.000000,0.000000,0.000000,0.000000,0.000000,0.000000,0.000000,0.000000,0.000000,0.000000,1648438722.959947,0.000000
173.000000,-51443.232768,-41245.808154,-1026.168588,17720.686522,-25140.012817,55816.440978,16770.960900,24716.983702,0.134000,0.968000,0.052000,192.000000,0.000000,0.000000,0.000000,0.000000,0.000000,0.000000,0.000000,0.000000,0.000000,1648438722.966994,0.000000
174.000000,-51454.609806,-41274.150166,-1032.471780,17713.153984,-25149.758178,55801.219440,16765.663536,24744.901031,0.134000,0.968000,0.052000,192.000000,0.000000,0.000000,0.000000,0.000000,0.000000,0.000000,0.000000,0.000000,0.000000,1648438722.974808,0.000000
175.000000,-51439.544730,-41283.292029,-1030.437771,17716.126766,-25148.059445,55797.576105,16759.516807,24765.822263,0.134000,0.968000,0.052000,192.000000,0.000000,0.000000,0.000000,0.000000,0.000000,0.000000,0.000000,0.000000,0.000000,1648438722.974818,0.000000
176.000000,-51438.673012,-41294.289088,-1025.542739,17721.759405,-25143.611448,55796.458518,16756.074638,24785.022412,0.134000,0.968000,0.052000,192.000000,0.000000,0.000000,0.000000,0.000000,0.000000,0.000000,0.000000,0.000000,0.000000,1648438722.981402,0.000000
177.000000,-51443.098658,-41305.263794,-1018.211367,17727.414397,-25136.928277,55796.235001,16756.007583,24804.200209,0.134000,0.968000,0.052000,192.000000,0.000000,0.000000,0.000000,0.000000,0.000000,0.000000,0.000000,0.000000,0.000000,1648438722.981407,0.000000
178.000000,-51441.556387,-41315.187969,-1014.970364,17729.604868,-25133.843736,55793.686902,16759.315641,24829.010645,0.134000,0.968000,0.052000,192.000000,0.000000,0.000000,0.000000,0.000000,0.000000,0.000000,0.000000,0.000000,0.000000,1648438722.989235,0.000000
179.000000,-51438.740067,-41322.139361,-1015.886785,17732.287077,-25132.077948,55790.848230,16760.567339,24848.970753,0.134000,0.984000,0.038000,192.000000,4.000000,48.000000,30.000000,192.000000,1.000000,48.000000,0.000000,0.000000,0.000000,1648438722.989240,0.000000
180.000000,-51428.704134,-41327.459076,-1016.914966,17735.103397,-25130.513326,55794.312751,16765.462371,24866.159244,0.134000,0.984000,0.038000,192.000000,0.000000,0.000000,0.000000,0.000000,0.000000,0.000000,0.000000,0.000000,0.000000,1648438722.997312,0.000000
181.000000,-51429.352335,-41330.901245,-1013.964535,17738.545565,-25128.434614,55797.620809,16771.743211,24879.413829,0.134000,0.984000,0.038000,192.000000,0.000000,0.000000,0.000000,0.000000,0.000000,0.000000,0.000000,0.000000,0.000000,1648438722.997316,0.000000
182.000000,-51433.643870,-41336.958568,-1013.182224,17740.736036,-25126.937047,55803.231097,16774.559531,24892.199027,0.134000,0.984000,0.038000,192.000000,0.000000,0.000000,0.000000,0.000000,0.000000,0.000000,0.000000,0.000000,0.000000,1648438723.004361,0.000000
183.000000,-51439.187102,-41350.101393,-1016.512634,17735.639839,-25131.206230,55805.130995,16775.386545,24909.991015,0.134000,0.984000,0.038000,192.000000,0.000000,0.000000,0.000000,0.000000,0.000000,0.000000,0.000000,0.000000,0.000000,1648438723.004366,0.000000
184.000000,-51430.045239,-41350.257856,-1015.216233,17736.712722,-25128.255800,55809.489585,16777.375850,24922.865620,0.134000,0.984000,0.038000,192.000000,0.000000,0.000000,0.000000,0.000000,0.000000,0.000000,0.000000,0.000000,0.000000,1648438723.012193,0.000000
185.000000,-51415.807178,-41347.553295,-1006.029666,17741.987734,-25120.566800,55815.703370,16784.170781,24929.146460,0.134000,0.984000,0.038000,192.000000,0.000000,0.000000,0.000000,0.000000,0.000000,0.000000,0.000000,0.000000,0.000000,1648438723.012209,0.000000
186.000000,-51420.836320,-41346.391004,-999.927640,17746.256917,-25116.118803,55819.078483,16788.194095,24924.273780,0.134000,0.984000,0.038000,192.000000,0.000000,0.000000,0.000000,0.000000,0.000000,0.000000,0.000000,0.000000,0.000000,1648438723.020074,0.000000
187.000000,-51419.137587,-41347.821516,-1005.470873,17749.274403,-25115.358843,55813.825824,16793.714976,24927.805356,0.134000,0.984000,0.038000,192.000000,0.000000,0.000000,0.000000,0.000000,0.000000,0.000000,0.000000,0.000000,0.000000,1648438723.020085,0.000000
188.000000,-51425.485483,-41359.243257,-1026.816789,17739.104359,-25129.351035,55795.944428,16798.922932,24954.560394,0.134000,0.984000,0.038000,192.000000,0.000000,0.000000,0.000000,0.000000,0.000000,0.000000,0.000000,0.000000,0.000000,1648438723.027113,0.000000
189.000000,-51418.332925,-41365.032359,-1024.648669,17737.271516,-25130.870954,55787.897800,16792.440926,24966.406818,0.136000,1.000000,0.022000,192.000000,4.000000,64.000000,31.000000,64.000000,0.000000,176.000000,0.000000,0.000000,0.000000,1648438723.034403,0.000000
190.000000,-51430.492274,-41371.134385,-1007.750751,17739.819615,-25129.373387,55786.042605,16791.613912,24975.213406,0.136000,1.000000,0.022000,192.000000,0.000000,0.000000,0.000000,0.000000,0.000000,0.000000,0.000000,0.000000,0.000000,1648438723.034414,0.000000
191.000000,-51433.487407,-41376.252934,-1002.319277,17743.060618,-25127.160564,55784.343873,16789.356385,24983.483551,0.136000,1.000000,0.022000,192.000000,0.000000,0.000000,0.000000,0.000000,0.000000,0.000000,0.000000,0.000000,0.000000,1648438723.041878,0.000000
192.000000,-51433.867387,-41380.544469,-1006.744922,17736.064522,-25129.887477,55781.035814,16790.988063,24997.542798,0.136000,1.000000,0.022000,192.000000,0.000000,0.000000,0.000000,0.000000,0.000000,0.000000,0.000000,0.000000,0.000000,1648438723.041890,0.000000
193.000000,-51425.127855,-41375.180051,-1002.609849,17738.523214,-25124.232486,55786.221419,16787.970577,25000.314415,0.136000,1.000000,0.022000,192.000000,0.000000,0.000000,0.000000,0.000000,0.000000,0.000000,0.000000,0.000000,0.000000,1648438723.049695,0.000000
194.000000,-51420.322230,-41377.079949,-1002.095759,17746.703952,-25119.359806,55794.625675,16792.619740,25003.220141,0.136000,1.000000,0.022000,192.000000,0.000000,0.000000,0.000000,0.000000,0.000000,0.000000,0.000000,0.000000,0.000000,1648438723.049706,0.000000
195.000000,-51419.785788,-41379.762158,-1004.956782,17749.274403,-25119.784489,55798.045492,16794.743156,25007.869304,0.136000,1.000000,0.022000,192.000000,0.000000,0.000000,0.000000,0.000000,0.000000,0.000000,0.000000,0.000000,0.000000,1648438723.057840,0.000000
196.000000,-51418.064704,-41376.476452,-1009.449483,17749.252051,-25120.320931,55804.438091,16794.899618,25013.121964,0.136000,1.000000,0.022000,192.000000,0.000000,0.000000,0.000000,0.000000,0.000000,0.000000,0.000000,0.000000,0.000000,1648438723.057856,0.000000
197.000000,-51420.344582,-41379.091606,-1017.451408,17743.418246,-25126.177088,55807.969666,16798.632359,25021.794441,0.136000,1.000000,0.022000,192.000000,0.000000,0.000000,0.000000,0.000000,0.000000,0.000000,0.000000,0.000000,0.000000,1648438723.064625,0.000000
198.000000,-51422.982087,-41388.658153,-1024.581614,17739.886670,-25132.390873,55802.873469,16796.598351,25030.176345,0.136000,1.000000,0.022000,192.000000,0.000000,0.000000,0.000000,0.000000,0.000000,0.000000,0.000000,0.000000,0.000000,1648438723.064642,0.000000
199.000000,-51418.802311,-41380.723283,-1020.245376,17743.708818,-25128.501669,55803.767539,16790.362214,25031.629209,0.134000,1.008000,0.010000,192.000000,4.000000,48.000000,31.000000,128.000000,0.000000,80.000000,0.000000,0.000000,0.000000,1648438723.072678,0.000000
200.000000,-51418.712904,-41377.772853,-1012.757541,17747.575670,-25123.450175,55802.158213,16791.032766,25036.077206,0.134000,1.008000,0.010000,192.000000,0.000000,0.000000,0.000000,0.000000,0.000000,0.000000,0.000000,0.000000,0.000000,1648438723.072695,0.000000
201.000000,-51408.185233,-41375.917658,-998.675942,17761.500807,-25109.390927,55799.654818,16780.438039,25025.326017,0.134000,1.008000,0.010000,192.000000,0.000000,0.000000,0.000000,0.000000,0.000000,0.000000,0.000000,0.000000,0.000000,1648438723.080646,0.000000
202.000000,-51401.233840,-41374.107167,-992.573916,17770.285043,-25101.165486,55799.073672,16774.291310,25012.876095,0.134000,1.008000,0.010000,192.000000,0.000000,0.000000,0.000000,0.000000,0.000000,0.000000,0.000000,0.000000,0.000000,1648438723.080663,0.000000
203.000000,-51409.280468,-41381.595001,-1002.363980,17761.210234,-25109.301521,55790.490602,16777.107629,25017.525258,0.134000,1.008000,0.010000,192.000000,0.000000,0.000000,0.000000,0.000000,0.000000,0.000000,0.000000,0.000000,0.000000,1648438723.086858,0.000000
204.000000,-51405.681837,-41384.903060,-1007.594288,17755.242319,-25113.973035,55782.466326,16770.715031,25019.067528,0.134000,1.008000,0.010000,192.000000,0.000000,0.000000,0.000000,0.000000,0.000000,0.000000,0.000000,0.000000,0.000000,1648438723.094247,0.000000
205.000000,-51414.309611,-41386.825310,-1013.204576,17751.420170,-25118.644550,55781.147573,16762.891920,25009.925665,0.134000,1.008000,0.010000,192.000000,0.000000,0.000000,0.000000,0.000000,0.000000,0.000000,0.000000,0.000000,0.000000,1648438723.094263,0.000000
206.000000,-51424.345544,-41393.173205,-1022.011163,17747.173339,-25126.691178,55781.929884,16756.789894,24999.867380,0.134000,1.008000,0.010000,192.000000,0.000000,0.000000,0.000000,0.000000,0.000000,0.000000,0.000000,0.000000,0.000000,1648438723.102131,0.000000
207.000000,-51424.479654,-41396.749484,-1027.017954,17744.401722,-25132.904963,55783.718024,16749.413818,24983.237682,0.134000,1.008000,0.010000,192.000000,0.000000,0.000000,0.000000,0.000000,0.000000,0.000000,0.000000,0.000000,0.000000,1648438723.102142,0.000000
208.000000,-51414.533128,-41393.799054,-1025.408629,17744.781702,-25131.429748,55790.267085,16746.016353,24967.591461,0.134000,1.008000,0.010000,192.000000,0.000000,0.000000,0.000000,0.000000,0.000000,0.000000,0.000000,0.000000,0.000000,1648438723.110338,0.000000
209.000000,-51417.416503,-41391.452121,-1027.442637,17743.775874,-25132.457928,55795.296227,16744.854062,24953.800434,0.132000,1.012000,0.000000,192.000000,4.000000,32.000000,31.000000,160.000000,0.000000,0.000000,0.000000,0.000000,0.000000,1648438723.110355,0.000000
210.000000,-51424.032619,-41390.088664,-1024.603966,17745.675772,-25129.507497,55798.492527,16741.300135,24940.098815,0.132000,1.012000,0.000000,192.000000,0.000000,0.000000,0.000000,0.000000,0.000000,0.000000,0.000000,0.000000,0.000000,1648438723.116903,0.000000
211.000000,-51424.077323,-41392.390894,-1023.620489,17745.452254,-25127.540544,55799.721873,16734.616963,24918.439975,0.132000,1.012000,0.000000,192.000000,0.000000,0.000000,0.000000,0.000000,0.000000,0.000000,0.000000,0.000000,0.000000,1648438723.116920,0.000000
212.000000,-51422.915032,-41393.307316,-1026.459161,17742.725342,-25130.267457,55800.660646,16728.671399,24899.932730,0.132000,1.012000,0.000000,192.000000,0.000000,0.000000,0.000000,0.000000,0.000000,0.000000,0.000000,0.000000,0.000000,1648438723.124702,0.000000
213.000000,-51421.752742,-41391.832100,-1023.464027,17746.547490,-25127.249971,55802.582896,16723.776367,24871.970698,0.132000,1.012000,0.000000,192.000000,0.000000,0.000000,0.000000,0.000000,0.000000,0.000000,0.000000,0.000000,0.000000,1648438723.124718,0.000000
214.000000,-51422.512701,-41395.318973,-1022.748771,17749.028534,-25126.199439,55803.052283,16724.245754,24847.204965,0.132000,1.012000,0.000000,192.000000,0.000000,0.000000,0.000000,0.000000,0.000000,0.000000,0.000000,0.000000,0.000000,1648438723.132773,0.000000
215.000000,-51426.290146,-41400.191653,-1028.895501,17746.748656,-25129.552201,55800.973570,16720.624771,24822.327473,0.132000,1.012000,0.000000,192.000000,0.000000,0.000000,0.000000,0.000000,0.000000,0.000000,0.000000,0.000000,0.000000,1648438723.132789,0.000000
216.000000,-51432.302765,-41405.980755,-1036.718611,17739.238470,-25137.084739,55798.201954,16713.427509,24808.849372,0.132000,1.012000,0.000000,192.000000,0.000000,0.000000,0.000000,0.000000,0.000000,0.000000,0.000000,0.000000,0.000000,1648438723.140084,0.000000
217.000000,-51431.520454,-41402.292717,-1035.288100,17740.199595,-25134.514288,55797.620809,16703.436280,24780.663822,0.132000,1.012000,0.000000,192.000000,0.000000,0.000000,0.000000,0.000000,0.000000,0.000000,0.000000,0.000000,0.000000,1648438723.140100,0.000000
218.000000,-51422.400942,-41392.681467,-1031.242434,17745.206385,-25128.635779,55806.919134,16708.308960,24749.952525,0.132000,1.012000,0.000000,192.000000,0.000000,0.000000,0.000000,0.000000,0.000000,0.000000,0.000000,0.000000,0.000000,1648438723.146507,0.000000
219.000000,-51429.665259,-41393.664943,-1038.864379,17736.623315,-25134.268419,55809.601344,16712.578143,24733.769862,0.124000,1.004000,-0.004000,192.000000,3.000000,224.000000,31.000000,96.000000,255.000000,224.000000,0.000000,0.000000,0.000000,1648438723.146518,0.000000
220.000000,-51424.636117,-41394.827234,-1034.572844,17734.410493,-25134.424881,55810.942448,16711.125280,24719.352987,0.124000,1.004000,-0.004000,192.000000,0.000000,0.000000,0.000000,0.000000,0.000000,0.000000,0.000000,0.000000,0.000000,1648438723.154530,0.000000
221.000000,-51425.932518,-41395.743656,-1029.454294,17740.534871,-25130.938009,55813.937582,16705.514992,24697.805905,0.124000,1.004000,-0.004000,192.000000,0.000000,0.000000,0.000000,0.000000,0.000000,0.000000,0.000000,0.000000,0.000000,1648438723.162624,0.000000
222.000000,-51437.533073,-41394.648420,-1028.604928,17742.121845,-25131.720320,55814.876356,16696.015501,24665.015896,0.124000,1.004000,-0.004000,192.000000,0.000000,0.000000,0.000000,0.000000,0.000000,0.000000,0.000000,0.000000,0.000000,1648438723.162640,0.000000
223.000000,-51436.661355,-41393.553185,-1034.684603,17739.886670,-25134.983675,55814.116396,16692.394518,24639.177279,0.124000,1.004000,-0.004000,192.000000,0.000000,0.000000,0.000000,0.000000,0.000000,0.000000,0.000000,0.000000,0.000000,1648438723.169756,0.000000
224.000000,-51432.861559,-41392.323839,-1038.216178,17737.740903,-25136.525945,55816.485681,16686.381899,24608.957721,0.124000,1.004000,-0.004000,192.000000,0.000000,0.000000,0.000000,0.000000,0.000000,0.000000,0.000000,0.000000,0.000000,1648438723.169772,0.000000
225.000000,-51438.985937,-41395.698952,-1044.117039,17734.254030,-25141.555088,55816.664495,16689.153515,24591.433953,0.124000,1.004000,-0.004000,192.000000,0.000000,0.000000,0.000000,0.000000,0.000000,0.000000,0.000000,0.000000,0.000000,1648438723.177185,0.000000
226.000000,-51437.555425,-41392.346190,-1044.251149,17734.611658,-25140.705721,55812.641181,16685.197256,24569.149264,0.124000,1.004000,-0.004000,192.000000,0.000000,0.000000,0.000000,0.000000,0.000000,0.000000,0.000000,0.000000,0.000000,1648438723.177201,0.000000
227.000000,-51435.253195,-41387.384103,-1042.686527,17734.835176,-25138.872878,55812.149443,16680.257521,24535.107557,0.124000,1.004000,-0.004000,192.000000,0.000000,0.000000,0.000000,0.000000,0.000000,0.000000,0.000000,0.000000,0.000000,1648438723.185009,0.000000
228.000000,-51435.029678,-41383.025513,-1038.484399,17733.985810,-25135.765986,55819.100835,16684.973739,24511.213542,0.124000,1.004000,-0.004000,192.000000,0.000000,0.000000,0.000000,0.000000,0.000000,0.000000,0.000000,0.000000,0.000000,1648438723.185021,0.000000
229.000000,-51435.186140,-41380.522118,-1035.198693,17735.237507,-25133.240239,55822.319486,16686.806582,24496.170818,0.124000,1.004000,-0.004000,192.000000,0.000000,0.000000,0.000000,0.000000,0.000000,0.000000,0.000000,0.000000,0.000000,1648438723.193144,0.000000
230.000000,-51436.415486,-41380.142138,-1034.818713,17738.165586,-25130.423919,55826.476911,16687.499486,24480.010507,0.122000,1.006000,-0.006000,192.000000,3.000000,208.000000,31.000000,112.000000,255.000000,208.000000,0.000000,0.000000,0.000000,1648438723.193156,0.000000
231.000000,-51430.335811,-41367.803975,-1025.609794,17748.045057,-25118.465736,55835.439960,16691.813373,24461.615021,0.122000,1.006000,-0.006000,192.000000,0.000000,0.000000,0.000000,0.000000,0.000000,0.000000,0.000000,0.000000,0.000000,1648438723.199827,0.000000
232.000000,-51428.480617,-41361.120803,-1023.799303,17751.174301,-25114.509477,55836.088161,16686.873637,24441.051417,0.122000,1.006000,-0.006000,192.000000,0.000000,0.000000,0.000000,0.000000,0.000000,0.000000,0.000000,0.000000,0.000000,1648438723.199844,0.000000
233.000000,-51423.987916,-41351.889533,-1023.262861,17752.604813,-25112.676634,55843.218367,16686.024271,24415.235152,0.122000,1.006000,-0.006000,192.000000,0.000000,0.000000,0.000000,0.000000,0.000000,0.000000,0.000000,0.000000,0.000000,1648438723.207703,0.000000
234.000000,-51422.736218,-41348.357957,-1020.915928,17755.018801,-25109.748555,55851.287347,16695.814335,24396.325576,0.122000,1.006000,-0.006000,192.000000,0.000000,0.000000,0.000000,0.000000,0.000000,0.000000,0.000000,0.000000,0.000000,1648438723.207719,0.000000
235.000000,-51427.519492,-41346.145135,-1025.274518,17752.023667,-25115.112974,55846.168798,16688.617073,24381.819294,0.122000,1.006000,-0.006000,192.000000,0.000000,0.000000,0.000000,0.000000,0.000000,0.000000,0.000000,0.000000,0.000000,1648438723.214947,0.000000
236.000000,-51428.793541,-41345.228713,-1025.922719,17748.715609,-25120.276227,55850.393277,16702.117527,24371.179863,0.122000,1.006000,-0.006000,192.000000,0.000000,0.000000,0.000000,0.000000,0.000000,0.000000,0.000000,0.000000,0.000000,1648438723.221837,0.000000
237.000000,-51436.974280,-41348.916751,-1034.461085,17739.283173,-25130.692140,55845.833522,16714.790966,24358.975811,0.122000,1.006000,-0.006000,192.000000,0.000000,0.000000,0.000000,0.000000,0.000000,0.000000,0.000000,0.000000,0.000000,1648438723.221848,0.000000
238.000000,-51438.538902,-41347.866219,-1034.684603,17740.467815,-25128.591076,55851.287347,16714.701559,24353.700799,0.122000,1.006000,-0.006000,192.000000,0.000000,0.000000,0.000000,0.000000,0.000000,0.000000,0.000000,0.000000,0.000000,1648438723.229501,0.000000
239.000000,-51439.790599,-41347.262722,-1034.639899,17740.311353,-25126.199439,55858.596368,16716.489698,24340.222697,0.122000,1.006000,-0.006000,192.000000,0.000000,0.000000,0.000000,0.000000,0.000000,0.000000,0.000000,0.000000,0.000000,1648438723.229517,0.000000
240.000000,-51440.595262,-41340.534847,-1035.064582,17739.037304,-25126.624122,55860.965653,16724.111643,24329.180936,0.124000,1.000000,0.000000,192.000000,3.000000,224.000000,31.000000,64.000000,0.000000,0.000000,0.000000,0.000000,0.000000,1648438723.237515,0.000000
241.000000,-51440.483503,-41337.047975,-1037.903254,17738.545565,-25129.015759,55857.836408,16726.458576,24319.279113,0.124000,1.000000,0.000000,192.000000,0.000000,0.000000,0.000000,0.000000,0.000000,0.000000,0.000000,0.000000,0.000000,1648438723.237531,0.000000
242.000000,-51442.249291,-41340.221922,-1041.412478,17739.260821,-25130.334512,55854.215426,16723.664608,24316.775717,0.124000,1.000000,0.000000,192.000000,0.000000,0.000000,0.000000,0.000000,0.000000,0.000000,0.000000,0.000000,0.000000,1648438723.245364,0.000000
243.000000,-51439.075343,-41334.052841,-1035.355155,17746.748656,-25124.903038,55859.222217,16728.269068,24304.012871,0.124000,1.000000,0.000000,192.000000,0.000000,0.000000,0.000000,0.000000,0.000000,0.000000,0.000000,0.000000,0.000000,1648438723.245375,0.000000
244.000000,-51434.068553,-41323.301652,-1022.726419,17757.142217,-25112.766041,55874.801382,16738.148539,24281.147037,0.124000,1.000000,0.000000,192.000000,0.000000,0.000000,0.000000,0.000000,0.000000,0.000000,0.000000,0.000000,0.000000,1648438723.251863,0.000000
245.000000,-51436.370782,-41322.921672,-1025.654498,17755.242319,-25114.330663,55876.768336,16740.406065,24269.010039,0.124000,1.000000,0.000000,192.000000,0.000000,0.000000,0.000000,0.000000,0.000000,0.000000,0.000000,0.000000,0.000000,1648438723.251874,0.000000
246.000000,-51436.773114,-41321.155884,-1029.007259,17755.085856,-25116.230561,55875.986025,16739.109664,24258.951754,0.124000,1.000000,0.000000,192.000000,0.000000,0.000000,0.000000,0.000000,0.000000,0.000000,0.000000,0.000000,0.000000,1648438723.260153,0.000000
247.000000,-51434.292070,-41316.462018,-1028.426114,17757.879824,-25114.665939,55877.975330,16739.914327,24239.326923,0.124000,1.000000,0.000000,192.000000,0.000000,0.000000,0.000000,0.000000,0.000000,0.000000,0.000000,0.000000,0.000000,1648438723.260169,0.000000
248.000000,-51433.465056,-41306.291974,-1023.620489,17763.512464,-25108.966244,55889.084147,16740.271955,24224.552420,0.124000,1.000000,0.000000,192.000000,0.000000,0.000000,0.000000,0.000000,0.000000,0.000000,0.000000,0.000000,0.000000,1648438723.268170,0.000000
249.000000,-51430.827550,-41300.726390,-1023.016992,17760.897310,-25109.055651,55897.667217,16754.510016,24215.321149,0.124000,1.000000,0.000000,192.000000,0.000000,0.000000,0.000000,0.000000,0.000000,0.000000,0.000000,0.000000,0.000000,1648438723.268187,0.000000
250.000000,-51435.499064,-41301.799274,-1026.526216,17754.080028,-25113.391890,55894.761490,16756.722838,24194.824600,0.130000,0.984000,0.010000,192.000000,4.000000,16.000000,30.000000,192.000000,0.000000,80.000000,0.000000,0.000000,0.000000,1648438723.275162,0.000000
251.000000,-51437.622480,-41302.156902,-1029.655460,17750.883728,-25115.738823,55894.850897,16763.204844,24184.095762,0.130000,0.984000,0.010000,192.000000,0.000000,0.000000,0.000000,0.000000,0.000000,0.000000,0.000000,0.000000,0.000000,1648438723.281737,0.000000
252.000000,-51435.230843,-41299.944079,-1030.437771,17753.767103,-25114.889457,55903.411615,16767.116400,24180.787704,0.130000,0.984000,0.010000,192.000000,0.000000,0.000000,0.000000,0.000000,0.000000,0.000000,0.000000,0.000000,0.000000,1648438723.281753,0.000000
253.000000,-51442.338698,-41300.234652,-1032.449428,17750.034362,-25118.733957,55900.997627,16762.131961,24176.898501,0.130000,0.984000,0.010000,192.000000,0.000000,0.000000,0.000000,0.000000,0.000000,0.000000,0.000000,0.000000,0.000000,1648438723.289838,0.000000
254.000000,-51440.505855,-41293.305611,-1029.789571,17751.107246,-25117.169335,55903.568078,16768.345746,24173.009297,0.130000,0.984000,0.010000,192.000000,0.000000,0.000000,0.000000,0.000000,0.000000,0.000000,0.000000,0.000000,0.000000,1648438723.289855,0.000000
255.000000,-51440.774076,-41292.366838,-1032.717649,17748.089760,-25119.426861,55905.847955,16779.521618,24175.758562,0.130000,0.984000,0.010000,192.000000,0.000000,0.000000,0.000000,0.000000,0.000000,0.000000,0.000000,0.000000,0.000000,1648438723.297800,0.000000
0.000000,-51441.846960,-41290.489291,-1031.108323,17748.983830,-25116.297617,55904.596258,16769.575092,24168.896576,0.130000,0.984000,0.010000,192.000000,0.000000,0.000000,0.000000,0.000000,0.000000,0.000000,0.000000,0.000000,0.000000,1648438723.297816,0.000000
1.000000,-51434.783809,-41281.414483,-1022.480550,17756.426961,-25103.892398,55911.525299,16760.880263,24154.211480,0.130000,0.984000,0.010000,192.000000,0.000000,0.000000,0.000000,0.000000,0.000000,0.000000,0.000000,0.000000,0.000000,1648438723.304968,0.000000
2.000000,-51435.119085,-41276.117119,-1023.821655,17755.555243,-25103.557122,55909.759511,16763.495417,24143.192070,0.130000,0.984000,0.010000,192.000000,0.000000,0.000000,0.000000,0.000000,0.000000,0.000000,0.000000,0.000000,0.000000,1648438723.304985,0.000000
3.000000,-51428.592375,-41273.546669,-1028.627280,17747.821539,-25110.575570,55908.217240,16764.948280,24128.886953,0.130000,0.984000,0.010000,192.000000,0.000000,0.000000,0.000000,0.000000,0.000000,0.000000,0.000000,0.000000,0.000000,1648438723.312459,0.000000
4.000000,-51439.701192,-41271.669122,-1026.548568,17749.721438,-25111.201419,55915.615668,16764.031859,24123.813107,0.128000,0.974000,0.024000,192.000000,4.000000,0.000000,30.000000,112.000000,0.000000,192.000000,0.000000,0.000000,0.000000,1648438723.312475,0.000000
5.000000,-51450.608844,-41281.593297,-1032.114152,17746.949821,-25116.856410,55920.689514,16764.389487,24124.193087,0.128000,0.974000,0.024000,192.000000,0.000000,0.000000,0.000000,0.000000,0.000000,0.000000,0.000000,0.000000,0.000000,1648438723.320366,0.000000
6.000000,-51447.636062,-41276.295933,-1032.605890,17749.453217,-25115.336492,55931.239537,16760.299118,24116.995825,0.128000,0.974000,0.024000,192.000000,0.000000,0.000000,0.000000,0.000000,0.000000,0.000000,0.000000,0.000000,0.000000,1648438723.320382,0.000000
7.000000,-51444.685631,-41268.271657,-1033.611719,17750.816673,-25114.420070,55934.435837,16755.292327,24108.703328,0.128000,0.974000,0.024000,192.000000,0.000000,0.000000,0.000000,0.000000,0.000000,0.000000,0.000000,0.000000,0.000000,1648438723.328401,0.000000
8.000000,-51444.372707,-41259.867401,-1035.690431,17747.240394,-25114.956512,55941.521340,16758.533330,24106.870485,0.128000,0.974000,0.024000,192.000000,0.000000,0.000000,0.000000,0.000000,0.000000,0.000000,0.000000,0.000000,0.000000,1648438723.328418,0.000000
9.000000,-51447.881931,-41262.750776,-1035.243396,17743.217080,-25115.560009,55947.623366,16766.848179,24103.383613,0.128000,0.974000,0.024000,192.000000,0.000000,0.000000,0.000000,0.000000,0.000000,0.000000,0.000000,0.000000,0.000000,1648438723.334705,0.000000
10.000000,-51451.771134,-41267.288180,-1039.020841,17742.993563,-25119.940951,55934.145264,16758.399219,24091.492485,0.128000,0.974000,0.024000,192.000000,0.000000,0.000000,0.000000,0.000000,0.000000,0.000000,0.000000,0.000000,0.000000,1648438723.341904,0.000000
11.000000,-51449.692422,-41264.091881,-1035.623376,17751.174301,-25116.655244,55937.945060,16753.638298,24083.401153,0.128000,0.974000,0.024000,192.000000,0.000000,0.000000,0.000000,0.000000,0.000000,0.000000,0.000000,0.000000,0.000000,1648438723.341919,0.000000
12.000000,-51447.881931,-41261.521430,-1031.443600,17752.090723,-25114.017739,55939.353220,16753.660649,24070.213624,0.128000,0.974000,0.024000,192.000000,0.000000,0.000000,0.000000,0.000000,0.000000,0.000000,0.000000,0.000000,0.000000,1648438723.349791,0.000000
13.000000,-51445.624405,-41258.347482,-1032.695297,17751.263708,-25113.727166,55933.407656,16755.515844,24057.987220,0.128000,0.974000,0.024000,192.000000,0.000000,0.000000,0.000000,0.000000,0.000000,0.000000,0.000000,0.000000,0.000000,1648438723.349801,0.000000
14.000000,-51450.832361,-41257.654578,-1037.836199,17748.290926,-25117.526962,55925.852767,16750.017315,24045.269077,0.126000,0.964000,0.036000,192.000000,3.000000,240.000000,30.000000,32.000000,1.000000,32.000000,0.000000,0.000000,0.000000,1648438723.357105,0.000000
15.000000,-51460.130687,-41263.488384,-1044.921702,17740.423112,-25124.903038,55920.175424,16748.564452,24040.597563,0.126000,0.964000,0.036000,192.000000,0.000000,0.000000,0.000000,0.000000,0.000000,0.000000,0.000000,0.000000,0.000000,1648438723.357121,0.000000
16.000000,-51465.718623,-41264.270695,-1049.123829,17733.449368,-25131.765024,55916.666200,16748.810321,24035.523717,0.126000,0.964000,0.036000,192.000000,0.000000,0.000000,0.000000,0.000000,0.000000,0.000000,0.000000,0.000000,0.000000,1648438723.364768,0.000000
17.000000,-51462.656434,-41260.336788,-1046.218103,17734.209327,-25129.261628,55923.639944,16743.088274,24020.682159,0.126000,0.964000,0.036000,192.000000,0.000000,0.000000,0.000000,0.000000,0.000000,0.000000,0.000000,0.000000,0.000000,1648438723.364784,0.000000
18.000000,-51461.292977,-41257.431061,-1042.977100,17737.651496,-25127.764061,55934.547595,16741.590707,24004.924179,0.126000,0.964000,0.036000,192.000000,0.000000,0.000000,0.000000,0.000000,0.000000,0.000000,0.000000,0.000000,0.000000,1648438723.372715,0.000000
19.000000,-51461.114164,-41255.575866,-1045.771068,17736.265687,-25131.966189,55935.732238,16739.579050,23996.855199,0.126000,0.964000,0.036000,192.000000,0.000000,0.000000,0.000000,0.000000,0.000000,0.000000,0.000000,0.000000,0.000000,1648438723.372732,0.000000
20.000000,-51460.600073,-41255.620570,-1051.627225,17727.593211,-25136.324780,55933.474712,16731.197146,23982.259510,0.126000,0.964000,0.036000,192.000000,0.000000,0.000000,0.000000,0.000000,0.000000,0.000000,0.000000,0.000000,0.000000,1648438723.380618,0.000000
21.000000,-51464.466925,-41259.509773,-1053.951806,17722.385254,-25138.604657,55938.123874,16730.616001,23972.625908,0.126000,0.964000,0.036000,192.000000,0.000000,0.000000,0.000000,0.000000,0.000000,0.000000,0.000000,0.000000,0.000000,1648438723.380634,0.000000
22.000000,-51460.376556,-41257.051081,-1050.353175,17727.324990,-25136.123614,55940.180235,16733.655838,23965.741571,0.126000,0.964000,0.036000,192.000000,0.000000,0.000000,0.000000,0.000000,0.000000,0.000000,0.000000,0.000000,0.000000,1648438723.387820,0.000000
23.000000,-51468.825515,-41254.882962,-1044.362908,17728.420225,-25136.011855,55932.692401,16726.883260,23955.280954,0.126000,0.964000,0.036000,192.000000,0.000000,0.000000,0.000000,0.000000,0.000000,0.000000,0.000000,0.000000,0.000000,1648438723.387836,0.000000
24.000000,-51470.054861,-41252.871305,-1043.200617,17728.040246,-25137.084739,55929.160825,16725.519803,23947.167271,0.118000,0.962000,0.044000,192.000000,3.000000,176.000000,30.000000,16.000000,1.000000,96.000000,0.000000,0.000000,0.000000,1648438723.395049,0.000000
25.000000,-51470.121917,-41256.648750,-1047.112172,17725.782719,-25139.789300,55928.803197,16727.911440,23942.004018,0.118000,0.962000,0.044000,192.000000,0.000000,0.000000,0.000000,0.000000,0.000000,0.000000,0.000000,0.000000,0.000000,1648438723.395065,0.000000
26.000000,-51465.472754,-41253.117174,-1044.094687,17725.916830,-25136.548297,55934.100560,16720.401254,23925.664893,0.118000,0.962000,0.044000,192.000000,0.000000,0.000000,0.000000,0.000000,0.000000,0.000000,0.000000,0.000000,0.000000,1648438723.401976,0.000000
27.000000,-51457.895512,-41242.254226,-1035.891597,17733.181147,-25127.853468,55940.135531,16716.042664,23907.045890,0.118000,0.962000,0.044000,192.000000,0.000000,0.000000,0.000000,0.000000,0.000000,0.000000,0.000000,0.000000,0.000000,1648438723.409417,0.000000
28.000000,-51464.981015,-41242.880075,-1032.002393,17740.356057,-25124.299541,55935.754590,16721.518841,23896.786439,0.118000,0.962000,0.044000,192.000000,0.000000,0.000000,0.000000,0.000000,0.000000,0.000000,0.000000,0.000000,0.000000,1648438723.409432,0.000000
29.000000,-51463.774021,-41243.461221,-1032.002393,17744.111150,-25122.489050,55936.447494,16721.854117,23887.622224,0.118000,0.962000,0.044000,192.000000,0.000000,0.000000,0.000000,0.000000,0.000000,0.000000,0.000000,0.000000,0.000000,1648438723.417377,0.000000
30.000000,-51461.248274,-41244.467049,-1037.433867,17740.579574,-25126.266495,55938.839130,16725.296286,23887.488113,0.118000,0.962000,0.044000,192.000000,0.000000,0.000000,0.000000,0.000000,0.000000,0.000000,0.000000,0.000000,0.000000,1648438723.417385,0.000000
31.000000,-51463.371690,-41245.294064,-1041.010146,17736.176281,-25128.747538,55938.459151,16719.350722,23876.558110,0.118000,0.962000,0.044000,192.000000,0.000000,0.000000,0.000000,0.000000,0.000000,0.000000,0.000000,0.000000,0.000000,1648438723.424544,0.000000
32.000000,-51469.965454,-41246.366947,-1044.184094,17735.237507,-25132.122652,55934.681706,16721.094158,23871.193692,0.118000,0.962000,0.044000,192.000000,0.000000,0.000000,0.000000,0.000000,0.000000,0.000000,0.000000,0.000000,0.000000,1648438723.424561,0.000000
33.000000,-51466.255065,-41245.092898,-1045.055812,17738.009124,-25131.899134,55935.888700,16725.676265,23869.562014,0.118000,0.962000,0.044000,192.000000,0.000000,0.000000,0.000000,0.000000,0.000000,0.000000,0.000000,0.000000,0.000000,1648438723.432143,0.000000
34.000000,-51469.250199,-41245.942264,-1048.319167,17737.539737,-25133.821384,55930.948964,16733.611135,23869.293793,0.116000,0.970000,0.046000,192.000000,3.000000,160.000000,30.000000,80.000000,1.000000,112.000000,0.000000,0.000000,0.000000,1648438723.432159,0.000000
35.000000,-51468.400832,-41242.164819,-1046.553379,17736.355094,-25135.520117,55925.293973,16730.124263,23866.589232,0.116000,0.970000,0.046000,192.000000,0.000000,0.000000,0.000000,0.000000,0.000000,0.000000,0.000000,0.000000,0.000000,1648438723.440132,0.000000
36.000000,-51464.422222,-41239.996700,-1047.134524,17734.544603,-25138.179974,55916.308572,16722.658780,23861.023648,0.116000,0.970000,0.046000,192.000000,0.000000,0.000000,0.000000,0.000000,0.000000,0.000000,0.000000,0.000000,0.000000,1648438723.440148,0.000000
37.000000,-51461.561198,-41237.023918,-1043.692356,17734.969286,-25135.095434,55911.413540,16718.881335,23853.625220,0.116000,0.970000,0.046000,192.000000,0.000000,0.000000,0.000000,0.000000,0.000000,0.000000,0.000000,0.000000,0.000000,1648438723.448248,0.000000
38.000000,-51461.516495,-41235.034613,-1037.009184,17741.607754,-25128.769890,55911.502947,16709.515954,23844.706874,0.116000,0.970000,0.046000,192.000000,0.000000,0.000000,0.000000,0.000000,0.000000,0.000000,0.000000,0.000000,0.000000,1648438723.448266,0.000000
39.000000,-51457.113201,-41230.430154,-1033.477608,17747.128635,-25124.411300,55917.046179,16710.588838,23840.214174,0.116000,0.970000,0.046000,192.000000,0.000000,0.000000,0.000000,0.000000,0.000000,0.000000,0.000000,0.000000,0.000000,1648438723.454792,0.000000
40.000000,-51456.979091,-41228.932587,-1035.131637,17744.558185,-25126.199439,55915.056874,16716.668512,23828.926543,0.116000,0.970000,0.046000,192.000000,0.000000,0.000000,0.000000,0.000000,0.000000,0.000000,0.000000,0.000000,0.000000,1648438723.454808,0.000000
41.000000,-51458.141382,-41227.837351,-1036.182169,17742.010086,-25127.831117,55915.906240,16716.936733,23812.006272,0.116000,0.970000,0.046000,192.000000,0.000000,0.000000,0.000000,0.000000,0.000000,0.000000,0.000000,0.000000,0.000000,1648438723.462010,0.000000
42.000000,-51461.784716,-41228.530255,-1036.606853,17742.278307,-25127.384082,55921.538880,16729.498414,23809.502877,0.116000,0.970000,0.046000,192.000000,0.000000,0.000000,0.000000,0.000000,0.000000,0.000000,0.000000,0.000000,0.000000,1648438723.469746,0.000000
43.000000,-51456.330890,-41221.556511,-1034.416382,17748.268574,-25123.226657,55920.890679,16736.360399,23811.156906,0.116000,0.970000,0.046000,192.000000,0.000000,0.000000,0.000000,0.000000,0.000000,0.000000,0.000000,0.000000,0.000000,1648438723.469777,0.000000
44.000000,-51460.287149,-41220.237758,-1037.478571,17748.514443,-25123.360768,55922.879985,16739.713161,23822.243371,0.114000,0.968000,0.046000,192.000000,3.000000,144.000000,30.000000,64.000000,1.000000,112.000000,0.000000,0.000000,0.000000,1648438723.477747,0.000000
45.000000,-51462.343509,-41223.411706,-1042.798286,17744.513481,-25126.758233,55917.269697,16729.520765,23830.938200,0.114000,0.968000,0.046000,192.000000,0.000000,0.000000,0.000000,0.000000,0.000000,0.000000,0.000000,0.000000,0.000000,1648438723.477761,0.000000
46.000000,-51457.828457,-41217.756715,-1039.825504,17749.050885,-25124.523058,55919.102540,16727.397350,23833.128671,0.114000,0.968000,0.046000,192.000000,0.000000,0.000000,0.000000,0.000000,0.000000,0.000000,0.000000,0.000000,0.000000,1648438723.484400,0.000000
47.000000,-51449.982995,-41212.816979,-1036.629204,17749.475568,-25123.427823,55919.393113,16733.499376,23820.410528,0.114000,0.968000,0.046000,192.000000,0.000000,0.000000,0.000000,0.000000,0.000000,0.000000,0.000000,0.000000,0.000000,1648438723.484416,0.000000
48.000000,-51450.877065,-41217.443790,-1044.251149,17740.467815,-25133.508460,55918.119063,16750.933737,23818.153002,0.114000,0.968000,0.046000,192.000000,0.000000,0.000000,0.000000,0.000000,0.000000,0.000000,0.000000,0.000000,0.000000,1648438723.492563,0.000000
49.000000,-51463.595207,-41224.819866,-1051.671928,17730.588344,-25142.739730,55910.117139,16757.728667,23830.513517,0.114000,0.968000,0.046000,192.000000,0.000000,0.000000,0.000000,0.000000,0.000000,0.000000,0.000000,0.000000,0.000000,1648438723.492579,0.000000
50.000000,-51463.394041,-41218.829598,-1048.743850,17730.878917,-25140.884535,55906.138528,16752.319545,23831.407587,0.114000,0.968000,0.046000,192.000000,0.000000,0.000000,0.000000,0.000000,0.000000,0.000000,0.000000,0.000000,0.000000,1648438723.500595,0.000000
51.000000,-51461.360033,-41216.952052,-1043.938225,17733.091740,-25139.096396,55910.295953,16750.799626,23831.340531,0.114000,0.968000,0.046000,192.000000,0.000000,0.000000,0.000000,0.000000,0.000000,0.000000,0.000000,0.000000,0.000000,1648438723.500612,0.000000
52.000000,-51457.426126,-41215.163912,-1040.607815,17737.517385,-25136.280076,55913.224031,16757.058115,23832.078139,0.114000,0.968000,0.046000,192.000000,0.000000,0.000000,0.000000,0.000000,0.000000,0.000000,0.000000,0.000000,0.000000,1648438723.507790,0.000000
53.000000,-51451.994652,-41211.855854,-1041.971271,17736.131577,-25134.827213,55910.452415,16759.896786,23831.273476,0.114000,0.968000,0.046000,192.000000,0.000000,0.000000,0.000000,0.000000,0.000000,0.000000,0.000000,0.000000,0.000000,1648438723.507806,0.000000
54.000000,-51453.134591,-41210.201825,-1040.429001,17733.494071,-25133.061425,55911.570002,16764.054211,23831.340531,0.116000,0.972000,0.040000,192.000000,3.000000,160.000000,30.000000,96.000000,1.000000,64.000000,0.000000,0.000000,0.000000,1648438723.514998,0.000000
55.000000,-51444.037431,-41204.189206,-1033.522312,17737.472682,-25127.652303,55916.934421,16760.321469,23817.884781,0.116000,0.972000,0.040000,192.000000,0.000000,0.000000,0.000000,0.000000,0.000000,0.000000,0.000000,0.000000,0.000000,1648438723.515013,0.000000
56.000000,-51447.010213,-41209.374810,-1036.137466,17738.098531,-25129.932181,55920.778921,16762.914272,23821.237543,0.116000,0.972000,0.040000,192.000000,0.000000,0.000000,0.000000,0.000000,0.000000,0.000000,0.000000,0.000000,0.000000,1648438723.522028,0.000000
57.000000,-51454.676861,-41210.470046,-1035.221044,17743.708818,-25129.082814,55920.175424,16766.892882,23823.785642,0.116000,0.972000,0.040000,192.000000,0.000000,0.000000,0.000000,0.000000,0.000000,0.000000,0.000000,0.000000,0.000000,1648438723.530018,0.000000
58.000000,-51452.821666,-41207.877244,-1036.606853,17744.938164,-25129.216925,55919.571927,16780.527446,23833.553354,0.116000,0.972000,0.040000,192.000000,0.000000,0.000000,0.000000,0.000000,0.000000,0.000000,0.000000,0.000000,0.000000,1648438723.530033,0.000000
59.000000,-51451.748783,-41206.759656,-1036.808018,17745.027571,-25129.552201,55914.632191,16781.890903,23838.426034,0.116000,0.972000,0.040000,192.000000,0.000000,0.000000,0.000000,0.000000,0.000000,0.000000,0.000000,0.000000,0.000000,1648438723.536843,0.000000
60.000000,-51454.632158,-41209.263052,-1041.256015,17741.048961,-25134.380178,55908.217240,16777.621720,23844.684523,0.116000,0.972000,0.040000,192.000000,0.000000,0.000000,0.000000,0.000000,0.000000,0.000000,0.000000,0.000000,0.000000,1648438723.536859,0.000000
61.000000,-51449.066573,-41203.920985,-1040.920739,17743.753522,-25132.614390,55911.681761,16782.114420,23852.373523,0.116000,0.972000,0.040000,192.000000,0.000000,0.000000,0.000000,0.000000,0.000000,0.000000,0.000000,0.000000,0.000000,1648438723.544770,0.000000
62.000000,-51447.881931,-41201.395238,-1038.260882,17744.714647,-25130.423919,55910.206546,16790.093993,23860.688372,0.116000,0.972000,0.040000,192.000000,0.000000,0.000000,0.000000,0.000000,0.000000,0.000000,0.000000,0.000000,0.000000,1648438723.544781,0.000000
63.000000,-51446.496123,-41194.019162,-1030.728344,17751.107246,-25123.070195,55909.625400,16792.977368,23866.455122,0.116000,0.972000,0.040000,192.000000,0.000000,0.000000,0.000000,0.000000,0.000000,0.000000,0.000000,0.000000,0.000000,1648438723.552704,0.000000
64.000000,-51443.478637,-41191.605174,-1028.873149,17751.219005,-25121.729090,55908.150185,16791.256284,23872.668907,0.122000,0.978000,0.032000,192.000000,3.000000,208.000000,30.000000,144.000000,1.000000,0.000000,0.000000,0.000000,0.000000,1648438723.552720,0.000000
65.000000,-51441.422277,-41189.839386,-1027.330879,17753.431827,-25119.695082,55910.005380,16789.177571,23877.429828,0.122000,0.978000,0.032000,192.000000,0.000000,0.000000,0.000000,0.000000,0.000000,0.000000,0.000000,0.000000,0.000000,1648438723.559746,0.000000
66.000000,-51439.343564,-41188.028894,-1027.107361,17755.599946,-25118.152811,55915.436854,16794.631397,23886.214064,0.122000,0.978000,0.032000,192.000000,0.000000,0.000000,0.000000,0.000000,0.000000,0.000000,0.000000,0.000000,0.000000,1648438723.559757,0.000000
67.000000,-51440.550559,-41191.560470,-1033.589367,17753.230662,-25120.946779,55913.156976,16797.090089,23891.466724,0.122000,0.978000,0.032000,192.000000,0.000000,0.000000,0.000000,0.000000,0.000000,0.000000,0.000000,0.000000,0.000000,1648438723.567144,0.000000
68.000000,-51433.040372,-41188.185357,-1030.594233,17754.974098,-25118.823364,55914.431025,16800.308740,23898.708689,0.122000,0.978000,0.032000,192.000000,0.000000,0.000000,0.000000,0.000000,0.000000,0.000000,0.000000,0.000000,0.000000,1648438723.567151,0.000000
69.000000,-51431.453399,-41182.396255,-1022.681716,17758.751542,-25115.738823,55915.682723,16803.326226,23899.647462,0.122000,0.978000,0.032000,192.000000,0.000000,0.000000,0.000000,0.000000,0.000000,0.000000,0.000000,0.000000,0.000000,1648438723.575491,0.000000
70.000000,-51438.091867,-41185.056112,-1026.995602,17757.097513,-25121.796146,55912.039389,16804.220295,23902.910817,0.122000,0.978000,0.032000,192.000000,0.000000,0.000000,0.000000,0.000000,0.000000,0.000000,0.000000,0.000000,0.000000,1648438723.575507,0.000000
71.000000,-51437.197797,-41180.831633,-1029.431943,17758.818598,-25122.846678,55908.954848,16807.684816,23911.315073,0.122000,0.978000,0.032000,192.000000,0.000000,0.000000,0.000000,0.000000,0.000000,0.000000,0.000000,0.000000,0.000000,1648438723.582499,0.000000
72.000000,-51435.811989,-41181.613944,-1033.656422,17755.868167,-25124.970093,55901.690531,16808.467127,23922.960332,0.122000,0.978000,0.032000,192.000000,0.000000,0.000000,0.000000,0.000000,0.000000,0.000000,0.000000,0.000000,0.000000,1648438723.589763,0.000000
73.000000,-51434.917919,-41181.144557,-1036.986832,17753.543586,-25127.227620,55897.220182,16812.356330,23935.387902,0.122000,0.978000,0.032000,192.000000,0.000000,0.000000,0.000000,0.000000,0.000000,0.000000,0.000000,0.000000,0.000000,1648438723.589781,0.000000
74.000000,-51434.828512,-41178.507051,-1037.143294,17756.494016,-25126.869992,55891.788708,16812.333979,23948.396617,0.122000,0.978000,0.032000,192.000000,0.000000,0.000000,0.000000,0.000000,0.000000,0.000000,0.000000,0.000000,0.000000,1648438723.596829,0.000000
75.000000,-51443.344527,-41184.474967,-1038.953786,17753.208310,-25131.563858,55883.540914,16809.495307,23957.069094,0.120000,0.984000,0.026000,192.000000,3.000000,192.000000,30.000000,192.000000,0.000000,208.000000,0.000000,0.000000,0.000000,1648438723.596840,0.000000
76.000000,-51446.317309,-41184.922002,-1038.842027,17749.788493,-25133.441405,55875.203714,16805.360234,23964.534576,0.120000,0.984000,0.026000,192.000000,0.000000,0.000000,0.000000,0.000000,0.000000,0.000000,0.000000,0.000000,0.000000,1648438723.604768,0.000000
77.000000,-51440.997594,-41179.445825,-1034.192864,17753.387124,-25128.926352,55875.851914,16801.314569,23963.059361,0.120000,0.984000,0.026000,192.000000,0.000000,0.000000,0.000000,0.000000,0.000000,0.000000,0.000000,0.000000,0.000000,1648438723.604777,0.000000
78.000000,-51431.162826,-41171.242734,-1026.883844,17759.109170,-25121.125593,55881.350444,16797.470069,23958.521957,0.120000,0.984000,0.026000,192.000000,0.000000,0.000000,0.000000,0.000000,0.000000,0.000000,0.000000,0.000000,0.000000,1648438723.612966,0.000000
79.000000,-51425.865463,-41165.364226,-1024.246338,17761.277290,-25118.353977,55887.765394,16800.688720,23963.215824,0.120000,0.984000,0.026000,192.000000,0.000000,0.000000,0.000000,0.000000,0.000000,0.000000,0.000000,0.000000,0.000000,1648438723.612982,0.000000
80.000000,-51428.145340,-41162.726720,-1019.463065,17761.120827,-25116.364672,55888.994740,16802.320397,23970.211920,0.120000,0.984000,0.026000,192.000000,0.000000,0.000000,0.000000,0.000000,0.000000,0.000000,0.000000,0.000000,0.000000,1648438723.619671,0.000000
81.000000,-51426.200739,-41160.156269,-1015.417399,17766.574653,-25113.101317,55890.805231,16801.292217,23969.407257,0.120000,0.984000,0.026000,192.000000,0.000000,0.000000,0.000000,0.000000,0.000000,0.000000,0.000000,0.000000,0.000000,1648438723.619684,0.000000
82.000000,-51423.630288,-41161.944409,-1018.613698,17771.357926,-25113.056614,55891.520487,16799.906409,23964.825149,0.120000,0.984000,0.026000,192.000000,0.000000,0.000000,0.000000,0.000000,0.000000,0.000000,0.000000,0.000000,0.000000,1648438723.627614,0.000000
83.000000,-51428.659431,-41161.005635,-1021.899405,17768.161627,-25115.805878,55891.565191,16803.460336,23970.435437,0.120000,0.984000,0.026000,192.000000,0.000000,0.000000,0.000000,0.000000,0.000000,0.000000,0.000000,0.000000,0.000000,1648438723.627629,0.000000
84.000000,-51428.860596,-41162.078519,-1024.067524,17766.686412,-25116.297617,55891.788708,16804.242647,23972.849425,0.120000,0.984000,0.026000,192.000000,0.000000,0.000000,0.000000,0.000000,0.000000,0.000000,0.000000,0.000000,0.000000,1648438723.635701,0.000000
85.000000,-51435.253195,-41170.594534,-1033.477608,17762.864263,-25123.539582,55887.586580,16805.114365,23976.448056,0.124000,0.992000,0.018000,192.000000,3.000000,224.000000,31.000000,0.000000,0.000000,144.000000,0.000000,0.000000,0.000000,1648438723.635717,0.000000
86.000000,-51439.880006,-41172.539136,-1039.132600,17762.439580,-25127.182916,55883.764432,16806.276656,23987.512170,0.124000,0.992000,0.018000,192.000000,0.000000,0.000000,0.000000,0.000000,0.000000,0.000000,0.000000,0.000000,0.000000,1648438723.643066,0.000000
87.000000,-51440.729373,-41177.456519,-1044.698184,17758.572728,-25131.630913,55880.299912,16808.914162,24003.963054,0.124000,0.992000,0.018000,192.000000,0.000000,0.000000,0.000000,0.000000,0.000000,0.000000,0.000000,0.000000,0.000000,1648438723.643084,0.000000
88.000000,-51441.355221,-41174.975476,-1043.267672,17762.059601,-25130.468623,55875.896618,16804.443813,24008.545161,0.124000,0.992000,0.018000,192.000000,0.000000,0.000000,0.000000,0.000000,0.000000,0.000000,0.000000,0.000000,0.000000,1648438723.649122,0.000000
89.000000,-51439.969413,-41173.254391,-1043.290024,17759.220929,-25131.563858,55875.136659,16805.114365,24016.792955,0.124000,0.992000,0.018000,192.000000,0.000000,0.000000,0.000000,0.000000,0.000000,0.000000,0.000000,0.000000,0.000000,1648438723.657062,0.000000
90.000000,-51436.862521,-41169.544002,-1039.490228,17756.516368,-25131.183878,55876.544818,16795.994853,24013.998987,0.124000,0.992000,0.018000,192.000000,0.000000,0.000000,0.000000,0.000000,0.000000,0.000000,0.000000,0.000000,0.000000,1648438723.657069,0.000000
91.000000,-51442.383402,-41170.885106,-1037.500922,17753.856510,-25132.592038,55877.438888,16790.026938,24011.607350,0.124000,0.992000,0.018000,192.000000,0.000000,0.000000,0.000000,0.000000,0.000000,0.000000,0.000000,0.000000,0.000000,1648438723.665314,0.000000
92.000000,-51439.611785,-41167.577048,-1032.672946,17754.728228,-25129.619256,55875.293121,16783.053193,24003.337205,0.124000,0.992000,0.018000,192.000000,0.000000,0.000000,0.000000,0.000000,0.000000,0.000000,0.000000,0.000000,0.000000,1648438723.665330,0.000000
93.000000,-51432.995669,-41161.385615,-1027.599100,17758.371563,-25124.545410,55876.924798,16781.332109,23990.328490,0.124000,0.992000,0.018000,192.000000,0.000000,0.000000,0.000000,0.000000,0.000000,0.000000,0.000000,0.000000,0.000000,1648438723.672071,0.000000
94.000000,-51436.080210,-41164.067824,-1032.538835,17752.470702,-25128.233448,55876.410708,16787.143563,23992.228388,0.124000,0.992000,0.018000,192.000000,0.000000,0.000000,0.000000,0.000000,0.000000,0.000000,0.000000,0.000000,0.000000,1648438723.672088,0.000000
95.000000,-51433.308593,-41163.129051,-1032.225911,17749.855548,-25127.205268,55871.247455,16776.504132,23987.311004,0.118000,0.998000,0.020000,192.000000,3.000000,176.000000,31.000000,48.000000,0.000000,160.000000,0.000000,0.000000,0.000000,1648438723.679735,0.000000
96.000000,-51428.257099,-41156.982321,-1032.292966,17753.297717,-25125.864163,55869.392260,16766.736420,23988.249777,0.118000,0.998000,0.020000,192.000000,0.000000,0.000000,0.000000,0.000000,0.000000,0.000000,0.000000,0.000000,0.000000,1648438723.679747,0.000000
97.000000,-51434.359125,-41157.049377,-1034.595196,17754.862339,-25127.205268,55865.570112,16765.998812,24004.119516,0.118000,0.998000,0.020000,192.000000,0.000000,0.000000,0.000000,0.000000,0.000000,0.000000,0.000000,0.000000,0.000000,1648438723.688040,0.000000
98.000000,-51432.861559,-41155.372996,-1033.745829,17759.779723,-25125.908867,55863.849028,16750.598461,24003.739536,0.118000,0.998000,0.020000,192.000000,0.000000,0.000000,0.000000,0.000000,0.000000,0.000000,0.000000,0.000000,0.000000,1648438723.688056,0.000000
99.000000,-51424.747875,-41146.007615,-1029.320184,17769.502732,-25120.432689,55861.189170,16745.256394,24000.163257,0.118000,0.998000,0.020000,192.000000,0.000000,0.000000,0.000000,0.000000,0.000000,0.000000,0.000000,0.000000,0.000000,1648438723.695244,0.000000
100.000000,-51416.567137,-41135.569350,-1019.172492,17775.247130,-25110.240294,55870.599254,16747.357458,23985.969899,0.118000,0.998000,0.020000,192.000000,0.000000,0.000000,0.000000,0.000000,0.000000,0.000000,0.000000,0.000000,0.000000,1648438723.695260,0.000000
101.000000,-51418.534090,-41139.190333,-1016.378524,17776.588234,-25106.574608,55883.362101,16753.370077,23978.347955,0.118000,0.998000,0.020000,192.000000,0.000000,0.000000,0.000000,0.000000,0.000000,0.000000,0.000000,0.000000,0.000000,1648438723.702666,0.000000
102.000000,-51424.546710,-41145.627635,-1016.736152,17776.074144,-25106.641663,55890.604066,16761.036725,23979.599652,0.118000,0.998000,0.020000,192.000000,0.000000,0.000000,0.000000,0.000000,0.000000,0.000000,0.000000,0.000000,0.000000,1648438723.702682,0.000000
103.000000,-51422.713867,-41143.504219,-1014.076294,17777.839932,-25103.825343,55897.533107,16765.060039,23984.874664,0.118000,0.998000,0.020000,192.000000,0.000000,0.000000,0.000000,0.000000,0.000000,0.000000,0.000000,0.000000,0.000000,1648438723.709436,0.000000
104.000000,-51420.411637,-41144.577103,-1014.411570,17776.588234,-25102.864218,55902.919877,16766.803475,23982.952414,0.118000,0.998000,0.020000,192.000000,0.000000,0.000000,0.000000,0.000000,0.000000,0.000000,0.000000,0.000000,0.000000,1648438723.717348,0.000000
105.000000,-51419.428160,-41144.577103,-1017.987849,17772.989604,-25105.725241,55900.304723,16761.148484,23978.079734,0.122000,0.994000,0.020000,192.000000,3.000000,208.000000,31.000000,16.000000,0.000000,160.000000,0.000000,0.000000,0.000000,1648438723.717355,0.000000
106.000000,-51425.239614,-41143.504219,-1023.352268,17768.340441,-25111.871971,55898.874211,16749.950260,23971.307155,0.122000,0.994000,0.020000,192.000000,0.000000,0.000000,0.000000,0.000000,0.000000,0.000000,0.000000,0.000000,0.000000,1648438723.724696,0.000000
107.000000,-51427.072457,-41143.928903,-1027.040306,17765.188845,-25116.275265,55898.270714,16741.858928,23965.719219,0.122000,0.994000,0.020000,192.000000,0.000000,0.000000,0.000000,0.000000,0.000000,0.000000,0.000000,0.000000,0.000000,1648438723.724720,0.000000
108.000000,-51428.927652,-41144.666510,-1030.884806,17763.400705,-25118.152811,55904.149223,16740.763693,23965.182777,0.122000,0.994000,0.020000,192.000000,0.000000,0.000000,0.000000,0.000000,0.000000,0.000000,0.000000,0.000000,0.000000,1648438723.732261,0.000000
109.000000,-51432.079247,-41144.353586,-1033.701126,17760.450275,-25121.885553,55898.874211,16744.541138,23953.045780,0.122000,0.994000,0.020000,192.000000,0.000000,0.000000,0.000000,0.000000,0.000000,0.000000,0.000000,0.000000,0.000000,1648438723.732278,0.000000
110.000000,-51442.137532,-41152.847249,-1043.424135,17752.649516,-25132.346169,55892.794537,16744.272917,23943.523937,0.122000,0.994000,0.020000,192.000000,0.000000,0.000000,0.000000,0.000000,0.000000,0.000000,0.000000,0.000000,0.000000,1648438723.740371,0.000000
111.000000,-51442.361050,-41154.925961,-1040.943091,17755.242319,-25130.155698,55891.721653,16734.192280,23931.811623,0.122000,0.994000,0.020000,192.000000,0.000000,0.000000,0.000000,0.000000,0.000000,0.000000,0.000000,0.000000,0.000000,1648438723.740387,0.000000
112.000000,-51440.215282,-41147.438126,-1037.545626,17759.667964,-25126.199439,55896.862554,16719.373074,23911.248018,0.122000,0.994000,0.020000,192.000000,0.000000,0.000000,0.000000,0.000000,0.000000,0.000000,0.000000,0.000000,0.000000,1648438723.748376,0.000000
113.000000,-51441.332870,-41146.700519,-1038.104419,17761.098476,-25126.914695,55903.702188,16730.481890,23913.103212,0.122000,0.994000,0.020000,192.000000,0.000000,0.000000,0.000000,0.000000,0.000000,0.000000,0.000000,0.000000,0.000000,1648438723.748393,0.000000
114.000000,-51441.556387,-41148.421603,-1039.423172,17762.059601,-25126.110032,55907.367874,16744.608193,23919.361701,0.122000,0.994000,0.020000,192.000000,0.000000,0.000000,0.000000,0.000000,0.000000,0.000000,0.000000,0.000000,0.000000,1648438723.754630,0.000000
115.000000,-51434.873216,-41143.437164,-1035.042230,17761.545510,-25120.991483,55912.799348,16754.062981,23913.371433,0.124000,0.986000,0.018000,192.000000,3.000000,224.000000,30.000000,208.000000,0.000000,144.000000,0.000000,0.000000,0.000000,1648438723.754640,0.000000
116.000000,-51429.709963,-41137.201028,-1028.001431,17769.301566,-25113.749518,55923.036447,16767.026993,23914.220800,0.124000,0.986000,0.018000,192.000000,0.000000,0.000000,0.000000,0.000000,0.000000,0.000000,0.000000,0.000000,0.000000,1648438723.762567,0.000000
117.000000,-51427.787713,-41138.139801,-1025.118056,17772.743734,-25110.620273,55925.092807,16762.087257,23920.971027,0.124000,0.986000,0.018000,192.000000,0.000000,0.000000,0.000000,0.000000,0.000000,0.000000,0.000000,0.000000,0.000000,1648438723.762572,0.000000
118.000000,-51428.122989,-41139.771478,-1023.352268,17774.956557,-25110.016776,55921.784749,16754.085333,23921.194544,0.124000,0.986000,0.018000,192.000000,0.000000,0.000000,0.000000,0.000000,0.000000,0.000000,0.000000,0.000000,0.000000,1648438723.769727,0.000000
119.000000,-51423.183253,-41136.217551,-1026.526216,17769.770952,-25113.168372,55919.437816,16742.440074,23916.210105,0.124000,0.986000,0.018000,192.000000,0.000000,0.000000,0.000000,0.000000,0.000000,0.000000,0.000000,0.000000,0.000000,1648438723.776890,0.000000
120.000000,-51426.156035,-41130.070821,-1027.442637,17762.931319,-25114.554180,55925.450435,16744.943469,23912.455012,0.124000,0.986000,0.018000,192.000000,0.000000,0.000000,0.000000,0.000000,0.000000,0.000000,0.000000,0.000000,0.000000,1648438723.776908,0.000000
121.000000,-51427.631250,-41134.876446,-1033.812885,17758.528025,-25120.030358,55924.601069,16746.105760,23907.045890,0.124000,0.986000,0.018000,192.000000,0.000000,0.000000,0.000000,0.000000,0.000000,0.000000,0.000000,0.000000,0.000000,1648438723.784399,0.000000
122.000000,-51427.519492,-41144.331234,-1038.015013,17753.744752,-25123.852506,55930.546633,16748.229176,23907.559980,0.124000,0.986000,0.018000,192.000000,0.000000,0.000000,0.000000,0.000000,0.000000,0.000000,0.000000,0.000000,0.000000,1648438723.784415,0.000000
123.000000,-51435.543768,-41150.612074,-1035.578672,17750.503749,-25126.802936,55933.206491,16749.190301,23908.811678,0.124000,0.986000,0.018000,192.000000,0.000000,0.000000,0.000000,0.000000,0.000000,0.000000,0.000000,0.000000,0.000000,1648438723.792528,0.000000
124.000000,-51439.455323,-41154.344816,-1033.142332,17748.939127,-25127.138213,55929.898432,16750.687867,23906.777669,0.124000,0.986000,0.018000,192.000000,0.000000,0.000000,0.000000,0.000000,0.000000,0.000000,0.000000,0.000000,0.000000,1648438723.792544,0.000000
125.000000,-51434.962623,-41151.752013,-1027.129713,17752.940089,-25121.527925,55932.290069,16750.866681,23905.257750,0.118000,0.972000,0.028000,192.000000,3.000000,176.000000,30.000000,96.000000,0.000000,224.000000,0.000000,0.000000,0.000000,1648438723.800275,0.000000
126.000000,-51428.726486,-41143.884199,-1023.039344,17760.383220,-25115.291788,55935.084037,16741.367190,23895.378279,0.118000,0.972000,0.028000,192.000000,0.000000,0.000000,0.000000,0.000000,0.000000,0.000000,0.000000,0.000000,0.000000,1648438723.800285,0.000000
127.000000,-51422.579756,-41134.027080,-1021.653536,17763.065429,-25113.436593,55935.441665,16736.136882,23881.788419,0.118000,0.972000,0.028000,192.000000,0.000000,0.000000,0.000000,0.000000,0.000000,0.000000,0.000000,0.000000,0.000000,1648438723.806973,0.000000
128.000000,-51423.362067,-41134.898798,-1026.079181,17760.092647,-25117.571666,55930.479578,16734.438149,23872.713610,0.118000,0.972000,0.028000,192.000000,0.000000,0.000000,0.000000,0.000000,0.000000,0.000000,0.000000,0.000000,0.000000,1648438723.806985,0.000000
129.000000,-51428.234747,-41134.787039,-1029.230777,17758.595080,-25120.075061,55924.578717,16730.526594,23862.409456,0.118000,0.972000,0.028000,192.000000,0.000000,0.000000,0.000000,0.000000,0.000000,0.000000,0.000000,0.000000,0.000000,1648438723.815044,0.000000
130.000000,-51425.709000,-41130.316690,-1030.460123,17759.444446,-25120.142117,55922.365895,16725.765672,23837.353151,0.118000,0.972000,0.028000,192.000000,0.000000,0.000000,0.000000,0.000000,0.000000,0.000000,0.000000,0.000000,0.000000,1648438723.815060,0.000000
131.000000,-51433.845035,-41135.636405,-1040.853684,17754.057676,-25127.026454,55917.873194,16732.404141,23835.319142,0.118000,0.972000,0.028000,192.000000,0.000000,0.000000,0.000000,0.000000,0.000000,0.000000,0.000000,0.000000,0.000000,1648438723.823229,0.000000
132.000000,-51443.031602,-41143.303054,-1049.548513,17749.587327,-25133.150832,55915.034522,16739.310830,23847.947877,0.118000,0.972000,0.028000,192.000000,0.000000,0.000000,0.000000,0.000000,0.000000,0.000000,0.000000,0.000000,0.000000,1648438723.823245,0.000000
133.000000,-51444.126838,-41147.326368,-1056.455202,17747.083932,-25137.867050,55918.275525,16740.674286,23861.291869,0.118000,0.972000,0.028000,192.000000,0.000000,0.000000,0.000000,0.000000,0.000000,0.000000,0.000000,0.000000,0.000000,1648438723.830430,0.000000
134.000000,-51440.237634,-41147.192257,-1052.096612,17746.189862,-25136.414187,55926.322153,16740.763693,23865.382238,0.118000,0.972000,0.028000,192.000000,0.000000,0.000000,0.000000,0.000000,0.000000,0.000000,0.000000,0.000000,0.000000,1648438723.836880,0.000000
135.000000,-51444.149189,-41144.800621,-1042.418306,17750.548452,-25132.457928,55927.327982,16736.025123,23859.459026,0.122000,0.968000,0.032000,192.000000,3.000000,208.000000,30.000000,64.000000,1.000000,0.000000,0.000000,0.000000,0.000000,1648438723.836897,0.000000
136.000000,-51446.473771,-41144.331234,-1039.400821,17755.309374,-25128.948704,55923.081150,16728.179661,23844.013970,0.122000,0.968000,0.032000,192.000000,0.000000,0.000000,0.000000,0.000000,0.000000,0.000000,0.000000,0.000000,0.000000,1648438723.844759,0.000000
137.000000,-51442.405753,-41139.816182,-1037.322108,17758.908005,-25124.612465,55924.869290,16741.478949,23845.288020,0.122000,0.968000,0.032000,192.000000,0.000000,0.000000,0.000000,0.000000,0.000000,0.000000,0.000000,0.000000,0.000000,1648438723.844770,0.000000
138.000000,-51437.197797,-41131.389574,-1032.650594,17759.645612,-25120.008006,55920.622459,16743.267088,23847.724360,0.122000,0.968000,0.032000,192.000000,0.000000,0.000000,0.000000,0.000000,0.000000,0.000000,0.000000,0.000000,0.000000,1648438723.852893,0.000000
139.000000,-51430.156997,-41121.845379,-1026.749733,17765.322955,-25114.285960,55921.158900,16740.651934,23843.991619,0.122000,0.968000,0.032000,192.000000,0.000000,0.000000,0.000000,0.000000,0.000000,0.000000,0.000000,0.000000,0.000000,1648438723.852909,0.000000
140.000000,-51427.273622,-41122.851208,-1028.895501,17765.635880,-25115.135326,55918.029656,16741.367190,23849.378389,0.122000,0.968000,0.032000,192.000000,0.000000,0.000000,0.000000,0.000000,0.000000,0.000000,0.000000,0.000000,0.000000,1648438723.859762,0.000000
141.000000,-51420.590451,-41118.425562,-1024.894539,17768.698069,-25111.871971,55915.369799,16744.563490,23855.413360,0.122000,0.968000,0.032000,192.000000,0.000000,0.000000,0.000000,0.000000,0.000000,0.000000,0.000000,0.000000,0.000000,1648438723.859772,0.000000
142.000000,-51419.070532,-41117.017402,-1022.614661,17773.458990,-25108.094526,55918.387284,16746.999830,23859.056694,0.122000,0.968000,0.032000,192.000000,0.000000,0.000000,0.000000,0.000000,0.000000,0.000000,0.000000,0.000000,0.000000,1648438723.867200,0.000000
143.000000,-51422.423294,-41115.966870,-1023.352268,17775.917682,-25106.328738,55917.672028,16747.066885,23861.671848,0.122000,0.968000,0.032000,192.000000,0.000000,0.000000,0.000000,0.000000,0.000000,0.000000,0.000000,0.000000,0.000000,1648438723.867211,0.000000
144.000000,-51421.261003,-41112.658812,-1023.173454,17777.035269,-25104.920579,55920.734217,16750.754923,23855.927450,0.122000,0.968000,0.032000,192.000000,0.000000,0.000000,0.000000,0.000000,0.000000,0.000000,0.000000,0.000000,0.000000,1648438723.875248,0.000000
145.000000,-51420.612803,-41108.814312,-1021.430018,17776.297662,-25103.355956,55923.304668,16754.398257,23853.334648,0.128000,0.976000,0.036000,192.000000,4.000000,0.000000,30.000000,128.000000,1.000000,32.000000,0.000000,0.000000,0.000000,1648438723.875260,0.000000
146.000000,-51423.160901,-41111.205949,-1024.335745,17772.006127,-25106.999291,55924.221089,16759.136827,23856.083912,0.128000,0.976000,0.036000,192.000000,0.000000,0.000000,0.000000,0.000000,0.000000,0.000000,0.000000,0.000000,0.000000,1648438723.883263,0.000000
147.000000,-51422.624460,-41113.172902,-1025.453332,17771.156761,-25109.256817,55923.237613,16764.635356,23860.330744,0.128000,0.976000,0.036000,192.000000,0.000000,0.000000,0.000000,0.000000,0.000000,0.000000,0.000000,0.000000,0.000000,1648438723.883275,0.000000
148.000000,-51426.178387,-41112.658812,-1023.754600,17770.217987,-25108.742727,55917.806139,16764.948280,23859.481378,0.128000,0.976000,0.036000,192.000000,0.000000,0.000000,0.000000,0.000000,0.000000,0.000000,0.000000,0.000000,0.000000,1648438723.889507,0.000000
149.000000,-51429.285279,-41115.676298,-1026.436809,17767.066391,-25111.782564,55909.066607,16766.468199,23856.419189,0.128000,0.976000,0.036000,192.000000,0.000000,0.000000,0.000000,0.000000,0.000000,0.000000,0.000000,0.000000,0.000000,1648438723.889518,0.000000
150.000000,-51435.119085,-41120.683088,-1031.845931,17760.763199,-25118.644550,55900.662351,16769.128057,23864.264651,0.128000,0.976000,0.036000,192.000000,0.000000,0.000000,0.000000,0.000000,0.000000,0.000000,0.000000,0.000000,0.000000,1648438723.897206,0.000000
151.000000,-51431.408695,-41114.782228,-1029.767219,17762.730153,-25116.968169,55899.030673,16773.263129,23871.953651,0.128000,0.976000,0.036000,192.000000,0.000000,0.000000,0.000000,0.000000,0.000000,0.000000,0.000000,0.000000,0.000000,1648438723.905140,0.000000
152.000000,-51427.295974,-41110.803617,-1029.454294,17763.892444,-25115.291788,55898.784804,16779.700432,23878.860340,0.128000,0.976000,0.036000,192.000000,0.000000,0.000000,0.000000,0.000000,0.000000,0.000000,0.000000,0.000000,0.000000,1648438723.905158,0.000000
153.000000,-51427.608899,-41112.636460,-1029.230777,17762.685449,-25115.761175,55902.696359,16778.962824,23877.809808,0.128000,0.976000,0.036000,192.000000,0.000000,0.000000,0.000000,0.000000,0.000000,0.000000,0.000000,0.000000,0.000000,1648438723.913184,0.000000
154.000000,-51429.218224,-41114.044620,-1030.236605,17761.679621,-25117.504611,55909.334828,16779.722784,23877.608642,0.128000,0.976000,0.036000,192.000000,0.000000,0.000000,0.000000,0.000000,0.000000,0.000000,0.000000,0.000000,0.000000,1648438723.913200,0.000000
155.000000,-51435.253195,-41119.096115,-1039.356117,17755.577595,-25127.272323,55908.194889,16788.484667,23892.919587,0.126000,0.988000,0.032000,192.000000,3.000000,240.000000,30.000000,224.000000,1.000000,0.000000,0.000000,0.000000,0.000000,1648438723.919814,0.000000
