%OpenBCI Raw EEG Data
%Number of channels = 8
%Sample Rate = 256 Hz
%Board = OpenBCI_GUI$BoardCytonSerial
%Channels = Fp1, Fp2, F3, F4, Fz, Pz, O1, O2
%Data recorded at AIMS Lab (http://aimsl.uiu.ac.bd) by Rana Depto (mail@ranadepto.com)
%Brainwaves were obtained via the Ultracortex Mark IV Headset using the OpenBCI Cyton Board
%Recording Application = ConcentrateToday (https://concentrate.today)
%Data type = RAW data with noise
%Day No = 8
%Subject ID = 5
%Session ID = 7
%Record starting timestamp (UTC+6) = 2022-03-28T12:23:21.947213
%Record ending timestamp (UTC+6)   = 2022-03-28T12:23:47.782842
%Recorded durations = ~25 seconds
Sample Index, EXG Channel 0, EXG Channel 1, EXG Channel 2, EXG Channel 3, EXG Channel 4, EXG Channel 5, EXG Channel 6, EXG Channel 7, Accel Channel 0, Accel Channel 1, Accel Channel 2, Other, Other, Other, Other, Other, Other, Other, Analog Channel 0, Analog Channel 1, Analog Channel 2, Timestamp, Timestamp (Formatted)
219.000000,-32656.300981,-50008.340181,-5101.159823,6211.080397,-11637.994544,-39376.174137,-34315.806248,-18677.050612,0.096000,0.972000,0.140000,192.000000,0.000000,0.000000,0.000000,0.000000,0.000000,0.000000,0.000000,0.000000,0.000000,1648448601.948756,0.000000
220.000000,-32636.050300,-49989.028274,-5084.217201,6224.580851,-11624.047056,-39370.854422,-34308.899559,-18687.801801,0.096000,0.972000,0.140000,192.000000,0.000000,0.000000,0.000000,0.000000,0.000000,0.000000,0.000000,0.000000,0.000000,1648448601.948767,0.000000
221.000000,-32658.111472,-50008.295477,-5117.431893,6208.040560,-11643.895405,-39376.084730,-34313.928701,-18717.484917,0.096000,0.972000,0.140000,192.000000,0.000000,0.000000,0.000000,0.000000,0.000000,0.000000,0.000000,0.000000,0.000000,1648448601.956678,0.000000
222.000000,-32659.452577,-50006.596745,-5106.032503,6207.347656,-11643.738943,-39378.275201,-34313.436963,-18726.269153,0.096000,0.972000,0.140000,192.000000,0.000000,0.000000,0.000000,0.000000,0.000000,0.000000,0.000000,0.000000,0.000000,1648448601.956684,0.000000
223.000000,-32634.306864,-49986.569582,-5078.338692,6218.881156,-11627.779797,-39376.822338,-34303.266919,-18696.876609,0.100000,0.966000,0.136000,192.000000,3.000000,32.000000,30.000000,48.000000,4.000000,64.000000,0.000000,0.000000,0.000000,1648448601.963277,0.000000
224.000000,-32632.406966,-49984.669684,-5079.143355,6220.691648,-11627.511576,-39382.544384,-34306.753791,-18677.184722,0.100000,0.966000,0.136000,192.000000,0.000000,0.000000,0.000000,0.000000,0.000000,0.000000,0.000000,0.000000,0.000000,1648448601.963282,0.000000
225.000000,-32629.881219,-49977.584181,-5079.813907,6223.463264,-11629.433826,-39393.742608,-34300.405896,-18667.439362,0.100000,0.966000,0.136000,192.000000,0.000000,0.000000,0.000000,0.000000,0.000000,0.000000,0.000000,0.000000,0.000000,1648448601.971266,0.000000
226.000000,-32616.604282,-49963.726099,-5066.939302,6239.176540,-11615.463986,-39393.921422,-34291.375791,-18673.921367,0.100000,0.966000,0.136000,192.000000,0.000000,0.000000,0.000000,0.000000,0.000000,0.000000,0.000000,0.000000,0.000000,1648448601.971270,0.000000
227.000000,-32615.263178,-49961.669738,-5059.719689,6246.552616,-11610.010160,-39392.043876,-34286.704276,-18691.311025,0.100000,0.966000,0.136000,192.000000,0.000000,0.000000,0.000000,0.000000,0.000000,0.000000,0.000000,0.000000,0.000000,1648448601.979259,0.000000
228.000000,-32617.096021,-49964.329596,-5059.652634,6242.797523,-11614.927544,-39417.278995,-34299.333012,-18702.621007,0.100000,0.966000,0.136000,192.000000,0.000000,0.000000,0.000000,0.000000,0.000000,0.000000,0.000000,0.000000,0.000000,1648448601.979263,0.000000
229.000000,-32630.551771,-49984.736739,-5078.338692,6235.622613,-11619.755521,-39417.256643,-34300.160027,-18700.899923,0.100000,0.966000,0.136000,192.000000,0.000000,0.000000,0.000000,0.000000,0.000000,0.000000,0.000000,0.000000,0.000000,1648448601.986361,0.000000
230.000000,-32639.201896,-49994.973838,-5085.781823,6225.564328,-11631.803111,-39418.798914,-34304.138637,-18679.799876,0.100000,0.966000,0.136000,192.000000,0.000000,0.000000,0.000000,0.000000,0.000000,0.000000,0.000000,0.000000,0.000000,1648448601.986366,0.000000
231.000000,-32631.691710,-49987.038968,-5074.650654,6233.834473,-11623.041227,-39398.123550,-34301.143503,-18683.689080,0.100000,0.966000,0.136000,192.000000,0.000000,0.000000,0.000000,0.000000,0.000000,0.000000,0.000000,0.000000,0.000000,1648448601.992916,0.000000
232.000000,-32624.896780,-49981.540439,-5069.509753,6236.874311,-11618.481471,-39401.699829,-34295.376753,-18684.650205,0.100000,0.966000,0.136000,192.000000,0.000000,0.000000,0.000000,0.000000,0.000000,0.000000,0.000000,0.000000,0.000000,1648448602.000934,0.000000
233.000000,-32629.009501,-49986.524878,-5076.438794,6232.672183,-11621.275439,-39398.324716,-34313.548721,-18694.999062,0.102000,0.974000,0.132000,192.000000,3.000000,48.000000,30.000000,112.000000,4.000000,32.000000,0.000000,0.000000,0.000000,1648448602.000940,0.000000
234.000000,-32620.180562,-49979.953465,-5076.081166,6233.633308,-11620.001390,-39401.945698,-34303.982175,-18688.561760,0.102000,0.974000,0.132000,192.000000,0.000000,0.000000,0.000000,0.000000,0.000000,0.000000,0.000000,0.000000,0.000000,1648448602.008929,0.000000
235.000000,-32613.765611,-49972.666797,-5071.141430,6240.249424,-11612.222983,-39407.399524,-34288.335954,-18678.257606,0.102000,0.974000,0.132000,192.000000,0.000000,0.000000,0.000000,0.000000,0.000000,0.000000,0.000000,0.000000,0.000000,1648448602.008935,0.000000
236.000000,-32617.811277,-49976.846573,-5070.604988,6234.974412,-11614.681675,-39417.323699,-34286.503111,-18689.075850,0.102000,0.974000,0.132000,192.000000,0.000000,0.000000,0.000000,0.000000,0.000000,0.000000,0.000000,0.000000,0.000000,1648448602.015525,0.000000
237.000000,-32623.265102,-49982.993303,-5070.582637,6233.208625,-11614.659323,-39406.416047,-34306.463219,-18694.753193,0.102000,0.974000,0.132000,192.000000,0.000000,0.000000,0.000000,0.000000,0.000000,0.000000,0.000000,0.000000,0.000000,1648448602.015531,0.000000
238.000000,-32618.235960,-49977.628884,-5068.749794,6234.549729,-11612.826480,-39397.788274,-34299.690640,-18686.818324,0.102000,0.974000,0.132000,192.000000,0.000000,0.000000,0.000000,0.000000,0.000000,0.000000,0.000000,0.000000,0.000000,1648448602.023509,0.000000
239.000000,-32612.178637,-49968.039986,-5065.575846,6250.821799,-11599.817765,-39377.381131,-34280.401084,-18651.122588,0.102000,0.974000,0.132000,192.000000,0.000000,0.000000,0.000000,0.000000,0.000000,0.000000,0.000000,0.000000,0.000000,1648448602.023513,0.000000
240.000000,-32641.191201,-49999.958277,-5100.489271,6215.573098,-11637.234585,-39403.063286,-34300.450599,-18649.267393,0.102000,0.974000,0.132000,192.000000,0.000000,0.000000,0.000000,0.000000,0.000000,0.000000,0.000000,0.000000,0.000000,1648448602.031666,0.000000
241.000000,-32635.066823,-49993.118643,-5081.691454,6222.993877,-11626.952783,-39406.259585,-34307.111419,-18697.927141,0.102000,0.974000,0.132000,192.000000,0.000000,0.000000,0.000000,0.000000,0.000000,0.000000,0.000000,0.000000,0.000000,1648448602.031671,0.000000
242.000000,-32626.953140,-49986.904858,-5076.058814,6229.900566,-11622.214213,-39411.959280,-34305.859721,-18704.990292,0.102000,0.974000,0.132000,192.000000,0.000000,0.000000,0.000000,0.000000,0.000000,0.000000,0.000000,0.000000,0.000000,1648448602.038719,0.000000
243.000000,-32627.668396,-49988.156556,-5076.952884,6234.817950,-11615.955724,-39396.111893,-34303.758657,-18703.917408,0.096000,0.982000,0.132000,192.000000,3.000000,0.000000,30.000000,176.000000,4.000000,32.000000,0.000000,0.000000,0.000000,1648448602.038750,0.000000
244.000000,-32615.866675,-49974.298474,-5067.833372,6241.299956,-11612.558259,-39389.115797,-34277.741227,-18666.366478,0.096000,0.982000,0.132000,192.000000,0.000000,0.000000,0.000000,0.000000,0.000000,0.000000,0.000000,0.000000,0.000000,1648448602.046086,0.000000
245.000000,-32621.387556,-49981.138108,-5075.343558,6236.583738,-11623.510614,-39409.724106,-34283.843253,-18676.692984,0.096000,0.982000,0.132000,192.000000,0.000000,0.000000,0.000000,0.000000,0.000000,0.000000,0.000000,0.000000,0.000000,1648448602.046090,0.000000
246.000000,-32647.025007,-50003.601611,-5091.079186,6214.097883,-11644.744771,-39424.409202,-34310.911216,-18710.064138,0.096000,0.982000,0.132000,192.000000,0.000000,0.000000,0.000000,0.000000,0.000000,0.000000,0.000000,0.000000,0.000000,1648448602.053246,0.000000
247.000000,-32643.761652,-50000.785291,-5093.917858,6217.338886,-11641.280251,-39421.414068,-34320.477762,-18714.042749,0.096000,0.982000,0.132000,192.000000,0.000000,0.000000,0.000000,0.000000,0.000000,0.000000,0.000000,0.000000,0.000000,1648448602.061268,0.000000
248.000000,-32639.581876,-49997.588992,-5079.791555,6222.636249,-11632.227794,-39412.741591,-34318.399050,-18703.962112,0.096000,0.982000,0.132000,192.000000,0.000000,0.000000,0.000000,0.000000,0.000000,0.000000,0.000000,0.000000,0.000000,1648448602.061286,0.000000
249.000000,-32630.752937,-49987.463652,-5074.471840,6221.563366,-11630.327896,-39411.020507,-34297.835445,-18680.313966,0.096000,0.982000,0.132000,192.000000,0.000000,0.000000,0.000000,0.000000,0.000000,0.000000,0.000000,0.000000,0.000000,1648448602.068436,0.000000
250.000000,-32623.242751,-49979.484079,-5068.548628,6227.017191,-11627.109245,-39413.479199,-34285.273765,-18673.295519,0.096000,0.982000,0.132000,192.000000,0.000000,0.000000,0.000000,0.000000,0.000000,0.000000,0.000000,0.000000,0.000000,1648448602.068440,0.000000
251.000000,-32624.136820,-49977.315960,-5065.888770,6235.466151,-11624.628201,-39409.120608,-34287.173663,-18674.033126,0.096000,0.982000,0.132000,192.000000,0.000000,0.000000,0.000000,0.000000,0.000000,0.000000,0.000000,0.000000,0.000000,1648448602.075858,0.000000
252.000000,-32633.345739,-49988.938867,-5072.169611,6233.163921,-11624.762312,-39384.444283,-34295.443808,-18674.860141,0.096000,0.982000,0.132000,192.000000,0.000000,0.000000,0.000000,0.000000,0.000000,0.000000,0.000000,0.000000,0.000000,1648448602.075861,0.000000
253.000000,-32633.032815,-49988.380073,-5079.880962,6223.865595,-11634.239451,-39392.245041,-34292.471026,-18679.978690,0.098000,0.978000,0.136000,192.000000,3.000000,16.000000,30.000000,144.000000,4.000000,64.000000,0.000000,0.000000,0.000000,1648448602.083801,0.000000
254.000000,-32633.010463,-49988.402425,-5080.998550,6226.950136,-11636.944012,-39412.428667,-34299.802399,-18700.430536,0.098000,0.978000,0.136000,192.000000,0.000000,0.000000,0.000000,0.000000,0.000000,0.000000,0.000000,0.000000,0.000000,1648448602.083804,0.000000
255.000000,-32638.397233,-49994.526803,-5083.367834,6228.067723,-11638.195710,-39418.173065,-34287.710105,-18697.144830,0.098000,0.978000,0.136000,192.000000,0.000000,0.000000,0.000000,0.000000,0.000000,0.000000,0.000000,0.000000,0.000000,1648448602.091881,0.000000
0.000000,-32621.722832,-49977.584181,-5069.800326,6242.529302,-11623.488262,-39408.137132,-34270.476910,-18684.314929,0.098000,0.978000,0.136000,192.000000,0.000000,0.000000,0.000000,0.000000,0.000000,0.000000,0.000000,0.000000,0.000000,1648448602.091887,0.000000
1.000000,-32622.795716,-49977.360663,-5067.229875,6246.150285,-11620.157852,-39397.207129,-34304.295099,-18682.146809,0.098000,0.978000,0.136000,192.000000,0.000000,0.000000,0.000000,0.000000,0.000000,0.000000,0.000000,0.000000,0.000000,1648448602.098415,0.000000
2.000000,-32637.547867,-49989.989399,-5078.651616,6232.180444,-11635.669963,-39399.554062,-34322.534123,-18700.251722,0.098000,0.978000,0.136000,192.000000,0.000000,0.000000,0.000000,0.000000,0.000000,0.000000,0.000000,0.000000,0.000000,1648448602.098419,0.000000
3.000000,-32639.201896,-49990.347027,-5087.458204,6222.725656,-11650.332707,-39421.905806,-34319.047251,-18670.836827,0.098000,0.978000,0.136000,192.000000,0.000000,0.000000,0.000000,0.000000,0.000000,0.000000,0.000000,0.000000,0.000000,1648448602.106424,0.000000
4.000000,-32630.104736,-49985.764919,-5084.753643,6236.963718,-11642.800169,-39419.067135,-34306.150294,-18662.745495,0.098000,0.978000,0.136000,192.000000,0.000000,0.000000,0.000000,0.000000,0.000000,0.000000,0.000000,0.000000,0.000000,1648448602.106429,0.000000
5.000000,-32632.943408,-49989.162384,-5074.918875,6248.005479,-11633.904175,-39400.537539,-34299.847102,-18696.630740,0.098000,0.978000,0.136000,192.000000,0.000000,0.000000,0.000000,0.000000,0.000000,0.000000,0.000000,0.000000,0.000000,1648448602.113450,0.000000
6.000000,-32627.377823,-49982.054529,-5066.894599,6253.973395,-11629.970268,-39394.994306,-34310.710050,-18708.030129,0.098000,0.978000,0.136000,192.000000,0.000000,0.000000,0.000000,0.000000,0.000000,0.000000,0.000000,0.000000,0.000000,1648448602.121464,0.000000
7.000000,-32627.578989,-49984.043835,-5072.147259,6254.308671,-11629.076198,-39393.295573,-34299.265957,-18700.519943,0.106000,0.974000,0.132000,192.000000,3.000000,80.000000,30.000000,112.000000,4.000000,32.000000,0.000000,0.000000,0.000000,1648448602.121468,0.000000
8.000000,-32624.449745,-49976.332483,-5072.191962,6250.575930,-11633.166567,-39397.475350,-34284.223233,-18690.059327,0.106000,0.974000,0.132000,192.000000,0.000000,0.000000,0.000000,0.000000,0.000000,0.000000,0.000000,0.000000,0.000000,1648448602.128017,0.000000
9.000000,-32635.089175,-49985.563753,-5082.362006,6244.496255,-11643.224852,-39413.389792,-34300.472951,-18680.336318,0.106000,0.974000,0.132000,192.000000,0.000000,0.000000,0.000000,0.000000,0.000000,0.000000,0.000000,0.000000,0.000000,1648448602.128021,0.000000
10.000000,-32638.508992,-49991.710483,-5086.362968,6244.272738,-11640.654402,-39410.282899,-34302.842236,-18661.694963,0.106000,0.974000,0.132000,192.000000,0.000000,0.000000,0.000000,0.000000,0.000000,0.000000,0.000000,0.000000,0.000000,1648448602.136135,0.000000
11.000000,-32648.343760,-50001.746416,-5092.643808,6238.170712,-11643.403666,-39414.373268,-34320.678928,-18687.891208,0.106000,0.974000,0.132000,192.000000,0.000000,0.000000,0.000000,0.000000,0.000000,0.000000,0.000000,0.000000,0.000000,1648448602.136139,0.000000
12.000000,-32643.649893,-50001.142919,-5085.200678,6245.658546,-11637.212233,-39398.145902,-34324.277559,-18696.764850,0.106000,0.974000,0.132000,192.000000,0.000000,0.000000,0.000000,0.000000,0.000000,0.000000,0.000000,0.000000,0.000000,1648448602.144025,0.000000
13.000000,-32636.184411,-49994.169175,-5081.669102,6250.397116,-11635.021762,-39398.503530,-34320.678928,-18710.086490,0.106000,0.974000,0.132000,192.000000,0.000000,0.000000,0.000000,0.000000,0.000000,0.000000,0.000000,0.000000,0.000000,1648448602.144029,0.000000
14.000000,-32635.715024,-49996.985495,-5086.497079,6248.340756,-11636.675791,-39394.279050,-34319.807210,-18706.309045,0.106000,0.974000,0.132000,192.000000,0.000000,0.000000,0.000000,0.000000,0.000000,0.000000,0.000000,0.000000,0.000000,1648448602.151268,0.000000
15.000000,-32609.339966,-49968.062337,-5068.995663,6267.943235,-11620.157852,-39396.201300,-34286.503111,-18670.166274,0.106000,0.974000,0.132000,192.000000,0.000000,0.000000,0.000000,0.000000,0.000000,0.000000,0.000000,0.000000,0.000000,1648448602.151272,0.000000
16.000000,-32608.714117,-49964.910741,-5055.875189,6274.984035,-11609.719588,-39394.860196,-34273.337933,-18664.086600,0.106000,0.974000,0.132000,192.000000,0.000000,0.000000,0.000000,0.000000,0.000000,0.000000,0.000000,0.000000,0.000000,1648448602.158719,0.000000
17.000000,-32630.618826,-49989.162384,-5072.817811,6257.169695,-11623.309448,-39385.226594,-34300.472951,-18699.290597,0.106000,0.976000,0.132000,192.000000,3.000000,80.000000,30.000000,128.000000,4.000000,32.000000,0.000000,0.000000,0.000000,1648448602.158723,0.000000
18.000000,-32627.713099,-49985.921381,-5072.303721,6251.872331,-11629.433826,-39399.956393,-34305.636204,-18693.345033,0.106000,0.976000,0.132000,192.000000,0.000000,0.000000,0.000000,0.000000,0.000000,0.000000,0.000000,0.000000,0.000000,1648448602.166674,0.000000
19.000000,-32622.080460,-49978.992340,-5066.559323,6263.606997,-11616.827442,-39399.129379,-34299.891806,-18679.285786,0.106000,0.976000,0.132000,192.000000,0.000000,0.000000,0.000000,0.000000,0.000000,0.000000,0.000000,0.000000,0.000000,1648448602.166678,0.000000
20.000000,-32627.556637,-49984.356759,-5076.796422,6260.477753,-11616.760387,-39381.091521,-34304.406858,-18683.800838,0.106000,0.976000,0.132000,192.000000,0.000000,0.000000,0.000000,0.000000,0.000000,0.000000,0.000000,0.000000,0.000000,1648448602.173878,0.000000
21.000000,-32629.054204,-49988.089500,-5080.797384,6249.301881,-11627.958611,-39394.927251,-34295.332050,-18699.000025,0.106000,0.976000,0.132000,192.000000,0.000000,0.000000,0.000000,0.000000,0.000000,0.000000,0.000000,0.000000,0.000000,1648448602.173882,0.000000
22.000000,-32634.128050,-49993.699788,-5079.299817,6250.799447,-11629.500881,-39394.033181,-34325.775126,-18709.125365,0.106000,0.976000,0.132000,192.000000,0.000000,0.000000,0.000000,0.000000,0.000000,0.000000,0.000000,0.000000,0.000000,1648448602.180300,0.000000
23.000000,-32632.004634,-49990.011750,-5078.226933,6253.794581,-11625.477567,-39384.466634,-34323.428193,-18711.740519,0.106000,0.976000,0.132000,192.000000,0.000000,0.000000,0.000000,0.000000,0.000000,0.000000,0.000000,0.000000,0.000000,1648448602.188423,0.000000
24.000000,-32636.385576,-49995.577335,-5087.167631,6244.317442,-11629.970268,-39375.235364,-34320.142486,-18694.015586,0.106000,0.976000,0.132000,192.000000,0.000000,0.000000,0.000000,0.000000,0.000000,0.000000,0.000000,0.000000,0.000000,1648448602.188426,0.000000
25.000000,-32613.229169,-49971.884486,-5068.414517,6256.767363,-11617.296829,-39393.630850,-34285.519634,-18662.924309,0.106000,0.976000,0.132000,192.000000,0.000000,0.000000,0.000000,0.000000,0.000000,0.000000,0.000000,0.000000,0.000000,1648448602.196444,0.000000
26.000000,-32605.853093,-49962.966140,-5055.226988,6271.675977,-11605.383349,-39402.593899,-34246.761709,-18625.574544,0.106000,0.976000,0.132000,192.000000,0.000000,0.000000,0.000000,0.000000,0.000000,0.000000,0.000000,0.000000,0.000000,1648448602.196448,0.000000
27.000000,-32607.998861,-49967.436489,-5052.969462,6272.413584,-11607.529117,-39422.710469,-34265.850099,-18632.168309,0.100000,0.984000,0.136000,192.000000,3.000000,32.000000,30.000000,192.000000,4.000000,64.000000,0.000000,0.000000,0.000000,1648448602.203514,0.000000
28.000000,-32628.093079,-49985.943733,-5078.338692,6258.488447,-11621.186032,-39427.449039,-34303.982175,-18686.415993,0.100000,0.984000,0.136000,192.000000,0.000000,0.000000,0.000000,0.000000,0.000000,0.000000,0.000000,0.000000,0.000000,1648448602.203518,0.000000
29.000000,-32640.900629,-49997.991323,-5087.167631,6245.367973,-11631.400780,-39427.449039,-34315.381565,-18727.699665,0.100000,0.984000,0.136000,192.000000,0.000000,0.000000,0.000000,0.000000,0.000000,0.000000,0.000000,0.000000,0.000000,1648448602.210882,0.000000
30.000000,-32627.869562,-49985.407291,-5065.955826,6254.822761,-11619.152024,-39418.307175,-34307.469047,-18708.074833,0.100000,0.984000,0.136000,192.000000,0.000000,0.000000,0.000000,0.000000,0.000000,0.000000,0.000000,0.000000,0.000000,1648448602.210886,0.000000
31.000000,-32623.935655,-49980.713425,-5064.994701,6263.472886,-11607.685579,-39396.938908,-34303.713954,-18686.393641,0.100000,0.984000,0.136000,192.000000,0.000000,0.000000,0.000000,0.000000,0.000000,0.000000,0.000000,0.000000,0.000000,1648448602.218925,0.000000
32.000000,-32625.343815,-49982.523916,-5065.307625,6264.813991,-11609.987808,-39397.877681,-34293.253338,-18683.867894,0.100000,0.984000,0.136000,192.000000,0.000000,0.000000,0.000000,0.000000,0.000000,0.000000,0.000000,0.000000,0.000000,1648448602.218928,0.000000
33.000000,-32631.356434,-49990.145861,-5068.839201,6263.875218,-11616.603925,-39395.888376,-34288.045381,-18690.729879,0.100000,0.984000,0.136000,192.000000,0.000000,0.000000,0.000000,0.000000,0.000000,0.000000,0.000000,0.000000,0.000000,1648448602.226975,0.000000
34.000000,-32625.433222,-49986.815451,-5070.828506,6262.534113,-11619.822576,-39396.044838,-34288.693582,-18664.824207,0.100000,0.984000,0.136000,192.000000,0.000000,0.000000,0.000000,0.000000,0.000000,0.000000,0.000000,0.000000,0.000000,1648448602.226979,0.000000
35.000000,-32641.861754,-50002.998114,-5084.060739,6252.006442,-11625.008181,-39384.690152,-34325.149277,-18671.619138,0.100000,0.984000,0.136000,192.000000,0.000000,0.000000,0.000000,0.000000,0.000000,0.000000,0.000000,0.000000,0.000000,1648448602.233610,0.000000
36.000000,-32630.797640,-49985.407291,-5071.633169,6257.057936,-11619.420245,-39397.900033,-34311.402954,-18693.903827,0.100000,0.984000,0.136000,192.000000,0.000000,0.000000,0.000000,0.000000,0.000000,0.000000,0.000000,0.000000,0.000000,1648448602.233614,0.000000
37.000000,-32635.469155,-49991.889297,-5079.724500,6256.052107,-11621.610716,-39395.262527,-34320.254245,-18724.793938,0.098000,0.980000,0.140000,192.000000,3.000000,16.000000,30.000000,160.000000,4.000000,96.000000,0.000000,0.000000,0.000000,1648448602.240634,0.000000
38.000000,-32625.634387,-49981.071053,-5068.302759,6263.338776,-11618.749692,-39398.682344,-34301.814056,-18718.378987,0.098000,0.980000,0.140000,192.000000,0.000000,0.000000,0.000000,0.000000,0.000000,0.000000,0.000000,0.000000,0.000000,1648448602.248645,0.000000
39.000000,-32605.584872,-49958.808715,-5044.274633,6281.913076,-11600.778890,-39398.257661,-34279.864643,-18677.877626,0.098000,0.980000,0.140000,192.000000,0.000000,0.000000,0.000000,0.000000,0.000000,0.000000,0.000000,0.000000,0.000000,1648448602.248649,0.000000
40.000000,-32617.274835,-49971.683320,-5062.580712,6267.965587,-11613.899364,-39416.720202,-34293.141579,-18667.126437,0.098000,0.980000,0.140000,192.000000,0.000000,0.000000,0.000000,0.000000,0.000000,0.000000,0.000000,0.000000,0.000000,1648448602.256580,0.000000
41.000000,-32620.158210,-49976.645407,-5066.559323,6269.418451,-11613.608791,-39414.462675,-34307.916082,-18696.049594,0.098000,0.980000,0.140000,192.000000,0.000000,0.000000,0.000000,0.000000,0.000000,0.000000,0.000000,0.000000,0.000000,1648448602.256584,0.000000
42.000000,-32619.487657,-49976.734814,-5065.709956,6272.301826,-11612.491204,-39412.629832,-34310.464181,-18703.783298,0.098000,0.980000,0.140000,192.000000,0.000000,0.000000,0.000000,0.000000,0.000000,0.000000,0.000000,0.000000,0.000000,1648448602.263258,0.000000
43.000000,-32623.622730,-49982.054529,-5063.921817,6264.121087,-11622.258916,-39429.237178,-34307.379640,-18701.749289,0.098000,0.980000,0.140000,192.000000,0.000000,0.000000,0.000000,0.000000,0.000000,0.000000,0.000000,0.000000,0.000000,1648448602.263262,0.000000
44.000000,-32615.576102,-49974.901971,-5058.892674,6267.965587,-11618.347361,-39443.363481,-34299.668288,-18685.477219,0.098000,0.980000,0.140000,192.000000,0.000000,0.000000,0.000000,0.000000,0.000000,0.000000,0.000000,0.000000,0.000000,1648448602.271251,0.000000
45.000000,-32617.073669,-49979.484079,-5058.289177,6273.486468,-11612.267686,-39429.460696,-34296.896672,-18669.428667,0.098000,0.980000,0.140000,192.000000,0.000000,0.000000,0.000000,0.000000,0.000000,0.000000,0.000000,0.000000,0.000000,1648448602.271254,0.000000
46.000000,-32613.944425,-49975.326654,-5061.083145,6274.827573,-11612.558259,-39423.045745,-34293.029820,-18659.660954,0.098000,0.980000,0.140000,192.000000,0.000000,0.000000,0.000000,0.000000,0.000000,0.000000,0.000000,0.000000,0.000000,1648448602.279248,0.000000
47.000000,-32594.431352,-49951.052660,-5044.274633,6289.177393,-11599.974227,-39422.621062,-34275.170776,-18653.782446,0.106000,0.974000,0.138000,192.000000,3.000000,80.000000,30.000000,112.000000,4.000000,80.000000,0.000000,0.000000,0.000000,1648448602.279251,0.000000
48.000000,-32626.103774,-49982.076881,-5073.242494,6262.377651,-11626.975134,-39441.485934,-34312.073506,-18707.717205,0.106000,0.974000,0.138000,192.000000,0.000000,0.000000,0.000000,0.000000,0.000000,0.000000,0.000000,0.000000,0.000000,1648448602.286335,0.000000
49.000000,-32617.699518,-49981.160460,-5068.235703,6261.550636,-11625.634030,-39439.809554,-34306.485570,-18697.167182,0.106000,0.974000,0.138000,192.000000,0.000000,0.000000,0.000000,0.000000,0.000000,0.000000,0.000000,0.000000,0.000000,1648448602.286339,0.000000
50.000000,-32619.308844,-49980.825183,-5071.744927,6257.460267,-11623.220041,-39435.652129,-34299.020088,-18679.174027,0.106000,0.974000,0.138000,192.000000,0.000000,0.000000,0.000000,0.000000,0.000000,0.000000,0.000000,0.000000,0.000000,1648448602.293879,0.000000
51.000000,-32622.236922,-49983.663855,-5078.986893,6262.265892,-11627.086893,-39432.232312,-34306.843198,-18699.067080,0.106000,0.974000,0.138000,192.000000,0.000000,0.000000,0.000000,0.000000,0.000000,0.000000,0.000000,0.000000,0.000000,1648448602.293883,0.000000
52.000000,-32629.367129,-49992.090463,-5084.373663,6262.556465,-11629.500881,-39432.724051,-34318.130829,-18711.204077,0.106000,0.974000,0.138000,192.000000,0.000000,0.000000,0.000000,0.000000,0.000000,0.000000,0.000000,0.000000,0.000000,1648448602.300919,0.000000
53.000000,-32621.812239,-49979.439375,-5078.741023,6267.406794,-11624.494091,-39437.373213,-34310.240663,-18691.333376,0.106000,0.974000,0.138000,192.000000,0.000000,0.000000,0.000000,0.000000,0.000000,0.000000,0.000000,0.000000,0.000000,1648448602.308956,0.000000
54.000000,-32627.891913,-49984.446166,-5081.356177,6266.803296,-11619.621410,-39411.579300,-34318.153181,-18684.605501,0.106000,0.974000,0.138000,192.000000,0.000000,0.000000,0.000000,0.000000,0.000000,0.000000,0.000000,0.000000,0.000000,1648448602.308960,0.000000
55.000000,-32623.399213,-49983.932076,-5066.089936,6266.803296,-11615.955724,-39394.502568,-34323.718765,-18689.500533,0.106000,0.974000,0.138000,192.000000,0.000000,0.000000,0.000000,0.000000,0.000000,0.000000,0.000000,0.000000,0.000000,1648448602.316005,0.000000
56.000000,-32632.965759,-49993.163346,-5082.987855,6253.392250,-11630.484358,-39400.224614,-34318.644919,-18705.638493,0.106000,0.974000,0.138000,192.000000,0.000000,0.000000,0.000000,0.000000,0.000000,0.000000,0.000000,0.000000,0.000000,1648448602.316009,0.000000
57.000000,-32625.321463,-49982.389806,-5077.623436,6258.063764,-11632.518367,-39419.245949,-34304.831541,-18716.747310,0.106000,0.974000,0.138000,192.000000,0.000000,0.000000,0.000000,0.000000,0.000000,0.000000,0.000000,0.000000,0.000000,1648448602.323550,0.000000
58.000000,-32616.872503,-49975.393710,-5065.709956,6269.932541,-11621.945992,-39422.464600,-34306.127942,-18703.470374,0.104000,0.974000,0.132000,192.000000,3.000000,64.000000,30.000000,112.000000,4.000000,32.000000,0.000000,0.000000,0.000000,1648448602.323554,0.000000
59.000000,-32624.785021,-49985.139070,-5077.019939,6267.026814,-11623.622373,-39402.929175,-34316.119172,-18701.972807,0.104000,0.974000,0.132000,192.000000,0.000000,0.000000,0.000000,0.000000,0.000000,0.000000,0.000000,0.000000,0.000000,1648448602.331552,0.000000
60.000000,-32624.360338,-49985.004960,-5083.591352,6256.722660,-11636.966364,-39414.865007,-34303.244567,-18680.068097,0.104000,0.974000,0.132000,192.000000,0.000000,0.000000,0.000000,0.000000,0.000000,0.000000,0.000000,0.000000,0.000000,1648448602.331556,0.000000
61.000000,-32622.348681,-49981.316922,-5072.974273,6264.925750,-11630.484358,-39416.697850,-34305.077410,-18702.799821,0.104000,0.974000,0.132000,192.000000,0.000000,0.000000,0.000000,0.000000,0.000000,0.000000,0.000000,0.000000,0.000000,1648448602.338788,0.000000
62.000000,-32622.125163,-49983.149765,-5076.349387,6266.155096,-11628.025666,-39413.590957,-34308.094896,-18702.978635,0.104000,0.974000,0.132000,192.000000,0.000000,0.000000,0.000000,0.000000,0.000000,0.000000,0.000000,0.000000,0.000000,1648448602.338792,0.000000
63.000000,-32615.687861,-49973.650274,-5072.326073,6272.547695,-11625.589326,-39411.489893,-34291.644012,-18656.151731,0.104000,0.974000,0.132000,192.000000,0.000000,0.000000,0.000000,0.000000,0.000000,0.000000,0.000000,0.000000,0.000000,1648448602.346164,0.000000
64.000000,-32625.723794,-49982.568620,-5082.831393,6267.183276,-11634.015934,-39418.441286,-34315.225102,-18676.625928,0.104000,0.974000,0.132000,192.000000,0.000000,0.000000,0.000000,0.000000,0.000000,0.000000,0.000000,0.000000,0.000000,1648448602.346168,0.000000
65.000000,-32632.384614,-49990.771710,-5096.108329,6256.901474,-11644.275384,-39422.598710,-34323.919931,-18699.715280,0.104000,0.974000,0.132000,192.000000,0.000000,0.000000,0.000000,0.000000,0.000000,0.000000,0.000000,0.000000,0.000000,1648448602.354152,0.000000
66.000000,-32613.475038,-49970.990416,-5073.555419,6272.860619,-11623.622373,-39414.619138,-34284.089122,-18684.918426,0.104000,0.974000,0.132000,192.000000,0.000000,0.000000,0.000000,0.000000,0.000000,0.000000,0.000000,0.000000,0.000000,1648448602.354156,0.000000
67.000000,-32618.481829,-49978.612361,-5070.448526,6261.684747,-11628.316239,-39417.167236,-34300.919986,-18684.650205,0.104000,0.974000,0.132000,192.000000,0.000000,0.000000,0.000000,0.000000,0.000000,0.000000,0.000000,0.000000,0.000000,1648448602.361241,0.000000
68.000000,-32615.486695,-49974.946675,-5075.008282,6260.902436,-11632.361905,-39428.745440,-34308.273710,-18696.831905,0.100000,0.978000,0.130000,192.000000,3.000000,32.000000,30.000000,144.000000,4.000000,16.000000,0.000000,0.000000,0.000000,1648448602.368349,0.000000
69.000000,-32614.458515,-49976.533649,-5067.252227,6269.887837,-11626.572803,-39432.142905,-34307.111419,-18711.896981,0.100000,0.978000,0.130000,192.000000,0.000000,0.000000,0.000000,0.000000,0.000000,0.000000,0.000000,0.000000,0.000000,1648448602.368353,0.000000
70.000000,-32616.045489,-49981.741605,-5068.079241,6280.214343,-11616.626277,-39407.444228,-34303.333974,-18700.698757,0.100000,0.978000,0.130000,192.000000,0.000000,0.000000,0.000000,0.000000,0.000000,0.000000,0.000000,0.000000,0.000000,1648448602.375817,0.000000
71.000000,-32618.951216,-49978.746471,-5072.214314,6272.257122,-11624.359980,-39400.001097,-34296.136713,-18676.871798,0.100000,0.978000,0.130000,192.000000,0.000000,0.000000,0.000000,0.000000,0.000000,0.000000,0.000000,0.000000,0.000000,1648448602.375846,0.000000
72.000000,-32623.846248,-49988.044797,-5072.974273,6259.740145,-11634.105341,-39425.012699,-34314.643957,-18709.505345,0.100000,0.978000,0.130000,192.000000,0.000000,0.000000,0.000000,0.000000,0.000000,0.000000,0.000000,0.000000,0.000000,1648448602.383774,0.000000
73.000000,-32634.418623,-50001.366437,-5086.519430,6256.320328,-11638.486283,-39408.293594,-34326.848009,-18723.363426,0.100000,0.978000,0.130000,192.000000,0.000000,0.000000,0.000000,0.000000,0.000000,0.000000,0.000000,0.000000,0.000000,1648448602.383778,0.000000
74.000000,-32627.757803,-49992.001056,-5080.976198,6257.616729,-11640.274422,-39407.511283,-34327.786783,-18714.109804,0.100000,0.978000,0.130000,192.000000,0.000000,0.000000,0.000000,0.000000,0.000000,0.000000,0.000000,0.000000,0.000000,1648448602.391852,0.000000
75.000000,-32617.654814,-49981.227515,-5072.437831,6267.406794,-11629.478530,-39402.392733,-34315.381565,-18697.323644,0.100000,0.978000,0.130000,192.000000,0.000000,0.000000,0.000000,0.000000,0.000000,0.000000,0.000000,0.000000,0.000000,1648448602.391856,0.000000
76.000000,-32622.236922,-49984.781442,-5074.918875,6270.245465,-11623.734131,-39383.036123,-34294.415628,-18690.349900,0.100000,0.978000,0.130000,192.000000,0.000000,0.000000,0.000000,0.000000,0.000000,0.000000,0.000000,0.000000,0.000000,1648448602.398426,0.000000
77.000000,-32628.383652,-49988.871811,-5080.819736,6264.255198,-11630.909041,-39391.842710,-34315.336861,-18697.100126,0.100000,0.978000,0.130000,192.000000,0.000000,0.000000,0.000000,0.000000,0.000000,0.000000,0.000000,0.000000,0.000000,1648448602.398429,0.000000
78.000000,-32616.246655,-49975.147840,-5080.730329,6265.842171,-11630.640820,-39400.023448,-34314.643957,-18689.232312,0.106000,0.978000,0.134000,192.000000,3.000000,80.000000,30.000000,144.000000,4.000000,48.000000,0.000000,0.000000,0.000000,1648448602.406451,0.000000
79.000000,-32600.622785,-49960.194523,-5060.233779,6275.229904,-11622.035399,-39417.033126,-34294.259166,-18685.253702,0.106000,0.978000,0.134000,192.000000,0.000000,0.000000,0.000000,0.000000,0.000000,0.000000,0.000000,0.000000,0.000000,1648448602.406455,0.000000
80.000000,-32592.307936,-49950.918549,-5053.081221,6295.145308,-11603.461099,-39406.438399,-34272.265049,-18679.285786,0.106000,0.978000,0.134000,192.000000,0.000000,0.000000,0.000000,0.000000,0.000000,0.000000,0.000000,0.000000,0.000000,1648448602.414503,0.000000
81.000000,-32620.404079,-49977.584181,-5071.811983,6274.492297,-11616.201593,-39404.627908,-34303.982175,-18699.067080,0.106000,0.978000,0.134000,192.000000,0.000000,0.000000,0.000000,0.000000,0.000000,0.000000,0.000000,0.000000,0.000000,1648448602.414506,0.000000
82.000000,-32625.567332,-49984.624980,-5078.450451,6263.048203,-11627.936259,-39396.648335,-34314.576902,-18688.628815,0.106000,0.978000,0.134000,192.000000,0.000000,0.000000,0.000000,0.000000,0.000000,0.000000,0.000000,0.000000,0.000000,1648448602.421677,0.000000
83.000000,-32618.258312,-49975.840744,-5074.851820,6262.534113,-11630.216137,-39405.141998,-34303.803361,-18688.606464,0.106000,0.978000,0.134000,192.000000,0.000000,0.000000,0.000000,0.000000,0.000000,0.000000,0.000000,0.000000,0.000000,1648448602.421681,0.000000
84.000000,-32620.180562,-49973.180887,-5076.349387,6262.198837,-11627.578631,-39413.434495,-34292.448675,-18675.016603,0.106000,0.978000,0.134000,192.000000,0.000000,0.000000,0.000000,0.000000,0.000000,0.000000,0.000000,0.000000,0.000000,1648448602.428101,0.000000
85.000000,-32636.273818,-49992.202221,-5092.599105,6253.369898,-11633.501844,-39402.280975,-34311.313547,-18689.768754,0.106000,0.978000,0.134000,192.000000,0.000000,0.000000,0.000000,0.000000,0.000000,0.000000,0.000000,0.000000,0.000000,1648448602.436236,0.000000
86.000000,-32640.654759,-50001.657009,-5097.024750,6250.978261,-11639.022725,-39374.877736,-34316.789724,-18703.202153,0.106000,0.978000,0.134000,192.000000,0.000000,0.000000,0.000000,0.000000,0.000000,0.000000,0.000000,0.000000,0.000000,1648448602.436240,0.000000
87.000000,-32630.730585,-49993.073939,-5089.626323,6259.002538,-11635.804073,-39363.455995,-34300.048268,-18707.985426,0.106000,0.978000,0.134000,192.000000,0.000000,0.000000,0.000000,0.000000,0.000000,0.000000,0.000000,0.000000,0.000000,1648448602.444331,0.000000
88.000000,-32626.796678,-49986.681341,-5082.451413,6257.102639,-11637.793379,-39370.295628,-34297.678983,-18700.855219,0.104000,0.976000,0.136000,192.000000,3.000000,64.000000,30.000000,128.000000,4.000000,64.000000,0.000000,0.000000,0.000000,1648448602.444343,0.000000
89.000000,-32629.680053,-49986.971913,-5082.719634,6256.856770,-11640.430884,-39382.589088,-34302.194035,-18693.903827,0.104000,0.976000,0.136000,192.000000,0.000000,0.000000,0.000000,0.000000,0.000000,0.000000,0.000000,0.000000,0.000000,1648448602.451782,0.000000
90.000000,-32628.718928,-49983.775614,-5081.534991,6262.131782,-11637.838082,-39387.282954,-34294.594442,-18681.230388,0.104000,0.976000,0.136000,192.000000,0.000000,0.000000,0.000000,0.000000,0.000000,0.000000,0.000000,0.000000,0.000000,1648448602.451799,0.000000
91.000000,-32630.663530,-49979.685245,-5089.849840,6265.730413,-11638.441579,-39371.122643,-34295.734381,-18686.013661,0.104000,0.976000,0.136000,192.000000,0.000000,0.000000,0.000000,0.000000,0.000000,0.000000,0.000000,0.000000,0.000000,1648448602.459117,0.000000
92.000000,-32616.760745,-49971.504506,-5068.727442,6275.162849,-11628.316239,-39359.656198,-34284.536157,-18675.106010,0.104000,0.976000,0.136000,192.000000,0.000000,0.000000,0.000000,0.000000,0.000000,0.000000,0.000000,0.000000,0.000000,1648448602.459133,0.000000
93.000000,-32624.717966,-49980.869887,-5078.249285,6266.937407,-11634.798245,-39371.882602,-34289.900576,-18658.252795,0.104000,0.976000,0.136000,192.000000,0.000000,0.000000,0.000000,0.000000,0.000000,0.000000,0.000000,0.000000,0.000000,1648448602.467158,0.000000
94.000000,-32623.488620,-49980.333445,-5081.222067,6263.092907,-11641.369658,-39392.692076,-34306.485570,-18688.673519,0.104000,0.976000,0.136000,192.000000,0.000000,0.000000,0.000000,0.000000,0.000000,0.000000,0.000000,0.000000,0.000000,1648448602.467174,0.000000
95.000000,-32608.155323,-49963.480230,-5060.591407,6280.035529,-11620.984867,-39393.519091,-34282.412741,-18683.644376,0.104000,0.976000,0.136000,192.000000,0.000000,0.000000,0.000000,0.000000,0.000000,0.000000,0.000000,0.000000,0.000000,1648448602.475190,0.000000
96.000000,-32615.374937,-49970.722195,-5064.145334,6280.057881,-11617.967381,-39397.900033,-34284.469102,-18674.368402,0.104000,0.976000,0.136000,192.000000,0.000000,0.000000,0.000000,0.000000,0.000000,0.000000,0.000000,0.000000,0.000000,1648448602.475207,0.000000
97.000000,-32625.343815,-49980.758128,-5076.394090,6270.759555,-11626.215175,-39398.905861,-34303.535140,-18675.418934,0.104000,0.976000,0.136000,192.000000,0.000000,0.000000,0.000000,0.000000,0.000000,0.000000,0.000000,0.000000,0.000000,1648448602.481751,0.000000
98.000000,-32617.990091,-49973.113832,-5075.276503,6265.953930,-11628.919736,-39410.171140,-34293.253338,-18675.754210,0.106000,0.972000,0.136000,192.000000,3.000000,80.000000,30.000000,96.000000,4.000000,64.000000,0.000000,0.000000,0.000000,1648448602.481767,0.000000
99.000000,-32602.857960,-49957.802887,-5059.742041,6282.158945,-11613.854660,-39410.841693,-34275.818977,-18685.633681,0.106000,0.972000,0.136000,192.000000,0.000000,0.000000,0.000000,0.000000,0.000000,0.000000,0.000000,0.000000,0.000000,1648448602.488857,0.000000
100.000000,-32613.922073,-49967.592951,-5064.324148,6279.633198,-11613.966419,-39396.514225,-34282.926832,-18685.588978,0.106000,0.972000,0.136000,192.000000,0.000000,0.000000,0.000000,0.000000,0.000000,0.000000,0.000000,0.000000,0.000000,1648448602.496659,0.000000
101.000000,-32609.272910,-49959.926302,-5061.820753,6277.152154,-11618.749692,-39407.555986,-34272.019180,-18665.025373,0.106000,0.972000,0.136000,192.000000,0.000000,0.000000,0.000000,0.000000,0.000000,0.000000,0.000000,0.000000,0.000000,1648448602.496676,0.000000
102.000000,-32607.261253,-49960.440393,-5064.726480,6280.974302,-11622.169509,-39427.136114,-34278.456483,-18684.806667,0.106000,0.972000,0.136000,192.000000,0.000000,0.000000,0.000000,0.000000,0.000000,0.000000,0.000000,0.000000,0.000000,1648448602.503862,0.000000
103.000000,-32611.955120,-49967.570599,-5063.653596,6284.438823,-11620.023742,-39420.519998,-34294.773256,-18686.393641,0.106000,0.972000,0.136000,192.000000,0.000000,0.000000,0.000000,0.000000,0.000000,0.000000,0.000000,0.000000,0.000000,1648448602.503880,0.000000
104.000000,-32603.908492,-49957.534666,-5051.628357,6289.915000,-11615.598096,-39412.853350,-34283.127997,-18650.183815,0.106000,0.972000,0.136000,192.000000,0.000000,0.000000,0.000000,0.000000,0.000000,0.000000,0.000000,0.000000,0.000000,1648448602.511404,0.000000
105.000000,-32611.396326,-49969.403442,-5066.559323,6279.208515,-11626.841024,-39426.957301,-34287.352477,-18655.615289,0.106000,0.972000,0.136000,192.000000,0.000000,0.000000,0.000000,0.000000,0.000000,0.000000,0.000000,0.000000,0.000000,1648448602.511422,0.000000
106.000000,-32618.638291,-49975.214896,-5070.314416,6281.063709,-11623.398855,-39403.711486,-34291.532253,-18695.870780,0.106000,0.972000,0.136000,192.000000,0.000000,0.000000,0.000000,0.000000,0.000000,0.000000,0.000000,0.000000,0.000000,1648448602.519420,0.000000
107.000000,-32621.074631,-49981.808660,-5075.567076,6276.995692,-11629.076198,-39382.030294,-34288.514768,-18705.727900,0.106000,0.972000,0.136000,192.000000,0.000000,0.000000,0.000000,0.000000,0.000000,0.000000,0.000000,0.000000,0.000000,1648448602.519437,0.000000
108.000000,-32604.690803,-49961.736794,-5063.944169,6277.286265,-11634.775893,-39417.435457,-34277.003619,-18682.839713,0.100000,0.976000,0.134000,192.000000,3.000000,32.000000,30.000000,128.000000,4.000000,48.000000,0.000000,0.000000,0.000000,1648448602.527367,0.000000
109.000000,-32601.673317,-49955.366547,-5052.298910,6287.769233,-11619.464948,-39427.404335,-34263.078483,-18655.883510,0.100000,0.976000,0.134000,192.000000,0.000000,0.000000,0.000000,0.000000,0.000000,0.000000,0.000000,0.000000,0.000000,1648448602.527385,0.000000
110.000000,-32605.316652,-49961.893256,-5054.332918,6288.953875,-11614.279343,-39420.140018,-34269.627544,-18657.805760,0.100000,0.976000,0.134000,192.000000,0.000000,0.000000,0.000000,0.000000,0.000000,0.000000,0.000000,0.000000,0.000000,1648448602.533943,0.000000
111.000000,-32604.534340,-49958.339329,-5052.813000,6294.497108,-11607.126785,-39400.649297,-34275.662515,-18657.828111,0.100000,0.976000,0.134000,192.000000,0.000000,0.000000,0.000000,0.000000,0.000000,0.000000,0.000000,0.000000,0.000000,1648448602.533959,0.000000
112.000000,-32606.881274,-49958.585198,-5057.328052,6293.670093,-11608.669056,-39397.497701,-34271.840366,-18655.928213,0.100000,0.976000,0.134000,192.000000,0.000000,0.000000,0.000000,0.000000,0.000000,0.000000,0.000000,0.000000,0.000000,1648448602.542060,0.000000
113.000000,-32625.299111,-49980.758128,-5082.853744,6266.892703,-11633.837120,-39413.143922,-34308.139599,-18702.308083,0.100000,0.976000,0.134000,192.000000,0.000000,0.000000,0.000000,0.000000,0.000000,0.000000,0.000000,0.000000,0.000000,1648448602.542077,0.000000
114.000000,-32620.046451,-49982.412157,-5073.108384,6267.473849,-11628.316239,-39408.181835,-34306.910253,-18703.939760,0.100000,0.976000,0.134000,192.000000,0.000000,0.000000,0.000000,0.000000,0.000000,0.000000,0.000000,0.000000,0.000000,1648448602.549135,0.000000
115.000000,-32624.069765,-49987.396596,-5076.237628,6267.227980,-11627.936259,-39395.284879,-34299.265957,-18676.134190,0.100000,0.976000,0.134000,192.000000,0.000000,0.000000,0.000000,0.000000,0.000000,0.000000,0.000000,0.000000,0.000000,1648448602.557046,0.000000
116.000000,-32618.615939,-49978.008864,-5073.667177,6272.882971,-11628.807977,-39402.012754,-34275.126073,-18660.085638,0.100000,0.976000,0.134000,192.000000,0.000000,0.000000,0.000000,0.000000,0.000000,0.000000,0.000000,0.000000,0.000000,1648448602.557063,0.000000
117.000000,-32609.809352,-49968.867000,-5058.602102,6279.812012,-11621.856585,-39401.141036,-34265.559526,-18674.346051,0.100000,0.976000,0.134000,192.000000,0.000000,0.000000,0.000000,0.000000,0.000000,0.000000,0.000000,0.000000,0.000000,1648448602.563695,0.000000
118.000000,-32593.917262,-49955.143029,-5050.823695,6285.623465,-11617.408588,-39418.977728,-34256.663532,-18645.199376,0.100000,0.976000,0.130000,192.000000,3.000000,32.000000,30.000000,128.000000,4.000000,16.000000,0.000000,0.000000,0.000000,1648448602.563712,0.000000
119.000000,-32588.083457,-49945.822352,-5032.204691,6300.666189,-11600.130689,-39422.643414,-34246.113508,-18636.795120,0.100000,0.976000,0.130000,192.000000,0.000000,0.000000,0.000000,0.000000,0.000000,0.000000,0.000000,0.000000,0.000000,1648448602.571773,0.000000
120.000000,-32622.415736,-49979.752300,-5065.665253,6276.950988,-11618.012085,-39415.110876,-34278.501186,-18680.738649,0.100000,0.976000,0.130000,192.000000,0.000000,0.000000,0.000000,0.000000,0.000000,0.000000,0.000000,0.000000,0.000000,1648448602.571791,0.000000
121.000000,-32633.926884,-49990.481137,-5080.752680,6263.383480,-11631.110207,-39401.252794,-34305.747963,-18696.586036,0.100000,0.976000,0.130000,192.000000,0.000000,0.000000,0.000000,0.000000,0.000000,0.000000,0.000000,0.000000,0.000000,1648448602.579711,0.000000
122.000000,-32631.021158,-49990.324675,-5078.808079,6264.255198,-11631.847815,-39396.022486,-34295.019125,-18688.964091,0.100000,0.976000,0.130000,192.000000,0.000000,0.000000,0.000000,0.000000,0.000000,0.000000,0.000000,0.000000,0.000000,1648448602.579728,0.000000
123.000000,-32630.194143,-49991.218745,-5077.466974,6260.522456,-11634.842948,-39389.607536,-34282.703314,-18677.654109,0.100000,0.976000,0.130000,192.000000,0.000000,0.000000,0.000000,0.000000,0.000000,0.000000,0.000000,0.000000,0.000000,1648448602.586774,0.000000
124.000000,-32610.435201,-49971.236285,-5065.441735,6267.630311,-11628.629163,-39403.622079,-34265.134843,-18657.470483,0.100000,0.976000,0.130000,192.000000,0.000000,0.000000,0.000000,0.000000,0.000000,0.000000,0.000000,0.000000,0.000000,1648448602.586791,0.000000
125.000000,-32607.708288,-49973.292646,-5060.457296,6275.833401,-11620.291963,-39401.521015,-34273.248526,-18662.521978,0.100000,0.976000,0.130000,192.000000,0.000000,0.000000,0.000000,0.000000,0.000000,0.000000,0.000000,0.000000,0.000000,1648448602.594346,0.000000
126.000000,-32609.831704,-49972.622093,-5061.530180,6274.469945,-11623.130634,-39398.168254,-34288.805340,-18682.191513,0.100000,0.976000,0.130000,192.000000,0.000000,0.000000,0.000000,0.000000,0.000000,0.000000,0.000000,0.000000,0.000000,1648448602.594363,0.000000
127.000000,-32608.557654,-49970.945712,-5063.363023,6274.000558,-11623.152986,-39392.625021,-34284.469102,-18673.675498,0.100000,0.976000,0.130000,192.000000,0.000000,0.000000,0.000000,0.000000,0.000000,0.000000,0.000000,0.000000,0.000000,1648448602.602322,0.000000
128.000000,-32616.067841,-49977.427718,-5072.549590,6266.423317,-11632.361905,-39397.184777,-34290.727590,-18678.570530,0.104000,0.978000,0.132000,192.000000,3.000000,64.000000,30.000000,144.000000,4.000000,32.000000,0.000000,0.000000,0.000000,1648448602.602340,0.000000
129.000000,-32617.721870,-49979.774652,-5070.292064,6262.712927,-11635.066466,-39406.907786,-34304.160989,-18695.356690,0.104000,0.978000,0.132000,192.000000,0.000000,0.000000,0.000000,0.000000,0.000000,0.000000,0.000000,0.000000,0.000000,1648448602.609350,0.000000
130.000000,-32599.706364,-49961.714442,-5050.063735,6279.901419,-11620.426073,-39407.153655,-34282.256279,-18680.381022,0.104000,0.978000,0.132000,192.000000,0.000000,0.000000,0.000000,0.000000,0.000000,0.000000,0.000000,0.000000,0.000000,1648448602.616597,0.000000
131.000000,-32580.617974,-49937.909834,-5036.406819,6295.905268,-11603.528154,-39411.646356,-34220.230188,-18628.972009,0.104000,0.978000,0.132000,192.000000,0.000000,0.000000,0.000000,0.000000,0.000000,0.000000,0.000000,0.000000,0.000000,1648448602.616615,0.000000
132.000000,-32598.029983,-49958.629901,-5051.181322,6281.913076,-11612.178279,-39415.893187,-34252.036721,-18614.175154,0.104000,0.978000,0.132000,192.000000,0.000000,0.000000,0.000000,0.000000,0.000000,0.000000,0.000000,0.000000,0.000000,1648448602.623947,0.000000
133.000000,-32619.264140,-49981.048701,-5073.108384,6259.673090,-11637.927489,-39435.205094,-34288.179492,-18643.165367,0.104000,0.978000,0.132000,192.000000,0.000000,0.000000,0.000000,0.000000,0.000000,0.000000,0.000000,0.000000,0.000000,1648448602.623963,0.000000
134.000000,-32625.634387,-49986.189602,-5077.645788,6261.751802,-11637.502806,-39421.615234,-34288.671230,-18674.167237,0.104000,0.978000,0.132000,192.000000,0.000000,0.000000,0.000000,0.000000,0.000000,0.000000,0.000000,0.000000,0.000000,1648448602.631664,0.000000
135.000000,-32610.345794,-49969.492849,-5059.205599,6280.370805,-11623.287096,-39404.918481,-34283.262108,-18694.619083,0.104000,0.978000,0.132000,192.000000,0.000000,0.000000,0.000000,0.000000,0.000000,0.000000,0.000000,0.000000,0.000000,1648448602.631673,0.000000
136.000000,-32606.434239,-49963.636692,-5059.384413,6283.701215,-11619.129672,-39398.347068,-34269.784006,-18688.606464,0.104000,0.978000,0.132000,192.000000,0.000000,0.000000,0.000000,0.000000,0.000000,0.000000,0.000000,0.000000,0.000000,1648448602.639906,0.000000
137.000000,-32622.438088,-49982.322750,-5068.123945,6268.725546,-11629.836158,-39396.983611,-34297.678983,-18694.149696,0.104000,0.978000,0.132000,192.000000,0.000000,0.000000,0.000000,0.000000,0.000000,0.000000,0.000000,0.000000,0.000000,1648448602.639915,0.000000
138.000000,-32616.537227,-49979.461727,-5066.693433,6261.260064,-11636.921661,-39409.455885,-34294.326221,-18692.026280,0.110000,0.978000,0.132000,192.000000,3.000000,112.000000,30.000000,144.000000,4.000000,32.000000,0.000000,0.000000,0.000000,1648448602.646599,0.000000
139.000000,-32615.419640,-49977.137146,-5069.085070,6264.255198,-11635.737018,-39420.207074,-34286.056076,-18691.109859,0.110000,0.978000,0.132000,192.000000,0.000000,0.000000,0.000000,0.000000,0.000000,0.000000,0.000000,0.000000,0.000000,1648448602.646615,0.000000
140.000000,-32613.251521,-49976.332483,-5059.138544,6269.619616,-11629.120902,-39423.291614,-34277.785930,-18683.800838,0.110000,0.978000,0.132000,192.000000,0.000000,0.000000,0.000000,0.000000,0.000000,0.000000,0.000000,0.000000,0.000000,1648448602.654636,0.000000
141.000000,-32610.211684,-49972.957369,-5055.338747,6272.815916,-11619.599059,-39411.355783,-34264.374884,-18668.847521,0.110000,0.978000,0.132000,192.000000,0.000000,0.000000,0.000000,0.000000,0.000000,0.000000,0.000000,0.000000,0.000000,1648448602.654652,0.000000
142.000000,-32595.236015,-49956.864113,-5046.934491,6281.421337,-11611.083044,-39408.405353,-34251.299113,-18619.204297,0.110000,0.978000,0.132000,192.000000,0.000000,0.000000,0.000000,0.000000,0.000000,0.000000,0.000000,0.000000,0.000000,1648448602.662619,0.000000
143.000000,-32613.586797,-49975.505468,-5061.530180,6272.704157,-11621.029570,-39412.249853,-34268.912288,-18627.519146,0.110000,0.978000,0.132000,192.000000,0.000000,0.000000,0.000000,0.000000,0.000000,0.000000,0.000000,0.000000,0.000000,1648448602.662636,0.000000
144.000000,-32628.920094,-49988.692998,-5077.332863,6254.733354,-11637.681620,-39424.945644,-34281.585727,-18683.063231,0.110000,0.978000,0.132000,192.000000,0.000000,0.000000,0.000000,0.000000,0.000000,0.000000,0.000000,0.000000,0.000000,1648448602.668732,0.000000
145.000000,-32625.097945,-49983.865021,-5070.582637,6258.957834,-11633.010105,-39419.849446,-34276.958916,-18694.239103,0.110000,0.978000,0.132000,192.000000,0.000000,0.000000,0.000000,0.000000,0.000000,0.000000,0.000000,0.000000,0.000000,1648448602.668750,0.000000
146.000000,-32617.923035,-49979.618189,-5066.291102,6262.824686,-11631.378428,-39429.192475,-34282.792721,-18689.344071,0.110000,0.978000,0.132000,192.000000,0.000000,0.000000,0.000000,0.000000,0.000000,0.000000,0.000000,0.000000,0.000000,1648448602.676242,0.000000
147.000000,-32623.958006,-49986.569582,-5076.349387,6259.963663,-11634.261803,-39426.309100,-34283.955012,-18680.381022,0.110000,0.978000,0.132000,192.000000,0.000000,0.000000,0.000000,0.000000,0.000000,0.000000,0.000000,0.000000,0.000000,1648448602.684165,0.000000
148.000000,-32620.292320,-49985.004960,-5073.466012,6267.138573,-11630.439655,-39419.089486,-34274.433169,-18665.092428,0.104000,0.976000,0.130000,192.000000,3.000000,64.000000,30.000000,128.000000,4.000000,16.000000,0.000000,0.000000,0.000000,1648448602.684181,0.000000
149.000000,-32624.539152,-49985.206125,-5076.327035,6262.690575,-11632.160739,-39411.132265,-34291.465198,-18685.924254,0.104000,0.976000,0.130000,192.000000,0.000000,0.000000,0.000000,0.000000,0.000000,0.000000,0.000000,0.000000,0.000000,1648448602.692287,0.000000
150.000000,-32604.802561,-49965.424832,-5053.595311,6273.531172,-11617.721512,-39412.473370,-34279.954050,-18675.910673,0.104000,0.976000,0.130000,192.000000,0.000000,0.000000,0.000000,0.000000,0.000000,0.000000,0.000000,0.000000,0.000000,1648448602.692305,0.000000
151.000000,-32603.215588,-49963.882561,-5049.527293,6277.800355,-11615.106358,-39422.129324,-34260.932715,-18665.584167,0.104000,0.976000,0.130000,192.000000,0.000000,0.000000,0.000000,0.000000,0.000000,0.000000,0.000000,0.000000,0.000000,1648448602.698837,0.000000
152.000000,-32612.469210,-49972.487983,-5063.430078,6280.013177,-11618.704989,-39426.733783,-34265.827747,-18648.485082,0.104000,0.976000,0.130000,192.000000,0.000000,0.000000,0.000000,0.000000,0.000000,0.000000,0.000000,0.000000,0.000000,1648448602.698853,0.000000
153.000000,-32626.595512,-49991.106986,-5076.617608,6268.613788,-11630.596117,-39426.934949,-34293.275689,-18673.697850,0.104000,0.976000,0.130000,192.000000,0.000000,0.000000,0.000000,0.000000,0.000000,0.000000,0.000000,0.000000,0.000000,1648448602.706876,0.000000
154.000000,-32632.183448,-49997.745454,-5071.834334,6263.294073,-11630.730227,-39406.885434,-34306.552625,-18680.403373,0.104000,0.976000,0.130000,192.000000,0.000000,0.000000,0.000000,0.000000,0.000000,0.000000,0.000000,0.000000,0.000000,1648448602.706892,0.000000
155.000000,-32627.310768,-49992.962181,-5073.711881,6259.002538,-11636.340515,-39418.217768,-34290.012335,-18689.589940,0.104000,0.976000,0.130000,192.000000,0.000000,0.000000,0.000000,0.000000,0.000000,0.000000,0.000000,0.000000,0.000000,1648448602.714856,0.000000
156.000000,-32630.842344,-49993.342160,-5071.655520,6260.477753,-11630.551413,-39419.268300,-34285.921965,-18699.022376,0.104000,0.976000,0.130000,192.000000,0.000000,0.000000,0.000000,0.000000,0.000000,0.000000,0.000000,0.000000,0.000000,1648448602.714873,0.000000
157.000000,-32623.421565,-49988.111852,-5068.906256,6264.791639,-11624.896422,-39399.464655,-34281.876300,-18681.498609,0.104000,0.976000,0.130000,192.000000,0.000000,0.000000,0.000000,0.000000,0.000000,0.000000,0.000000,0.000000,0.000000,1648448602.722076,0.000000
158.000000,-32612.200989,-49978.433547,-5058.915026,6275.431070,-11617.386236,-39397.296536,-34251.701445,-18643.277126,0.104000,0.976000,0.130000,192.000000,0.000000,0.000000,0.000000,0.000000,0.000000,0.000000,0.000000,0.000000,0.000000,1648448602.722092,0.000000
159.000000,-32629.389480,-49992.336332,-5071.454355,6259.471924,-11635.111169,-39415.714373,-34272.533270,-18657.515187,0.100000,0.968000,0.134000,192.000000,3.000000,32.000000,30.000000,64.000000,4.000000,48.000000,0.000000,0.000000,0.000000,1648448602.729514,0.000000
160.000000,-32627.444879,-49989.207088,-5068.280407,6257.437915,-11636.049942,-39425.593844,-34280.311677,-18678.548178,0.100000,0.968000,0.134000,192.000000,0.000000,0.000000,0.000000,0.000000,0.000000,0.000000,0.000000,0.000000,0.000000,1648448602.729531,0.000000
161.000000,-32625.634387,-49990.771710,-5064.167686,6266.378613,-11630.931393,-39424.923292,-34280.959878,-18668.959280,0.100000,0.968000,0.134000,192.000000,0.000000,0.000000,0.000000,0.000000,0.000000,0.000000,0.000000,0.000000,0.000000,1648448602.736305,0.000000
162.000000,-32642.800527,-50006.484986,-5083.725462,6255.202741,-11641.973155,-39409.969975,-34296.404934,-18704.677368,0.100000,0.968000,0.134000,192.000000,0.000000,0.000000,0.000000,0.000000,0.000000,0.000000,0.000000,0.000000,0.000000,1648448602.744572,0.000000
163.000000,-32630.775288,-49989.922343,-5079.188058,6262.288244,-11635.558204,-39393.586146,-34271.907422,-18665.897091,0.100000,0.968000,0.134000,192.000000,0.000000,0.000000,0.000000,0.000000,0.000000,0.000000,0.000000,0.000000,0.000000,1648448602.744589,0.000000
164.000000,-32618.280663,-49976.935980,-5057.417459,6272.011253,-11626.304582,-39398.883510,-34260.731549,-18650.161463,0.100000,0.968000,0.134000,192.000000,0.000000,0.000000,0.000000,0.000000,0.000000,0.000000,0.000000,0.000000,0.000000,1648448602.751612,0.000000
165.000000,-32623.533323,-49982.613323,-5066.402860,6268.166753,-11627.042189,-39407.891263,-34277.562413,-18662.723143,0.100000,0.968000,0.134000,192.000000,0.000000,0.000000,0.000000,0.000000,0.000000,0.000000,0.000000,0.000000,0.000000,1648448602.751629,0.000000
166.000000,-32637.570219,-49996.404349,-5085.111271,6256.700308,-11638.039248,-39407.645393,-34291.889881,-18685.812495,0.100000,0.968000,0.134000,192.000000,0.000000,0.000000,0.000000,0.000000,0.000000,0.000000,0.000000,0.000000,0.000000,1648448602.759135,0.000000
167.000000,-32634.888009,-49992.649256,-5074.896523,6260.768325,-11636.899309,-39393.720257,-34304.250396,-18696.586036,0.100000,0.968000,0.134000,192.000000,0.000000,0.000000,0.000000,0.000000,0.000000,0.000000,0.000000,0.000000,0.000000,1648448602.759152,0.000000
168.000000,-32634.686844,-49993.632733,-5074.538895,6262.310596,-11638.754504,-39393.854367,-34286.369000,-18682.146809,0.100000,0.968000,0.134000,192.000000,0.000000,0.000000,0.000000,0.000000,0.000000,0.000000,0.000000,0.000000,0.000000,1648448602.767176,0.000000
169.000000,-32633.658663,-49989.475309,-5077.578733,6263.271721,-11639.760332,-39402.728010,-34264.352532,-18671.820303,0.100000,0.966000,0.138000,192.000000,3.000000,32.000000,30.000000,48.000000,4.000000,80.000000,0.000000,0.000000,0.000000,1648448602.767192,0.000000
170.000000,-32628.718928,-49985.787271,-5073.510715,6268.725546,-11630.551413,-39392.356800,-34273.628506,-18668.400487,0.100000,0.966000,0.138000,192.000000,0.000000,0.000000,0.000000,0.000000,0.000000,0.000000,0.000000,0.000000,0.000000,1648448602.775161,0.000000
171.000000,-32618.280663,-49974.454936,-5064.949997,6270.357224,-11628.539756,-39393.072056,-34272.645029,-18657.559890,0.100000,0.966000,0.138000,192.000000,0.000000,0.000000,0.000000,0.000000,0.000000,0.000000,0.000000,0.000000,0.000000,1648448602.775178,0.000000
172.000000,-32618.794753,-49972.845611,-5065.218218,6272.748860,-11634.910004,-39409.075905,-34275.304887,-18663.952489,0.100000,0.966000,0.138000,192.000000,0.000000,0.000000,0.000000,0.000000,0.000000,0.000000,0.000000,0.000000,0.000000,1648448602.781792,0.000000
173.000000,-32633.502201,-49989.207088,-5078.048119,6266.915055,-11643.448370,-39415.110876,-34291.688715,-18679.554007,0.100000,0.966000,0.138000,192.000000,0.000000,0.000000,0.000000,0.000000,0.000000,0.000000,0.000000,0.000000,0.000000,1648448602.781808,0.000000
174.000000,-32637.726681,-49986.726044,-5087.167631,6264.009328,-11645.840007,-39412.518074,-34290.213500,-18685.521923,0.100000,0.966000,0.138000,192.000000,0.000000,0.000000,0.000000,0.000000,0.000000,0.000000,0.000000,0.000000,0.000000,1648448602.789790,0.000000
175.000000,-32635.312693,-49979.707596,-5082.943151,6265.573950,-11642.442541,-39409.880568,-34291.644012,-18694.417917,0.100000,0.966000,0.138000,192.000000,0.000000,0.000000,0.000000,0.000000,0.000000,0.000000,0.000000,0.000000,0.000000,1648448602.789807,0.000000
176.000000,-32642.577010,-49995.353817,-5087.637018,6263.227017,-11643.314259,-39403.711486,-34290.124093,-18682.616196,0.100000,0.966000,0.138000,192.000000,0.000000,0.000000,0.000000,0.000000,0.000000,0.000000,0.000000,0.000000,0.000000,1648448602.796659,0.000000
177.000000,-32655.205745,-50009.793044,-5103.059721,6250.911206,-11655.585367,-39394.055533,-34297.164893,-18700.274074,0.100000,0.966000,0.138000,192.000000,0.000000,0.000000,0.000000,0.000000,0.000000,0.000000,0.000000,0.000000,0.000000,1648448602.804884,0.000000
178.000000,-32649.394292,-50005.881489,-5099.841070,6246.954947,-11661.285062,-39396.000134,-34289.274727,-18693.680309,0.100000,0.966000,0.138000,192.000000,0.000000,0.000000,0.000000,0.000000,0.000000,0.000000,0.000000,0.000000,0.000000,1648448602.804901,0.000000
179.000000,-32636.720852,-49995.733797,-5094.878983,6251.134724,-11657.597024,-39398.347068,-34260.440977,-18659.057457,0.102000,0.968000,0.146000,192.000000,3.000000,48.000000,30.000000,64.000000,4.000000,144.000000,0.000000,0.000000,0.000000,1648448602.811388,0.000000
180.000000,-32623.130992,-49978.969989,-5061.708994,6266.780945,-11637.726323,-39400.224614,-34273.069712,-18641.757207,0.102000,0.968000,0.146000,192.000000,0.000000,0.000000,0.000000,0.000000,0.000000,0.000000,0.000000,0.000000,0.000000,1648448602.811406,0.000000
181.000000,-32645.080405,-50004.294515,-5080.596218,6251.313538,-11645.147102,-39381.806777,-34291.241681,-18675.016603,0.102000,0.968000,0.146000,192.000000,0.000000,0.000000,0.000000,0.000000,0.000000,0.000000,0.000000,0.000000,0.000000,1648448602.819402,0.000000
182.000000,-32635.267989,-49996.404349,-5078.450451,6244.093924,-11651.785571,-39380.666838,-34293.253338,-18695.893132,0.102000,0.968000,0.146000,192.000000,0.000000,0.000000,0.000000,0.000000,0.000000,0.000000,0.000000,0.000000,0.000000,1648448602.819419,0.000000
183.000000,-32614.927902,-49974.678454,-5061.351366,6262.310596,-11642.889576,-39406.393696,-34265.783044,-18668.445190,0.102000,0.968000,0.146000,192.000000,0.000000,0.000000,0.000000,0.000000,0.000000,0.000000,0.000000,0.000000,0.000000,1648448602.827416,0.000000
184.000000,-32626.193181,-49988.782405,-5071.521410,6255.448610,-11643.291908,-39413.143922,-34262.184413,-18665.248891,0.102000,0.968000,0.146000,192.000000,0.000000,0.000000,0.000000,0.000000,0.000000,0.000000,0.000000,0.000000,0.000000,1648448602.827432,0.000000
185.000000,-32633.815126,-49996.516108,-5083.479593,6244.049221,-11653.350193,-39425.593844,-34276.333067,-18650.541443,0.102000,0.968000,0.146000,192.000000,0.000000,0.000000,0.000000,0.000000,0.000000,0.000000,0.000000,0.000000,0.000000,1648448602.834068,0.000000
186.000000,-32627.333120,-49988.044797,-5069.308587,6255.336852,-11641.101437,-39418.687155,-34283.910308,-18675.821266,0.102000,0.968000,0.146000,192.000000,0.000000,0.000000,0.000000,0.000000,0.000000,0.000000,0.000000,0.000000,0.000000,1648448602.834084,0.000000
187.000000,-32626.550809,-49990.101157,-5072.549590,6255.381555,-11642.934280,-39419.022431,-34282.949183,-18691.512190,0.102000,0.968000,0.146000,192.000000,0.000000,0.000000,0.000000,0.000000,0.000000,0.000000,0.000000,0.000000,0.000000,1648448602.842066,0.000000
188.000000,-32616.559579,-49981.763957,-5068.727442,6251.872331,-11643.962460,-39431.114725,-34261.849137,-18664.600690,0.102000,0.968000,0.146000,192.000000,0.000000,0.000000,0.000000,0.000000,0.000000,0.000000,0.000000,0.000000,0.000000,1648448602.842083,0.000000
189.000000,-32614.793791,-49983.105061,-5063.787706,6250.464171,-11642.733114,-39446.671539,-34278.322372,-18668.489893,0.100000,0.984000,0.144000,192.000000,3.000000,32.000000,30.000000,192.000000,4.000000,128.000000,0.000000,0.000000,0.000000,1648448602.849887,0.000000
190.000000,-32614.637329,-49978.008864,-5063.944169,6258.175523,-11635.737018,-39437.373213,-34277.808282,-18681.051574,0.100000,0.984000,0.144000,192.000000,0.000000,0.000000,0.000000,0.000000,0.000000,0.000000,0.000000,0.000000,0.000000,1648448602.849904,0.000000
191.000000,-32625.768498,-49987.351893,-5075.388262,6253.638119,-11637.592213,-39421.369364,-34282.859776,-18684.672556,0.100000,0.984000,0.144000,192.000000,0.000000,0.000000,0.000000,0.000000,0.000000,0.000000,0.000000,0.000000,0.000000,1648448602.857281,0.000000
192.000000,-32637.033777,-50001.299381,-5085.513602,6250.620633,-11638.419227,-39388.042913,-34281.339858,-18687.824152,0.100000,0.984000,0.144000,192.000000,0.000000,0.000000,0.000000,0.000000,0.000000,0.000000,0.000000,0.000000,0.000000,1648448602.863616,0.000000
193.000000,-32627.981320,-49991.151689,-5070.314416,6248.653680,-11643.895405,-39398.168254,-34281.608079,-18682.057402,0.100000,0.984000,0.144000,192.000000,0.000000,0.000000,0.000000,0.000000,0.000000,0.000000,0.000000,0.000000,0.000000,1648448602.863632,0.000000
194.000000,-32611.731602,-49975.036082,-5055.048174,6256.722660,-11636.854605,-39410.193492,-34281.250451,-18678.615234,0.100000,0.984000,0.144000,192.000000,0.000000,0.000000,0.000000,0.000000,0.000000,0.000000,0.000000,0.000000,0.000000,1648448602.871663,0.000000
195.000000,-32613.296224,-49976.690111,-5058.065660,6268.747898,-11626.505748,-39400.023448,-34270.834538,-18676.357708,0.100000,0.984000,0.144000,192.000000,0.000000,0.000000,0.000000,0.000000,0.000000,0.000000,0.000000,0.000000,0.000000,1648448602.871679,0.000000
196.000000,-32620.940521,-49986.413120,-5065.777012,6259.382517,-11637.525158,-39396.558928,-34286.793683,-18656.464655,0.100000,0.984000,0.144000,192.000000,0.000000,0.000000,0.000000,0.000000,0.000000,0.000000,0.000000,0.000000,0.000000,1648448602.879805,0.000000
197.000000,-32615.866675,-49979.327617,-5059.339709,6257.013232,-11639.134483,-39413.166274,-34279.618773,-18666.545292,0.100000,0.984000,0.144000,192.000000,0.000000,0.000000,0.000000,0.000000,0.000000,0.000000,0.000000,0.000000,0.000000,1648448602.879821,0.000000
198.000000,-32615.710213,-49977.137146,-5066.224046,6259.270759,-11638.776855,-39409.634699,-34277.629468,-18678.436420,0.100000,0.984000,0.144000,192.000000,0.000000,0.000000,0.000000,0.000000,0.000000,0.000000,0.000000,0.000000,0.000000,1648448602.886992,0.000000
199.000000,-32603.975547,-49963.435526,-5050.063735,6274.335834,-11624.762312,-39407.041896,-34265.537174,-18675.821266,0.102000,0.986000,0.140000,192.000000,3.000000,48.000000,30.000000,208.000000,4.000000,96.000000,0.000000,0.000000,0.000000,1648448602.887009,0.000000
200.000000,-32625.477925,-49983.507393,-5065.821715,6263.651700,-11634.038285,-39395.150768,-34298.774218,-18705.437327,0.102000,0.986000,0.140000,192.000000,0.000000,0.000000,0.000000,0.000000,0.000000,0.000000,0.000000,0.000000,0.000000,1648448602.894370,0.000000
201.000000,-32599.706364,-49955.947692,-5043.693488,6279.677901,-11620.269611,-39405.141998,-34262.005599,-18637.376265,0.102000,0.986000,0.140000,192.000000,0.000000,0.000000,0.000000,0.000000,0.000000,0.000000,0.000000,0.000000,0.000000,1648448602.894387,0.000000
202.000000,-32611.798657,-49967.704709,-5058.020956,6277.554486,-11622.080102,-39410.394658,-34284.357343,-18678.659937,0.102000,0.986000,0.140000,192.000000,0.000000,0.000000,0.000000,0.000000,0.000000,0.000000,0.000000,0.000000,0.000000,1648448602.902343,0.000000
203.000000,-32617.833628,-49974.410233,-5068.570980,6270.983073,-11630.573765,-39424.051574,-34291.465198,-18721.150603,0.102000,0.986000,0.140000,192.000000,0.000000,0.000000,0.000000,0.000000,0.000000,0.000000,0.000000,0.000000,0.000000,1648448602.902360,0.000000
204.000000,-32629.769460,-49987.933038,-5078.673968,6260.902436,-11640.274422,-39419.178893,-34306.552625,-18723.966923,0.102000,0.986000,0.140000,192.000000,0.000000,0.000000,0.000000,0.000000,0.000000,0.000000,0.000000,0.000000,0.000000,1648448602.910184,0.000000
205.000000,-32612.960948,-49972.510335,-5065.955826,6271.586570,-11630.886690,-39413.859178,-34285.899614,-18695.468449,0.102000,0.986000,0.140000,192.000000,0.000000,0.000000,0.000000,0.000000,0.000000,0.000000,0.000000,0.000000,0.000000,1648448602.910201,0.000000
206.000000,-32598.745239,-49959.211047,-5035.155122,6290.920829,-11611.373617,-39415.423800,-34259.882183,-18661.203225,0.102000,0.986000,0.140000,192.000000,0.000000,0.000000,0.000000,0.000000,0.000000,0.000000,0.000000,0.000000,0.000000,1648448602.916492,0.000000
207.000000,-32613.787963,-49970.833954,-5050.980157,6286.919866,-11614.726378,-39397.564757,-34280.222271,-18676.335356,0.102000,0.986000,0.140000,192.000000,0.000000,0.000000,0.000000,0.000000,0.000000,0.000000,0.000000,0.000000,0.000000,1648448602.916509,0.000000
208.000000,-32625.366166,-49984.110890,-5066.268750,6271.832439,-11628.427998,-39389.205204,-34285.407875,-18645.713466,0.102000,0.986000,0.140000,192.000000,0.000000,0.000000,0.000000,0.000000,0.000000,0.000000,0.000000,0.000000,0.000000,1648448602.924065,0.000000
209.000000,-32620.091155,-49975.974855,-5066.000529,6270.089003,-11633.591251,-39406.527806,-34275.975439,-18695.647263,0.102000,0.974000,0.144000,192.000000,3.000000,48.000000,30.000000,112.000000,4.000000,128.000000,0.000000,0.000000,0.000000,1648448602.932061,0.000000
210.000000,-32612.893893,-49966.587122,-5056.322224,6279.074404,-11622.504785,-39416.206111,-34279.663477,-18704.051519,0.102000,0.974000,0.144000,192.000000,0.000000,0.000000,0.000000,0.000000,0.000000,0.000000,0.000000,0.000000,0.000000,1648448602.932077,0.000000
211.000000,-32605.406058,-49960.485096,-5050.957805,6286.606942,-11614.547564,-39410.461713,-34286.190186,-18703.962112,0.102000,0.974000,0.144000,192.000000,0.000000,0.000000,0.000000,0.000000,0.000000,0.000000,0.000000,0.000000,0.000000,1648448602.940020,0.000000
212.000000,-32601.382744,-49959.367509,-5054.556436,6290.742015,-11616.402759,-39405.700792,-34280.848119,-18681.252740,0.102000,0.974000,0.144000,192.000000,0.000000,0.000000,0.000000,0.000000,0.000000,0.000000,0.000000,0.000000,0.000000,1648448602.940036,0.000000
213.000000,-32600.555730,-49959.993358,-5047.090953,6290.093814,-11615.866317,-39407.444228,-34271.929773,-18669.115742,0.102000,0.974000,0.144000,192.000000,0.000000,0.000000,0.000000,0.000000,0.000000,0.000000,0.000000,0.000000,0.000000,1648448602.946449,0.000000
214.000000,-32618.928864,-49976.868925,-5062.334843,6267.004462,-11637.033419,-39432.142905,-34300.964689,-18690.394603,0.102000,0.974000,0.144000,192.000000,0.000000,0.000000,0.000000,0.000000,0.000000,0.000000,0.000000,0.000000,0.000000,1648448602.946466,0.000000
215.000000,-32620.091155,-49975.773689,-5060.747869,6269.619616,-11632.943050,-39435.182742,-34311.134733,-18698.038900,0.102000,0.974000,0.144000,192.000000,0.000000,0.000000,0.000000,0.000000,0.000000,0.000000,0.000000,0.000000,0.000000,1648448602.954671,0.000000
216.000000,-32617.051317,-49973.784384,-5059.831448,6273.777041,-11627.131596,-39424.766830,-34306.731439,-18709.103013,0.102000,0.974000,0.144000,192.000000,0.000000,0.000000,0.000000,0.000000,0.000000,0.000000,0.000000,0.000000,0.000000,1648448602.954688,0.000000
217.000000,-32615.821971,-49970.833954,-5063.385375,6275.609884,-11626.908079,-39420.005908,-34301.232910,-18705.034996,0.102000,0.974000,0.144000,192.000000,0.000000,0.000000,0.000000,0.000000,0.000000,0.000000,0.000000,0.000000,0.000000,1648448602.962434,0.000000
218.000000,-32610.904588,-49965.894218,-5053.260035,6275.654587,-11626.528099,-39418.664803,-34290.168797,-18677.877626,0.102000,0.974000,0.144000,192.000000,0.000000,0.000000,0.000000,0.000000,0.000000,0.000000,0.000000,0.000000,0.000000,1648448602.962446,0.000000
219.000000,-32603.573215,-49956.506486,-5048.454410,6279.677901,-11622.147157,-39433.886341,-34275.371942,-18675.150713,0.108000,0.970000,0.136000,192.000000,3.000000,96.000000,30.000000,80.000000,4.000000,64.000000,0.000000,0.000000,0.000000,1648448602.969800,0.000000
220.000000,-32596.912396,-49950.359756,-5042.754715,6286.606942,-11614.234640,-39426.733783,-34270.946297,-18676.715335,0.108000,0.970000,0.136000,192.000000,0.000000,0.000000,0.000000,0.000000,0.000000,0.000000,0.000000,0.000000,0.000000,1648448602.969816,0.000000
221.000000,-32605.495465,-49960.194523,-5046.599215,6287.076329,-11613.228811,-39415.714373,-34278.098855,-18660.309155,0.108000,0.970000,0.136000,192.000000,0.000000,0.000000,0.000000,0.000000,0.000000,0.000000,0.000000,0.000000,0.000000,1648448602.977176,0.000000
222.000000,-32626.148477,-49982.546268,-5072.393128,6269.396099,-11636.005239,-39421.570530,-34305.837370,-18687.108897,0.108000,0.970000,0.136000,192.000000,0.000000,0.000000,0.000000,0.000000,0.000000,0.000000,0.000000,0.000000,0.000000,1648448602.977192,0.000000
223.000000,-32640.252428,-49992.403387,-5086.564134,6267.093869,-11646.219986,-39409.053553,-34324.791649,-18715.428557,0.108000,0.970000,0.136000,192.000000,0.000000,0.000000,0.000000,0.000000,0.000000,0.000000,0.000000,0.000000,0.000000,1648448602.984254,0.000000
224.000000,-32616.939559,-49968.263503,-5058.512695,6288.171564,-11632.607774,-39411.959280,-34289.408837,-18686.706565,0.108000,0.970000,0.136000,192.000000,0.000000,0.000000,0.000000,0.000000,0.000000,0.000000,0.000000,0.000000,0.000000,1648448602.992252,0.000000
225.000000,-32614.369108,-49967.838820,-5054.847009,6299.012160,-11622.482434,-39407.131303,-34270.231041,-18672.759077,0.108000,0.970000,0.136000,192.000000,0.000000,0.000000,0.000000,0.000000,0.000000,0.000000,0.000000,0.000000,0.000000,1648448602.992269,0.000000
226.000000,-32623.399213,-49977.315960,-5067.028709,6292.686617,-11632.607774,-39407.891263,-34303.982175,-18691.959225,0.108000,0.970000,0.136000,192.000000,0.000000,0.000000,0.000000,0.000000,0.000000,0.000000,0.000000,0.000000,0.000000,1648448602.998909,0.000000
227.000000,-32628.227190,-49984.222649,-5077.712843,6281.533096,-11644.834178,-39408.338297,-34305.949128,-18691.869818,0.108000,0.970000,0.136000,192.000000,0.000000,0.000000,0.000000,0.000000,0.000000,0.000000,0.000000,0.000000,0.000000,1648448602.998926,0.000000
228.000000,-32625.857905,-49981.607495,-5075.701186,6278.225038,-11647.315222,-39415.312042,-34301.501131,-18667.595824,0.108000,0.970000,0.136000,192.000000,0.000000,0.000000,0.000000,0.000000,0.000000,0.000000,0.000000,0.000000,0.000000,1648448603.006584,0.000000
229.000000,-32609.787000,-49968.621131,-5054.936416,6291.747843,-11629.411474,-39405.946661,-34291.956936,-18670.479199,0.108000,0.976000,0.140000,192.000000,3.000000,96.000000,30.000000,128.000000,4.000000,96.000000,0.000000,0.000000,0.000000,1648448603.006593,0.000000
230.000000,-32619.934692,-49977.025387,-5069.867381,6285.131727,-11631.043152,-39401.230443,-34289.408837,-18694.395565,0.108000,0.976000,0.140000,192.000000,0.000000,0.000000,0.000000,0.000000,0.000000,0.000000,0.000000,0.000000,0.000000,1648448603.014603,0.000000
231.000000,-32622.192219,-49978.254733,-5065.553494,6282.494221,-11634.641783,-39388.422893,-34306.798495,-18697.994196,0.108000,0.976000,0.140000,192.000000,0.000000,0.000000,0.000000,0.000000,0.000000,0.000000,0.000000,0.000000,0.000000,1648448603.014614,0.000000
232.000000,-32604.489637,-49957.244093,-5051.561302,6290.742015,-11628.718570,-39395.262527,-34294.594442,-18675.240120,0.108000,0.976000,0.140000,192.000000,0.000000,0.000000,0.000000,0.000000,0.000000,0.000000,0.000000,0.000000,0.000000,1648448603.021790,0.000000
233.000000,-32603.237939,-49958.205218,-5051.538950,6287.568067,-11632.317201,-39415.602614,-34278.769407,-18673.474333,0.108000,0.976000,0.140000,192.000000,0.000000,0.000000,0.000000,0.000000,0.000000,0.000000,0.000000,0.000000,0.000000,1648448603.021806,0.000000
234.000000,-32614.413811,-49970.833954,-5049.460238,6280.795488,-11636.340515,-39424.833885,-34295.510864,-18679.308138,0.108000,0.976000,0.140000,192.000000,0.000000,0.000000,0.000000,0.000000,0.000000,0.000000,0.000000,0.000000,0.000000,1648448603.029539,0.000000
235.000000,-32622.482791,-49978.321788,-5058.915026,6275.341663,-11635.893480,-39413.546254,-34303.713954,-18687.444173,0.108000,0.976000,0.140000,192.000000,0.000000,0.000000,0.000000,0.000000,0.000000,0.000000,0.000000,0.000000,0.000000,1648448603.029555,0.000000
236.000000,-32632.362262,-49988.670646,-5071.968445,6271.787735,-11635.044114,-39394.256698,-34306.150294,-18691.936873,0.108000,0.976000,0.140000,192.000000,0.000000,0.000000,0.000000,0.000000,0.000000,0.000000,0.000000,0.000000,0.000000,1648448603.037311,0.000000
237.000000,-32626.595512,-49982.546268,-5072.102555,6271.474811,-11635.915832,-39389.942812,-34300.450599,-18691.355728,0.108000,0.976000,0.140000,192.000000,0.000000,0.000000,0.000000,0.000000,0.000000,0.000000,0.000000,0.000000,0.000000,1648448603.037327,0.000000
238.000000,-32619.889989,-49976.354835,-5064.413555,6280.482564,-11626.125768,-39373.290762,-34288.760637,-18679.039917,0.108000,0.976000,0.140000,192.000000,0.000000,0.000000,0.000000,0.000000,0.000000,0.000000,0.000000,0.000000,0.000000,1648448603.044263,0.000000
239.000000,-32610.725774,-49964.955445,-5063.295968,6283.678863,-11626.841024,-39381.963239,-34270.253392,-18651.167292,0.104000,0.978000,0.142000,192.000000,3.000000,64.000000,30.000000,144.000000,4.000000,112.000000,0.000000,0.000000,0.000000,1648448603.051701,0.000000
240.000000,-32603.774381,-49959.143991,-5051.069564,6288.685654,-11623.689428,-39399.174082,-34263.011427,-18648.619193,0.104000,0.978000,0.142000,192.000000,0.000000,0.000000,0.000000,0.000000,0.000000,0.000000,0.000000,0.000000,0.000000,1648448603.051717,0.000000
241.000000,-32618.526532,-49974.969026,-5055.606968,6291.658436,-11617.140367,-39360.751433,-34279.618773,-18693.590903,0.104000,0.978000,0.142000,192.000000,0.000000,0.000000,0.000000,0.000000,0.000000,0.000000,0.000000,0.000000,0.000000,1648448603.058986,0.000000
242.000000,-32630.931751,-49986.122547,-5076.416442,6271.295997,-11641.593175,-39359.320922,-34318.689623,-18711.494650,0.104000,0.978000,0.142000,192.000000,0.000000,0.000000,0.000000,0.000000,0.000000,0.000000,0.000000,0.000000,0.000000,1648448603.059000,0.000000
243.000000,-32626.304940,-49975.304303,-5077.198753,6262.712927,-11655.026574,-39381.225631,-34309.815980,-18703.380967,0.104000,0.978000,0.142000,192.000000,0.000000,0.000000,0.000000,0.000000,0.000000,0.000000,0.000000,0.000000,0.000000,1648448603.067140,0.000000
244.000000,-32612.133934,-49962.094422,-5066.805192,6273.397061,-11646.868187,-39397.810626,-34294.437980,-18696.228408,0.104000,0.978000,0.142000,192.000000,0.000000,0.000000,0.000000,0.000000,0.000000,0.000000,0.000000,0.000000,0.000000,1648448603.067156,0.000000
245.000000,-32614.436163,-49969.805773,-5054.958767,6282.583628,-11635.804073,-39389.674591,-34283.664439,-18686.438344,0.104000,0.978000,0.142000,192.000000,0.000000,0.000000,0.000000,0.000000,0.000000,0.000000,0.000000,0.000000,0.000000,1648448603.075163,0.000000
246.000000,-32606.501294,-49960.954483,-5044.565206,6296.240544,-11623.421207,-39388.981687,-34269.962820,-18661.672611,0.104000,0.978000,0.142000,192.000000,0.000000,0.000000,0.000000,0.000000,0.000000,0.000000,0.000000,0.000000,0.000000,1648448603.075180,0.000000
247.000000,-32616.961910,-49970.252808,-5058.736212,6292.373692,-11627.846852,-39387.372361,-34278.925869,-18666.344126,0.104000,0.978000,0.142000,192.000000,0.000000,0.000000,0.000000,0.000000,0.000000,0.000000,0.000000,0.000000,0.000000,1648448603.081757,0.000000
248.000000,-32630.149440,-49987.083672,-5068.302759,6275.855753,-11644.185977,-39397.944736,-34294.974422,-18678.503475,0.104000,0.978000,0.142000,192.000000,0.000000,0.000000,0.000000,0.000000,0.000000,0.000000,0.000000,0.000000,0.000000,1648448603.081774,0.000000
249.000000,-32628.920094,-49987.150727,-5066.782840,6274.179372,-11645.750600,-39390.993344,-34299.847102,-18693.903827,0.106000,0.978000,0.134000,192.000000,3.000000,80.000000,30.000000,144.000000,4.000000,48.000000,0.000000,0.000000,0.000000,1648448603.089795,0.000000
250.000000,-32619.398251,-49976.444242,-5064.525314,6283.321236,-11642.062562,-39396.938908,-34289.744114,-18687.734745,0.106000,0.978000,0.134000,192.000000,0.000000,0.000000,0.000000,0.000000,0.000000,0.000000,0.000000,0.000000,0.000000,1648448603.089811,0.000000
251.000000,-32623.578027,-49981.786309,-5068.146297,6287.635122,-11637.458102,-39386.321829,-34292.873358,-18694.596731,0.106000,0.978000,0.134000,192.000000,0.000000,0.000000,0.000000,0.000000,0.000000,0.000000,0.000000,0.000000,0.000000,1648448603.097757,0.000000
252.000000,-32622.639253,-49983.194468,-5061.932512,6292.463099,-11634.261803,-39373.715445,-34289.185320,-18681.900940,0.106000,0.978000,0.134000,192.000000,0.000000,0.000000,0.000000,0.000000,0.000000,0.000000,0.000000,0.000000,0.000000,1648448603.097773,0.000000
253.000000,-32629.121259,-49987.642466,-5071.454355,6289.289151,-11641.257899,-39370.630905,-34288.000678,-18658.096332,0.106000,0.978000,0.134000,192.000000,0.000000,0.000000,0.000000,0.000000,0.000000,0.000000,0.000000,0.000000,0.000000,1648448603.104775,0.000000
254.000000,-32625.232056,-49984.848497,-5071.968445,6283.030663,-11643.850701,-39367.479309,-34305.658556,-18694.954359,0.106000,0.978000,0.134000,192.000000,0.000000,0.000000,0.000000,0.000000,0.000000,0.000000,0.000000,0.000000,0.000000,1648448603.111426,0.000000
255.000000,-32619.353547,-49977.293608,-5068.682738,6282.047186,-11639.760332,-39363.634808,-34293.387448,-18694.909655,0.106000,0.978000,0.134000,192.000000,0.000000,0.000000,0.000000,0.000000,0.000000,0.000000,0.000000,0.000000,0.000000,1648448603.111442,0.000000
0.000000,-32618.705346,-49979.126451,-5066.849895,6278.001520,-11641.481416,-39375.324771,-34284.603212,-18690.215789,0.106000,0.978000,0.134000,192.000000,0.000000,0.000000,0.000000,0.000000,0.000000,0.000000,0.000000,0.000000,0.000000,1648448603.119492,0.000000
1.000000,-32630.328254,-49995.420873,-5079.255114,6272.592398,-11649.885672,-39380.309210,-34302.596367,-18709.214772,0.106000,0.978000,0.134000,192.000000,0.000000,0.000000,0.000000,0.000000,0.000000,0.000000,0.000000,0.000000,0.000000,1648448603.119509,0.000000
2.000000,-32630.350605,-49992.962181,-5088.106404,6274.425241,-11649.304527,-39367.389902,-34311.984099,-18705.392624,0.106000,0.978000,0.134000,192.000000,0.000000,0.000000,0.000000,0.000000,0.000000,0.000000,0.000000,0.000000,0.000000,1648448603.127472,0.000000
3.000000,-32616.939559,-49976.533649,-5066.984006,6279.789660,-11644.990640,-39383.214937,-34301.277614,-18696.071946,0.110000,0.984000,0.132000,192.000000,3.000000,112.000000,30.000000,192.000000,4.000000,32.000000,0.000000,0.000000,0.000000,1648448603.127489,0.000000
4.000000,-32614.123239,-49976.332483,-5059.742041,6286.226962,-11636.631088,-39392.826187,-34295.667326,-18704.632664,0.110000,0.984000,0.132000,192.000000,0.000000,0.000000,0.000000,0.000000,0.000000,0.000000,0.000000,0.000000,0.000000,1648448603.134594,0.000000
5.000000,-32624.472096,-49987.351893,-5071.968445,6285.221134,-11635.893480,-39369.714483,-34301.456428,-18709.728862,0.110000,0.984000,0.132000,192.000000,0.000000,0.000000,0.000000,0.000000,0.000000,0.000000,0.000000,0.000000,0.000000,1648448603.134610,0.000000
6.000000,-32616.380765,-49977.830050,-5066.671081,6286.651645,-11633.166567,-39360.706730,-34287.553643,-18697.055423,0.110000,0.984000,0.132000,192.000000,0.000000,0.000000,0.000000,0.000000,0.000000,0.000000,0.000000,0.000000,0.000000,1648448603.142049,0.000000
7.000000,-32606.098963,-49962.452050,-5061.373718,6286.606942,-11632.898347,-39375.369474,-34283.083294,-18669.205149,0.110000,0.984000,0.132000,192.000000,0.000000,0.000000,0.000000,0.000000,0.000000,0.000000,0.000000,0.000000,0.000000,1648448603.142066,0.000000
8.000000,-32598.544073,-49948.102230,-5051.851875,6300.487375,-11623.398855,-39381.337390,-34264.911326,-18647.970992,0.110000,0.984000,0.132000,192.000000,0.000000,0.000000,0.000000,0.000000,0.000000,0.000000,0.000000,0.000000,0.000000,1648448603.150073,0.000000
9.000000,-32603.304995,-49957.020576,-5055.718727,6302.096701,-11620.671942,-39378.476367,-34279.059980,-18665.584167,0.110000,0.984000,0.132000,192.000000,0.000000,0.000000,0.000000,0.000000,0.000000,0.000000,0.000000,0.000000,0.000000,1648448603.150089,0.000000
10.000000,-32622.683957,-49979.238210,-5074.002454,6288.104509,-11636.899309,-39368.038102,-34305.233873,-18710.175897,0.110000,0.984000,0.132000,192.000000,0.000000,0.000000,0.000000,0.000000,0.000000,0.000000,0.000000,0.000000,0.000000,1648448603.157277,0.000000
11.000000,-32619.130030,-49977.986512,-5074.874172,6282.941256,-11645.996469,-39377.761111,-34294.907367,-18692.652129,0.110000,0.984000,0.132000,192.000000,0.000000,0.000000,0.000000,0.000000,0.000000,0.000000,0.000000,0.000000,0.000000,1648448603.157293,0.000000
12.000000,-32606.367183,-49964.508410,-5068.347462,6287.456308,-11643.157797,-39403.040934,-34297.343707,-18678.794048,0.110000,0.984000,0.132000,192.000000,0.000000,0.000000,0.000000,0.000000,0.000000,0.000000,0.000000,0.000000,0.000000,1648448603.163637,0.000000
13.000000,-32603.997899,-49960.798020,-5069.465049,6294.050073,-11637.391047,-39409.768809,-34287.173663,-18682.526789,0.110000,0.984000,0.132000,192.000000,0.000000,0.000000,0.000000,0.000000,0.000000,0.000000,0.000000,0.000000,0.000000,1648448603.163653,0.000000
14.000000,-32601.181579,-49961.960311,-5055.383450,6294.474756,-11633.591251,-39415.222635,-34294.460332,-18695.110821,0.114000,0.984000,0.126000,192.000000,3.000000,144.000000,30.000000,192.000000,3.000000,240.000000,0.000000,0.000000,0.000000,1648448603.171701,0.000000
15.000000,-32607.305957,-49970.565733,-5056.635148,6297.693407,-11627.310410,-39394.100236,-34295.823788,-18701.391661,0.114000,0.984000,0.126000,192.000000,0.000000,0.000000,0.000000,0.000000,0.000000,0.000000,0.000000,0.000000,0.000000,1648448603.179741,0.000000
16.000000,-32615.464343,-49977.807698,-5070.314416,6291.971361,-11632.160739,-39375.771806,-34294.996774,-18685.432516,0.114000,0.984000,0.126000,192.000000,0.000000,0.000000,0.000000,0.000000,0.000000,0.000000,0.000000,0.000000,0.000000,1648448603.179757,0.000000
17.000000,-32607.641233,-49970.118698,-5073.711881,6292.574858,-11632.943050,-39376.442358,-34278.456483,-18689.209961,0.114000,0.984000,0.126000,192.000000,0.000000,0.000000,0.000000,0.000000,0.000000,0.000000,0.000000,0.000000,0.000000,1648448603.186848,0.000000
18.000000,-32609.071745,-49970.588085,-5071.990797,6291.546678,-11632.898347,-39366.540535,-34285.430227,-18669.808646,0.114000,0.984000,0.126000,192.000000,0.000000,0.000000,0.000000,0.000000,0.000000,0.000000,0.000000,0.000000,0.000000,1648448603.186864,0.000000
19.000000,-32611.239864,-49971.593913,-5068.503924,6288.663303,-11636.631088,-39386.098312,-34300.540006,-18693.389737,0.114000,0.984000,0.126000,192.000000,0.000000,0.000000,0.000000,0.000000,0.000000,0.000000,0.000000,0.000000,0.000000,1648448603.194265,0.000000
20.000000,-32601.203931,-49961.669738,-5059.138544,6300.755596,-11624.650553,-39380.890355,-34291.867529,-18698.731804,0.114000,0.984000,0.126000,192.000000,0.000000,0.000000,0.000000,0.000000,0.000000,0.000000,0.000000,0.000000,0.000000,1648448603.194282,0.000000
21.000000,-32604.936672,-49967.794116,-5064.458259,6297.849869,-11632.473663,-39394.569623,-34284.625564,-18687.488876,0.114000,0.984000,0.126000,192.000000,0.000000,0.000000,0.000000,0.000000,0.000000,0.000000,0.000000,0.000000,0.000000,1648448603.202150,0.000000
22.000000,-32610.904588,-49972.622093,-5065.687605,6291.412567,-11634.842948,-39395.977783,-34286.994849,-18677.899978,0.114000,0.984000,0.126000,192.000000,0.000000,0.000000,0.000000,0.000000,0.000000,0.000000,0.000000,0.000000,0.000000,1648448603.202163,0.000000
23.000000,-32623.287454,-49986.971913,-5079.925666,6282.650683,-11646.152931,-39394.010829,-34297.701335,-18687.086545,0.114000,0.984000,0.126000,192.000000,0.000000,0.000000,0.000000,0.000000,0.000000,0.000000,0.000000,0.000000,0.000000,1648448603.210307,0.000000
24.000000,-32627.109602,-49991.755187,-5088.776957,6283.432994,-11645.325916,-39389.451073,-34300.852931,-18707.426632,0.104000,0.982000,0.126000,192.000000,3.000000,64.000000,30.000000,176.000000,3.000000,240.000000,0.000000,0.000000,0.000000,1648448603.210324,0.000000
25.000000,-32615.307881,-49973.829087,-5078.472802,6298.743939,-11633.345381,-39371.189698,-34292.314564,-18697.927141,0.104000,0.982000,0.126000,192.000000,0.000000,0.000000,0.000000,0.000000,0.000000,0.000000,0.000000,0.000000,0.000000,1648448603.217017,0.000000
26.000000,-32609.719945,-49966.073032,-5066.492267,6296.017026,-11639.000373,-39409.053553,-34274.120244,-18686.751269,0.104000,0.982000,0.126000,192.000000,0.000000,0.000000,0.000000,0.000000,0.000000,0.000000,0.000000,0.000000,0.000000,1648448603.217032,0.000000
27.000000,-32609.563483,-49976.533649,-5068.414517,6291.479622,-11640.877919,-39411.512245,-34286.659573,-18684.739612,0.104000,0.982000,0.126000,192.000000,0.000000,0.000000,0.000000,0.000000,0.000000,0.000000,0.000000,0.000000,0.000000,1648448603.225019,0.000000
28.000000,-32611.999823,-49979.551134,-5070.493230,6288.573896,-11642.889576,-39397.587108,-34292.761599,-18700.430536,0.104000,0.982000,0.126000,192.000000,0.000000,0.000000,0.000000,0.000000,0.000000,0.000000,0.000000,0.000000,0.000000,1648448603.225036,0.000000
29.000000,-32615.307881,-49979.081747,-5067.565151,6289.400910,-11638.307469,-39393.183815,-34290.571128,-18689.768754,0.104000,0.982000,0.126000,192.000000,0.000000,0.000000,0.000000,0.000000,0.000000,0.000000,0.000000,0.000000,0.000000,1648448603.231848,0.000000
30.000000,-32627.109602,-49989.944695,-5076.058814,6283.924733,-11636.564033,-39370.563849,-34306.530274,-18709.527696,0.104000,0.982000,0.126000,192.000000,0.000000,0.000000,0.000000,0.000000,0.000000,0.000000,0.000000,0.000000,0.000000,1648448603.240047,0.000000
31.000000,-32617.945387,-49976.734814,-5080.059776,6285.087023,-11638.978021,-39369.423910,-34291.576957,-18688.986443,0.104000,0.982000,0.126000,192.000000,0.000000,0.000000,0.000000,0.000000,0.000000,0.000000,0.000000,0.000000,0.000000,1648448603.240063,0.000000
32.000000,-32618.057146,-49978.992340,-5069.576808,6283.343587,-11642.464893,-39389.674591,-34287.933622,-18694.462621,0.104000,0.982000,0.126000,192.000000,0.000000,0.000000,0.000000,0.000000,0.000000,0.000000,0.000000,0.000000,0.000000,1648448603.246728,0.000000
33.000000,-32634.128050,-49995.912611,-5078.808079,6275.475773,-11650.690335,-39384.354876,-34297.321355,-18703.962112,0.104000,0.982000,0.126000,192.000000,0.000000,0.000000,0.000000,0.000000,0.000000,0.000000,0.000000,0.000000,0.000000,1648448603.246744,0.000000
34.000000,-32624.092117,-49984.915553,-5074.941227,6276.369843,-11647.717553,-39381.985591,-34287.888919,-18685.119591,0.104000,0.978000,0.124000,192.000000,3.000000,64.000000,30.000000,144.000000,3.000000,224.000000,0.000000,0.000000,0.000000,1648448603.254498,0.000000
35.000000,-32626.215533,-49990.548192,-5074.427137,6278.113279,-11643.224852,-39372.351989,-34295.421457,-18703.515077,0.104000,0.978000,0.124000,192.000000,0.000000,0.000000,0.000000,0.000000,0.000000,0.000000,0.000000,0.000000,0.000000,1648448603.254515,0.000000
36.000000,-32612.603320,-49976.623056,-5066.715785,6283.388291,-11644.141274,-39378.431663,-34282.077465,-18693.836772,0.104000,0.978000,0.124000,192.000000,0.000000,0.000000,0.000000,0.000000,0.000000,0.000000,0.000000,0.000000,0.000000,1648448603.262735,0.000000
37.000000,-32614.257349,-49978.165326,-5067.766317,6281.041358,-11645.124751,-39389.451073,-34273.986134,-18665.472408,0.104000,0.978000,0.124000,192.000000,0.000000,0.000000,0.000000,0.000000,0.000000,0.000000,0.000000,0.000000,0.000000,1648448603.262751,0.000000
38.000000,-32625.187352,-49989.274143,-5074.807116,6272.346529,-11649.483341,-39382.857309,-34298.796570,-18680.850408,0.104000,0.978000,0.124000,192.000000,0.000000,0.000000,0.000000,0.000000,0.000000,0.000000,0.000000,0.000000,0.000000,1648448603.269771,0.000000
39.000000,-32618.638291,-49983.552096,-5073.689529,6277.912113,-11647.136408,-39391.082751,-34296.717858,-18680.939815,0.104000,0.978000,0.124000,192.000000,0.000000,0.000000,0.000000,0.000000,0.000000,0.000000,0.000000,0.000000,0.000000,1648448603.269787,0.000000
40.000000,-32620.225265,-49986.435471,-5070.761451,6282.985959,-11641.883748,-39386.835919,-34305.032707,-18706.577266,0.104000,0.978000,0.124000,192.000000,0.000000,0.000000,0.000000,0.000000,0.000000,0.000000,0.000000,0.000000,0.000000,1648448603.277271,0.000000
41.000000,-32614.190294,-49978.925285,-5058.445639,6289.758538,-11632.451312,-39371.055588,-34285.139654,-18675.508341,0.104000,0.978000,0.124000,192.000000,0.000000,0.000000,0.000000,0.000000,0.000000,0.000000,0.000000,0.000000,0.000000,1648448603.277288,0.000000
42.000000,-32609.183503,-49971.303340,-5062.692471,6289.400910,-11639.223890,-39388.668762,-34275.148425,-18672.289690,0.104000,0.978000,0.124000,192.000000,0.000000,0.000000,0.000000,0.000000,0.000000,0.000000,0.000000,0.000000,0.000000,1648448603.285332,0.000000
43.000000,-32619.219437,-49982.814489,-5064.681776,6284.170602,-11647.024649,-39405.834902,-34284.983192,-18692.562722,0.104000,0.978000,0.124000,192.000000,0.000000,0.000000,0.000000,0.000000,0.000000,0.000000,0.000000,0.000000,0.000000,1648448603.285349,0.000000
44.000000,-32618.280663,-49988.916515,-5065.620549,6287.009273,-11639.693277,-39383.572565,-34285.899614,-18701.056385,0.098000,0.978000,0.126000,192.000000,3.000000,16.000000,30.000000,144.000000,3.000000,240.000000,0.000000,0.000000,0.000000,1648448603.292504,0.000000
45.000000,-32623.488620,-49995.443224,-5074.069509,6279.543791,-11645.527082,-39390.255736,-34289.744114,-18698.776507,0.098000,0.978000,0.126000,192.000000,0.000000,0.000000,0.000000,0.000000,0.000000,0.000000,0.000000,0.000000,0.000000,1648448603.298891,0.000000
46.000000,-32634.083347,-50006.105006,-5082.451413,6274.782869,-11651.159722,-39370.854422,-34306.418515,-18704.878533,0.098000,0.978000,0.126000,192.000000,0.000000,0.000000,0.000000,0.000000,0.000000,0.000000,0.000000,0.000000,0.000000,1648448603.298907,0.000000
47.000000,-32625.656739,-49995.622038,-5076.327035,6274.827573,-11654.333669,-39378.454015,-34284.156178,-18687.913559,0.098000,0.978000,0.126000,192.000000,0.000000,0.000000,0.000000,0.000000,0.000000,0.000000,0.000000,0.000000,0.000000,1648448603.306919,0.000000
48.000000,-32618.012442,-49990.525841,-5071.923741,6279.968474,-11648.768085,-39379.884527,-34279.439959,-18680.850408,0.098000,0.978000,0.126000,192.000000,0.000000,0.000000,0.000000,0.000000,0.000000,0.000000,0.000000,0.000000,0.000000,1648448603.306936,0.000000
49.000000,-32603.394401,-49974.566695,-5057.462163,6294.117128,-11636.362867,-39379.236326,-34267.146500,-18675.642452,0.098000,0.978000,0.126000,192.000000,0.000000,0.000000,0.000000,0.000000,0.000000,0.000000,0.000000,0.000000,0.000000,1648448603.314931,0.000000
50.000000,-32596.599471,-49962.250884,-5047.292119,6305.740035,-11626.617506,-39387.484120,-34251.924962,-18654.676515,0.098000,0.978000,0.126000,192.000000,0.000000,0.000000,0.000000,0.000000,0.000000,0.000000,0.000000,0.000000,0.000000,1648448603.314948,0.000000
51.000000,-32609.362317,-49980.221686,-5059.630282,6293.088948,-11638.732152,-39403.309155,-34269.180509,-18656.576414,0.098000,0.978000,0.126000,192.000000,0.000000,0.000000,0.000000,0.000000,0.000000,0.000000,0.000000,0.000000,0.000000,1648448603.322112,0.000000
52.000000,-32610.949291,-49983.797966,-5062.491305,6291.144346,-11639.581518,-39409.008850,-34269.605192,-18670.345088,0.098000,0.978000,0.126000,192.000000,0.000000,0.000000,0.000000,0.000000,0.000000,0.000000,0.000000,0.000000,0.000000,1648448603.322128,0.000000
53.000000,-32624.561503,-49995.622038,-5074.740061,6286.718701,-11640.721457,-39395.687210,-34285.720800,-18690.998100,0.098000,0.978000,0.126000,192.000000,0.000000,0.000000,0.000000,0.000000,0.000000,0.000000,0.000000,0.000000,0.000000,1648448603.329576,0.000000
54.000000,-32624.025062,-49992.179870,-5079.299817,6281.466041,-11644.521254,-39387.908803,-34266.498299,-18680.716298,0.102000,0.974000,0.128000,192.000000,3.000000,48.000000,30.000000,112.000000,4.000000,0.000000,0.000000,0.000000,0.000000,1648448603.329593,0.000000
55.000000,-32625.768498,-49994.526803,-5071.387299,6282.248352,-11640.050905,-39386.902974,-34279.663477,-18682.750306,0.102000,0.974000,0.128000,192.000000,0.000000,0.000000,0.000000,0.000000,0.000000,0.000000,0.000000,0.000000,0.000000,1648448603.337610,0.000000
56.000000,-32623.890951,-49996.091425,-5070.247360,6281.421337,-11640.050905,-39381.113873,-34286.637221,-18682.012699,0.102000,0.974000,0.128000,192.000000,0.000000,0.000000,0.000000,0.000000,0.000000,0.000000,0.000000,0.000000,0.000000,1648448603.337626,0.000000
57.000000,-32614.033832,-49979.975817,-5064.547666,6290.026759,-11636.005239,-39389.518129,-34268.934640,-18674.368402,0.102000,0.974000,0.128000,192.000000,0.000000,0.000000,0.000000,0.000000,0.000000,0.000000,0.000000,0.000000,0.000000,1648448603.345621,0.000000
58.000000,-32601.896835,-49968.934055,-5056.322224,6303.191936,-11629.187957,-39401.789236,-34251.276761,-18645.087617,0.102000,0.974000,0.128000,192.000000,0.000000,0.000000,0.000000,0.000000,0.000000,0.000000,0.000000,0.000000,0.000000,1648448603.345638,0.000000
59.000000,-32608.647061,-49977.584181,-5058.400936,6300.688541,-11628.159777,-39394.591975,-34258.831651,-18651.547271,0.102000,0.974000,0.128000,192.000000,0.000000,0.000000,0.000000,0.000000,0.000000,0.000000,0.000000,0.000000,0.000000,1648448603.351810,0.000000
60.000000,-32605.897797,-49973.650274,-5056.992776,6300.442672,-11625.365809,-39397.900033,-34268.107625,-18667.662879,0.102000,0.974000,0.128000,192.000000,0.000000,0.000000,0.000000,0.000000,0.000000,0.000000,0.000000,0.000000,0.000000,1648448603.359188,0.000000
61.000000,-32607.775343,-49971.057471,-5059.071488,6304.845965,-11620.984867,-39395.262527,-34270.678076,-18672.893187,0.102000,0.974000,0.128000,192.000000,0.000000,0.000000,0.000000,0.000000,0.000000,0.000000,0.000000,0.000000,0.000000,1648448603.359204,0.000000
62.000000,-32616.224303,-49981.831012,-5067.363985,6296.955800,-11627.533928,-39376.442358,-34265.581878,-18668.065210,0.102000,0.974000,0.128000,192.000000,0.000000,0.000000,0.000000,0.000000,0.000000,0.000000,0.000000,0.000000,0.000000,1648448603.367121,0.000000
63.000000,-32616.716041,-49984.155593,-5068.168648,6283.254180,-11643.560129,-39406.281937,-34271.482738,-18673.362574,0.102000,0.974000,0.128000,192.000000,0.000000,0.000000,0.000000,0.000000,0.000000,0.000000,0.000000,0.000000,0.000000,1648448603.367137,0.000000
64.000000,-32616.380765,-49986.346064,-5065.441735,6281.801317,-11640.855568,-39409.165312,-34274.366113,-18677.587053,0.108000,0.972000,0.134000,192.000000,3.000000,96.000000,30.000000,96.000000,4.000000,48.000000,0.000000,0.000000,0.000000,1648448603.375288,0.000000
65.000000,-32614.525570,-49983.172117,-5066.268750,6286.830459,-11636.027591,-39402.035105,-34272.019180,-18686.483048,0.108000,0.972000,0.134000,192.000000,0.000000,0.000000,0.000000,0.000000,0.000000,0.000000,0.000000,0.000000,0.000000,1648448603.375305,0.000000
66.000000,-32616.179599,-49985.027311,-5075.656483,6290.004407,-11635.871129,-39396.536576,-34261.670323,-18656.710524,0.108000,0.972000,0.134000,192.000000,0.000000,0.000000,0.000000,0.000000,0.000000,0.000000,0.000000,0.000000,0.000000,1648448603.381856,0.000000
67.000000,-32618.191256,-49991.688131,-5086.117099,6281.242523,-11644.275384,-39395.217823,-34276.690695,-18655.481178,0.108000,0.972000,0.134000,192.000000,0.000000,0.000000,0.000000,0.000000,0.000000,0.000000,0.000000,0.000000,0.000000,1648448603.381873,0.000000
68.000000,-32610.658718,-49982.836840,-5060.457296,6287.232791,-11635.021762,-39394.413161,-34267.951163,-18677.989385,0.108000,0.972000,0.134000,192.000000,0.000000,0.000000,0.000000,0.000000,0.000000,0.000000,0.000000,0.000000,0.000000,1648448603.389852,0.000000
69.000000,-32611.686899,-49981.898067,-5059.183247,6302.633143,-11623.845890,-39369.401559,-34275.684866,-18688.114725,0.108000,0.972000,0.134000,192.000000,0.000000,0.000000,0.000000,0.000000,0.000000,0.000000,0.000000,0.000000,0.000000,1648448603.389868,0.000000
70.000000,-32614.793791,-49977.762994,-5066.358157,6295.704102,-11630.439655,-39372.955486,-34271.035704,-18675.843617,0.108000,0.972000,0.134000,192.000000,0.000000,0.000000,0.000000,0.000000,0.000000,0.000000,0.000000,0.000000,0.000000,1648448603.397811,0.000000
71.000000,-32618.593588,-49983.797966,-5069.822677,6290.496146,-11636.698143,-39383.751379,-34276.221308,-18667.037030,0.108000,0.972000,0.134000,192.000000,0.000000,0.000000,0.000000,0.000000,0.000000,0.000000,0.000000,0.000000,0.000000,1648448603.397828,0.000000
72.000000,-32613.787963,-49980.087576,-5064.860590,6292.977189,-11637.122826,-39384.980724,-34278.031800,-18692.026280,0.108000,0.972000,0.134000,192.000000,0.000000,0.000000,0.000000,0.000000,0.000000,0.000000,0.000000,0.000000,0.000000,1648448603.405019,0.000000
73.000000,-32597.337079,-49963.614340,-5045.928663,6303.437806,-11628.919736,-39398.391771,-34255.724759,-18668.825170,0.108000,0.972000,0.134000,192.000000,0.000000,0.000000,0.000000,0.000000,0.000000,0.000000,0.000000,0.000000,0.000000,1648448603.405035,0.000000
74.000000,-32592.956137,-49961.245055,-5044.140523,6313.674905,-11620.604887,-39394.860196,-34245.130032,-18661.337335,0.106000,0.968000,0.132000,192.000000,3.000000,80.000000,30.000000,64.000000,4.000000,32.000000,0.000000,0.000000,0.000000,1648448603.411239,0.000000
75.000000,-32603.573215,-49973.717329,-5051.091915,6303.549564,-11625.119939,-39387.707637,-34265.805395,-18680.738649,0.106000,0.968000,0.132000,192.000000,0.000000,0.000000,0.000000,0.000000,0.000000,0.000000,0.000000,0.000000,0.000000,1648448603.411255,0.000000
76.000000,-32608.401192,-49975.371358,-5058.467991,6302.879012,-11629.299716,-39391.395675,-34270.052227,-18677.385888,0.106000,0.968000,0.132000,192.000000,0.000000,0.000000,0.000000,0.000000,0.000000,0.000000,0.000000,0.000000,0.000000,1648448603.419474,0.000000
77.000000,-32628.718928,-49997.209012,-5079.657445,6290.362035,-11639.737980,-39375.928268,-34302.015221,-18703.760946,0.106000,0.968000,0.132000,192.000000,0.000000,0.000000,0.000000,0.000000,0.000000,0.000000,0.000000,0.000000,0.000000,1648448603.427567,0.000000
78.000000,-32630.395309,-50000.405312,-5077.131698,6281.376634,-11645.236509,-39364.819451,-34292.761599,-18696.720147,0.106000,0.968000,0.132000,192.000000,0.000000,0.000000,0.000000,0.000000,0.000000,0.000000,0.000000,0.000000,0.000000,1648448603.427584,0.000000
79.000000,-32625.969663,-49993.655085,-5074.985930,6281.935427,-11643.895405,-39362.584277,-34273.360285,-18666.478236,0.106000,0.968000,0.132000,192.000000,0.000000,0.000000,0.000000,0.000000,0.000000,0.000000,0.000000,0.000000,0.000000,1648448603.434696,0.000000
80.000000,-32621.074631,-49986.971913,-5072.348424,6285.377596,-11641.973155,-39368.328675,-34266.855927,-18671.552082,0.106000,0.968000,0.132000,192.000000,0.000000,0.000000,0.000000,0.000000,0.000000,0.000000,0.000000,0.000000,0.000000,1648448603.434713,0.000000
81.000000,-32597.404134,-49964.687224,-5059.473820,6302.253163,-11634.440617,-39396.402466,-34246.627599,-18657.694001,0.106000,0.968000,0.132000,192.000000,0.000000,0.000000,0.000000,0.000000,0.000000,0.000000,0.000000,0.000000,0.000000,1648448603.442132,0.000000
82.000000,-32596.688878,-49965.290721,-5048.856741,6309.785701,-11624.114111,-39398.212957,-34243.811279,-18647.658068,0.106000,0.968000,0.132000,192.000000,0.000000,0.000000,0.000000,0.000000,0.000000,0.000000,0.000000,0.000000,0.000000,1648448603.442149,0.000000
83.000000,-32603.349698,-49969.805773,-5055.562264,6301.962590,-11631.579594,-39402.146864,-34248.214572,-18644.998210,0.106000,0.968000,0.132000,192.000000,0.000000,0.000000,0.000000,0.000000,0.000000,0.000000,0.000000,0.000000,0.000000,1648448603.449897,0.000000
84.000000,-32612.580968,-49975.416061,-5052.835352,6302.566088,-11624.941126,-39385.807739,-34272.287401,-18680.291615,0.104000,0.970000,0.134000,192.000000,3.000000,64.000000,30.000000,80.000000,4.000000,48.000000,0.000000,0.000000,0.000000,1648448603.449913,0.000000
85.000000,-32613.475038,-49980.869887,-5053.818828,6295.055901,-11625.410512,-39371.770843,-34267.459424,-18672.557911,0.104000,0.970000,0.134000,192.000000,0.000000,0.000000,0.000000,0.000000,0.000000,0.000000,0.000000,0.000000,0.000000,1648448603.458176,0.000000
86.000000,-32614.190294,-49981.965122,-5057.842142,6288.015102,-11635.692315,-39390.993344,-34279.529366,-18662.656088,0.104000,0.970000,0.134000,192.000000,0.000000,0.000000,0.000000,0.000000,0.000000,0.000000,0.000000,0.000000,0.000000,1648448603.458192,0.000000
87.000000,-32613.855018,-49979.975817,-5059.451468,6290.943180,-11637.972193,-39405.141998,-34277.204785,-18657.649297,0.104000,0.970000,0.134000,192.000000,0.000000,0.000000,0.000000,0.000000,0.000000,0.000000,0.000000,0.000000,0.000000,1648448603.464733,0.000000
88.000000,-32618.548884,-49982.948599,-5061.574884,6288.842116,-11636.631088,-39395.307230,-34275.416645,-18668.981632,0.104000,0.970000,0.134000,192.000000,0.000000,0.000000,0.000000,0.000000,0.000000,0.000000,0.000000,0.000000,0.000000,1648448603.464750,0.000000
89.000000,-32620.739355,-49982.121585,-5065.218218,6287.232791,-11637.703972,-39382.522033,-34283.597384,-18674.748382,0.104000,0.970000,0.134000,192.000000,0.000000,0.000000,0.000000,0.000000,0.000000,0.000000,0.000000,0.000000,0.000000,1648448603.472675,0.000000
90.000000,-32608.088268,-49970.431622,-5056.009299,6292.194878,-11634.239451,-39379.616306,-34263.570221,-18672.133228,0.104000,0.970000,0.134000,192.000000,0.000000,0.000000,0.000000,0.000000,0.000000,0.000000,0.000000,0.000000,0.000000,1648448603.472693,0.000000
91.000000,-32601.628614,-49964.396651,-5051.248378,6293.334817,-11632.250146,-39402.146864,-34253.064901,-18688.718222,0.104000,0.970000,0.134000,192.000000,0.000000,0.000000,0.000000,0.000000,0.000000,0.000000,0.000000,0.000000,0.000000,1648448603.479797,0.000000
92.000000,-32603.416753,-49966.765936,-5054.578788,6296.687579,-11627.265707,-39391.574489,-34248.035758,-18666.545292,0.104000,0.970000,0.134000,192.000000,0.000000,0.000000,0.000000,0.000000,0.000000,0.000000,0.000000,0.000000,0.000000,1648448603.487622,0.000000
93.000000,-32624.762669,-49988.402425,-5073.533067,6274.335834,-11649.751562,-39409.075905,-34291.912233,-18695.021414,0.104000,0.970000,0.134000,192.000000,0.000000,0.000000,0.000000,0.000000,0.000000,0.000000,0.000000,0.000000,0.000000,1648448603.487639,0.000000
94.000000,-32624.717966,-49990.481137,-5082.093785,6269.530209,-11652.813751,-39409.902920,-34279.641125,-18694.015586,0.100000,0.974000,0.136000,192.000000,3.000000,32.000000,30.000000,112.000000,4.000000,64.000000,0.000000,0.000000,0.000000,1648448603.494365,0.000000
95.000000,-32617.140724,-49982.903896,-5068.369814,6282.538925,-11642.710762,-39394.636678,-34264.419587,-18693.099164,0.100000,0.974000,0.136000,192.000000,0.000000,0.000000,0.000000,0.000000,0.000000,0.000000,0.000000,0.000000,0.000000,1648448603.494381,0.000000
96.000000,-32618.213608,-49985.563753,-5071.722576,6283.142422,-11646.823483,-39384.824262,-34272.399160,-18692.227446,0.100000,0.974000,0.136000,192.000000,0.000000,0.000000,0.000000,0.000000,0.000000,0.000000,0.000000,0.000000,0.000000,1648448603.502365,0.000000
97.000000,-32616.224303,-49983.060358,-5070.761451,6281.801317,-11648.589271,-39393.183815,-34273.919079,-18686.103068,0.100000,0.974000,0.136000,192.000000,0.000000,0.000000,0.000000,0.000000,0.000000,0.000000,0.000000,0.000000,0.000000,1648448603.502382,0.000000
98.000000,-32615.062012,-49976.176021,-5070.716747,6279.812012,-11646.264690,-39387.282954,-34270.007523,-18650.027353,0.100000,0.974000,0.136000,192.000000,0.000000,0.000000,0.000000,0.000000,0.000000,0.000000,0.000000,0.000000,0.000000,1648448603.510308,0.000000
99.000000,-32604.981375,-49970.968064,-5064.905294,6281.488393,-11640.274422,-39388.042913,-34252.193183,-18611.045910,0.100000,0.974000,0.136000,192.000000,0.000000,0.000000,0.000000,0.000000,0.000000,0.000000,0.000000,0.000000,0.000000,1648448603.510324,0.000000
100.000000,-32597.001803,-49968.576428,-5064.435907,6284.483526,-11637.793379,-39389.518129,-34248.438090,-18640.304344,0.100000,0.974000,0.136000,192.000000,0.000000,0.000000,0.000000,0.000000,0.000000,0.000000,0.000000,0.000000,0.000000,1648448603.516992,0.000000
101.000000,-32600.198102,-49970.051643,-5068.414517,6280.236695,-11644.565957,-39412.227501,-34261.849137,-18672.423801,0.100000,0.974000,0.136000,192.000000,0.000000,0.000000,0.000000,0.000000,0.000000,0.000000,0.000000,0.000000,0.000000,1648448603.517009,0.000000
102.000000,-32618.258312,-49986.793099,-5079.791555,6270.312520,-11660.927434,-39428.410164,-34286.480759,-18709.460641,0.100000,0.974000,0.136000,192.000000,0.000000,0.000000,0.000000,0.000000,0.000000,0.000000,0.000000,0.000000,0.000000,1648448603.525028,0.000000
103.000000,-32621.901646,-49989.542364,-5080.238590,6265.596302,-11660.346289,-39418.441286,-34281.518672,-18703.246856,0.100000,0.974000,0.136000,192.000000,0.000000,0.000000,0.000000,0.000000,0.000000,0.000000,0.000000,0.000000,0.000000,1648448603.525045,0.000000
104.000000,-32606.300128,-49976.220724,-5073.801288,6270.603093,-11652.903158,-39418.396582,-34257.535250,-18662.812550,0.094000,0.970000,0.140000,192.000000,2.000000,240.000000,30.000000,80.000000,4.000000,96.000000,0.000000,0.000000,0.000000,1648448603.533020,0.000000
105.000000,-32600.332212,-49967.302378,-5055.942244,6285.265837,-11633.121864,-39406.304289,-34240.011482,-18667.640527,0.094000,0.970000,0.140000,192.000000,0.000000,0.000000,0.000000,0.000000,0.000000,0.000000,0.000000,0.000000,0.000000,1648448603.533037,0.000000
106.000000,-32607.708288,-49972.890314,-5067.766317,6269.016119,-11650.220948,-39428.723088,-34264.911326,-18683.510266,0.094000,0.970000,0.140000,192.000000,0.000000,0.000000,0.000000,0.000000,0.000000,0.000000,0.000000,0.000000,0.000000,1648448603.540152,0.000000
107.000000,-32607.842399,-49973.829087,-5063.541837,6275.811049,-11646.287041,-39431.405298,-34270.745131,-18663.214882,0.094000,0.970000,0.140000,192.000000,0.000000,0.000000,0.000000,0.000000,0.000000,0.000000,0.000000,0.000000,0.000000,1648448603.546668,0.000000
108.000000,-32618.459477,-49985.943733,-5071.566113,6269.485506,-11649.550396,-39410.528768,-34278.255317,-18664.958318,0.094000,0.970000,0.140000,192.000000,0.000000,0.000000,0.000000,0.000000,0.000000,0.000000,0.000000,0.000000,0.000000,1648448603.546685,0.000000
109.000000,-32612.111582,-49978.433547,-5065.709956,6271.586570,-11648.432809,-39413.613309,-34267.124148,-18676.670632,0.094000,0.970000,0.140000,192.000000,0.000000,0.000000,0.000000,0.000000,0.000000,0.000000,0.000000,0.000000,0.000000,1648448603.554688,0.000000
110.000000,-32605.584872,-49969.761070,-5058.445639,6279.007349,-11640.676754,-39414.417972,-34254.987151,-18680.470429,0.094000,0.970000,0.140000,192.000000,0.000000,0.000000,0.000000,0.000000,0.000000,0.000000,0.000000,0.000000,0.000000,1648448603.554704,0.000000
111.000000,-32603.975547,-49966.117736,-5055.763430,6284.170602,-11635.960536,-39416.161408,-34261.245639,-18686.259530,0.094000,0.970000,0.140000,192.000000,0.000000,0.000000,0.000000,0.000000,0.000000,0.000000,0.000000,0.000000,0.000000,1648448603.562698,0.000000
112.000000,-32596.353602,-49958.696956,-5051.516599,6290.809070,-11631.423131,-39412.696888,-34258.228154,-18671.574434,0.094000,0.970000,0.140000,192.000000,0.000000,0.000000,0.000000,0.000000,0.000000,0.000000,0.000000,0.000000,0.000000,1648448603.562715,0.000000
113.000000,-32599.281680,-49961.222704,-5056.277520,6289.982055,-11635.804073,-39411.266376,-34258.541078,-18662.432571,0.094000,0.970000,0.140000,192.000000,0.000000,0.000000,0.000000,0.000000,0.000000,0.000000,0.000000,0.000000,0.000000,1648448603.569846,0.000000
114.000000,-32604.847265,-49958.942826,-5060.904331,6286.294018,-11637.502806,-39417.480161,-34251.500279,-18665.651222,0.104000,0.974000,0.140000,192.000000,3.000000,64.000000,30.000000,112.000000,4.000000,96.000000,0.000000,0.000000,0.000000,1648448603.569862,0.000000
115.000000,-32614.994957,-49975.192544,-5068.816849,6278.225038,-11639.939146,-39410.171140,-34275.215480,-18685.633681,0.104000,0.974000,0.140000,192.000000,0.000000,0.000000,0.000000,0.000000,0.000000,0.000000,0.000000,0.000000,0.000000,1648448603.577271,0.000000
116.000000,-32613.005652,-49976.488945,-5073.756584,6276.213381,-11641.704934,-39409.053553,-34284.156178,-18691.467487,0.104000,0.974000,0.140000,192.000000,0.000000,0.000000,0.000000,0.000000,0.000000,0.000000,0.000000,0.000000,0.000000,1648448603.577288,0.000000
117.000000,-32609.429372,-49974.991378,-5068.503924,6275.721642,-11641.146140,-39409.567643,-34277.271840,-18687.399469,0.104000,0.974000,0.140000,192.000000,0.000000,0.000000,0.000000,0.000000,0.000000,0.000000,0.000000,0.000000,0.000000,1648448603.585332,0.000000
118.000000,-32600.935710,-49965.693052,-5059.183247,6281.197820,-11634.194748,-39416.004946,-34264.285477,-18673.183760,0.104000,0.974000,0.140000,192.000000,0.000000,0.000000,0.000000,0.000000,0.000000,0.000000,0.000000,0.000000,0.000000,1648448603.585349,0.000000
119.000000,-32600.443971,-49963.659044,-5064.547666,6287.165736,-11626.684562,-39411.646356,-34256.730587,-18678.838751,0.104000,0.974000,0.140000,192.000000,0.000000,0.000000,0.000000,0.000000,0.000000,0.000000,0.000000,0.000000,0.000000,1648448603.593135,0.000000
120.000000,-32613.698556,-49979.774652,-5072.415480,6281.913076,-11630.752579,-39386.053608,-34276.802454,-18690.461658,0.104000,0.974000,0.140000,192.000000,0.000000,0.000000,0.000000,0.000000,0.000000,0.000000,0.000000,0.000000,0.000000,1648448603.593151,0.000000
121.000000,-32614.525570,-49978.478250,-5068.973311,6273.732337,-11644.633012,-39402.884472,-34273.181471,-18665.383001,0.104000,0.974000,0.140000,192.000000,0.000000,0.000000,0.000000,0.000000,0.000000,0.000000,0.000000,0.000000,0.000000,1648448603.599578,0.000000
122.000000,-32606.858922,-49969.090518,-5061.172552,6275.587532,-11642.286079,-39421.369364,-34267.884108,-18650.295574,0.104000,0.974000,0.140000,192.000000,0.000000,0.000000,0.000000,0.000000,0.000000,0.000000,0.000000,0.000000,0.000000,1648448603.607048,0.000000
123.000000,-32606.903625,-49969.716366,-5062.491305,6274.112317,-11638.955669,-39427.002004,-34264.039608,-18665.204187,0.104000,0.974000,0.140000,192.000000,0.000000,0.000000,0.000000,0.000000,0.000000,0.000000,0.000000,0.000000,0.000000,1648448603.607065,0.000000
124.000000,-32608.490599,-49972.599742,-5065.419384,6281.801317,-11634.217099,-39410.372306,-34271.885070,-18673.317870,0.104000,0.974000,0.140000,192.000000,0.000000,0.000000,0.000000,0.000000,0.000000,0.000000,0.000000,0.000000,0.000000,1648448603.614987,0.000000
125.000000,-32607.127143,-49975.773689,-5068.034538,6278.001520,-11637.972193,-39409.724106,-34261.335046,-18658.588071,0.096000,0.974000,0.138000,192.000000,3.000000,0.000000,30.000000,112.000000,4.000000,80.000000,0.000000,0.000000,0.000000,1648448603.615004,0.000000
126.000000,-32597.202968,-49963.301416,-5060.658462,6278.895590,-11635.960536,-39432.545237,-34237.038700,-18646.585184,0.096000,0.974000,0.138000,192.000000,0.000000,0.000000,0.000000,0.000000,0.000000,0.000000,0.000000,0.000000,0.000000,1648448603.622078,0.000000
127.000000,-32590.117465,-49952.349061,-5053.751773,6288.775061,-11628.293887,-39437.283806,-34238.245694,-18655.637640,0.096000,0.974000,0.138000,192.000000,0.000000,0.000000,0.000000,0.000000,0.000000,0.000000,0.000000,0.000000,0.000000,1648448603.622094,0.000000
128.000000,-32590.564500,-49952.393765,-5052.455372,6292.552506,-11624.270573,-39432.634644,-34241.285532,-18663.348992,0.096000,0.974000,0.138000,192.000000,0.000000,0.000000,0.000000,0.000000,0.000000,0.000000,0.000000,0.000000,0.000000,1648448603.629554,0.000000
129.000000,-32594.364297,-49958.071108,-5047.515636,6294.027721,-11618.973210,-39411.512245,-34230.802564,-18657.314021,0.096000,0.974000,0.138000,192.000000,0.000000,0.000000,0.000000,0.000000,0.000000,0.000000,0.000000,0.000000,0.000000,1648448603.629571,0.000000
130.000000,-32607.104791,-49966.564771,-5060.814924,6280.974302,-11630.640820,-39405.633736,-34267.370017,-18677.162370,0.096000,0.974000,0.138000,192.000000,0.000000,0.000000,0.000000,0.000000,0.000000,0.000000,0.000000,0.000000,0.000000,1648448603.637595,0.000000
131.000000,-32624.852076,-49989.520012,-5084.954808,6261.572988,-11647.136408,-39407.198358,-34288.492416,-18698.262417,0.096000,0.974000,0.138000,192.000000,0.000000,0.000000,0.000000,0.000000,0.000000,0.000000,0.000000,0.000000,0.000000,1648448603.637612,0.000000
132.000000,-32607.708288,-49973.382053,-5073.421308,6264.903398,-11646.957594,-39422.241082,-34268.599363,-18675.284824,0.096000,0.974000,0.138000,192.000000,0.000000,0.000000,0.000000,0.000000,0.000000,0.000000,0.000000,0.000000,0.000000,1648448603.645610,0.000000
133.000000,-32599.214625,-49963.256712,-5061.507828,6277.509782,-11633.904175,-39433.372251,-34261.871488,-18660.264452,0.096000,0.974000,0.138000,192.000000,0.000000,0.000000,0.000000,0.000000,0.000000,0.000000,0.000000,0.000000,0.000000,1648448603.645627,0.000000
134.000000,-32604.400230,-49969.068166,-5057.708032,6280.326102,-11629.098550,-39417.748382,-34270.722779,-18652.039010,0.096000,0.974000,0.138000,192.000000,0.000000,0.000000,0.000000,0.000000,0.000000,0.000000,0.000000,0.000000,0.000000,1648448603.652761,0.000000
135.000000,-32594.677221,-49959.166343,-5044.140523,6291.680788,-11616.089835,-39393.586146,-34255.568296,-18654.385943,0.098000,0.976000,0.130000,192.000000,3.000000,16.000000,30.000000,128.000000,4.000000,16.000000,0.000000,0.000000,0.000000,1648448603.652778,0.000000
136.000000,-32594.945442,-49957.355852,-5046.710974,6289.266800,-11617.833271,-39390.434550,-34241.687863,-18655.592937,0.098000,0.976000,0.130000,192.000000,0.000000,0.000000,0.000000,0.000000,0.000000,0.000000,0.000000,0.000000,0.000000,1648448603.659170,0.000000
137.000000,-32609.563483,-49972.622093,-5065.039404,6271.787735,-11634.261803,-39406.617213,-34255.858869,-18662.566681,0.098000,0.976000,0.130000,192.000000,0.000000,0.000000,0.000000,0.000000,0.000000,0.000000,0.000000,0.000000,0.000000,1648448603.659186,0.000000
138.000000,-32610.457553,-49974.142012,-5067.319282,6268.300863,-11638.486283,-39410.573472,-34274.768445,-18660.577376,0.098000,0.976000,0.130000,192.000000,0.000000,0.000000,0.000000,0.000000,0.000000,0.000000,0.000000,0.000000,0.000000,1648448603.667187,0.000000
139.000000,-32610.904588,-49971.772727,-5063.072451,6270.468983,-11633.859472,-39402.526844,-34269.068750,-18688.382946,0.098000,0.976000,0.130000,192.000000,0.000000,0.000000,0.000000,0.000000,0.000000,0.000000,0.000000,0.000000,0.000000,1648448603.675224,0.000000
140.000000,-32609.272910,-49966.430660,-5062.245436,6272.301826,-11634.306506,-39414.663841,-34259.591610,-18675.463638,0.098000,0.976000,0.130000,192.000000,0.000000,0.000000,0.000000,0.000000,0.000000,0.000000,0.000000,0.000000,0.000000,1648448603.675241,0.000000
141.000000,-32611.575140,-49970.319864,-5063.497134,6269.597264,-11633.770065,-39413.501550,-34265.045436,-18679.665766,0.098000,0.976000,0.130000,192.000000,0.000000,0.000000,0.000000,0.000000,0.000000,0.000000,0.000000,0.000000,0.000000,1648448603.681911,0.000000
142.000000,-32599.281680,-49960.574503,-5058.736212,6271.407756,-11630.909041,-39415.312042,-34259.077520,-18673.988423,0.098000,0.976000,0.130000,192.000000,0.000000,0.000000,0.000000,0.000000,0.000000,0.000000,0.000000,0.000000,0.000000,1648448603.681927,0.000000
143.000000,-32605.808390,-49965.067204,-5060.658462,6277.889762,-11625.924602,-39401.789236,-34255.680055,-18662.723143,0.098000,0.976000,0.130000,192.000000,0.000000,0.000000,0.000000,0.000000,0.000000,0.000000,0.000000,0.000000,0.000000,1648448603.689856,0.000000
144.000000,-32600.332212,-49956.774706,-5054.198808,6286.808108,-11618.682637,-39393.094408,-34244.414776,-18654.229481,0.098000,0.976000,0.130000,192.000000,0.000000,0.000000,0.000000,0.000000,0.000000,0.000000,0.000000,0.000000,0.000000,1648448603.689873,0.000000
145.000000,-32588.418733,-49946.112924,-5045.146351,6291.971361,-11613.608791,-39398.101198,-34238.648026,-18644.662934,0.102000,0.980000,0.130000,192.000000,3.000000,48.000000,30.000000,160.000000,4.000000,16.000000,0.000000,0.000000,0.000000,1648448603.697830,0.000000
146.000000,-32606.724811,-49965.603646,-5061.150201,6271.586570,-11628.852681,-39413.188626,-34247.208744,-18651.100236,0.102000,0.980000,0.130000,192.000000,0.000000,0.000000,0.000000,0.000000,0.000000,0.000000,0.000000,0.000000,0.000000,1648448603.697847,0.000000
147.000000,-32610.189332,-49962.340291,-5066.559323,6265.238674,-11636.362867,-39421.302309,-34251.343817,-18664.466579,0.102000,0.980000,0.130000,192.000000,0.000000,0.000000,0.000000,0.000000,0.000000,0.000000,0.000000,0.000000,0.000000,1648448603.705071,0.000000
148.000000,-32617.990091,-49976.511297,-5074.673006,6265.931578,-11633.658306,-39402.951527,-34280.244622,-18665.695925,0.102000,0.980000,0.130000,192.000000,0.000000,0.000000,0.000000,0.000000,0.000000,0.000000,0.000000,0.000000,0.000000,1648448603.705087,0.000000
149.000000,-32620.180562,-49982.099233,-5075.209448,6259.427221,-11634.910004,-39376.241192,-34285.944317,-18662.857254,0.102000,0.980000,0.130000,192.000000,0.000000,0.000000,0.000000,0.000000,0.000000,0.000000,0.000000,0.000000,0.000000,1648448603.712516,0.000000
150.000000,-32596.532416,-49957.400555,-5053.327090,6279.052052,-11618.257954,-39371.726140,-34234.535305,-18645.199376,0.102000,0.980000,0.130000,192.000000,0.000000,0.000000,0.000000,0.000000,0.000000,0.000000,0.000000,0.000000,0.000000,1648448603.712533,0.000000
151.000000,-32599.661660,-49960.261579,-5063.944169,6275.609884,-11625.611678,-39383.080826,-34246.158212,-18638.247983,0.102000,0.980000,0.130000,192.000000,0.000000,0.000000,0.000000,0.000000,0.000000,0.000000,0.000000,0.000000,0.000000,1648448603.720486,0.000000
152.000000,-32594.073724,-49954.450125,-5052.902407,6277.509782,-11621.834233,-39387.327658,-34252.327293,-18628.770844,0.102000,0.980000,0.130000,192.000000,0.000000,0.000000,0.000000,0.000000,0.000000,0.000000,0.000000,0.000000,0.000000,1648448603.720502,0.000000
153.000000,-32601.762724,-49960.485096,-5058.445639,6271.295997,-11625.611678,-39399.688172,-34255.523593,-18656.911690,0.102000,0.980000,0.130000,192.000000,0.000000,0.000000,0.000000,0.000000,0.000000,0.000000,0.000000,0.000000,0.000000,1648448603.727547,0.000000
