%OpenBCI Raw EEG Data
%Number of channels = 8
%Sample Rate = 256 Hz
%Board = OpenBCI_GUI$BoardCytonSerial
%Channels = Fp1, Fp2, F3, F4, Fz, Pz, O1, O2
%Data recorded at AIMS Lab (http://aimsl.uiu.ac.bd) by Rana Depto (mail@ranadepto.com)
%Brainwaves were obtained via the Ultracortex Mark IV Headset using the OpenBCI Cyton Board
%Recording Application = ConcentrateToday (https://concentrate.today)
%Data type = RAW data with noise
%Day No = 8
%Subject ID = 8
%Session ID = 7
%Record starting timestamp (UTC+6) = 2022-03-28T13:23:32.233167
%Record ending timestamp (UTC+6)   = 2022-03-28T13:23:58.458371
%Recorded durations = ~26 seconds
Sample Index, EXG Channel 0, EXG Channel 1, EXG Channel 2, EXG Channel 3, EXG Channel 4, EXG Channel 5, EXG Channel 6, EXG Channel 7, Accel Channel 0, Accel Channel 1, Accel Channel 2, Other, Other, Other, Other, Other, Other, Other, Analog Channel 0, Analog Channel 1, Analog Channel 2, Timestamp, Timestamp (Formatted)
219.000000,-20959.320183,-22206.368709,6236.427276,8801.804042,-14939.838939,27393.828618,9275.549266,31704.921330,0.226000,0.958000,0.112000,192.000000,0.000000,0.000000,0.000000,0.000000,0.000000,0.000000,0.000000,0.000000,0.000000,1648452212.237445,0.000000
220.000000,-20959.096665,-22210.079099,6235.846130,8798.451280,-14942.208224,27384.664403,9289.586161,31708.139981,0.226000,0.958000,0.112000,192.000000,0.000000,0.000000,0.000000,0.000000,0.000000,0.000000,0.000000,0.000000,0.000000,1648452212.237454,0.000000
221.000000,-20947.406703,-22197.852695,6241.322308,8805.201507,-14934.966258,27388.307737,9292.491888,31711.157466,0.226000,0.958000,0.112000,192.000000,0.000000,0.000000,0.000000,0.000000,0.000000,0.000000,0.000000,0.000000,0.000000,1648452212.245384,0.000000
222.000000,-20955.341572,-22202.591265,6234.303860,8802.407539,-14940.129511,27386.296080,9311.647333,31720.433440,0.226000,0.958000,0.112000,192.000000,0.000000,0.000000,0.000000,0.000000,0.000000,0.000000,0.000000,0.000000,0.000000,1648452212.245389,0.000000
223.000000,-20951.608831,-22206.681634,6235.622613,8804.776824,-14935.636811,27378.495321,9296.716368,31706.016565,0.232000,0.964000,0.110000,192.000000,7.000000,64.000000,30.000000,32.000000,3.000000,112.000000,0.000000,0.000000,0.000000,1648452212.252311,0.000000
224.000000,-20953.821654,-22208.089794,6231.644002,8800.462937,-14937.693171,27379.948184,9294.749414,31703.848446,0.232000,0.964000,0.110000,192.000000,0.000000,0.000000,0.000000,0.000000,0.000000,0.000000,0.000000,0.000000,0.000000,1648452212.252316,0.000000
225.000000,-20949.999505,-22198.947930,6237.075476,8807.459033,-14931.211165,27385.312603,9303.556002,31711.291577,0.232000,0.964000,0.110000,192.000000,0.000000,0.000000,0.000000,0.000000,0.000000,0.000000,0.000000,0.000000,0.000000,1648452212.259933,0.000000
226.000000,-20960.057790,-22205.765212,6236.807255,8805.045045,-14936.530881,27393.694507,9336.368362,31729.038862,0.232000,0.964000,0.110000,192.000000,0.000000,0.000000,0.000000,0.000000,0.000000,0.000000,0.000000,0.000000,0.000000,1648452212.259937,0.000000
227.000000,-20965.086933,-22206.882799,6230.526415,8801.312304,-14938.363724,27382.116304,9340.637546,31722.176876,0.232000,0.964000,0.110000,192.000000,0.000000,0.000000,0.000000,0.000000,0.000000,0.000000,0.000000,0.000000,0.000000,1648452212.267958,0.000000
228.000000,-20959.588404,-22201.741898,6231.353430,8805.290914,-14933.669857,27379.031763,9302.281952,31701.434457,0.232000,0.964000,0.110000,192.000000,0.000000,0.000000,0.000000,0.000000,0.000000,0.000000,0.000000,0.000000,0.000000,1648452212.267962,0.000000
229.000000,-20958.113189,-22205.675805,6228.268889,8799.702978,-14943.079942,27383.166836,9319.023409,31712.230350,0.232000,0.964000,0.110000,192.000000,0.000000,0.000000,0.000000,0.000000,0.000000,0.000000,0.000000,0.000000,0.000000,1648452212.275954,0.000000
230.000000,-20962.114151,-22207.285131,6222.636249,8798.317170,-14943.862253,27373.600289,9302.661932,31695.377135,0.232000,0.964000,0.110000,192.000000,0.000000,0.000000,0.000000,0.000000,0.000000,0.000000,0.000000,0.000000,0.000000,1648452212.275958,0.000000
231.000000,-20964.908119,-22208.872105,6224.424389,8800.753510,-14940.598898,27378.160045,9294.056510,31694.684231,0.232000,0.964000,0.110000,192.000000,0.000000,0.000000,0.000000,0.000000,0.000000,0.000000,0.000000,0.000000,0.000000,1648452212.282134,0.000000
232.000000,-20966.785665,-22210.190858,6226.480749,8796.931362,-14942.409389,27381.982193,9306.618191,31703.960205,0.232000,0.964000,0.110000,192.000000,0.000000,0.000000,0.000000,0.000000,0.000000,0.000000,0.000000,0.000000,0.000000,1648452212.282139,0.000000
233.000000,-20966.875072,-22211.174334,6226.368991,8795.769071,-14940.487139,27375.924870,9301.566696,31698.819303,0.232000,0.958000,0.102000,192.000000,7.000000,64.000000,29.000000,240.000000,3.000000,48.000000,0.000000,0.000000,0.000000,1648452212.289533,0.000000
234.000000,-20969.378468,-22212.247218,6222.479787,8791.969275,-14944.108122,27372.616812,9296.448147,31694.974803,0.232000,0.958000,0.102000,192.000000,0.000000,0.000000,0.000000,0.000000,0.000000,0.000000,0.000000,0.000000,0.000000,1648452212.297787,0.000000
235.000000,-20955.341572,-22197.495067,6234.102694,8804.642714,-14933.356933,27386.586653,9303.757167,31710.464562,0.232000,0.958000,0.102000,192.000000,0.000000,0.000000,0.000000,0.000000,0.000000,0.000000,0.000000,0.000000,0.000000,1648452212.297830,0.000000
236.000000,-20970.831331,-22207.642759,6225.989011,8792.684530,-14943.974011,27381.848083,9318.777540,31719.226446,0.232000,0.958000,0.102000,192.000000,0.000000,0.000000,0.000000,0.000000,0.000000,0.000000,0.000000,0.000000,0.000000,1648452212.305621,0.000000
237.000000,-20967.724439,-22203.038299,6224.692610,8792.572772,-14941.582375,27373.980269,9304.785348,31702.775562,0.232000,0.958000,0.102000,192.000000,0.000000,0.000000,0.000000,0.000000,0.000000,0.000000,0.000000,0.000000,0.000000,1648452212.305626,0.000000
238.000000,-20958.448465,-22203.127706,6223.284450,8790.806984,-14945.628041,27383.747981,9316.005923,31708.676423,0.232000,0.958000,0.102000,192.000000,0.000000,0.000000,0.000000,0.000000,0.000000,0.000000,0.000000,0.000000,0.000000,1648452212.312167,0.000000
239.000000,-20966.606851,-22215.778794,6217.048313,8787.878905,-14949.673706,27377.042458,9321.705618,31705.994213,0.232000,0.958000,0.102000,192.000000,0.000000,0.000000,0.000000,0.000000,0.000000,0.000000,0.000000,0.000000,0.000000,1648452212.312185,0.000000
240.000000,-20961.957689,-22201.518381,6229.319421,8804.910935,-14932.328753,27386.720763,9316.408255,31707.268263,0.232000,0.958000,0.102000,192.000000,0.000000,0.000000,0.000000,0.000000,0.000000,0.000000,0.000000,0.000000,0.000000,1648452212.320221,0.000000
241.000000,-20954.291040,-22195.975148,6236.226110,8808.174289,-14929.177157,27393.627452,9317.592897,31711.939777,0.232000,0.958000,0.102000,192.000000,0.000000,0.000000,0.000000,0.000000,0.000000,0.000000,0.000000,0.000000,0.000000,1648452212.320225,0.000000
242.000000,-20966.919776,-22210.168506,6229.632345,8794.875001,-14941.336506,27381.356344,9307.668723,31701.009774,0.232000,0.958000,0.102000,192.000000,0.000000,0.000000,0.000000,0.000000,0.000000,0.000000,0.000000,0.000000,0.000000,1648452212.328141,0.000000
243.000000,-20970.786628,-22214.728262,6229.319421,8790.248190,-14944.443398,27372.728571,9291.620170,31690.035068,0.228000,0.962000,0.102000,192.000000,7.000000,32.000000,30.000000,16.000000,3.000000,48.000000,0.000000,0.000000,0.000000,1648452212.328145,0.000000
244.000000,-20949.597174,-22192.242407,6239.176540,8811.236478,-14924.505642,27383.658574,9276.063356,31692.292594,0.228000,0.962000,0.102000,192.000000,0.000000,0.000000,0.000000,0.000000,0.000000,0.000000,0.000000,0.000000,0.000000,1648452212.334866,0.000000
245.000000,-20947.227889,-22190.051936,6243.490427,8815.393903,-14922.404578,27391.772257,9273.269388,31704.004908,0.228000,0.962000,0.102000,192.000000,0.000000,0.000000,0.000000,0.000000,0.000000,0.000000,0.000000,0.000000,0.000000,1648452212.334892,0.000000
246.000000,-20948.904270,-22200.892532,6239.735334,8801.669932,-14932.306401,27381.915138,9272.598836,31704.966033,0.228000,0.962000,0.102000,192.000000,0.000000,0.000000,0.000000,0.000000,0.000000,0.000000,0.000000,0.000000,0.000000,1648452212.342911,0.000000
247.000000,-20944.679790,-22195.371651,6240.428238,8804.530955,-14929.557136,27384.440885,9279.438469,31713.057365,0.228000,0.962000,0.102000,192.000000,0.000000,0.000000,0.000000,0.000000,0.000000,0.000000,0.000000,0.000000,0.000000,1648452212.342915,0.000000
248.000000,-20953.441674,-22200.847828,6234.505026,8798.317170,-14932.507567,27385.469065,9279.460821,31715.985443,0.228000,0.962000,0.102000,192.000000,0.000000,0.000000,0.000000,0.000000,0.000000,0.000000,0.000000,0.000000,0.000000,1648452212.349843,0.000000
249.000000,-20959.968383,-22210.682596,6228.179482,8786.336635,-14943.415218,27378.718839,9285.406385,31716.030147,0.228000,0.962000,0.102000,192.000000,0.000000,0.000000,0.000000,0.000000,0.000000,0.000000,0.000000,0.000000,0.000000,1648452212.357870,0.000000
250.000000,-20953.866357,-22204.804087,6231.532244,8787.945961,-14940.889471,27375.030801,9285.764013,31711.939777,0.228000,0.962000,0.102000,192.000000,0.000000,0.000000,0.000000,0.000000,0.000000,0.000000,0.000000,0.000000,0.000000,1648452212.357874,0.000000
251.000000,-20956.369752,-22212.694253,6229.297069,8783.207391,-14944.197529,27371.789798,9274.901065,31700.786257,0.228000,0.962000,0.102000,192.000000,0.000000,0.000000,0.000000,0.000000,0.000000,0.000000,0.000000,0.000000,0.000000,1648452212.364448,0.000000
252.000000,-20952.614659,-22207.553352,6229.341773,8789.667045,-14939.414256,27376.058981,9279.952559,31702.127362,0.228000,0.962000,0.102000,192.000000,0.000000,0.000000,0.000000,0.000000,0.000000,0.000000,0.000000,0.000000,0.000000,1648452212.364452,0.000000
253.000000,-20948.658401,-22197.226846,6232.806293,8799.501812,-14929.355971,27378.741190,9270.587179,31695.600652,0.224000,0.958000,0.102000,192.000000,7.000000,0.000000,29.000000,240.000000,3.000000,48.000000,0.000000,0.000000,0.000000,1648452212.372572,0.000000
254.000000,-20954.022819,-22194.052898,6234.817950,8800.753510,-14928.596011,27385.960804,9272.934112,31703.915501,0.224000,0.958000,0.102000,192.000000,0.000000,0.000000,0.000000,0.000000,0.000000,0.000000,0.000000,0.000000,0.000000,1648452212.372575,0.000000
255.000000,-20950.647706,-22194.611692,6233.365087,8796.439623,-14930.585316,27383.211539,9275.638673,31705.949510,0.224000,0.958000,0.102000,192.000000,0.000000,0.000000,0.000000,0.000000,0.000000,0.000000,0.000000,0.000000,0.000000,1648452212.380576,0.000000
0.000000,-20951.564127,-22201.384270,6232.068686,8788.035367,-14936.419122,27379.076466,9268.329652,31698.416972,0.224000,0.958000,0.102000,192.000000,0.000000,0.000000,0.000000,0.000000,0.000000,0.000000,0.000000,0.000000,0.000000,1648452212.380582,0.000000
1.000000,-20953.240508,-22202.680672,6230.057029,8786.940132,-14939.056628,27381.468103,9281.628940,31705.256606,0.224000,0.958000,0.102000,192.000000,0.000000,0.000000,0.000000,0.000000,0.000000,0.000000,0.000000,0.000000,0.000000,1648452212.387529,0.000000
2.000000,-20959.722514,-22210.414375,6226.324287,8782.983873,-14941.045933,27375.388429,9294.525897,31708.408202,0.224000,0.958000,0.102000,192.000000,0.000000,0.000000,0.000000,0.000000,0.000000,0.000000,0.000000,0.000000,0.000000,1648452212.387533,0.000000
3.000000,-20951.050037,-22198.970282,6236.136703,8793.377434,-14927.366665,27377.176568,9287.999187,31705.077792,0.224000,0.958000,0.102000,192.000000,0.000000,0.000000,0.000000,0.000000,0.000000,0.000000,0.000000,0.000000,0.000000,1648452212.395170,0.000000
4.000000,-20950.759465,-22196.958625,6237.768380,8796.506679,-14925.109139,27383.233891,9286.769842,31711.403336,0.224000,0.958000,0.102000,192.000000,0.000000,0.000000,0.000000,0.000000,0.000000,0.000000,0.000000,0.000000,0.000000,1648452212.395174,0.000000
5.000000,-20952.748770,-22197.048032,6233.856825,8796.551382,-14927.925459,27384.664403,9278.723214,31710.419859,0.224000,0.958000,0.102000,192.000000,0.000000,0.000000,0.000000,0.000000,0.000000,0.000000,0.000000,0.000000,0.000000,1648452212.403196,0.000000
6.000000,-20945.238584,-22190.431916,6233.096866,8802.988685,-14927.701941,27393.918025,9277.963254,31715.136077,0.224000,0.958000,0.102000,192.000000,0.000000,0.000000,0.000000,0.000000,0.000000,0.000000,0.000000,0.000000,0.000000,1648452212.403200,0.000000
7.000000,-20947.093779,-22198.031509,6228.447703,8795.746719,-14935.122721,27394.655632,9286.501621,31719.159391,0.224000,0.962000,0.102000,192.000000,7.000000,0.000000,30.000000,16.000000,3.000000,48.000000,0.000000,0.000000,0.000000,1648452212.410197,0.000000
8.000000,-20951.988811,-22206.413413,6224.290278,8787.834202,-14941.515320,27387.637185,9287.887429,31712.163295,0.224000,0.962000,0.102000,192.000000,0.000000,0.000000,0.000000,0.000000,0.000000,0.000000,0.000000,0.000000,0.000000,1648452212.417270,0.000000
9.000000,-20945.082122,-22200.289035,6231.018154,8792.639827,-14935.927383,27389.335917,9291.821336,31708.922292,0.224000,0.962000,0.102000,192.000000,0.000000,0.000000,0.000000,0.000000,0.000000,0.000000,0.000000,0.000000,0.000000,1648452212.417273,0.000000
10.000000,-20943.942183,-22196.533942,6234.348563,8796.640789,-14932.239346,27395.169722,9299.912667,31711.224522,0.224000,0.962000,0.102000,192.000000,0.000000,0.000000,0.000000,0.000000,0.000000,0.000000,0.000000,0.000000,0.000000,1648452212.424846,0.000000
11.000000,-20941.639953,-22191.795372,6235.868482,8803.480423,-14927.076093,27395.259129,9300.873792,31711.962129,0.224000,0.962000,0.102000,192.000000,0.000000,0.000000,0.000000,0.000000,0.000000,0.000000,0.000000,0.000000,0.000000,1648452212.424850,0.000000
12.000000,-20950.446540,-22202.144230,6227.710095,8792.662179,-14935.234479,27386.653708,9295.665836,31708.117629,0.224000,0.962000,0.102000,192.000000,0.000000,0.000000,0.000000,0.000000,0.000000,0.000000,0.000000,0.000000,0.000000,1648452212.432853,0.000000
13.000000,-20953.844005,-22207.352186,6226.100770,8784.190867,-14940.867119,27379.747019,9294.190621,31708.721126,0.224000,0.962000,0.102000,192.000000,0.000000,0.000000,0.000000,0.000000,0.000000,0.000000,0.000000,0.000000,0.000000,1648452212.432857,0.000000
14.000000,-20946.803206,-22197.383308,6234.080343,8794.271504,-14933.066360,27385.267900,9304.561830,31718.488838,0.224000,0.962000,0.102000,192.000000,0.000000,0.000000,0.000000,0.000000,0.000000,0.000000,0.000000,0.000000,0.000000,1648452212.440709,0.000000
15.000000,-20948.881918,-22194.522285,6235.287337,8798.697150,-14929.400674,27390.565263,9314.038970,31723.652091,0.224000,0.962000,0.102000,192.000000,0.000000,0.000000,0.000000,0.000000,0.000000,0.000000,0.000000,0.000000,0.000000,1648452212.440713,0.000000
16.000000,-20948.792511,-22198.724413,6230.995802,8795.366740,-14930.898241,27383.032725,9301.544345,31712.990309,0.224000,0.962000,0.102000,192.000000,0.000000,0.000000,0.000000,0.000000,0.000000,0.000000,0.000000,0.000000,0.000000,1648452212.447345,0.000000
17.000000,-20953.687543,-22202.658320,6230.794636,8790.538763,-14935.256831,27375.589594,9300.583220,31706.128324,0.226000,0.960000,0.098000,192.000000,7.000000,16.000000,30.000000,0.000000,3.000000,16.000000,0.000000,0.000000,0.000000,1648452212.447349,0.000000
18.000000,-20956.950898,-22207.285131,6228.671220,8788.482402,-14936.352067,27366.537138,9282.165382,31690.727972,0.226000,0.960000,0.098000,192.000000,0.000000,0.000000,0.000000,0.000000,0.000000,0.000000,0.000000,0.000000,0.000000,1648452212.455520,0.000000
19.000000,-20955.699200,-22211.017872,6227.844206,8787.431870,-14938.050799,27370.940431,9279.438469,31691.890263,0.226000,0.960000,0.098000,192.000000,0.000000,0.000000,0.000000,0.000000,0.000000,0.000000,0.000000,0.000000,0.000000,1648452212.455523,0.000000
20.000000,-20945.417398,-22201.183105,6230.906395,8794.472670,-14932.686380,27373.510882,9281.070147,31697.813475,0.226000,0.960000,0.098000,192.000000,0.000000,0.000000,0.000000,0.000000,0.000000,0.000000,0.000000,0.000000,0.000000,1648452212.463394,0.000000
21.000000,-20940.522366,-22195.885741,6232.962755,8799.747682,-14930.898241,27377.288327,9277.672682,31700.473332,0.226000,0.960000,0.098000,192.000000,0.000000,0.000000,0.000000,0.000000,0.000000,0.000000,0.000000,0.000000,0.000000,1648452212.463398,0.000000
22.000000,-20947.294944,-22203.619445,6225.989011,8792.595123,-14938.833110,27376.170740,9269.022556,31697.768771,0.226000,0.960000,0.098000,192.000000,0.000000,0.000000,0.000000,0.000000,0.000000,0.000000,0.000000,0.000000,0.000000,1648452212.470526,0.000000
23.000000,-20951.631183,-22209.944988,6218.456473,8782.805059,-14946.566814,27372.259184,9268.776687,31697.992289,0.226000,0.960000,0.098000,192.000000,0.000000,0.000000,0.000000,0.000000,0.000000,0.000000,0.000000,0.000000,0.000000,1648452212.476948,0.000000
24.000000,-20946.177357,-22206.324006,6221.026924,8784.526144,-14944.353991,27370.895728,9260.439487,31692.761981,0.226000,0.960000,0.098000,192.000000,0.000000,0.000000,0.000000,0.000000,0.000000,0.000000,0.000000,0.000000,0.000000,1648452212.476952,0.000000
25.000000,-20938.242488,-22198.009157,6226.167825,8789.287065,-14939.973049,27375.388429,9256.930263,31693.812513,0.226000,0.960000,0.098000,192.000000,0.000000,0.000000,0.000000,0.000000,0.000000,0.000000,0.000000,0.000000,0.000000,1648452212.485074,0.000000
26.000000,-20941.930526,-22202.367747,6222.569194,8783.699129,-14947.147959,27376.349554,9270.341309,31702.082658,0.226000,0.960000,0.098000,192.000000,0.000000,0.000000,0.000000,0.000000,0.000000,0.000000,0.000000,0.000000,0.000000,1648452212.485078,0.000000
27.000000,-20934.710912,-22193.248235,6230.839340,8794.271504,-14935.636811,27379.098818,9266.273292,31702.619100,0.230000,0.958000,0.098000,192.000000,7.000000,48.000000,29.000000,240.000000,3.000000,16.000000,0.000000,0.000000,0.000000,1648452212.493072,0.000000
28.000000,-20939.248316,-22193.985843,6231.845168,8796.707844,-14936.419122,27388.710068,9276.711557,31715.739574,0.230000,0.958000,0.098000,192.000000,0.000000,0.000000,0.000000,0.000000,0.000000,0.000000,0.000000,0.000000,0.000000,1648452212.493076,0.000000
29.000000,-20948.613697,-22199.283206,6225.720790,8789.443527,-14943.929308,27380.998716,9286.836897,31718.779411,0.230000,0.958000,0.098000,192.000000,0.000000,0.000000,0.000000,0.000000,0.000000,0.000000,0.000000,0.000000,0.000000,1648452212.499643,0.000000
30.000000,-20947.607869,-22199.126744,6223.731485,8788.013016,-14942.431741,27372.750923,9267.524990,31701.792085,0.230000,0.958000,0.098000,192.000000,0.000000,0.000000,0.000000,0.000000,0.000000,0.000000,0.000000,0.000000,0.000000,1648452212.499647,0.000000
31.000000,-20951.988811,-22209.632064,6219.238784,8780.122850,-14950.165445,27372.996792,9265.155705,31698.752248,0.230000,0.958000,0.098000,192.000000,0.000000,0.000000,0.000000,0.000000,0.000000,0.000000,0.000000,0.000000,0.000000,1648452212.507827,0.000000
32.000000,-20947.786683,-22205.496991,6219.395246,8782.715652,-14946.767979,27371.096894,9275.951597,31699.959242,0.230000,0.958000,0.098000,192.000000,0.000000,0.000000,0.000000,0.000000,0.000000,0.000000,0.000000,0.000000,0.000000,1648452212.507831,0.000000
33.000000,-20941.304677,-22200.400794,6226.056066,8788.728272,-14940.487139,27379.277632,9272.531780,31700.719202,0.230000,0.958000,0.098000,192.000000,0.000000,0.000000,0.000000,0.000000,0.000000,0.000000,0.000000,0.000000,0.000000,1648452212.515673,0.000000
34.000000,-20948.881918,-22206.815744,6224.737313,8782.201562,-14945.739799,27378.495321,9281.830106,31707.044745,0.230000,0.958000,0.098000,192.000000,0.000000,0.000000,0.000000,0.000000,0.000000,0.000000,0.000000,0.000000,0.000000,1648452212.515677,0.000000
35.000000,-20947.429055,-22208.872105,6220.289316,8778.737042,-14948.556119,27372.817978,9278.253827,31701.210940,0.230000,0.958000,0.098000,192.000000,0.000000,0.000000,0.000000,0.000000,0.000000,0.000000,0.000000,0.000000,0.000000,1648452212.522753,0.000000
36.000000,-20943.338685,-22209.565009,6219.171729,8775.943074,-14950.657183,27373.153254,9280.287836,31698.126399,0.230000,0.958000,0.098000,192.000000,0.000000,0.000000,0.000000,0.000000,0.000000,0.000000,0.000000,0.000000,0.000000,1648452212.522757,0.000000
37.000000,-20960.169549,-22220.137384,6213.404979,8768.835219,-14957.876796,27368.302926,9280.153725,31690.727972,0.228000,0.960000,0.098000,192.000000,7.000000,32.000000,30.000000,0.000000,3.000000,16.000000,0.000000,0.000000,0.000000,1648452212.529300,0.000000
38.000000,-20963.097628,-22219.355073,6212.533261,8767.404707,-14958.726163,27366.179510,9281.584237,31688.470446,0.228000,0.960000,0.098000,192.000000,0.000000,0.000000,0.000000,0.000000,0.000000,0.000000,0.000000,0.000000,0.000000,1648452212.529304,0.000000
39.000000,-20951.050037,-22206.614579,6225.296107,8780.659292,-14944.376343,27375.544891,9280.913684,31695.243024,0.228000,0.960000,0.098000,192.000000,0.000000,0.000000,0.000000,0.000000,0.000000,0.000000,0.000000,0.000000,0.000000,1648452212.537329,0.000000
40.000000,-20957.129712,-22212.113108,6222.904470,8776.993606,-14950.277203,27380.283461,9287.395690,31704.474295,0.228000,0.960000,0.098000,192.000000,0.000000,0.000000,0.000000,0.000000,0.000000,0.000000,0.000000,0.000000,0.000000,1648452212.545349,0.000000
41.000000,-20952.949936,-22207.598055,6217.741217,8771.785649,-14957.049782,27368.906423,9293.430661,31708.095277,0.228000,0.960000,0.098000,192.000000,0.000000,0.000000,0.000000,0.000000,0.000000,0.000000,0.000000,0.000000,0.000000,1648452212.545353,0.000000
42.000000,-20942.556374,-22205.474640,6219.372895,8771.450373,-14955.194587,27363.743170,9289.116775,31704.004908,0.228000,0.960000,0.098000,192.000000,0.000000,0.000000,0.000000,0.000000,0.000000,0.000000,0.000000,0.000000,0.000000,1648452212.552450,0.000000
43.000000,-20937.147252,-22205.340529,6228.626517,8783.140335,-14941.582375,27369.375809,9275.996301,31699.691021,0.228000,0.960000,0.098000,192.000000,0.000000,0.000000,0.000000,0.000000,0.000000,0.000000,0.000000,0.000000,0.000000,1648452212.552461,0.000000
44.000000,-20941.952877,-22208.581532,6227.575985,8780.905161,-14945.918613,27374.829635,9283.595894,31706.061269,0.228000,0.960000,0.098000,192.000000,0.000000,0.000000,0.000000,0.000000,0.000000,0.000000,0.000000,0.000000,0.000000,1648452212.559863,0.000000
45.000000,-20932.498089,-22200.087869,6229.788808,8784.794365,-14940.956526,27370.918080,9278.611455,31700.272167,0.228000,0.960000,0.098000,192.000000,0.000000,0.000000,0.000000,0.000000,0.000000,0.000000,0.000000,0.000000,0.000000,1648452212.559866,0.000000
46.000000,-20935.157947,-22204.155887,6229.855863,8782.223914,-14941.291802,27371.253356,9267.346176,31694.125437,0.228000,0.960000,0.098000,192.000000,0.000000,0.000000,0.000000,0.000000,0.000000,0.000000,0.000000,0.000000,0.000000,1648452212.567953,0.000000
47.000000,-20926.418415,-22200.221980,6237.746029,8788.437699,-14933.535747,27376.014277,9259.746582,31694.348954,0.220000,0.956000,0.102000,192.000000,6.000000,224.000000,29.000000,224.000000,3.000000,48.000000,0.000000,0.000000,0.000000,1648452212.567956,0.000000
48.000000,-20928.720645,-22200.803125,6239.131837,8788.683568,-14935.480349,27386.720763,9271.257731,31707.067097,0.220000,0.956000,0.102000,192.000000,0.000000,0.000000,0.000000,0.000000,0.000000,0.000000,0.000000,0.000000,0.000000,1648452212.575949,0.000000
49.000000,-20936.610810,-22207.396890,6232.180444,8781.754527,-14941.403561,27379.322336,9288.289760,31713.146772,0.220000,0.956000,0.102000,192.000000,0.000000,0.000000,0.000000,0.000000,0.000000,0.000000,0.000000,0.000000,0.000000,1648452212.575953,0.000000
50.000000,-20929.435900,-22197.271549,6234.862654,8788.884734,-14933.021657,27378.383562,9268.933149,31698.238158,0.220000,0.956000,0.102000,192.000000,0.000000,0.000000,0.000000,0.000000,0.000000,0.000000,0.000000,0.000000,0.000000,1648452212.582576,0.000000
51.000000,-20938.130729,-22207.039262,6225.385514,8780.212257,-14942.856424,27377.936527,9259.344251,31693.499588,0.220000,0.956000,0.102000,192.000000,0.000000,0.000000,0.000000,0.000000,0.000000,0.000000,0.000000,0.000000,0.000000,1648452212.582580,0.000000
52.000000,-20943.606906,-22213.118936,6222.569194,8773.417327,-14948.220843,27374.315545,9262.160571,31692.225539,0.220000,0.956000,0.102000,192.000000,0.000000,0.000000,0.000000,0.000000,0.000000,0.000000,0.000000,0.000000,0.000000,1648452212.590553,0.000000
53.000000,-20935.292057,-22199.260855,6230.191139,8784.861420,-14938.542538,27378.204748,9271.011862,31697.947585,0.220000,0.956000,0.102000,192.000000,0.000000,0.000000,0.000000,0.000000,0.000000,0.000000,0.000000,0.000000,0.000000,1648452212.590557,0.000000
54.000000,-20932.140461,-22194.432878,6238.170712,8793.288027,-14932.015828,27385.089086,9266.854437,31698.774600,0.220000,0.956000,0.102000,192.000000,0.000000,0.000000,0.000000,0.000000,0.000000,0.000000,0.000000,0.000000,0.000000,1648452212.597559,0.000000
55.000000,-20936.811976,-22197.338605,6234.482674,8787.096594,-14938.587241,27383.412705,9279.393766,31702.216769,0.220000,0.956000,0.102000,192.000000,0.000000,0.000000,0.000000,0.000000,0.000000,0.000000,0.000000,0.000000,0.000000,1648452212.605650,0.000000
56.000000,-20936.297886,-22199.014985,6232.828645,8788.549458,-14936.709694,27376.394257,9268.530818,31691.934966,0.220000,0.956000,0.102000,192.000000,0.000000,0.000000,0.000000,0.000000,0.000000,0.000000,0.000000,0.000000,0.000000,1648452212.605654,0.000000
57.000000,-20939.516537,-22200.870180,6232.716886,8790.739929,-14933.491043,27379.188225,9254.873902,31686.727010,0.224000,0.954000,0.100000,192.000000,7.000000,0.000000,29.000000,208.000000,3.000000,32.000000,0.000000,0.000000,0.000000,1648452212.612204,0.000000
58.000000,-20937.370770,-22204.178238,6231.196968,8786.806022,-14935.078017,27381.848083,9257.287891,31691.309117,0.224000,0.954000,0.100000,192.000000,0.000000,0.000000,0.000000,0.000000,0.000000,0.000000,0.000000,0.000000,0.000000,1648452212.612208,0.000000
59.000000,-20928.005389,-22198.411488,6235.689668,8788.571809,-14932.418160,27386.452542,9263.568731,31702.820266,0.224000,0.954000,0.100000,192.000000,0.000000,0.000000,0.000000,0.000000,0.000000,0.000000,0.000000,0.000000,0.000000,1648452212.620268,0.000000
60.000000,-20923.579743,-22189.269625,6239.131837,8795.076167,-14926.986686,27382.809208,9255.276234,31700.383925,0.224000,0.954000,0.100000,192.000000,0.000000,0.000000,0.000000,0.000000,0.000000,0.000000,0.000000,0.000000,0.000000,1648452212.620272,0.000000
61.000000,-20927.647761,-22194.164657,6234.102694,8791.030501,-14933.334581,27380.171702,9249.017745,31699.534559,0.224000,0.954000,0.100000,192.000000,0.000000,0.000000,0.000000,0.000000,0.000000,0.000000,0.000000,0.000000,0.000000,1648452212.628131,0.000000
62.000000,-20933.839194,-22198.255026,6230.660526,8787.878905,-14937.492006,27380.238757,9249.218911,31701.054478,0.224000,0.954000,0.100000,192.000000,0.000000,0.000000,0.000000,0.000000,0.000000,0.000000,0.000000,0.000000,0.000000,1648452212.628135,0.000000
63.000000,-20937.460177,-22203.686500,6228.559462,8783.408556,-14942.118817,27383.882092,9256.259710,31707.827056,0.224000,0.954000,0.100000,192.000000,0.000000,0.000000,0.000000,0.000000,0.000000,0.000000,0.000000,0.000000,0.000000,1648452212.635327,0.000000
64.000000,-20935.783796,-22202.434802,6227.575985,8781.687472,-14943.862253,27381.892786,9262.920530,31712.185647,0.224000,0.954000,0.100000,192.000000,0.000000,0.000000,0.000000,0.000000,0.000000,0.000000,0.000000,0.000000,0.000000,1648452212.635331,0.000000
65.000000,-20940.544717,-22207.821573,6220.959869,8775.205466,-14954.032296,27376.081333,9264.060469,31710.933949,0.224000,0.954000,0.100000,192.000000,0.000000,0.000000,0.000000,0.000000,0.000000,0.000000,0.000000,0.000000,0.000000,1648452212.642875,0.000000
66.000000,-20951.877052,-22218.192782,6213.337924,8763.135524,-14964.336451,27368.548795,9268.441411,31709.838713,0.224000,0.954000,0.100000,192.000000,0.000000,0.000000,0.000000,0.000000,0.000000,0.000000,0.000000,0.000000,0.000000,1648452212.642879,0.000000
67.000000,-20945.462101,-22207.910980,6220.535185,8772.076222,-14954.054648,27372.147426,9267.480286,31711.582149,0.222000,0.954000,0.110000,192.000000,6.000000,240.000000,29.000000,208.000000,3.000000,112.000000,0.000000,0.000000,0.000000,1648452212.650799,0.000000
68.000000,-20943.606906,-22204.982901,6219.551709,8773.014995,-14956.915671,27369.822844,9268.866094,31711.716260,0.222000,0.954000,0.110000,192.000000,0.000000,0.000000,0.000000,0.000000,0.000000,0.000000,0.000000,0.000000,0.000000,1648452212.650803,0.000000
69.000000,-20939.024799,-22203.127706,6218.344714,8774.020824,-14954.747552,27366.917117,9264.887484,31706.150676,0.222000,0.954000,0.110000,192.000000,0.000000,0.000000,0.000000,0.000000,0.000000,0.000000,0.000000,0.000000,0.000000,1648452212.657999,0.000000
70.000000,-20944.277459,-22211.241390,6213.628496,8769.461068,-14959.575529,27363.184376,9262.473495,31699.869835,0.222000,0.954000,0.110000,192.000000,0.000000,0.000000,0.000000,0.000000,0.000000,0.000000,0.000000,0.000000,0.000000,1648452212.664550,0.000000
71.000000,-20945.953840,-22209.833230,6212.801482,8769.684585,-14961.855407,27364.056094,9265.625091,31696.584129,0.222000,0.954000,0.110000,192.000000,0.000000,0.000000,0.000000,0.000000,0.000000,0.000000,0.000000,0.000000,0.000000,1648452212.664553,0.000000
72.000000,-20938.041322,-22197.942102,6220.199909,8779.787574,-14950.500721,27371.432170,9265.736850,31696.517074,0.222000,0.954000,0.110000,192.000000,0.000000,0.000000,0.000000,0.000000,0.000000,0.000000,0.000000,0.000000,0.000000,1648452212.672559,0.000000
73.000000,-20941.796415,-22208.559180,6213.203813,8769.841048,-14960.469599,27372.035667,9274.834010,31700.965071,0.222000,0.954000,0.110000,192.000000,0.000000,0.000000,0.000000,0.000000,0.000000,0.000000,0.000000,0.000000,0.000000,1648452212.672563,0.000000
74.000000,-20945.618563,-22211.509611,6211.594488,8765.705975,-14963.777657,27363.273783,9269.402536,31694.348954,0.222000,0.954000,0.110000,192.000000,0.000000,0.000000,0.000000,0.000000,0.000000,0.000000,0.000000,0.000000,0.000000,1648452212.680522,0.000000
75.000000,-20957.442636,-22217.209305,6208.934630,8764.096649,-14967.286881,27365.106626,9271.213027,31699.892187,0.222000,0.954000,0.110000,192.000000,0.000000,0.000000,0.000000,0.000000,0.000000,0.000000,0.000000,0.000000,0.000000,1648452212.680526,0.000000
76.000000,-20963.723476,-22226.373521,6203.525508,8756.586463,-14975.311157,27360.949202,9276.510391,31704.831923,0.222000,0.954000,0.110000,192.000000,0.000000,0.000000,0.000000,0.000000,0.000000,0.000000,0.000000,0.000000,0.000000,1648452212.687678,0.000000
77.000000,-20958.269651,-22218.461003,6208.644057,8766.488286,-14965.275224,27365.777178,9285.249923,31711.492742,0.222000,0.954000,0.110000,192.000000,0.000000,0.000000,0.000000,0.000000,0.000000,0.000000,0.000000,0.000000,0.000000,1648452212.687682,0.000000
78.000000,-20943.763369,-22205.653454,6221.093979,8778.893504,-14950.076038,27373.197958,9266.317995,31705.010737,0.226000,0.954000,0.106000,192.000000,7.000000,16.000000,29.000000,208.000000,3.000000,80.000000,0.000000,0.000000,0.000000,1648452212.695142,0.000000
79.000000,-20938.354246,-22202.680672,6227.061895,8780.256960,-14949.629003,27378.785894,9265.289815,31711.202170,0.226000,0.954000,0.106000,192.000000,0.000000,0.000000,0.000000,0.000000,0.000000,0.000000,0.000000,0.000000,0.000000,1648452212.695147,0.000000
80.000000,-20934.129767,-22200.132573,6227.531281,8782.514487,-14946.879738,27378.495321,9256.215007,31706.932987,0.226000,0.954000,0.106000,192.000000,0.000000,0.000000,0.000000,0.000000,0.000000,0.000000,0.000000,0.000000,0.000000,1648452212.703079,0.000000
81.000000,-20940.924697,-22203.574741,6224.178520,8782.469783,-14949.629003,27378.696487,9252.526969,31704.407239,0.226000,0.954000,0.106000,192.000000,0.000000,0.000000,0.000000,0.000000,0.000000,0.000000,0.000000,0.000000,0.000000,1648452212.703083,0.000000
82.000000,-20943.293982,-22208.402718,6221.362200,8780.525181,-14951.126570,27376.841292,9252.638728,31701.233292,0.226000,0.954000,0.106000,192.000000,0.000000,0.000000,0.000000,0.000000,0.000000,0.000000,0.000000,0.000000,0.000000,1648452212.711171,0.000000
83.000000,-20935.783796,-22205.251122,6225.407866,8784.190867,-14946.097427,27382.406876,9250.291795,31703.155542,0.226000,0.954000,0.106000,192.000000,0.000000,0.000000,0.000000,0.000000,0.000000,0.000000,0.000000,0.000000,0.000000,1648452212.711198,0.000000
84.000000,-20930.106453,-22199.350262,6232.046334,8786.269580,-14940.330677,27385.089086,9244.994431,31703.088487,0.226000,0.954000,0.106000,192.000000,0.000000,0.000000,0.000000,0.000000,0.000000,0.000000,0.000000,0.000000,0.000000,1648452212.717196,0.000000
85.000000,-20933.280400,-22200.311387,6234.817950,8789.287065,-14938.676648,27393.292176,9240.613489,31707.178856,0.226000,0.954000,0.106000,192.000000,0.000000,0.000000,0.000000,0.000000,0.000000,0.000000,0.000000,0.000000,0.000000,1648452212.725238,0.000000
86.000000,-20938.868337,-22205.653454,6230.347601,8785.017882,-14944.130474,27393.873321,9259.411306,31718.265321,0.226000,0.954000,0.106000,192.000000,0.000000,0.000000,0.000000,0.000000,0.000000,0.000000,0.000000,0.000000,0.000000,1648452212.725274,0.000000
87.000000,-20944.277459,-22210.749651,6224.849072,8781.441603,-14948.287898,27387.324260,9268.620225,31718.801763,0.226000,0.954000,0.106000,192.000000,0.000000,0.000000,0.000000,0.000000,0.000000,0.000000,0.000000,0.000000,0.000000,1648452212.733183,0.000000
88.000000,-20946.043247,-22209.095622,6220.602241,8781.441603,-14949.673706,27385.223196,9288.468574,31725.306121,0.232000,0.952000,0.108000,192.000000,7.000000,64.000000,29.000000,192.000000,3.000000,96.000000,0.000000,0.000000,0.000000,1648452212.733199,0.000000
89.000000,-20936.208479,-22197.875046,6225.609031,8789.667045,-14941.492968,27386.161969,9286.613379,31720.366385,0.232000,0.952000,0.108000,192.000000,0.000000,0.000000,0.000000,0.000000,0.000000,0.000000,0.000000,0.000000,0.000000,1648452212.741316,0.000000
90.000000,-20934.934430,-22200.087869,6226.950136,8790.739929,-14939.950697,27385.759638,9267.860266,31707.849408,0.232000,0.952000,0.108000,192.000000,0.000000,0.000000,0.000000,0.000000,0.000000,0.000000,0.000000,0.000000,0.000000,1648452212.741333,0.000000
91.000000,-20928.295961,-22196.265721,6232.292203,8797.601914,-14934.787444,27393.068658,9265.289815,31713.280882,0.232000,0.952000,0.108000,192.000000,0.000000,0.000000,0.000000,0.000000,0.000000,0.000000,0.000000,0.000000,0.000000,1648452212.747790,0.000000
92.000000,-20930.642895,-22195.036375,6228.000668,8795.769071,-14936.553232,27389.000641,9269.894274,31713.459696,0.232000,0.952000,0.108000,192.000000,0.000000,0.000000,0.000000,0.000000,0.000000,0.000000,0.000000,0.000000,0.000000,1648452212.747806,0.000000
93.000000,-20933.056883,-22192.734145,6229.230014,8798.138356,-14931.658200,27387.234853,9246.335536,31699.758077,0.232000,0.952000,0.108000,192.000000,0.000000,0.000000,0.000000,0.000000,0.000000,0.000000,0.000000,0.000000,0.000000,1648452212.755826,0.000000
94.000000,-20940.365903,-22201.898360,6225.698438,8787.878905,-14940.978878,27389.000641,9259.634824,31711.939777,0.232000,0.952000,0.108000,192.000000,0.000000,0.000000,0.000000,0.000000,0.000000,0.000000,0.000000,0.000000,0.000000,1648452212.755843,0.000000
95.000000,-20937.638991,-22199.462020,6225.050238,8787.722443,-14939.995401,27382.473932,9256.304414,31708.966995,0.232000,0.952000,0.108000,192.000000,0.000000,0.000000,0.000000,0.000000,0.000000,0.000000,0.000000,0.000000,0.000000,1648452212.763709,0.000000
96.000000,-20937.884860,-22201.585436,6223.977354,8787.431870,-14941.112988,27377.668307,9260.417135,31707.715298,0.232000,0.952000,0.108000,192.000000,0.000000,0.000000,0.000000,0.000000,0.000000,0.000000,0.000000,0.000000,0.000000,1648452212.763726,0.000000
97.000000,-20925.367883,-22188.196741,6233.432142,8801.938153,-14928.327790,27380.685792,9237.640707,31699.646318,0.232000,0.952000,0.108000,192.000000,0.000000,0.000000,0.000000,0.000000,0.000000,0.000000,0.000000,0.000000,0.000000,1648452212.770972,0.000000
98.000000,-20930.598191,-22194.544637,6229.520587,8798.473632,-14933.625154,27384.440885,9229.370562,31703.691984,0.230000,0.956000,0.102000,192.000000,7.000000,48.000000,29.000000,224.000000,3.000000,48.000000,0.000000,0.000000,0.000000,1648452212.770990,0.000000
99.000000,-20938.689523,-22205.139363,6222.703305,8787.655388,-14947.438532,27386.787818,9257.958443,31722.780373,0.230000,0.956000,0.102000,192.000000,0.000000,0.000000,0.000000,0.000000,0.000000,0.000000,0.000000,0.000000,0.000000,1648452212.777507,0.000000
100.000000,-20932.989828,-22194.008195,6226.279584,8792.013978,-14940.777712,27379.031763,9265.446277,31717.505362,0.230000,0.956000,0.102000,192.000000,0.000000,0.000000,0.000000,0.000000,0.000000,0.000000,0.000000,0.000000,0.000000,1648452212.777523,0.000000
101.000000,-20934.129767,-22190.297805,6229.252366,8796.394920,-14938.386075,27384.999679,9260.663004,31711.939777,0.230000,0.956000,0.102000,192.000000,0.000000,0.000000,0.000000,0.000000,0.000000,0.000000,0.000000,0.000000,0.000000,1648452212.785563,0.000000
102.000000,-20947.361999,-22210.906113,6220.334020,8776.255998,-14955.060477,27378.674135,9279.639635,31713.079716,0.230000,0.956000,0.102000,192.000000,0.000000,0.000000,0.000000,0.000000,0.000000,0.000000,0.000000,0.000000,0.000000,1648452212.793582,0.000000
103.000000,-20946.378523,-22210.749651,6215.774264,8771.517428,-14957.385058,27371.789798,9285.138164,31702.574396,0.230000,0.956000,0.102000,192.000000,0.000000,0.000000,0.000000,0.000000,0.000000,0.000000,0.000000,0.000000,0.000000,1648452212.793598,0.000000
104.000000,-20929.860584,-22192.644738,6226.614860,8787.565981,-14942.632907,27375.500187,9274.208161,31691.599690,0.230000,0.956000,0.102000,192.000000,0.000000,0.000000,0.000000,0.000000,0.000000,0.000000,0.000000,0.000000,0.000000,1648452212.800452,0.000000
105.000000,-20924.607924,-22191.102468,6232.426313,8791.298722,-14939.905994,27384.820865,9262.920530,31687.643431,0.230000,0.956000,0.102000,192.000000,0.000000,0.000000,0.000000,0.000000,0.000000,0.000000,0.000000,0.000000,0.000000,1648452212.800469,0.000000
106.000000,-20930.486432,-22193.471753,6226.838377,8784.392033,-14943.616384,27381.915138,9258.204312,31682.949565,0.230000,0.956000,0.102000,192.000000,0.000000,0.000000,0.000000,0.000000,0.000000,0.000000,0.000000,0.000000,0.000000,1648452212.808009,0.000000
107.000000,-20934.241525,-22196.600997,6224.960831,8782.469783,-14946.097427,27383.032725,9248.950690,31681.831978,0.230000,0.956000,0.102000,192.000000,0.000000,0.000000,0.000000,0.000000,0.000000,0.000000,0.000000,0.000000,0.000000,1648452212.808044,0.000000
108.000000,-20943.115168,-22209.609712,6214.142586,8769.461068,-14958.927328,27375.366077,9247.654289,31684.402428,0.228000,0.966000,0.110000,192.000000,7.000000,32.000000,30.000000,48.000000,3.000000,112.000000,0.000000,0.000000,0.000000,1648452212.816176,0.000000
109.000000,-20923.445633,-22191.236578,6227.553633,8784.101460,-14943.459921,27385.446714,9250.001222,31695.645356,0.228000,0.966000,0.110000,192.000000,0.000000,0.000000,0.000000,0.000000,0.000000,0.000000,0.000000,0.000000,0.000000,1648452212.816192,0.000000
110.000000,-20919.310560,-22183.145247,6229.721752,8791.365777,-14936.933212,27391.973423,9253.733963,31706.821228,0.228000,0.966000,0.110000,192.000000,0.000000,0.000000,0.000000,0.000000,0.000000,0.000000,0.000000,0.000000,0.000000,1648452212.824085,0.000000
111.000000,-20930.866412,-22188.956700,6225.877252,8787.074242,-14941.627078,27392.867493,9262.138219,31716.298368,0.228000,0.966000,0.110000,192.000000,0.000000,0.000000,0.000000,0.000000,0.000000,0.000000,0.000000,0.000000,0.000000,1648452212.824101,0.000000
112.000000,-20946.467930,-22208.939160,6215.640153,8770.578655,-14956.312174,27382.809208,9276.420984,31725.529638,0.228000,0.966000,0.110000,192.000000,0.000000,0.000000,0.000000,0.000000,0.000000,0.000000,0.000000,0.000000,0.000000,1648452212.830648,0.000000
113.000000,-20938.845985,-22207.843925,6214.723732,8774.020824,-14953.451151,27376.461312,9275.616321,31723.361519,0.228000,0.966000,0.110000,192.000000,0.000000,0.000000,0.000000,0.000000,0.000000,0.000000,0.000000,0.000000,0.000000,1648452212.830664,0.000000
114.000000,-20934.845023,-22204.468811,6214.634325,8775.786612,-14953.942889,27372.527405,9268.508466,31720.053461,0.228000,0.966000,0.110000,192.000000,0.000000,0.000000,0.000000,0.000000,0.000000,0.000000,0.000000,0.000000,0.000000,1648452212.838755,0.000000
115.000000,-20937.638991,-22198.098564,6215.617802,8779.653463,-14951.551253,27372.907385,9263.859303,31716.454830,0.228000,0.966000,0.110000,192.000000,0.000000,0.000000,0.000000,0.000000,0.000000,0.000000,0.000000,0.000000,0.000000,1648452212.838772,0.000000
116.000000,-20938.488357,-22192.957663,6216.802444,8779.519353,-14951.439494,27375.567243,9261.422963,31715.873684,0.228000,0.966000,0.110000,192.000000,0.000000,0.000000,0.000000,0.000000,0.000000,0.000000,0.000000,0.000000,0.000000,1648452212.845844,0.000000
117.000000,-20929.368845,-22191.482448,6217.316534,8778.379414,-14952.020639,27374.516711,9250.492960,31707.290615,0.228000,0.966000,0.110000,192.000000,0.000000,0.000000,0.000000,0.000000,0.000000,0.000000,0.000000,0.000000,0.000000,1648452212.852855,0.000000
118.000000,-20931.559316,-22198.076212,6219.976392,8775.630149,-14951.059514,27374.941394,9247.274309,31702.619100,0.220000,0.964000,0.112000,192.000000,6.000000,224.000000,30.000000,32.000000,3.000000,128.000000,0.000000,0.000000,0.000000,1648452212.852871,0.000000
119.000000,-20940.522366,-22204.647625,6217.987087,8770.131620,-14955.015773,27371.499225,9241.529911,31694.907748,0.220000,0.964000,0.112000,192.000000,0.000000,0.000000,0.000000,0.000000,0.000000,0.000000,0.000000,0.000000,0.000000,1648452212.860493,0.000000
120.000000,-20945.797377,-22211.844887,6214.187290,8762.688489,-14961.989517,27373.175606,9257.042021,31699.333393,0.220000,0.964000,0.112000,192.000000,0.000000,0.000000,0.000000,0.000000,0.000000,0.000000,0.000000,0.000000,0.000000,1648452212.860509,0.000000
121.000000,-20940.142386,-22208.670939,6217.875328,8767.829391,-14955.239291,27369.018181,9244.480341,31688.761018,0.220000,0.964000,0.112000,192.000000,0.000000,0.000000,0.000000,0.000000,0.000000,0.000000,0.000000,0.000000,0.000000,1648452212.868432,0.000000
122.000000,-20936.633162,-22206.391061,6222.457435,8771.338614,-14949.807817,27370.716914,9241.194635,31692.382001,0.220000,0.964000,0.112000,192.000000,0.000000,0.000000,0.000000,0.000000,0.000000,0.000000,0.000000,0.000000,0.000000,1648452212.868448,0.000000
123.000000,-20936.029665,-22201.764250,6229.967622,8780.905161,-14940.643601,27376.506016,9245.664983,31694.281899,0.220000,0.964000,0.112000,192.000000,0.000000,0.000000,0.000000,0.000000,0.000000,0.000000,0.000000,0.000000,0.000000,1648452212.876423,0.000000
124.000000,-20925.591400,-22188.777886,6238.058953,8791.969275,-14931.747607,27386.609004,9250.560016,31697.366440,0.220000,0.964000,0.112000,192.000000,0.000000,0.000000,0.000000,0.000000,0.000000,0.000000,0.000000,0.000000,0.000000,1648452212.876439,0.000000
125.000000,-20919.779947,-22182.072363,6243.356316,8796.417272,-14927.701941,27393.225121,9255.142123,31705.301309,0.220000,0.964000,0.112000,192.000000,0.000000,0.000000,0.000000,0.000000,0.000000,0.000000,0.000000,0.000000,0.000000,1648452212.882982,0.000000
126.000000,-20931.671075,-22189.537846,6238.953023,8790.494059,-14932.909898,27400.131810,9280.868981,31728.189496,0.220000,0.964000,0.112000,192.000000,0.000000,0.000000,0.000000,0.000000,0.000000,0.000000,0.000000,0.000000,0.000000,1648452212.882998,0.000000
127.000000,-20940.634124,-22201.540733,6225.765494,8779.362891,-14943.705790,27383.636222,9278.097365,31715.761926,0.220000,0.964000,0.112000,192.000000,0.000000,0.000000,0.000000,0.000000,0.000000,0.000000,0.000000,0.000000,0.000000,1648452212.891028,0.000000
128.000000,-20941.461139,-22207.866276,6221.004572,8771.293911,-14951.774770,27379.411743,9275.415155,31707.715298,0.218000,0.960000,0.108000,192.000000,6.000000,208.000000,30.000000,0.000000,3.000000,96.000000,0.000000,0.000000,0.000000,1648452212.891045,0.000000
129.000000,-20930.709950,-22196.489238,6227.665392,8780.122850,-14943.862253,27377.735362,9259.165437,31696.226501,0.218000,0.960000,0.108000,192.000000,0.000000,0.000000,0.000000,0.000000,0.000000,0.000000,0.000000,0.000000,0.000000,1648452212.898968,0.000000
130.000000,-20932.051054,-22196.153962,6227.732447,8780.860458,-14944.957488,27385.267900,9256.617338,31700.048649,0.218000,0.960000,0.108000,192.000000,0.000000,0.000000,0.000000,0.000000,0.000000,0.000000,0.000000,0.000000,0.000000,1648452212.898984,0.000000
131.000000,-20930.665246,-22195.103430,6227.508930,8783.520315,-14939.146035,27385.871397,9237.417190,31690.929138,0.218000,0.960000,0.108000,192.000000,0.000000,0.000000,0.000000,0.000000,0.000000,0.000000,0.000000,0.000000,0.000000,1648452212.905987,0.000000
132.000000,-20924.160889,-22191.817724,6230.906395,8785.755490,-14935.726218,27393.314528,9233.371524,31696.025335,0.218000,0.960000,0.108000,192.000000,0.000000,0.000000,0.000000,0.000000,0.000000,0.000000,0.000000,0.000000,0.000000,1648452212.912679,0.000000
133.000000,-20929.748825,-22195.684576,6226.346639,8783.028577,-14939.056628,27389.514731,9230.868129,31694.795989,0.218000,0.960000,0.108000,192.000000,0.000000,0.000000,0.000000,0.000000,0.000000,0.000000,0.000000,0.000000,0.000000,1648452212.912696,0.000000
134.000000,-20939.315371,-22200.244331,6219.372895,8777.328882,-14948.556119,27383.815036,9239.272385,31697.746420,0.218000,0.960000,0.108000,192.000000,0.000000,0.000000,0.000000,0.000000,0.000000,0.000000,0.000000,0.000000,0.000000,1648452212.920731,0.000000
135.000000,-20929.793528,-22190.767192,6225.653735,8786.426042,-14940.397732,27389.246510,9247.453123,31702.127362,0.218000,0.960000,0.108000,192.000000,0.000000,0.000000,0.000000,0.000000,0.000000,0.000000,0.000000,0.000000,0.000000,1648452212.920748,0.000000
136.000000,-20933.749787,-22200.870180,6220.982220,8777.887676,-14946.455055,27389.514731,9250.180036,31702.596748,0.218000,0.960000,0.108000,192.000000,0.000000,0.000000,0.000000,0.000000,0.000000,0.000000,0.000000,0.000000,0.000000,1648452212.928629,0.000000
137.000000,-20932.386331,-22201.898360,6219.484653,8776.524219,-14946.477407,27380.350516,9236.768989,31692.918443,0.218000,0.960000,0.108000,192.000000,0.000000,0.000000,0.000000,0.000000,0.000000,0.000000,0.000000,0.000000,0.000000,1648452212.928646,0.000000
138.000000,-20929.435900,-22196.980977,6223.127988,8780.346367,-14943.348163,27380.529330,9231.248108,31693.633699,0.224000,0.962000,0.106000,192.000000,7.000000,0.000000,30.000000,16.000000,3.000000,80.000000,0.000000,0.000000,0.000000,1648452212.935691,0.000000
139.000000,-20928.742996,-22194.969320,6224.200871,8780.301664,-14942.118817,27380.864606,9243.586271,31704.027260,0.224000,0.962000,0.106000,192.000000,0.000000,0.000000,0.000000,0.000000,0.000000,0.000000,0.000000,0.000000,0.000000,1648452212.935707,0.000000
140.000000,-20921.746900,-22187.459134,6227.330116,8786.940132,-14937.559061,27378.383562,9243.072181,31703.915501,0.224000,0.962000,0.106000,192.000000,0.000000,0.000000,0.000000,0.000000,0.000000,0.000000,0.000000,0.000000,0.000000,1648452212.943293,0.000000
141.000000,-20922.216287,-22190.722488,6223.150340,8783.632074,-14940.420084,27377.377734,9245.530873,31701.926196,0.224000,0.962000,0.106000,192.000000,0.000000,0.000000,0.000000,0.000000,0.000000,0.000000,0.000000,0.000000,0.000000,1648452212.943309,0.000000
142.000000,-20922.216287,-22191.348337,6226.972488,8783.252094,-14938.833110,27380.708144,9248.771876,31702.552045,0.224000,0.962000,0.106000,192.000000,0.000000,0.000000,0.000000,0.000000,0.000000,0.000000,0.000000,0.000000,0.000000,1648452212.951290,0.000000
143.000000,-20925.233772,-22192.801200,6229.677049,8781.016920,-14940.375381,27376.818940,9250.470609,31701.635623,0.224000,0.962000,0.106000,192.000000,0.000000,0.000000,0.000000,0.000000,0.000000,0.000000,0.000000,0.000000,0.000000,1648452212.951306,0.000000
144.000000,-20928.452424,-22196.377480,6226.346639,8779.407594,-14942.297631,27372.236833,9247.877806,31694.170141,0.224000,0.962000,0.106000,192.000000,0.000000,0.000000,0.000000,0.000000,0.000000,0.000000,0.000000,0.000000,0.000000,1648452212.959271,0.000000
145.000000,-20925.166717,-22198.322081,6224.200871,8779.452298,-14943.035238,27371.834501,9236.321954,31684.916518,0.224000,0.962000,0.106000,192.000000,0.000000,0.000000,0.000000,0.000000,0.000000,0.000000,0.000000,0.000000,0.000000,1648452212.959287,0.000000
146.000000,-20928.251258,-22195.595169,6220.468130,8781.978045,-14943.549328,27378.249452,9253.108114,31698.618138,0.224000,0.962000,0.106000,192.000000,0.000000,0.000000,0.000000,0.000000,0.000000,0.000000,0.000000,0.000000,0.000000,1648452212.965358,0.000000
147.000000,-20923.691502,-22194.142305,6222.479787,8785.084937,-14939.704828,27375.947222,9248.570710,31696.338260,0.224000,0.962000,0.106000,192.000000,0.000000,0.000000,0.000000,0.000000,0.000000,0.000000,0.000000,0.000000,0.000000,1648452212.972986,0.000000
148.000000,-20924.406758,-22194.701099,6225.206700,8782.000396,-14942.096465,27375.053152,9255.276234,31700.138056,0.224000,0.962000,0.102000,192.000000,7.000000,0.000000,30.000000,16.000000,3.000000,48.000000,0.000000,0.000000,0.000000,1648452212.973002,0.000000
149.000000,-20932.878069,-22202.233637,6219.216432,8771.316263,-14950.388962,27362.312658,9247.967213,31686.324678,0.224000,0.962000,0.102000,192.000000,0.000000,0.000000,0.000000,0.000000,0.000000,0.000000,0.000000,0.000000,0.000000,1648452212.980888,0.000000
150.000000,-20930.218211,-22195.371651,6225.921956,8776.725385,-14945.315116,27372.482702,9247.676640,31689.230405,0.224000,0.962000,0.102000,192.000000,0.000000,0.000000,0.000000,0.000000,0.000000,0.000000,0.000000,0.000000,0.000000,1648452212.980923,0.000000
151.000000,-20939.650648,-22199.283206,6219.261136,8772.635016,-14951.618308,27373.533234,9252.392859,31693.007850,0.224000,0.962000,0.102000,192.000000,0.000000,0.000000,0.000000,0.000000,0.000000,0.000000,0.000000,0.000000,0.000000,1648452212.988060,0.000000
152.000000,-20933.973305,-22196.399831,6223.686781,8775.943074,-14947.416180,27371.454522,9237.283079,31686.592899,0.224000,0.962000,0.102000,192.000000,0.000000,0.000000,0.000000,0.000000,0.000000,0.000000,0.000000,0.000000,0.000000,1648452212.988076,0.000000
153.000000,-20935.247354,-22202.390099,6218.054142,8769.617530,-14954.188759,27368.794664,9229.638783,31683.374248,0.224000,0.962000,0.102000,192.000000,0.000000,0.000000,0.000000,0.000000,0.000000,0.000000,0.000000,0.000000,0.000000,1648452212.995513,0.000000
154.000000,-20941.550546,-22207.218076,6210.767473,8762.464972,-14963.129456,27370.247527,9244.480341,31694.639527,0.224000,0.962000,0.102000,192.000000,0.000000,0.000000,0.000000,0.000000,0.000000,0.000000,0.000000,0.000000,0.000000,1648452212.995529,0.000000
155.000000,-20940.947049,-22207.218076,6209.404017,8761.079164,-14964.068230,27374.337897,9256.259710,31703.379059,0.224000,0.962000,0.102000,192.000000,0.000000,0.000000,0.000000,0.000000,0.000000,0.000000,0.000000,0.000000,0.000000,1648452213.003303,0.000000
156.000000,-20951.117093,-22220.137384,6197.669351,8750.797361,-14976.004061,27372.080370,9262.808771,31703.691984,0.224000,0.962000,0.102000,192.000000,0.000000,0.000000,0.000000,0.000000,0.000000,0.000000,0.000000,0.000000,0.000000,1648452213.003314,0.000000
157.000000,-20944.165700,-22216.941084,6197.758758,8752.741963,-14972.852465,27362.066789,9259.746582,31698.819303,0.224000,0.962000,0.102000,192.000000,0.000000,0.000000,0.000000,0.000000,0.000000,0.000000,0.000000,0.000000,0.000000,1648452213.011589,0.000000
158.000000,-20934.889726,-22205.899323,6206.319476,8765.035422,-14959.910805,27363.072617,9239.026515,31691.532635,0.226000,0.960000,0.100000,192.000000,7.000000,16.000000,30.000000,0.000000,3.000000,32.000000,0.000000,0.000000,0.000000,1648452213.011605,0.000000
159.000000,-20931.760482,-22202.166581,6208.867575,8768.790516,-14957.094485,27365.777178,9234.511463,31691.800856,0.226000,0.960000,0.100000,192.000000,0.000000,0.000000,0.000000,0.000000,0.000000,0.000000,0.000000,0.000000,0.000000,1648452213.018196,0.000000
160.000000,-20918.707063,-22191.214227,6218.389418,8777.217123,-14948.801988,27370.806321,9239.048867,31694.304251,0.226000,0.960000,0.100000,192.000000,0.000000,0.000000,0.000000,0.000000,0.000000,0.000000,0.000000,0.000000,0.000000,1648452213.018212,0.000000
161.000000,-20911.308636,-22184.396945,6223.932651,8784.749661,-14940.710657,27370.180472,9214.730169,31681.988440,0.226000,0.960000,0.100000,192.000000,0.000000,0.000000,0.000000,0.000000,0.000000,0.000000,0.000000,0.000000,0.000000,1648452213.025145,0.000000
162.000000,-20916.628351,-22187.213264,6221.831587,8782.514487,-14945.248061,27377.198920,9214.886631,31686.816417,0.226000,0.960000,0.100000,192.000000,0.000000,0.000000,0.000000,0.000000,0.000000,0.000000,0.000000,0.000000,0.000000,1648452213.025162,0.000000
163.000000,-20920.249333,-22194.119953,6216.713037,8774.534914,-14952.422971,27375.477836,9232.030419,31691.376172,0.226000,0.960000,0.100000,192.000000,0.000000,0.000000,0.000000,0.000000,0.000000,0.000000,0.000000,0.000000,0.000000,1648452213.033267,0.000000
164.000000,-20930.441729,-22202.144230,6212.309743,8765.683623,-14959.709640,27370.068713,9241.753428,31691.331469,0.226000,0.960000,0.100000,192.000000,0.000000,0.000000,0.000000,0.000000,0.000000,0.000000,0.000000,0.000000,0.000000,1648452213.041224,0.000000
165.000000,-20939.918869,-22212.403680,6204.196060,8758.218140,-14968.873855,27360.323353,9229.683486,31681.451998,0.226000,0.960000,0.100000,192.000000,0.000000,0.000000,0.000000,0.000000,0.000000,0.000000,0.000000,0.000000,0.000000,1648452213.041240,0.000000
166.000000,-20940.969401,-22213.297750,6201.066816,8758.285196,-14972.673651,27362.424417,9241.239338,31693.030202,0.226000,0.960000,0.100000,192.000000,0.000000,0.000000,0.000000,0.000000,0.000000,0.000000,0.000000,0.000000,0.000000,1648452213.047757,0.000000
167.000000,-20925.859621,-22198.009157,6213.069703,8774.154934,-14955.306346,27368.504091,9245.821446,31701.993251,0.226000,0.960000,0.100000,192.000000,0.000000,0.000000,0.000000,0.000000,0.000000,0.000000,0.000000,0.000000,0.000000,1648452213.047773,0.000000
168.000000,-20920.584610,-22192.309462,6221.876290,8781.799231,-14948.556119,27382.317469,9260.059507,31720.008757,0.226000,0.966000,0.100000,192.000000,7.000000,16.000000,30.000000,48.000000,3.000000,32.000000,0.000000,0.000000,0.000000,1648452213.055770,0.000000
169.000000,-20923.378578,-22193.047070,6217.987087,8776.658330,-14951.372439,27373.399123,9255.902082,31714.599635,0.226000,0.966000,0.100000,192.000000,0.000000,0.000000,0.000000,0.000000,0.000000,0.000000,0.000000,0.000000,0.000000,1648452213.055785,0.000000
170.000000,-20926.217249,-22198.299730,6213.516738,8767.963501,-14957.362706,27364.994867,9232.343344,31700.629795,0.226000,0.966000,0.100000,192.000000,0.000000,0.000000,0.000000,0.000000,0.000000,0.000000,0.000000,0.000000,0.000000,1648452213.063814,0.000000
171.000000,-20926.083139,-22204.200590,6210.611011,8759.827466,-14962.011869,27356.814129,9224.140254,31696.628832,0.226000,0.966000,0.100000,192.000000,0.000000,0.000000,0.000000,0.000000,0.000000,0.000000,0.000000,0.000000,0.000000,1648452213.063849,0.000000
172.000000,-20915.778985,-22185.313366,6221.898642,8777.083013,-14946.812683,27362.089141,9221.301582,31697.299385,0.226000,0.966000,0.100000,192.000000,0.000000,0.000000,0.000000,0.000000,0.000000,0.000000,0.000000,0.000000,0.000000,1648452213.070882,0.000000
173.000000,-20917.991807,-22186.095677,6219.350543,8775.294873,-14952.534730,27363.452597,9237.081914,31703.848446,0.226000,0.966000,0.100000,192.000000,0.000000,0.000000,0.000000,0.000000,0.000000,0.000000,0.000000,0.000000,0.000000,1648452213.070898,0.000000
174.000000,-20914.840211,-22187.705003,6219.484653,8774.065527,-14953.004116,27357.954068,9248.436600,31703.088487,0.226000,0.966000,0.100000,192.000000,0.000000,0.000000,0.000000,0.000000,0.000000,0.000000,0.000000,0.000000,0.000000,1648452213.078447,0.000000
175.000000,-20919.399967,-22191.035413,6220.602241,8772.255036,-14951.774770,27351.069731,9237.774818,31690.705620,0.226000,0.966000,0.100000,192.000000,0.000000,0.000000,0.000000,0.000000,0.000000,0.000000,0.000000,0.000000,0.000000,1648452213.078463,0.000000
176.000000,-20919.712892,-22187.727354,6222.412732,8776.032481,-14947.371477,27350.779158,9217.479434,31678.188643,0.226000,0.966000,0.100000,192.000000,0.000000,0.000000,0.000000,0.000000,0.000000,0.000000,0.000000,0.000000,0.000000,1648452213.086502,0.000000
177.000000,-20922.104528,-22192.085945,6221.362200,8776.390109,-14950.232500,27357.015295,9215.020742,31678.881547,0.226000,0.966000,0.100000,192.000000,0.000000,0.000000,0.000000,0.000000,0.000000,0.000000,0.000000,0.000000,0.000000,1648452213.086519,0.000000
178.000000,-20926.507822,-22192.823552,6219.886985,8778.222952,-14951.059514,27363.653763,9240.613489,31691.957318,0.228000,0.966000,0.100000,192.000000,7.000000,32.000000,30.000000,48.000000,3.000000,32.000000,0.000000,0.000000,0.000000,1648452213.093572,0.000000
179.000000,-20924.607924,-22191.393041,6219.395246,8778.826449,-14948.980802,27360.301001,9232.119826,31680.535576,0.228000,0.966000,0.100000,192.000000,0.000000,0.000000,0.000000,0.000000,0.000000,0.000000,0.000000,0.000000,0.000000,1648452213.100445,0.000000
180.000000,-20921.299865,-22191.549503,6221.742180,8776.010129,-14949.718410,27366.090103,9222.016838,31676.556966,0.228000,0.966000,0.100000,192.000000,0.000000,0.000000,0.000000,0.000000,0.000000,0.000000,0.000000,0.000000,0.000000,1648452213.100461,0.000000
181.000000,-20923.959723,-22192.242407,6220.490482,8774.825487,-14950.612480,27365.710123,9232.276289,31688.023411,0.228000,0.966000,0.100000,192.000000,0.000000,0.000000,0.000000,0.000000,0.000000,0.000000,0.000000,0.000000,0.000000,1648452213.108056,0.000000
182.000000,-20931.224040,-22197.115087,6218.925860,8773.305568,-14951.752418,27370.918080,9245.530873,31704.742516,0.228000,0.966000,0.100000,192.000000,0.000000,0.000000,0.000000,0.000000,0.000000,0.000000,0.000000,0.000000,0.000000,1648452213.108072,0.000000
183.000000,-20931.872241,-22200.691366,6211.840357,8768.343481,-14956.401581,27362.379713,9260.171266,31709.101106,0.228000,0.966000,0.100000,192.000000,0.000000,0.000000,0.000000,0.000000,0.000000,0.000000,0.000000,0.000000,0.000000,1648452213.116194,0.000000
184.000000,-20925.591400,-22193.963491,6215.506043,8774.356100,-14950.835997,27361.239774,9245.776742,31699.042821,0.228000,0.966000,0.100000,192.000000,0.000000,0.000000,0.000000,0.000000,0.000000,0.000000,0.000000,0.000000,0.000000,1648452213.116210,0.000000
185.000000,-20922.328046,-22190.230750,6220.266964,8777.060661,-14949.651355,27364.838405,9245.977908,31701.032126,0.228000,0.966000,0.100000,192.000000,0.000000,0.000000,0.000000,0.000000,0.000000,0.000000,0.000000,0.000000,0.000000,1648452213.124170,0.000000
186.000000,-20920.361092,-22187.056802,6224.178520,8783.073280,-14943.214052,27363.184376,9234.824387,31697.969937,0.228000,0.966000,0.100000,192.000000,0.000000,0.000000,0.000000,0.000000,0.000000,0.000000,0.000000,0.000000,0.000000,1648452213.124186,0.000000
187.000000,-20918.349435,-22184.218131,6228.045372,8787.901257,-14936.463825,27371.946260,9231.315164,31703.736687,0.228000,0.966000,0.100000,192.000000,0.000000,0.000000,0.000000,0.000000,0.000000,0.000000,0.000000,0.000000,0.000000,1648452213.130638,0.000000
188.000000,-20912.672092,-22176.506779,6231.062857,8792.036330,-14933.558099,27373.533234,9224.609640,31704.295481,0.228000,0.966000,0.100000,192.000000,0.000000,0.000000,0.000000,0.000000,0.000000,0.000000,0.000000,0.000000,0.000000,1648452213.130654,0.000000
189.000000,-20906.078327,-22170.382401,6234.572081,8791.343426,-14934.698037,27372.817978,9233.639745,31709.056402,0.222000,0.962000,0.106000,192.000000,6.000000,240.000000,30.000000,16.000000,3.000000,80.000000,0.000000,0.000000,0.000000,1648452213.138812,0.000000
190.000000,-20905.966569,-22174.137494,6232.448665,8785.554324,-14938.386075,27367.945298,9233.460931,31704.071963,0.222000,0.962000,0.106000,192.000000,0.000000,0.000000,0.000000,0.000000,0.000000,0.000000,0.000000,0.000000,0.000000,1648452213.138829,0.000000
191.000000,-20916.337778,-22188.263796,6227.039543,8776.926550,-14944.175177,27363.094969,9236.143140,31700.361574,0.222000,0.962000,0.106000,192.000000,0.000000,0.000000,0.000000,0.000000,0.000000,0.000000,0.000000,0.000000,0.000000,1648452213.146832,0.000000
192.000000,-20923.847964,-22190.141343,6225.944308,8779.452298,-14943.594032,27363.787873,9227.090684,31690.996193,0.222000,0.962000,0.106000,192.000000,0.000000,0.000000,0.000000,0.000000,0.000000,0.000000,0.000000,0.000000,0.000000,1648452213.146848,0.000000
193.000000,-20912.582685,-22180.865369,6235.108523,8786.001359,-14936.597936,27368.124112,9223.760274,31687.039934,0.222000,0.962000,0.106000,192.000000,0.000000,0.000000,0.000000,0.000000,0.000000,0.000000,0.000000,0.000000,0.000000,1648452213.152546,0.000000
194.000000,-20912.560333,-22185.916863,6235.533206,8784.481440,-14937.268488,27367.006524,9211.064483,31682.502530,0.222000,0.962000,0.106000,192.000000,0.000000,0.000000,0.000000,0.000000,0.000000,0.000000,0.000000,0.000000,0.000000,1648452213.160387,0.000000
195.000000,-20921.545735,-22193.427049,6230.906395,8779.899333,-14943.795197,27365.330144,9208.941067,31681.831978,0.222000,0.962000,0.106000,192.000000,0.000000,0.000000,0.000000,0.000000,0.000000,0.000000,0.000000,0.000000,0.000000,1648452213.160403,0.000000
196.000000,-20912.649740,-22179.904244,6239.578872,8791.142260,-14934.161596,27375.008449,9227.627126,31694.818341,0.222000,0.962000,0.106000,192.000000,0.000000,0.000000,0.000000,0.000000,0.000000,0.000000,0.000000,0.000000,0.000000,1648452213.168465,0.000000
197.000000,-20901.652682,-22168.616613,6246.954947,8800.664103,-14926.070264,27378.070638,9229.415265,31700.048649,0.222000,0.962000,0.106000,192.000000,0.000000,0.000000,0.000000,0.000000,0.000000,0.000000,0.000000,0.000000,0.000000,1648452213.168481,0.000000
198.000000,-20906.815935,-22178.406677,6237.164883,8789.220010,-14935.905032,27366.984173,9222.866204,31692.359649,0.222000,0.962000,0.106000,192.000000,0.000000,0.000000,0.000000,0.000000,0.000000,0.000000,0.000000,0.000000,0.000000,1648452213.176394,0.000000
199.000000,-20906.368900,-22183.636985,6232.649831,8782.961522,-14940.710657,27363.117321,9218.708780,31688.470446,0.226000,0.962000,0.108000,192.000000,7.000000,16.000000,30.000000,16.000000,3.000000,96.000000,0.000000,0.000000,0.000000,1648452213.176410,0.000000
200.000000,-20904.267836,-22180.284224,6232.314555,8783.877943,-14941.537671,27361.865623,9211.511518,31688.381039,0.226000,0.962000,0.108000,192.000000,0.000000,0.000000,0.000000,0.000000,0.000000,0.000000,0.000000,0.000000,0.000000,1648452213.182934,0.000000
201.000000,-20912.314464,-22182.966433,6224.469092,8779.117021,-14948.667878,27358.155234,9215.467777,31695.511245,0.226000,0.962000,0.108000,192.000000,0.000000,0.000000,0.000000,0.000000,0.000000,0.000000,0.000000,0.000000,0.000000,1648452213.182950,0.000000
202.000000,-20911.889781,-22181.044183,6223.999706,8780.927513,-14946.432703,27358.915193,9226.107207,31701.345050,0.226000,0.962000,0.108000,192.000000,0.000000,0.000000,0.000000,0.000000,0.000000,0.000000,0.000000,0.000000,0.000000,1648452213.190967,0.000000
203.000000,-20902.502048,-22174.718639,6226.659563,8785.308455,-14942.297631,27359.921021,9236.858396,31707.044745,0.226000,0.962000,0.108000,192.000000,0.000000,0.000000,0.000000,0.000000,0.000000,0.000000,0.000000,0.000000,0.000000,1648452213.190983,0.000000
204.000000,-20897.338795,-22168.683668,6230.101732,8794.003283,-14935.279183,27360.815091,9220.340457,31698.148751,0.226000,0.962000,0.108000,192.000000,0.000000,0.000000,0.000000,0.000000,0.000000,0.000000,0.000000,0.000000,0.000000,1648452213.199100,0.000000
205.000000,-20900.602150,-22170.695325,6236.963718,8797.736025,-14929.959468,27368.459388,9203.956628,31689.811550,0.226000,0.962000,0.108000,192.000000,0.000000,0.000000,0.000000,0.000000,0.000000,0.000000,0.000000,0.000000,0.000000,1648452213.199116,0.000000
206.000000,-20907.285322,-22177.490256,6235.443799,8791.969275,-14935.189776,27373.801455,9201.520288,31693.566643,0.226000,0.962000,0.108000,192.000000,0.000000,0.000000,0.000000,0.000000,0.000000,0.000000,0.000000,0.000000,0.000000,1648452213.206092,0.000000
207.000000,-20919.958761,-22192.577683,6224.357334,8778.222952,-14947.371477,27365.710123,9209.835137,31695.734763,0.226000,0.962000,0.108000,192.000000,0.000000,0.000000,0.000000,0.000000,0.000000,0.000000,0.000000,0.000000,0.000000,1648452213.206108,0.000000
208.000000,-20918.729415,-22190.364860,6222.680953,8778.781745,-14947.125607,27366.984173,9226.688352,31703.624928,0.226000,0.962000,0.108000,192.000000,0.000000,0.000000,0.000000,0.000000,0.000000,0.000000,0.000000,0.000000,0.000000,1648452213.212660,0.000000
209.000000,-20912.158002,-22184.464000,6224.871424,8781.776879,-14942.878776,27368.213519,9216.205384,31694.483065,0.226000,0.962000,0.100000,192.000000,7.000000,16.000000,30.000000,16.000000,3.000000,32.000000,0.000000,0.000000,0.000000,1648452213.220768,0.000000
210.000000,-20896.780002,-22169.711848,6236.203758,8795.702016,-14931.412331,27384.776161,9225.682524,31705.636585,0.226000,0.962000,0.100000,192.000000,0.000000,0.000000,0.000000,0.000000,0.000000,0.000000,0.000000,0.000000,0.000000,1648452213.220784,0.000000
211.000000,-20887.727545,-22162.402828,6240.674107,8801.558173,-14924.170366,27386.519597,9224.989620,31707.335318,0.226000,0.962000,0.100000,192.000000,0.000000,0.000000,0.000000,0.000000,0.000000,0.000000,0.000000,0.000000,0.000000,1648452213.228581,0.000000
212.000000,-20893.717813,-22168.549558,6239.333002,8794.360911,-14927.165500,27379.322336,9209.008123,31698.260510,0.226000,0.962000,0.100000,192.000000,0.000000,0.000000,0.000000,0.000000,0.000000,0.000000,0.000000,0.000000,0.000000,1648452213.228598,0.000000
213.000000,-20905.877162,-22183.569930,6230.794636,8781.307492,-14940.442436,27372.147426,9211.690332,31696.762943,0.226000,0.962000,0.100000,192.000000,0.000000,0.000000,0.000000,0.000000,0.000000,0.000000,0.000000,0.000000,0.000000,1648452213.235709,0.000000
214.000000,-20903.731394,-22183.905206,6232.292203,8780.435774,-14941.336506,27369.621679,9220.183995,31699.780428,0.226000,0.962000,0.100000,192.000000,0.000000,0.000000,0.000000,0.000000,0.000000,0.000000,0.000000,0.000000,0.000000,1648452213.235743,0.000000
215.000000,-20891.437935,-22173.265776,6241.858750,8791.075205,-14931.345276,27377.154216,9221.435692,31704.049612,0.226000,0.962000,0.100000,192.000000,0.000000,0.000000,0.000000,0.000000,0.000000,0.000000,0.000000,0.000000,0.000000,1648452213.243389,0.000000
216.000000,-20888.822781,-22174.182197,6236.248462,8788.370644,-14934.362761,27378.942356,9223.536756,31702.172065,0.226000,0.962000,0.100000,192.000000,0.000000,0.000000,0.000000,0.000000,0.000000,0.000000,0.000000,0.000000,0.000000,1648452213.243406,0.000000
217.000000,-20889.023946,-22171.499988,6239.467113,8791.321074,-14931.457035,27387.547778,9241.395800,31715.314891,0.226000,0.962000,0.100000,192.000000,0.000000,0.000000,0.000000,0.000000,0.000000,0.000000,0.000000,0.000000,0.000000,1648452213.251193,0.000000
218.000000,-20896.578836,-22180.284224,6232.828645,8781.843934,-14939.391904,27379.232929,9242.356925,31713.280882,0.226000,0.962000,0.100000,192.000000,0.000000,0.000000,0.000000,0.000000,0.000000,0.000000,0.000000,0.000000,0.000000,1648452213.251210,0.000000
219.000000,-20898.344624,-22181.737087,6231.375781,8778.066489,-14942.476445,27380.350516,9255.700917,31718.265321,0.230000,0.964000,0.102000,192.000000,7.000000,48.000000,30.000000,32.000000,3.000000,48.000000,0.000000,0.000000,0.000000,1648452213.259258,0.000000
220.000000,-20897.137630,-22175.970337,6238.595395,8786.582504,-14934.809796,27383.390353,9263.926359,31719.427612,0.230000,0.964000,0.102000,192.000000,0.000000,0.000000,0.000000,0.000000,0.000000,0.000000,0.000000,0.000000,0.000000,1648452213.259274,0.000000
221.000000,-20895.550656,-22170.449456,6242.864578,8794.427966,-14929.847709,27382.496283,9249.956518,31713.504399,0.230000,0.964000,0.102000,192.000000,0.000000,0.000000,0.000000,0.000000,0.000000,0.000000,0.000000,0.000000,0.000000,1648452213.265582,0.000000
222.000000,-20888.912188,-22165.822645,6246.597319,8799.837089,-14925.734988,27389.224158,9246.670812,31717.795934,0.230000,0.964000,0.102000,192.000000,0.000000,0.000000,0.000000,0.000000,0.000000,0.000000,0.000000,0.000000,0.000000,1648452213.265593,0.000000
223.000000,-20892.108487,-22170.538863,6244.317442,8793.578600,-14931.278221,27392.085182,9259.076030,31724.300292,0.230000,0.964000,0.102000,192.000000,0.000000,0.000000,0.000000,0.000000,0.000000,0.000000,0.000000,0.000000,0.000000,1648452213.273099,0.000000
224.000000,-20891.527342,-22179.837189,6238.215415,8783.542667,-14940.889471,27379.188225,9246.469646,31708.117629,0.230000,0.964000,0.102000,192.000000,0.000000,0.000000,0.000000,0.000000,0.000000,0.000000,0.000000,0.000000,0.000000,1648452213.273115,0.000000
225.000000,-20895.483601,-22189.940177,6233.163921,8778.155896,-14944.711619,27372.527405,9240.367620,31702.350879,0.230000,0.964000,0.102000,192.000000,0.000000,0.000000,0.000000,0.000000,0.000000,0.000000,0.000000,0.000000,0.000000,1648452213.280912,0.000000
226.000000,-20881.759629,-22170.941194,6246.060878,8796.193754,-14924.796215,27383.703278,9230.465797,31705.323661,0.230000,0.964000,0.102000,192.000000,0.000000,0.000000,0.000000,0.000000,0.000000,0.000000,0.000000,0.000000,0.000000,1648452213.288968,0.000000
227.000000,-20881.804333,-22167.856654,6248.698383,8794.159745,-14924.818566,27388.933586,9236.344306,31711.738612,0.230000,0.964000,0.102000,192.000000,0.000000,0.000000,0.000000,0.000000,0.000000,0.000000,0.000000,0.000000,0.000000,1648452213.288985,0.000000
228.000000,-20885.604130,-22165.710886,6248.206645,8793.869173,-14926.740816,27388.218330,9243.698030,31713.839676,0.230000,0.964000,0.102000,192.000000,0.000000,0.000000,0.000000,0.000000,0.000000,0.000000,0.000000,0.000000,0.000000,1648452213.295641,0.000000
229.000000,-20893.203723,-22169.935366,6241.121142,8785.777841,-14935.301535,27380.305812,9252.459914,31714.577283,0.230000,0.962000,0.104000,192.000000,7.000000,48.000000,30.000000,16.000000,3.000000,64.000000,0.000000,0.000000,0.000000,1648452213.295658,0.000000
230.000000,-20900.266874,-22181.111238,6232.448665,8774.646673,-14944.421046,27364.301963,9231.628088,31695.980632,0.230000,0.962000,0.104000,192.000000,0.000000,0.000000,0.000000,0.000000,0.000000,0.000000,0.000000,0.000000,0.000000,1648452213.303576,0.000000
231.000000,-20899.015176,-22178.496084,6236.494331,8780.167553,-14939.101331,27377.265975,9245.419114,31713.169123,0.230000,0.962000,0.104000,192.000000,0.000000,0.000000,0.000000,0.000000,0.000000,0.000000,0.000000,0.000000,0.000000,1648452213.303592,0.000000
232.000000,-20889.850961,-22166.582604,6243.848055,8788.750623,-14932.820491,27383.703278,9262.115867,31728.971807,0.230000,0.962000,0.104000,192.000000,0.000000,0.000000,0.000000,0.000000,0.000000,0.000000,0.000000,0.000000,0.000000,1648452213.311559,0.000000
233.000000,-20879.792676,-22160.949965,6248.854846,8795.165574,-14926.651409,27382.786856,9259.523065,31726.490763,0.230000,0.962000,0.104000,192.000000,0.000000,0.000000,0.000000,0.000000,0.000000,0.000000,0.000000,0.000000,0.000000,1648452213.311575,0.000000
234.000000,-20875.389382,-22160.771151,6249.748915,8795.098519,-14923.343351,27380.328164,9234.958498,31712.878551,0.230000,0.962000,0.104000,192.000000,0.000000,0.000000,0.000000,0.000000,0.000000,0.000000,0.000000,0.000000,0.000000,1648452213.318187,0.000000
235.000000,-20883.927749,-22173.332831,6240.897625,8781.665120,-14936.575584,27375.276670,9229.348210,31707.871760,0.230000,0.962000,0.104000,192.000000,0.000000,0.000000,0.000000,0.000000,0.000000,0.000000,0.000000,0.000000,0.000000,1648452213.318222,0.000000
236.000000,-20895.148324,-22185.693346,6228.380648,8766.242417,-14950.612480,27364.547833,9238.244204,31707.491780,0.230000,0.962000,0.104000,192.000000,0.000000,0.000000,0.000000,0.000000,0.000000,0.000000,0.000000,0.000000,0.000000,1648452213.326231,0.000000
237.000000,-20901.853848,-22187.235616,6226.279584,8761.347385,-14955.239291,27364.547833,9264.172228,31720.925179,0.230000,0.962000,0.104000,192.000000,0.000000,0.000000,0.000000,0.000000,0.000000,0.000000,0.000000,0.000000,0.000000,1648452213.326248,0.000000
238.000000,-20895.014214,-22177.445552,6231.018154,8768.499943,-14947.594994,27362.804396,9270.430716,31722.467449,0.230000,0.962000,0.104000,192.000000,0.000000,0.000000,0.000000,0.000000,0.000000,0.000000,0.000000,0.000000,0.000000,1648452213.334043,0.000000
239.000000,-20883.994804,-22168.504854,6237.768380,8781.598065,-14935.525052,27364.279612,9244.390934,31709.816362,0.224000,0.956000,0.106000,192.000000,7.000000,0.000000,29.000000,224.000000,3.000000,80.000000,0.000000,0.000000,0.000000,1648452213.334059,0.000000
240.000000,-20887.414621,-22174.405715,6235.555558,8777.597103,-14938.922517,27363.966687,9235.405533,31707.916463,0.224000,0.956000,0.106000,192.000000,0.000000,0.000000,0.000000,0.000000,0.000000,0.000000,0.000000,0.000000,0.000000,1648452213.341187,0.000000
241.000000,-20889.560388,-22178.071401,6234.996764,8775.652501,-14939.213090,27368.124112,9240.233510,31715.627815,0.224000,0.956000,0.106000,192.000000,0.000000,0.000000,0.000000,0.000000,0.000000,0.000000,0.000000,0.000000,0.000000,1648452213.347719,0.000000
242.000000,-20888.733374,-22179.323099,6237.857787,8776.054832,-14937.000267,27364.950164,9239.518254,31712.319757,0.224000,0.956000,0.106000,192.000000,0.000000,0.000000,0.000000,0.000000,0.000000,0.000000,0.000000,0.000000,0.000000,1648452213.347736,0.000000
243.000000,-20886.252330,-22177.154979,6239.511816,8777.217123,-14935.502700,27366.559490,9235.159664,31710.062231,0.224000,0.956000,0.106000,192.000000,0.000000,0.000000,0.000000,0.000000,0.000000,0.000000,0.000000,0.000000,0.000000,1648452213.355750,0.000000
244.000000,-20890.253292,-22177.914939,6237.187235,8776.166591,-14939.168386,27367.028876,9237.484245,31713.571455,0.224000,0.956000,0.106000,192.000000,0.000000,0.000000,0.000000,0.000000,0.000000,0.000000,0.000000,0.000000,0.000000,1648452213.355767,0.000000
245.000000,-20895.394194,-22182.362936,6234.907357,8773.394975,-14942.856424,27365.464254,9233.595041,31712.632681,0.224000,0.956000,0.106000,192.000000,0.000000,0.000000,0.000000,0.000000,0.000000,0.000000,0.000000,0.000000,0.000000,1648452213.363667,0.000000
246.000000,-20894.991862,-22178.719601,6231.353430,8773.014995,-14945.315116,27365.888937,9236.366658,31717.550065,0.224000,0.956000,0.106000,192.000000,0.000000,0.000000,0.000000,0.000000,0.000000,0.000000,0.000000,0.000000,0.000000,1648452213.363684,0.000000
247.000000,-20901.049185,-22178.116104,6227.710095,8770.109268,-14947.639698,27362.178548,9252.281100,31728.301254,0.224000,0.956000,0.106000,192.000000,0.000000,0.000000,0.000000,0.000000,0.000000,0.000000,0.000000,0.000000,0.000000,1648452213.371032,0.000000
248.000000,-20892.488467,-22175.746819,6230.571119,8772.344443,-14943.705790,27359.049303,9250.135332,31723.741498,0.224000,0.956000,0.106000,192.000000,0.000000,0.000000,0.000000,0.000000,0.000000,0.000000,0.000000,0.000000,0.000000,1648452213.371050,0.000000
249.000000,-20884.844170,-22173.154017,6235.533206,8775.764260,-14937.469654,27360.122187,9229.951707,31713.392641,0.226000,0.960000,0.108000,192.000000,7.000000,16.000000,30.000000,0.000000,3.000000,96.000000,0.000000,0.000000,0.000000,1648452213.378393,0.000000
250.000000,-20884.508894,-22174.450418,6238.148360,8777.842972,-14931.904069,27366.112455,9205.364788,31709.950472,0.226000,0.960000,0.108000,192.000000,0.000000,0.000000,0.000000,0.000000,0.000000,0.000000,0.000000,0.000000,0.000000,1648452213.378409,0.000000
251.000000,-20887.727545,-22176.439724,6234.817950,8772.657367,-14936.217956,27373.622641,9218.328800,31726.423708,0.226000,0.960000,0.108000,192.000000,0.000000,0.000000,0.000000,0.000000,0.000000,0.000000,0.000000,0.000000,0.000000,1648452213.386437,0.000000
252.000000,-20886.162923,-22175.657412,6234.885005,8773.216161,-14936.910860,27379.411743,9236.500768,31739.387720,0.226000,0.960000,0.108000,192.000000,0.000000,0.000000,0.000000,0.000000,0.000000,0.000000,0.000000,0.000000,0.000000,1648452213.386453,0.000000
253.000000,-20892.600226,-22181.245349,6231.576947,8766.756507,-14941.783540,27366.648897,9229.303507,31727.474240,0.226000,0.960000,0.108000,192.000000,0.000000,0.000000,0.000000,0.000000,0.000000,0.000000,0.000000,0.000000,0.000000,1648452213.394548,0.000000
254.000000,-20887.146400,-22177.244386,6237.209587,8772.545609,-14937.089674,27373.667344,9217.345323,31724.121478,0.226000,0.960000,0.108000,192.000000,0.000000,0.000000,0.000000,0.000000,0.000000,0.000000,0.000000,0.000000,0.000000,1648452213.394564,0.000000
255.000000,-20886.274682,-22177.378497,6235.644965,8772.903236,-14936.910860,27374.047324,9211.600925,31721.193400,0.226000,0.960000,0.108000,192.000000,0.000000,0.000000,0.000000,0.000000,0.000000,0.000000,0.000000,0.000000,0.000000,1648452213.400529,0.000000
0.000000,-20884.263025,-22173.377535,6238.014250,8775.831315,-14934.809796,27374.047324,9202.101434,31714.152600,0.226000,0.960000,0.108000,192.000000,0.000000,0.000000,0.000000,0.000000,0.000000,0.000000,0.000000,0.000000,0.000000,1648452213.408142,0.000000
1.000000,-20888.085173,-22176.663241,6234.460322,8770.779821,-14940.062456,27375.924870,9210.125710,31717.862990,0.226000,0.960000,0.108000,192.000000,0.000000,0.000000,0.000000,0.000000,0.000000,0.000000,0.000000,0.000000,0.000000,1648452213.408177,0.000000
2.000000,-20880.262063,-22172.572872,6234.974412,8772.076222,-14940.487139,27368.012353,9216.652419,31716.700699,0.226000,0.960000,0.108000,192.000000,0.000000,0.000000,0.000000,0.000000,0.000000,0.000000,0.000000,0.000000,0.000000,1648452213.416029,0.000000
3.000000,-20880.239711,-22177.087924,6232.806293,8768.410536,-14941.492968,27359.831614,9207.823480,31701.412106,0.230000,0.960000,0.106000,192.000000,7.000000,48.000000,30.000000,0.000000,3.000000,80.000000,0.000000,0.000000,0.000000,1648452213.416045,0.000000
4.000000,-20879.144475,-22176.439724,6233.700363,8767.717632,-14938.319020,27362.580879,9198.033416,31691.219710,0.230000,0.960000,0.106000,192.000000,0.000000,0.000000,0.000000,0.000000,0.000000,0.000000,0.000000,0.000000,0.000000,1648452213.424151,0.000000
5.000000,-20873.668298,-22167.074343,6240.785866,8777.775917,-14929.333619,27372.080370,9197.206401,31696.673536,0.230000,0.960000,0.106000,192.000000,0.000000,0.000000,0.000000,0.000000,0.000000,0.000000,0.000000,0.000000,0.000000,1648452213.424167,0.000000
6.000000,-20881.223188,-22169.465979,6237.768380,8774.199638,-14935.256831,27372.147426,9204.470718,31707.737649,0.230000,0.960000,0.106000,192.000000,0.000000,0.000000,0.000000,0.000000,0.000000,0.000000,0.000000,0.000000,0.000000,1648452213.430697,0.000000
7.000000,-20886.766420,-22174.651584,6230.772284,8765.862437,-14944.286936,27362.022085,9199.709797,31703.960205,0.230000,0.960000,0.106000,192.000000,0.000000,0.000000,0.000000,0.000000,0.000000,0.000000,0.000000,0.000000,0.000000,1648452213.430712,0.000000
8.000000,-20884.888874,-22172.103485,6229.677049,8768.343481,-14941.515320,27371.856853,9205.141271,31716.834809,0.230000,0.960000,0.106000,192.000000,0.000000,0.000000,0.000000,0.000000,0.000000,0.000000,0.000000,0.000000,0.000000,1648452213.438686,0.000000
9.000000,-20891.974377,-22179.568968,6223.127988,8760.609777,-14949.226671,27375.701353,9215.780701,31727.340129,0.230000,0.960000,0.106000,192.000000,0.000000,0.000000,0.000000,0.000000,0.000000,0.000000,0.000000,0.000000,0.000000,1648452213.438702,0.000000
10.000000,-20897.852885,-22183.346413,6222.748008,8754.910082,-14953.004116,27376.595423,9235.941975,31739.521830,0.230000,0.960000,0.106000,192.000000,0.000000,0.000000,0.000000,0.000000,0.000000,0.000000,0.000000,0.000000,0.000000,1648452213.446835,0.000000
11.000000,-20900.088060,-22191.303634,6216.221299,8748.517483,-14958.949680,27363.586708,9243.183940,31735.096185,0.230000,0.960000,0.106000,192.000000,0.000000,0.000000,0.000000,0.000000,0.000000,0.000000,0.000000,0.000000,0.000000,1648452213.446851,0.000000
12.000000,-20886.967586,-22180.731258,6223.575023,8761.079164,-14949.226671,27361.664458,9231.382219,31726.043728,0.230000,0.960000,0.106000,192.000000,0.000000,0.000000,0.000000,0.000000,0.000000,0.000000,0.000000,0.000000,0.000000,1648452213.453939,0.000000
13.000000,-20872.193083,-22161.642869,6234.549729,8780.055795,-14934.429817,27379.299984,9236.612527,31740.348845,0.226000,0.968000,0.100000,192.000000,7.000000,16.000000,30.000000,64.000000,3.000000,32.000000,0.000000,0.000000,0.000000,1648452213.453956,0.000000
14.000000,-20871.835455,-22162.827511,6235.332040,8778.491173,-14936.642639,27383.882092,9236.210196,31743.031054,0.226000,0.968000,0.100000,192.000000,0.000000,0.000000,0.000000,0.000000,0.000000,0.000000,0.000000,0.000000,0.000000,1648452213.460407,0.000000
15.000000,-20872.103676,-22165.465017,6238.304822,8777.060661,-14935.994439,27380.797551,9228.677658,31737.376063,0.226000,0.968000,0.100000,192.000000,0.000000,0.000000,0.000000,0.000000,0.000000,0.000000,0.000000,0.000000,0.000000,1648452213.468371,0.000000
16.000000,-20876.462266,-22169.153055,6234.639136,8774.601969,-14938.766055,27379.925833,9227.716533,31738.761871,0.226000,0.968000,0.100000,192.000000,0.000000,0.000000,0.000000,0.000000,0.000000,0.000000,0.000000,0.000000,0.000000,1648452213.468387,0.000000
17.000000,-20879.859731,-22169.287165,6229.654697,8771.562132,-14940.956526,27365.710123,9214.819576,31723.048594,0.226000,0.968000,0.100000,192.000000,0.000000,0.000000,0.000000,0.000000,0.000000,0.000000,0.000000,0.000000,0.000000,1648452213.476478,0.000000
18.000000,-20880.798504,-22173.019907,6230.749933,8769.438716,-14942.521148,27368.280574,9202.883745,31714.934911,0.226000,0.968000,0.100000,192.000000,0.000000,0.000000,0.000000,0.000000,0.000000,0.000000,0.000000,0.000000,0.000000,1648452213.476495,0.000000
19.000000,-20890.499162,-22189.224921,6218.724694,8752.764315,-14958.346183,27359.071655,9210.125710,31717.058327,0.226000,0.968000,0.100000,192.000000,0.000000,0.000000,0.000000,0.000000,0.000000,0.000000,0.000000,0.000000,0.000000,1648452213.483117,0.000000
20.000000,-20892.779039,-22189.604901,6215.751912,8752.741963,-14960.670765,27363.072617,9234.913794,31731.005815,0.226000,0.968000,0.100000,192.000000,0.000000,0.000000,0.000000,0.000000,0.000000,0.000000,0.000000,0.000000,0.000000,1648452213.483134,0.000000
21.000000,-20887.816952,-22176.149151,6220.065799,8763.135524,-14952.579433,27362.357362,9252.526969,31733.285693,0.226000,0.968000,0.100000,192.000000,0.000000,0.000000,0.000000,0.000000,0.000000,0.000000,0.000000,0.000000,0.000000,1648452213.490968,0.000000
22.000000,-20874.338850,-22159.787674,6232.023982,8778.178248,-14934.832148,27362.916155,9230.912832,31719.427612,0.226000,0.968000,0.100000,192.000000,0.000000,0.000000,0.000000,0.000000,0.000000,0.000000,0.000000,0.000000,0.000000,1648452213.491003,0.000000
23.000000,-20880.306766,-22162.760456,6230.615822,8777.440641,-14933.155767,27367.073580,9203.688407,31710.621024,0.226000,0.964000,0.100000,192.000000,7.000000,16.000000,30.000000,32.000000,3.000000,32.000000,0.000000,0.000000,0.000000,1648452213.499096,0.000000
24.000000,-20884.106563,-22164.481540,6229.118255,8771.115097,-14938.922517,27371.454522,9209.544564,31719.785240,0.226000,0.964000,0.100000,192.000000,0.000000,0.000000,0.000000,0.000000,0.000000,0.000000,0.000000,0.000000,0.000000,1648452213.499112,0.000000
25.000000,-20876.082286,-22155.719656,6235.957889,8775.451335,-14935.234479,27379.076466,9219.222870,31726.870743,0.226000,0.964000,0.100000,192.000000,0.000000,0.000000,0.000000,0.000000,0.000000,0.000000,0.000000,0.000000,0.000000,1648452213.506123,0.000000
26.000000,-20881.022022,-22165.844997,6233.923880,8770.466896,-14939.481311,27373.019144,9222.419169,31726.803687,0.226000,0.964000,0.100000,192.000000,0.000000,0.000000,0.000000,0.000000,0.000000,0.000000,0.000000,0.000000,0.000000,1648452213.506139,0.000000
27.000000,-20890.297996,-22176.998517,6228.112427,8761.861475,-14946.790331,27363.921984,9224.117902,31724.456754,0.226000,0.964000,0.100000,192.000000,0.000000,0.000000,0.000000,0.000000,0.000000,0.000000,0.000000,0.000000,0.000000,1648452213.513520,0.000000
28.000000,-20883.614824,-22172.416410,6231.062857,8761.414440,-14944.823378,27357.931716,9212.897326,31715.292539,0.226000,0.964000,0.100000,192.000000,0.000000,0.000000,0.000000,0.000000,0.000000,0.000000,0.000000,0.000000,0.000000,1648452213.513536,0.000000
29.000000,-20874.495313,-22158.737142,6238.774209,8772.590312,-14934.474520,27363.407894,9202.704931,31716.477181,0.226000,0.964000,0.100000,192.000000,0.000000,0.000000,0.000000,0.000000,0.000000,0.000000,0.000000,0.000000,0.000000,1648452213.520657,0.000000
30.000000,-20877.289281,-22161.911090,6235.555558,8772.344443,-14936.933212,27366.358324,9210.729207,31728.547123,0.226000,0.964000,0.100000,192.000000,0.000000,0.000000,0.000000,0.000000,0.000000,0.000000,0.000000,0.000000,0.000000,1648452213.520674,0.000000
31.000000,-20883.815990,-22168.258985,6231.845168,8769.304606,-14939.436607,27357.663495,9204.515422,31725.775507,0.226000,0.964000,0.100000,192.000000,0.000000,0.000000,0.000000,0.000000,0.000000,0.000000,0.000000,0.000000,0.000000,1648452213.528757,0.000000
32.000000,-20887.325214,-22173.489293,6227.643040,8762.152047,-14944.264584,27351.829690,9182.297788,31714.621987,0.226000,0.964000,0.100000,192.000000,0.000000,0.000000,0.000000,0.000000,0.000000,0.000000,0.000000,0.000000,0.000000,1648452213.535789,0.000000
33.000000,-20885.246502,-22172.684630,6227.173654,8759.223969,-14947.192663,27355.674190,9179.213247,31720.098164,0.226000,0.964000,0.100000,192.000000,0.000000,0.000000,0.000000,0.000000,0.000000,0.000000,0.000000,0.000000,0.000000,1648452213.535805,0.000000
34.000000,-20895.237731,-22179.457209,6222.412732,8752.451390,-14955.082828,27354.154271,9195.194744,31732.168106,0.224000,0.966000,0.100000,192.000000,7.000000,0.000000,30.000000,48.000000,3.000000,32.000000,0.000000,0.000000,0.000000,1648452213.543254,0.000000
35.000000,-20894.097792,-22180.887721,6226.368991,8754.395992,-14954.009945,27352.410835,9203.733111,31732.525734,0.224000,0.966000,0.100000,192.000000,0.000000,0.000000,0.000000,0.000000,0.000000,0.000000,0.000000,0.000000,0.000000,1648452213.543270,0.000000
36.000000,-20888.822781,-22178.205511,6225.050238,8756.362946,-14951.081866,27349.885088,9204.649532,31728.278903,0.224000,0.966000,0.100000,192.000000,0.000000,0.000000,0.000000,0.000000,0.000000,0.000000,0.000000,0.000000,0.000000,1648452213.551349,0.000000
37.000000,-20877.043411,-22161.464055,6236.717848,8772.478553,-14935.882680,27359.228117,9189.204477,31725.641397,0.224000,0.966000,0.100000,192.000000,0.000000,0.000000,0.000000,0.000000,0.000000,0.000000,0.000000,0.000000,0.000000,1648452213.551365,0.000000
38.000000,-20877.646908,-22158.088941,6239.400058,8774.534914,-14934.228651,27369.241699,9186.969303,31733.240990,0.224000,0.966000,0.100000,192.000000,0.000000,0.000000,0.000000,0.000000,0.000000,0.000000,0.000000,0.000000,0.000000,1648452213.559395,0.000000
39.000000,-20882.720754,-22167.007287,6236.382572,8766.890617,-14939.235442,27368.660554,9188.980960,31736.079661,0.224000,0.966000,0.100000,192.000000,0.000000,0.000000,0.000000,0.000000,0.000000,0.000000,0.000000,0.000000,0.000000,1648452213.559411,0.000000
40.000000,-20890.320348,-22174.137494,6230.459360,8761.637957,-14945.292764,27362.223251,9196.915829,31735.520868,0.224000,0.966000,0.100000,192.000000,0.000000,0.000000,0.000000,0.000000,0.000000,0.000000,0.000000,0.000000,0.000000,1648452213.566011,0.000000
41.000000,-20882.497237,-22163.140436,6236.002593,8770.288082,-14936.732046,27362.312658,9193.183087,31729.217676,0.224000,0.966000,0.100000,192.000000,0.000000,0.000000,0.000000,0.000000,0.000000,0.000000,0.000000,0.000000,0.000000,1648452213.566028,0.000000
42.000000,-20881.379650,-22158.200700,6237.298994,8773.685548,-14934.116892,27367.475911,9194.457137,31730.871705,0.224000,0.966000,0.100000,192.000000,0.000000,0.000000,0.000000,0.000000,0.000000,0.000000,0.000000,0.000000,0.000000,1648452213.573873,0.000000
43.000000,-20882.832513,-22162.603994,6231.241671,8766.443582,-14940.755360,27368.280574,9183.862410,31723.294464,0.224000,0.966000,0.100000,192.000000,0.000000,0.000000,0.000000,0.000000,0.000000,0.000000,0.000000,0.000000,0.000000,1648452213.573908,0.000000
44.000000,-20895.483601,-22171.857616,6223.351505,8754.597158,-14951.797122,27366.291269,9205.364788,31733.732728,0.228000,0.968000,0.092000,192.000000,7.000000,32.000000,30.000000,64.000000,2.000000,224.000000,0.000000,0.000000,0.000000,1648452213.581986,0.000000
45.000000,-20897.338795,-22171.835264,6229.073552,8758.888693,-14945.024543,27365.084274,9195.082986,31723.652091,0.228000,0.968000,0.092000,192.000000,0.000000,0.000000,0.000000,0.000000,0.000000,0.000000,0.000000,0.000000,0.000000,1648452213.582001,0.000000
46.000000,-20900.423336,-22182.675860,6225.989011,8751.803190,-14953.920538,27364.950164,9203.174317,31726.691929,0.228000,0.968000,0.092000,192.000000,0.000000,0.000000,0.000000,0.000000,0.000000,0.000000,0.000000,0.000000,0.000000,1648452213.589128,0.000000
47.000000,-20892.689632,-22173.802218,6229.006497,8758.776934,-14947.326773,27362.200899,9199.508631,31722.422746,0.228000,0.968000,0.092000,192.000000,0.000000,0.000000,0.000000,0.000000,0.000000,0.000000,0.000000,0.000000,0.000000,1648452213.595694,0.000000
48.000000,-20887.526380,-22165.487369,6235.779075,8768.678757,-14938.319020,27369.107588,9189.003311,31720.947530,0.228000,0.968000,0.092000,192.000000,0.000000,0.000000,0.000000,0.000000,0.000000,0.000000,0.000000,0.000000,0.000000,1648452213.595710,0.000000
49.000000,-20886.565255,-22167.096694,6234.281508,8764.297815,-14941.336506,27368.168815,9177.313349,31717.930045,0.228000,0.968000,0.092000,192.000000,0.000000,0.000000,0.000000,0.000000,0.000000,0.000000,0.000000,0.000000,0.000000,1648452213.603694,0.000000
50.000000,-20885.000632,-22164.369782,6232.403962,8764.029594,-14942.051761,27363.765521,9177.536866,31718.667652,0.228000,0.968000,0.092000,192.000000,0.000000,0.000000,0.000000,0.000000,0.000000,0.000000,0.000000,0.000000,0.000000,1648452213.603712,0.000000
51.000000,-20884.933577,-22160.033543,6235.108523,8770.668062,-14938.251965,27366.492434,9181.448422,31717.147734,0.228000,0.968000,0.092000,192.000000,0.000000,0.000000,0.000000,0.000000,0.000000,0.000000,0.000000,0.000000,0.000000,1648452213.611666,0.000000
52.000000,-20878.965661,-22156.479616,6235.533206,8775.540742,-14933.915726,27366.090103,9181.023739,31715.627815,0.228000,0.968000,0.092000,192.000000,0.000000,0.000000,0.000000,0.000000,0.000000,0.000000,0.000000,0.000000,0.000000,1648452213.611682,0.000000
53.000000,-20886.542903,-22167.141398,6230.682877,8764.856608,-14944.108122,27365.553661,9189.159773,31719.226446,0.228000,0.968000,0.092000,192.000000,0.000000,0.000000,0.000000,0.000000,0.000000,0.000000,0.000000,0.000000,0.000000,1648452213.618663,0.000000
54.000000,-20894.455420,-22173.578700,6226.592508,8758.240492,-14948.422009,27359.451635,9189.204477,31716.410126,0.228000,0.970000,0.094000,192.000000,7.000000,32.000000,30.000000,80.000000,2.000000,240.000000,0.000000,0.000000,0.000000,1648452213.618679,0.000000
55.000000,-20900.624502,-22176.864407,6221.362200,8755.535931,-14952.422971,27357.372923,9204.113091,31724.635568,0.228000,0.970000,0.094000,192.000000,0.000000,0.000000,0.000000,0.000000,0.000000,0.000000,0.000000,0.000000,0.000000,1648452213.626198,0.000000
56.000000,-20897.115278,-22172.774037,6224.580851,8757.636995,-14947.416180,27355.875356,9205.677713,31723.585036,0.228000,0.970000,0.094000,192.000000,0.000000,0.000000,0.000000,0.000000,0.000000,0.000000,0.000000,0.000000,0.000000,1648452213.626213,0.000000
57.000000,-20899.931598,-22177.602014,6224.379685,8754.530103,-14951.372439,27355.718893,9194.323026,31714.890208,0.228000,0.970000,0.094000,192.000000,0.000000,0.000000,0.000000,0.000000,0.000000,0.000000,0.000000,0.000000,0.000000,1648452213.634139,0.000000
58.000000,-20897.428202,-22179.054878,6226.860729,8752.518446,-14952.959413,27357.372923,9188.466869,31715.918388,0.228000,0.970000,0.094000,192.000000,0.000000,0.000000,0.000000,0.000000,0.000000,0.000000,0.000000,0.000000,0.000000,1648452213.634155,0.000000
59.000000,-20891.460287,-22174.539825,6231.644002,8757.189960,-14947.371477,27365.084274,9186.701082,31721.774545,0.228000,0.970000,0.094000,192.000000,0.000000,0.000000,0.000000,0.000000,0.000000,0.000000,0.000000,0.000000,0.000000,1648452213.641301,0.000000
60.000000,-20893.382537,-22172.349354,6230.168787,8759.872169,-14945.382171,27373.510882,9186.522268,31725.283769,0.228000,0.970000,0.094000,192.000000,0.000000,0.000000,0.000000,0.000000,0.000000,0.000000,0.000000,0.000000,0.000000,1648452213.641317,0.000000
61.000000,-20900.356281,-22182.474695,6223.686781,8749.947995,-14954.948718,27365.196033,9193.205439,31726.155487,0.228000,0.970000,0.094000,192.000000,0.000000,0.000000,0.000000,0.000000,0.000000,0.000000,0.000000,0.000000,0.000000,1648452213.647805,0.000000
62.000000,-20902.144420,-22183.704040,6222.859767,8746.416419,-14956.714506,27353.729588,9197.608733,31719.092336,0.228000,0.970000,0.094000,192.000000,0.000000,0.000000,0.000000,0.000000,0.000000,0.000000,0.000000,0.000000,0.000000,1648452213.655871,0.000000
63.000000,-20892.488467,-22169.331869,6234.348563,8763.090821,-14940.129511,27357.931716,9181.984864,31706.821228,0.228000,0.970000,0.094000,192.000000,0.000000,0.000000,0.000000,0.000000,0.000000,0.000000,0.000000,0.000000,0.000000,1648452213.655887,0.000000
64.000000,-20890.655624,-22168.594261,6235.712020,8764.431925,-14939.123683,27365.531309,9181.962512,31710.621024,0.228000,0.968000,0.096000,192.000000,7.000000,32.000000,30.000000,64.000000,3.000000,0.000000,0.000000,0.000000,0.000000,1648452213.663920,0.000000
65.000000,-20887.638138,-22167.789598,6234.102694,8763.828428,-14941.515320,27361.373885,9177.760384,31710.531617,0.228000,0.968000,0.096000,192.000000,0.000000,0.000000,0.000000,0.000000,0.000000,0.000000,0.000000,0.000000,0.000000,1648452213.663955,0.000000
66.000000,-20891.460287,-22172.170540,6229.297069,8759.715707,-14949.092561,27364.212556,9196.312332,31719.248798,0.228000,0.968000,0.096000,192.000000,0.000000,0.000000,0.000000,0.000000,0.000000,0.000000,0.000000,0.000000,0.000000,1648452213.670988,0.000000
67.000000,-20888.442801,-22172.461113,6227.598337,8756.474704,-14949.494892,27357.149405,9191.640817,31710.241045,0.228000,0.968000,0.096000,192.000000,0.000000,0.000000,0.000000,0.000000,0.000000,0.000000,0.000000,0.000000,0.000000,1648452213.671004,0.000000
68.000000,-20884.486542,-22169.264814,6230.794636,8757.882864,-14946.589166,27361.016257,9193.026625,31711.313929,0.228000,0.968000,0.096000,192.000000,0.000000,0.000000,0.000000,0.000000,0.000000,0.000000,0.000000,0.000000,0.000000,1648452213.678265,0.000000
69.000000,-20885.604130,-22170.740029,6230.459360,8759.469838,-14944.868081,27360.591574,9191.216134,31710.285748,0.228000,0.968000,0.096000,192.000000,0.000000,0.000000,0.000000,0.000000,0.000000,0.000000,0.000000,0.000000,0.000000,1648452213.678282,0.000000
70.000000,-20885.849999,-22173.198721,6229.475883,8757.771106,-14946.119779,27360.971553,9174.273512,31704.966033,0.228000,0.968000,0.096000,192.000000,0.000000,0.000000,0.000000,0.000000,0.000000,0.000000,0.000000,0.000000,0.000000,1648452213.686488,0.000000
71.000000,-20893.136667,-22183.793447,6220.669296,8745.075315,-14958.212073,27358.848138,9174.944064,31708.609367,0.228000,0.968000,0.096000,192.000000,0.000000,0.000000,0.000000,0.000000,0.000000,0.000000,0.000000,0.000000,0.000000,1648452213.686503,0.000000
72.000000,-20901.607979,-22196.735108,6211.706246,8734.592347,-14967.175122,27354.198975,9176.754555,31709.838713,0.228000,0.968000,0.096000,192.000000,0.000000,0.000000,0.000000,0.000000,0.000000,0.000000,0.000000,0.000000,0.000000,1648452213.694538,0.000000
73.000000,-20901.831496,-22198.813820,6210.834528,8730.189053,-14971.779582,27349.348646,9173.111221,31705.413068,0.228000,0.968000,0.096000,192.000000,0.000000,0.000000,0.000000,0.000000,0.000000,0.000000,0.000000,0.000000,0.000000,1648452213.694554,0.000000
74.000000,-20900.579798,-22191.169523,6212.510909,8732.245413,-14970.907863,27346.912306,9174.698195,31702.730859,0.224000,0.972000,0.096000,192.000000,7.000000,0.000000,30.000000,96.000000,3.000000,0.000000,0.000000,0.000000,0.000000,1648452213.700976,0.000000
75.000000,-20897.696423,-22182.966433,6218.121197,8742.549568,-14961.162503,27348.029893,9158.984918,31698.685193,0.224000,0.972000,0.096000,192.000000,0.000000,0.000000,0.000000,0.000000,0.000000,0.000000,0.000000,0.000000,0.000000,1648452213.700993,0.000000
76.000000,-20896.780002,-22181.670032,6222.770360,8749.277443,-14957.943852,27353.729588,9162.248273,31709.212865,0.224000,0.972000,0.096000,192.000000,0.000000,0.000000,0.000000,0.000000,0.000000,0.000000,0.000000,0.000000,0.000000,1648452213.708175,0.000000
77.000000,-20895.662415,-22181.491218,6224.782017,8750.015050,-14959.508474,27359.295173,9181.806050,31725.306121,0.224000,0.972000,0.096000,192.000000,0.000000,0.000000,0.000000,0.000000,0.000000,0.000000,0.000000,0.000000,0.000000,1648452213.716187,0.000000
78.000000,-20895.550656,-22182.273529,6219.596412,8746.394068,-14961.564834,27344.498318,9181.336663,31715.583112,0.224000,0.972000,0.096000,192.000000,0.000000,0.000000,0.000000,0.000000,0.000000,0.000000,0.000000,0.000000,0.000000,1648452213.716203,0.000000
79.000000,-20899.193990,-22188.040279,6218.076494,8741.901367,-14963.732954,27341.950219,9173.580608,31705.703641,0.224000,0.972000,0.096000,192.000000,0.000000,0.000000,0.000000,0.000000,0.000000,0.000000,0.000000,0.000000,0.000000,1648452213.724112,0.000000
80.000000,-20895.483601,-22184.218131,6219.484653,8742.683678,-14963.442381,27347.225231,9185.315273,31710.665728,0.224000,0.972000,0.096000,192.000000,0.000000,0.000000,0.000000,0.000000,0.000000,0.000000,0.000000,0.000000,0.000000,1648452213.724131,0.000000
81.000000,-20881.290243,-22167.342564,6228.715924,8754.373640,-14952.691192,27349.996847,9178.296826,31707.469428,0.224000,0.972000,0.096000,192.000000,0.000000,0.000000,0.000000,0.000000,0.000000,0.000000,0.000000,0.000000,0.000000,1648452213.730749,0.000000
82.000000,-20884.285377,-22167.253157,6227.821854,8754.552454,-14953.138227,27350.555641,9158.247311,31697.768771,0.224000,0.972000,0.096000,192.000000,0.000000,0.000000,0.000000,0.000000,0.000000,0.000000,0.000000,0.000000,0.000000,1648452213.730765,0.000000
83.000000,-20891.527342,-22175.098619,6224.826720,8750.953823,-14956.602747,27351.136786,9157.017965,31697.075867,0.224000,0.972000,0.096000,192.000000,0.000000,0.000000,0.000000,0.000000,0.000000,0.000000,0.000000,0.000000,0.000000,1648452213.738759,0.000000
84.000000,-20892.980205,-22169.689497,6228.157130,8759.916873,-14950.567776,27358.848138,9162.896474,31700.160408,0.214000,0.968000,0.094000,192.000000,6.000000,176.000000,30.000000,64.000000,2.000000,240.000000,0.000000,0.000000,0.000000,1648452213.738775,0.000000
85.000000,-20897.025871,-22173.243424,6226.391342,8757.815809,-14951.126570,27362.916155,9179.704986,31708.296443,0.214000,0.968000,0.094000,192.000000,0.000000,0.000000,0.000000,0.000000,0.000000,0.000000,0.000000,0.000000,0.000000,1648452213.746756,0.000000
86.000000,-20898.523438,-22178.943119,6221.496310,8750.059754,-14953.048820,27353.841347,9177.201590,31700.205112,0.214000,0.968000,0.094000,192.000000,0.000000,0.000000,0.000000,0.000000,0.000000,0.000000,0.000000,0.000000,0.000000,1648452213.746791,0.000000
87.000000,-20885.782943,-22168.549558,6230.280546,8759.358079,-14944.063418,27354.377789,9165.623387,31693.834864,0.214000,0.968000,0.094000,192.000000,0.000000,0.000000,0.000000,0.000000,0.000000,0.000000,0.000000,0.000000,0.000000,1648452213.753900,0.000000
88.000000,-20879.233882,-22162.603994,6230.258194,8764.856608,-14942.185872,27355.651838,9170.250198,31699.020469,0.214000,0.968000,0.094000,192.000000,0.000000,0.000000,0.000000,0.000000,0.000000,0.000000,0.000000,0.000000,0.000000,1648452213.753916,0.000000
89.000000,-20880.597339,-22165.129741,6230.302898,8766.644748,-14939.548366,27353.461367,9168.551465,31698.506379,0.214000,0.968000,0.094000,192.000000,0.000000,0.000000,0.000000,0.000000,0.000000,0.000000,0.000000,0.000000,0.000000,1648452213.761439,0.000000
90.000000,-20891.125010,-22175.568006,6229.364124,8760.788591,-14944.577509,27353.014332,9181.962512,31706.329490,0.214000,0.968000,0.094000,192.000000,0.000000,0.000000,0.000000,0.000000,0.000000,0.000000,0.000000,0.000000,0.000000,1648452213.761456,0.000000
91.000000,-20894.611883,-22180.105410,6221.675124,8755.021841,-14950.791293,27339.759748,9185.315273,31698.014641,0.214000,0.968000,0.094000,192.000000,0.000000,0.000000,0.000000,0.000000,0.000000,0.000000,0.000000,0.000000,0.000000,1648452213.768389,0.000000
92.000000,-20886.185275,-22167.431971,6226.771322,8764.767202,-14941.336506,27341.279667,9167.389174,31689.565681,0.214000,0.968000,0.094000,192.000000,0.000000,0.000000,0.000000,0.000000,0.000000,0.000000,0.000000,0.000000,0.000000,1648452213.768406,0.000000
93.000000,-20898.098755,-22175.769171,6220.579889,8755.781800,-14951.573605,27343.537193,9169.043203,31696.315908,0.214000,0.968000,0.094000,192.000000,0.000000,0.000000,0.000000,0.000000,0.000000,0.000000,0.000000,0.000000,0.000000,1648452213.776450,0.000000
94.000000,-20900.646854,-22181.111238,6219.082322,8751.870245,-14952.355916,27335.803489,9143.942194,31685.855292,0.210000,0.964000,0.102000,192.000000,6.000000,144.000000,30.000000,32.000000,3.000000,48.000000,0.000000,0.000000,0.000000,1648452213.783470,0.000000
95.000000,-20901.317406,-22182.139418,6224.379685,8755.379469,-14948.600823,27346.599382,9149.217206,31700.182760,0.210000,0.964000,0.102000,192.000000,0.000000,0.000000,0.000000,0.000000,0.000000,0.000000,0.000000,0.000000,0.000000,1648452213.783487,0.000000
96.000000,-20894.008385,-22172.371706,6236.673145,8767.270597,-14937.335543,27357.730550,9150.535959,31705.904806,0.210000,0.964000,0.102000,192.000000,0.000000,0.000000,0.000000,0.000000,0.000000,0.000000,0.000000,0.000000,0.000000,1648452213.791000,0.000000
97.000000,-20896.131801,-22172.058782,6238.573043,8766.398879,-14937.447302,27367.475911,9159.655471,31712.789144,0.210000,0.964000,0.102000,192.000000,0.000000,0.000000,0.000000,0.000000,0.000000,0.000000,0.000000,0.000000,0.000000,1648452213.791016,0.000000
98.000000,-20898.992824,-22175.232729,6233.767418,8759.827466,-14942.007058,27366.671248,9170.563122,31713.996138,0.210000,0.964000,0.102000,192.000000,0.000000,0.000000,0.000000,0.000000,0.000000,0.000000,0.000000,0.000000,0.000000,1648452213.799051,0.000000
99.000000,-20897.137630,-22176.909110,6231.353430,8758.665175,-14942.275279,27359.876318,9158.962567,31701.680327,0.210000,0.964000,0.102000,192.000000,0.000000,0.000000,0.000000,0.000000,0.000000,0.000000,0.000000,0.000000,0.000000,1648452213.799067,0.000000
100.000000,-20904.379595,-22180.597148,6226.726619,8754.686565,-14947.572642,27359.049303,9178.497991,31711.626853,0.210000,0.964000,0.102000,192.000000,0.000000,0.000000,0.000000,0.000000,0.000000,0.000000,0.000000,0.000000,0.000000,1648452213.806167,0.000000
101.000000,-20895.058917,-22163.162787,6237.008421,8769.550475,-14932.552270,27358.266992,9167.076250,31703.356707,0.210000,0.964000,0.102000,192.000000,0.000000,0.000000,0.000000,0.000000,0.000000,0.000000,0.000000,0.000000,0.000000,1648452213.806183,0.000000
102.000000,-20883.592473,-22153.506834,6245.770305,8778.290007,-14924.751511,27367.095931,9159.767230,31704.720164,0.210000,0.964000,0.102000,192.000000,0.000000,0.000000,0.000000,0.000000,0.000000,0.000000,0.000000,0.000000,0.000000,1648452213.813533,0.000000
103.000000,-20879.189179,-22155.697305,6244.585662,8776.703033,-14926.360837,27365.151330,9159.141381,31706.374193,0.210000,0.964000,0.102000,192.000000,0.000000,0.000000,0.000000,0.000000,0.000000,0.000000,0.000000,0.000000,0.000000,1648452213.813549,0.000000
104.000000,-20883.123086,-22159.541805,6240.741162,8775.451335,-14927.590183,27359.496338,9144.612747,31699.087524,0.208000,0.958000,0.102000,192.000000,6.000000,128.000000,29.000000,240.000000,3.000000,48.000000,0.000000,0.000000,0.000000,1648452213.821720,0.000000
105.000000,-20883.145438,-22161.106427,6238.550691,8775.272521,-14929.534784,27366.917117,9153.665203,31711.001004,0.208000,0.958000,0.102000,192.000000,0.000000,0.000000,0.000000,0.000000,0.000000,0.000000,0.000000,0.000000,0.000000,1648452213.821737,0.000000
106.000000,-20892.555522,-22170.225939,6232.471017,8765.929492,-14936.128549,27360.323353,9161.287148,31712.766792,0.208000,0.958000,0.102000,192.000000,0.000000,0.000000,0.000000,0.000000,0.000000,0.000000,0.000000,0.000000,0.000000,1648452213.829783,0.000000
107.000000,-20900.177467,-22174.003383,6228.827683,8763.314338,-14938.453131,27354.467196,9157.040317,31702.954376,0.208000,0.958000,0.102000,192.000000,0.000000,0.000000,0.000000,0.000000,0.000000,0.000000,0.000000,0.000000,0.000000,1648452213.829819,0.000000
108.000000,-20894.611883,-22168.504854,6232.649831,8768.119963,-14933.826319,27362.692638,9160.549541,31703.468466,0.208000,0.958000,0.102000,192.000000,0.000000,0.000000,0.000000,0.000000,0.000000,0.000000,0.000000,0.000000,0.000000,1648452213.835963,0.000000
109.000000,-20888.576912,-22159.586508,6236.203758,8774.803135,-14926.070264,27369.129940,9152.771134,31701.970899,0.208000,0.958000,0.102000,192.000000,0.000000,0.000000,0.000000,0.000000,0.000000,0.000000,0.000000,0.000000,0.000000,1648452213.843231,0.000000
110.000000,-20886.632310,-22162.492235,6236.449627,8770.243379,-14931.322924,27380.663440,9160.080154,31713.213827,0.208000,0.958000,0.102000,192.000000,0.000000,0.000000,0.000000,0.000000,0.000000,0.000000,0.000000,0.000000,0.000000,1648452213.843247,0.000000
111.000000,-20900.468040,-22175.366840,6225.989011,8755.267710,-14946.365648,27372.974440,9182.007215,31721.774545,0.208000,0.958000,0.102000,192.000000,0.000000,0.000000,0.000000,0.000000,0.000000,0.000000,0.000000,0.000000,0.000000,1648452213.851299,0.000000
112.000000,-20901.630330,-22174.763343,6225.609031,8754.798323,-14945.359820,27366.358324,9166.405698,31712.118591,0.208000,0.958000,0.102000,192.000000,0.000000,0.000000,0.000000,0.000000,0.000000,0.000000,0.000000,0.000000,0.000000,1648452213.851315,0.000000
113.000000,-20901.317406,-22174.517474,6229.542938,8755.558283,-14946.700924,27370.783969,9164.662262,31717.773583,0.208000,0.958000,0.102000,192.000000,0.000000,0.000000,0.000000,0.000000,0.000000,0.000000,0.000000,0.000000,0.000000,1648452213.859352,0.000000
114.000000,-20891.370880,-22168.996593,6231.398133,8762.107344,-14941.202395,27365.978344,9169.087907,31720.947530,0.214000,0.958000,0.106000,192.000000,6.000000,176.000000,29.000000,240.000000,3.000000,80.000000,0.000000,0.000000,0.000000,1648452213.859368,0.000000
115.000000,-20882.586644,-22162.603994,6237.656622,8770.042213,-14932.887546,27370.560452,9168.797334,31724.009719,0.214000,0.958000,0.106000,192.000000,0.000000,0.000000,0.000000,0.000000,0.000000,0.000000,0.000000,0.000000,0.000000,1648452213.865978,0.000000
116.000000,-20893.024909,-22166.917880,6238.684802,8769.170495,-14935.905032,27369.375809,9178.766212,31728.122440,0.214000,0.958000,0.106000,192.000000,0.000000,0.000000,0.000000,0.000000,0.000000,0.000000,0.000000,0.000000,0.000000,1648452213.865994,0.000000
117.000000,-20895.841228,-22168.236633,6237.611918,8767.538818,-14937.737875,27361.977382,9176.329872,31718.421783,0.214000,0.958000,0.106000,192.000000,0.000000,0.000000,0.000000,0.000000,0.000000,0.000000,0.000000,0.000000,0.000000,1648452213.873977,0.000000
118.000000,-20895.550656,-22169.890662,6235.443799,8764.186056,-14940.241270,27359.049303,9174.742898,31714.063193,0.214000,0.958000,0.106000,192.000000,0.000000,0.000000,0.000000,0.000000,0.000000,0.000000,0.000000,0.000000,0.000000,1648452213.873994,0.000000
119.000000,-20888.956891,-22163.296898,6239.489465,8768.969329,-14936.352067,27359.004600,9172.351262,31714.733745,0.214000,0.958000,0.106000,192.000000,0.000000,0.000000,0.000000,0.000000,0.000000,0.000000,0.000000,0.000000,0.000000,1648452213.882000,0.000000
120.000000,-20894.634234,-22167.990764,6231.420485,8762.017937,-14945.516282,27355.920059,9173.446497,31714.554931,0.214000,0.958000,0.106000,192.000000,0.000000,0.000000,0.000000,0.000000,0.000000,0.000000,0.000000,0.000000,0.000000,1648452213.882016,0.000000
121.000000,-20897.249388,-22171.298822,6225.698438,8757.793457,-14948.444360,27353.349609,9161.488314,31704.541350,0.214000,0.958000,0.106000,192.000000,0.000000,0.000000,0.000000,0.000000,0.000000,0.000000,0.000000,0.000000,0.000000,1648452213.889205,0.000000
122.000000,-20892.175542,-22163.721581,6231.509892,8765.415402,-14937.894337,27364.547833,9163.209398,31709.078754,0.214000,0.958000,0.106000,192.000000,0.000000,0.000000,0.000000,0.000000,0.000000,0.000000,0.000000,0.000000,0.000000,1648452213.889222,0.000000
123.000000,-20895.215380,-22161.508758,6233.253328,8767.918797,-14934.720389,27372.080370,9170.116087,31718.757059,0.214000,0.958000,0.106000,192.000000,0.000000,0.000000,0.000000,0.000000,0.000000,0.000000,0.000000,0.000000,0.000000,1648452213.895503,0.000000
124.000000,-20899.149287,-22162.626345,6231.867520,8767.985853,-14935.390942,27368.928774,9166.204532,31716.477181,0.218000,0.962000,0.102000,192.000000,6.000000,208.000000,30.000000,16.000000,3.000000,48.000000,0.000000,0.000000,0.000000,1648452213.903609,0.000000
125.000000,-20895.394194,-22161.955793,6236.449627,8771.785649,-14933.312229,27374.293193,9165.690442,31721.618083,0.218000,0.962000,0.102000,192.000000,0.000000,0.000000,0.000000,0.000000,0.000000,0.000000,0.000000,0.000000,0.000000,1648452213.903626,0.000000
126.000000,-20903.731394,-22174.293956,6230.235842,8761.548550,-14943.683439,27367.945298,9171.680709,31722.132173,0.218000,0.962000,0.102000,192.000000,0.000000,0.000000,0.000000,0.000000,0.000000,0.000000,0.000000,0.000000,0.000000,1648452213.911629,0.000000
127.000000,-20905.005444,-22169.778904,6231.554595,8767.158838,-14938.207261,27366.268917,9159.588416,31718.153562,0.218000,0.962000,0.102000,192.000000,0.000000,0.000000,0.000000,0.000000,0.000000,0.000000,0.000000,0.000000,0.000000,1648452213.911646,0.000000
128.000000,-20888.576912,-22149.595278,6245.323270,8786.135469,-14920.214107,27381.244586,9150.155979,31724.523809,0.218000,0.962000,0.102000,192.000000,0.000000,0.000000,0.000000,0.000000,0.000000,0.000000,0.000000,0.000000,0.000000,1648452213.918595,0.000000
129.000000,-20886.721717,-22153.775055,6245.211511,8782.335673,-14923.633924,27386.161969,9157.107372,31733.643321,0.218000,0.962000,0.102000,192.000000,0.000000,0.000000,0.000000,0.000000,0.000000,0.000000,0.000000,0.000000,0.000000,1648452213.918630,0.000000
130.000000,-20890.365051,-22164.235671,6237.366049,8769.796344,-14933.535747,27372.460350,9168.149134,31731.050519,0.218000,0.962000,0.102000,192.000000,0.000000,0.000000,0.000000,0.000000,0.000000,0.000000,0.000000,0.000000,0.000000,1648452213.926283,0.000000
131.000000,-20888.442801,-22163.676877,6235.197930,8767.494114,-14935.994439,27365.754827,9154.805142,31714.532580,0.218000,0.962000,0.102000,192.000000,0.000000,0.000000,0.000000,0.000000,0.000000,0.000000,0.000000,0.000000,0.000000,1648452213.926299,0.000000
132.000000,-20886.900531,-22160.234709,6236.561386,8768.119963,-14935.614459,27371.678039,9156.593282,31714.554931,0.218000,0.962000,0.102000,192.000000,0.000000,0.000000,0.000000,0.000000,0.000000,0.000000,0.000000,0.000000,0.000000,1648452213.934083,0.000000
133.000000,-20902.166772,-22171.231767,6228.581813,8759.067507,-14944.398695,27369.353458,9165.533980,31716.141905,0.218000,0.962000,0.102000,192.000000,0.000000,0.000000,0.000000,0.000000,0.000000,0.000000,0.000000,0.000000,0.000000,1648452213.934100,0.000000
134.000000,-20904.066670,-22170.024773,6229.744104,8760.408611,-14942.834072,27366.894766,9152.100581,31708.430553,0.214000,0.964000,0.100000,192.000000,6.000000,176.000000,30.000000,32.000000,3.000000,32.000000,0.000000,0.000000,0.000000,1648452213.941412,0.000000
135.000000,-20904.625464,-22170.002421,6231.331078,8761.526199,-14944.309288,27373.466179,9170.876047,31725.395528,0.214000,0.964000,0.100000,192.000000,0.000000,0.000000,0.000000,0.000000,0.000000,0.000000,0.000000,0.000000,0.000000,1648452213.941428,0.000000
136.000000,-20896.243560,-22165.487369,6239.131837,8768.119963,-14935.927383,27373.868510,9165.176352,31720.724013,0.214000,0.964000,0.100000,192.000000,0.000000,0.000000,0.000000,0.000000,0.000000,0.000000,0.000000,0.000000,0.000000,1648452213.948881,0.000000
137.000000,-20900.736261,-22168.907186,6234.750895,8763.560207,-14939.727180,27371.789798,9155.609805,31714.957263,0.214000,0.964000,0.100000,192.000000,0.000000,0.000000,0.000000,0.000000,0.000000,0.000000,0.000000,0.000000,0.000000,1648452213.948897,0.000000
138.000000,-20905.184258,-22173.601052,6229.162959,8759.492190,-14943.012886,27371.141597,9144.500988,31708.676423,0.214000,0.964000,0.100000,192.000000,0.000000,0.000000,0.000000,0.000000,0.000000,0.000000,0.000000,0.000000,0.000000,1648452213.955976,0.000000
139.000000,-20901.853848,-22170.561215,6232.426313,8762.286158,-14937.581413,27368.414684,9133.973316,31702.954376,0.214000,0.964000,0.100000,192.000000,0.000000,0.000000,0.000000,0.000000,0.000000,0.000000,0.000000,0.000000,0.000000,1648452213.963923,0.000000
140.000000,-20897.741127,-22164.638002,6239.042430,8768.499943,-14933.736912,27374.136731,9133.123950,31709.548141,0.214000,0.964000,0.100000,192.000000,0.000000,0.000000,0.000000,0.000000,0.000000,0.000000,0.000000,0.000000,0.000000,1648452213.963939,0.000000
141.000000,-20889.359223,-22150.265831,6242.953985,8773.685548,-14930.607668,27380.283461,9139.024811,31720.791068,0.214000,0.964000,0.100000,192.000000,0.000000,0.000000,0.000000,0.000000,0.000000,0.000000,0.000000,0.000000,0.000000,1648452213.971180,0.000000
142.000000,-20890.365051,-22160.122950,6240.338831,8767.583521,-14933.938078,27380.261109,9141.148226,31721.729841,0.214000,0.964000,0.100000,192.000000,0.000000,0.000000,0.000000,0.000000,0.000000,0.000000,0.000000,0.000000,0.000000,1648452213.971197,0.000000
143.000000,-20910.861601,-22178.697250,6231.487540,8758.508713,-14941.850596,27373.466179,9138.868348,31714.957263,0.214000,0.964000,0.100000,192.000000,0.000000,0.000000,0.000000,0.000000,0.000000,0.000000,0.000000,0.000000,0.000000,1648452213.978620,0.000000
144.000000,-20910.079290,-22172.148189,6232.783941,8763.269635,-14939.883642,27376.394257,9150.491256,31721.461621,0.214000,0.964000,0.100000,192.000000,0.000000,0.000000,0.000000,0.000000,0.000000,0.000000,0.000000,0.000000,0.000000,1648452213.978636,0.000000
145.000000,-20898.523438,-22165.062686,6238.058953,8769.796344,-14934.385113,27374.315545,9145.596224,31716.231312,0.218000,0.960000,0.102000,192.000000,6.000000,208.000000,30.000000,0.000000,3.000000,48.000000,0.000000,0.000000,0.000000,1648452213.986553,0.000000
146.000000,-20890.208589,-22162.134607,6240.785866,8768.790516,-14935.703866,27375.701353,9146.982032,31719.226446,0.218000,0.960000,0.102000,192.000000,0.000000,0.000000,0.000000,0.000000,0.000000,0.000000,0.000000,0.000000,0.000000,1648452213.986569,0.000000
147.000000,-20896.198856,-22165.219148,6236.829607,8765.437754,-14939.838939,27368.124112,9155.699212,31719.472315,0.218000,0.960000,0.102000,192.000000,0.000000,0.000000,0.000000,0.000000,0.000000,0.000000,0.000000,0.000000,0.000000,1648452213.994595,0.000000
148.000000,-20903.440822,-22163.498064,6237.902491,8769.349309,-14936.352067,27369.219347,9140.209453,31706.597710,0.218000,0.960000,0.102000,192.000000,0.000000,0.000000,0.000000,0.000000,0.000000,0.000000,0.000000,0.000000,0.000000,1648452213.994611,0.000000
149.000000,-20907.039452,-22167.476674,6233.409790,8766.309472,-14941.157692,27370.426341,9146.244424,31708.832885,0.218000,0.960000,0.102000,192.000000,0.000000,0.000000,0.000000,0.000000,0.000000,0.000000,0.000000,0.000000,0.000000,1648452214.000931,0.000000
150.000000,-20907.553543,-22168.080171,6231.755761,8763.537856,-14943.124645,27368.414684,9136.320250,31705.413068,0.218000,0.960000,0.102000,192.000000,0.000000,0.000000,0.000000,0.000000,0.000000,0.000000,0.000000,0.000000,0.000000,1648452214.000950,0.000000
151.000000,-20899.283397,-22156.881947,6239.690630,8771.271559,-14935.636811,27381.311641,9145.506817,31719.382908,0.218000,0.960000,0.102000,192.000000,0.000000,0.000000,0.000000,0.000000,0.000000,0.000000,0.000000,0.000000,0.000000,1648452214.009209,0.000000
152.000000,-20895.796525,-22156.390209,6239.265947,8768.768164,-14937.156729,27386.653708,9157.308538,31729.552952,0.218000,0.960000,0.102000,192.000000,0.000000,0.000000,0.000000,0.000000,0.000000,0.000000,0.000000,0.000000,0.000000,1648452214.009218,0.000000
153.000000,-20902.971435,-22161.128779,6233.901529,8762.844951,-14941.224747,27379.568205,9149.373668,31725.015548,0.218000,0.960000,0.102000,192.000000,0.000000,0.000000,0.000000,0.000000,0.000000,0.000000,0.000000,0.000000,0.000000,1648452214.016158,0.000000
154.000000,-20910.526325,-22170.225939,6229.967622,8757.771106,-14944.935136,27380.238757,9149.552482,31729.754118,0.218000,0.960000,0.102000,192.000000,0.000000,0.000000,0.000000,0.000000,0.000000,0.000000,0.000000,0.000000,0.000000,1648452214.016170,0.000000
155.000000,-20916.494240,-22177.713773,6224.089113,8752.741963,-14951.618308,27375.343725,9167.567988,31736.884324,0.222000,0.964000,0.098000,192.000000,6.000000,240.000000,30.000000,32.000000,3.000000,16.000000,0.000000,0.000000,0.000000,1648452214.024411,0.000000
156.000000,-20909.408737,-22171.522340,6229.341773,8757.726402,-14945.181006,27372.080370,9158.470828,31727.228371,0.222000,0.964000,0.098000,192.000000,0.000000,0.000000,0.000000,0.000000,0.000000,0.000000,0.000000,0.000000,0.000000,1648452214.030761,0.000000
157.000000,-20907.844115,-22167.610784,6232.716886,8758.441658,-14943.079942,27369.889899,9158.493180,31724.970844,0.222000,0.964000,0.098000,192.000000,0.000000,0.000000,0.000000,0.000000,0.000000,0.000000,0.000000,0.000000,0.000000,1648452214.030777,0.000000
158.000000,-20903.709043,-22159.474750,6235.086171,8765.415402,-14936.821453,27368.660554,9147.831398,31717.550065,0.222000,0.964000,0.098000,192.000000,0.000000,0.000000,0.000000,0.000000,0.000000,0.000000,0.000000,0.000000,0.000000,1648452214.038859,0.000000
159.000000,-20902.278531,-22161.262889,6236.293165,8768.499943,-14934.183947,27372.482702,9142.019944,31716.991272,0.222000,0.964000,0.098000,192.000000,0.000000,0.000000,0.000000,0.000000,0.000000,0.000000,0.000000,0.000000,0.000000,1648452214.038877,0.000000
160.000000,-20906.480659,-22165.979107,6231.889872,8762.464972,-14941.291802,27368.884071,9153.665203,31722.780373,0.222000,0.964000,0.098000,192.000000,0.000000,0.000000,0.000000,0.000000,0.000000,0.000000,0.000000,0.000000,0.000000,1648452214.046866,0.000000
161.000000,-20904.066670,-22163.609822,6232.761590,8763.694318,-14936.441474,27358.088178,9133.570985,31703.334356,0.222000,0.964000,0.098000,192.000000,0.000000,0.000000,0.000000,0.000000,0.000000,0.000000,0.000000,0.000000,0.000000,1648452214.046883,0.000000
162.000000,-20898.143458,-22160.569985,6243.021040,8769.550475,-14929.087750,27370.225176,9121.545747,31703.848446,0.222000,0.964000,0.098000,192.000000,0.000000,0.000000,0.000000,0.000000,0.000000,0.000000,0.000000,0.000000,0.000000,1648452214.054075,0.000000
