%OpenBCI Raw EEG Data
%Number of channels = 8
%Sample Rate = 256 Hz
%Board = OpenBCI_GUI$BoardCytonSerial
%Channels = Fp1, Fp2, F3, F4, Fz, Pz, O1, O2
%Data recorded at AIMS Lab (http://aimsl.uiu.ac.bd) by Rana Depto (mail@ranadepto.com)
%Brainwaves were obtained via the Ultracortex Mark IV Headset using the OpenBCI Cyton Board
%Recording Application = ConcentrateToday (https://concentrate.today)
%Data type = RAW data with noise
%Day No = 8
%Subject ID = 3
%Session ID = 7
%Record starting timestamp (UTC+6) = 2022-03-20T14:06:51.005563
%Record ending timestamp (UTC+6)   = 2022-03-20T14:07:11.857473
%Recorded durations = ~20 seconds
Sample Index, EXG Channel 0, EXG Channel 1, EXG Channel 2, EXG Channel 3, EXG Channel 4, EXG Channel 5, EXG Channel 6, EXG Channel 7, Accel Channel 0, Accel Channel 1, Accel Channel 2, Other, Other, Other, Other, Other, Other, Other, Analog Channel 0, Analog Channel 1, Analog Channel 2, Timestamp, Timestamp (Formatted)
221.000000,-20324.977675,-18560.843892,-29106.240464,-26570.300945,-30824.776688,-1447.588378,-24456.675286,-8947.939747,0.028000,0.978000,0.092000,192.000000,0.000000,0.000000,0.000000,0.000000,0.000000,0.000000,0.000000,0.000000,0.000000,1647763611.008315,0.000000
222.000000,-20324.262419,-18555.859453,-29106.352223,-26565.294154,-30821.535685,-1438.535921,-24449.567431,-8955.338175,0.028000,0.978000,0.092000,192.000000,0.000000,0.000000,0.000000,0.000000,0.000000,0.000000,0.000000,0.000000,0.000000,1647763611.008322,0.000000
223.000000,-20323.547163,-18554.495997,-29104.653490,-26568.445750,-30823.547342,-1441.754573,-24457.792873,-8937.322669,0.028000,0.980000,0.086000,192.000000,0.000000,224.000000,30.000000,160.000000,2.000000,176.000000,0.000000,0.000000,0.000000,1647763611.014910,0.000000
224.000000,-20314.382948,-18549.578613,-29094.975185,-26566.992887,-30818.495848,-1456.082041,-24460.966821,-8940.116637,0.028000,0.980000,0.086000,192.000000,0.000000,0.000000,0.000000,0.000000,0.000000,0.000000,0.000000,0.000000,0.000000,1647763611.014914,0.000000
225.000000,-20320.440271,-18556.485302,-29096.740973,-26572.491416,-30822.228589,-1464.016910,-24474.444923,-8952.253634,0.028000,0.980000,0.086000,192.000000,0.000000,0.000000,0.000000,0.000000,0.000000,0.000000,0.000000,0.000000,0.000000,1647763611.022759,0.000000
226.000000,-20327.056387,-18561.179168,-29101.211321,-26578.079352,-30824.664929,-1463.212247,-24475.115475,-8954.555864,0.028000,0.980000,0.086000,192.000000,0.000000,0.000000,0.000000,0.000000,0.000000,0.000000,0.000000,0.000000,0.000000,1647763611.022764,0.000000
227.000000,-20329.112748,-18559.480436,-29103.178275,-26575.084218,-30823.100307,-1458.853657,-24460.542138,-8954.488808,0.028000,0.980000,0.086000,192.000000,0.000000,0.000000,0.000000,0.000000,0.000000,0.000000,0.000000,0.000000,0.000000,1647763611.030875,0.000000
228.000000,-20325.871745,-18554.831273,-29101.256025,-26567.976364,-30819.725194,-1455.389137,-24464.967783,-8955.204064,0.028000,0.980000,0.086000,192.000000,0.000000,0.000000,0.000000,0.000000,0.000000,0.000000,0.000000,0.000000,0.000000,1647763611.030879,0.000000
229.000000,-20323.010722,-18553.065485,-29102.887702,-26562.679000,-30817.288854,-1455.724413,-24455.803568,-8945.056372,0.028000,0.980000,0.086000,192.000000,0.000000,0.000000,0.000000,0.000000,0.000000,0.000000,0.000000,0.000000,0.000000,1647763611.037844,0.000000
230.000000,-20336.064140,-18565.738924,-29116.209342,-26572.826692,-30828.352967,-1444.816762,-24454.306001,-8955.673451,0.028000,0.980000,0.086000,192.000000,0.000000,0.000000,0.000000,0.000000,0.000000,0.000000,0.000000,0.000000,0.000000,1647763611.037849,0.000000
231.000000,-20341.137986,-18574.679622,-29121.014967,-26583.510826,-30836.734871,-1456.417317,-24463.447864,-8963.004823,0.028000,0.980000,0.086000,192.000000,0.000000,0.000000,0.000000,0.000000,0.000000,0.000000,0.000000,0.000000,0.000000,1647763611.044508,0.000000
232.000000,-20353.565556,-18590.191733,-29130.603865,-26599.760544,-30849.028331,-1466.475602,-24478.870568,-8970.962044,0.028000,0.980000,0.086000,192.000000,0.000000,0.000000,0.000000,0.000000,0.000000,0.000000,0.000000,0.000000,0.000000,1647763611.044512,0.000000
233.000000,-20341.249745,-18576.512465,-29117.975130,-26586.729477,-30836.936037,-1465.380366,-24471.718010,-8963.295396,0.032000,0.978000,0.084000,192.000000,1.000000,0.000000,30.000000,144.000000,2.000000,160.000000,0.000000,0.000000,0.000000,1647763611.052562,0.000000
234.000000,-20332.152585,-18568.018802,-29109.280301,-26579.845140,-30825.670758,-1467.727300,-24475.048420,-8957.171018,0.032000,0.978000,0.084000,192.000000,0.000000,0.000000,0.000000,0.000000,0.000000,0.000000,0.000000,0.000000,0.000000,1647763611.060519,0.000000
235.000000,-20332.823137,-18570.924529,-29108.207418,-26579.778085,-30824.642578,-1462.921675,-24467.851158,-8950.554901,0.032000,0.978000,0.084000,192.000000,0.000000,0.000000,0.000000,0.000000,0.000000,0.000000,0.000000,0.000000,0.000000,1647763611.060531,0.000000
236.000000,-20335.259478,-18571.595081,-29110.822572,-26575.575957,-30823.994377,-1461.960550,-24462.285574,-8954.377050,0.032000,0.978000,0.084000,192.000000,0.000000,0.000000,0.000000,0.000000,0.000000,0.000000,0.000000,0.000000,0.000000,1647763611.067176,0.000000
237.000000,-20337.271135,-18574.880788,-29111.738993,-26575.598309,-30823.033252,-1465.134497,-24464.900728,-8960.009689,0.032000,0.978000,0.084000,192.000000,0.000000,0.000000,0.000000,0.000000,0.000000,0.000000,0.000000,0.000000,0.000000,1647763611.067181,0.000000
238.000000,-20342.009704,-18578.926453,-29116.924598,-26580.113361,-30824.888447,-1459.792430,-24470.354554,-8963.697727,0.032000,0.978000,0.084000,192.000000,0.000000,0.000000,0.000000,0.000000,0.000000,0.000000,0.000000,0.000000,0.000000,1647763611.075199,0.000000
239.000000,-20345.183652,-18582.860360,-29118.735089,-26582.750867,-30827.548305,-1470.543619,-24478.311775,-8964.189466,0.032000,0.978000,0.084000,192.000000,0.000000,0.000000,0.000000,0.000000,0.000000,0.000000,0.000000,0.000000,0.000000,1647763611.075204,0.000000
240.000000,-20343.887251,-18582.480381,-29119.182124,-26582.303832,-30829.157630,-1480.266628,-24477.373001,-8965.128239,0.032000,0.978000,0.084000,192.000000,0.000000,0.000000,0.000000,0.000000,0.000000,0.000000,0.000000,0.000000,0.000000,1647763611.083057,0.000000
241.000000,-20331.012646,-18568.376430,-29107.827438,-26569.071599,-30816.439488,-1467.190858,-24464.319583,-8957.171018,0.032000,0.978000,0.084000,192.000000,0.000000,0.000000,0.000000,0.000000,0.000000,0.000000,0.000000,0.000000,0.000000,1647763611.083062,0.000000
242.000000,-20338.008742,-18576.959500,-29115.918769,-26577.408800,-30823.390880,-1456.797297,-24465.481873,-8956.366355,0.032000,0.978000,0.084000,192.000000,0.000000,0.000000,0.000000,0.000000,0.000000,0.000000,0.000000,0.000000,0.000000,1647763611.090236,0.000000
243.000000,-20337.315838,-18576.914796,-29115.292921,-26576.559434,-30825.424889,-1466.028567,-24462.352629,-8957.439239,0.034000,0.978000,0.084000,192.000000,1.000000,16.000000,30.000000,144.000000,2.000000,160.000000,0.000000,0.000000,0.000000,1647763611.090241,0.000000
244.000000,-20330.677370,-18568.264671,-29108.542694,-26568.423399,-30815.947749,-1461.982901,-24455.580050,-8959.473247,0.034000,0.978000,0.084000,192.000000,0.000000,0.000000,0.000000,0.000000,0.000000,0.000000,0.000000,0.000000,0.000000,1647763611.097685,0.000000
245.000000,-20337.606411,-18570.991584,-29114.018871,-26573.296079,-30821.245113,-1457.199628,-24464.319583,-8959.003861,0.034000,0.978000,0.084000,192.000000,0.000000,0.000000,0.000000,0.000000,0.000000,0.000000,0.000000,0.000000,0.000000,1647763611.097688,0.000000
246.000000,-20343.082588,-18573.673794,-29118.556275,-26577.945242,-30826.363662,-1452.282244,-24480.211673,-8969.039794,0.034000,0.978000,0.084000,192.000000,0.000000,0.000000,0.000000,0.000000,0.000000,0.000000,0.000000,0.000000,0.000000,1647763611.105719,0.000000
247.000000,-20324.262419,-18555.434770,-29099.937272,-26561.784930,-30817.177095,-1456.350262,-24473.394391,-8962.177809,0.034000,0.978000,0.084000,192.000000,0.000000,0.000000,0.000000,0.000000,0.000000,0.000000,0.000000,0.000000,0.000000,1647763611.105724,0.000000
248.000000,-20329.179803,-18558.698125,-29105.659319,-26569.116303,-30818.965235,-1459.345395,-24480.412839,-8978.829858,0.034000,0.978000,0.084000,192.000000,0.000000,0.000000,0.000000,0.000000,0.000000,0.000000,0.000000,0.000000,0.000000,1647763611.112885,0.000000
249.000000,-20333.292524,-18560.687430,-29113.013043,-26572.513768,-30829.291741,-1480.892477,-24494.896769,-9003.975571,0.034000,0.978000,0.084000,192.000000,0.000000,0.000000,0.000000,0.000000,0.000000,0.000000,0.000000,0.000000,0.000000,1647763611.119738,0.000000
250.000000,-20337.986390,-18562.654383,-29116.835191,-26573.854872,-30832.868020,-1483.977018,-24493.198036,-8985.378919,0.034000,0.978000,0.084000,192.000000,0.000000,0.000000,0.000000,0.000000,0.000000,0.000000,0.000000,0.000000,0.000000,1647763611.119742,0.000000
251.000000,-20333.627800,-18558.675773,-29111.604883,-26570.189186,-30827.883581,-1470.074233,-24470.220443,-8946.777457,0.034000,0.978000,0.084000,192.000000,0.000000,0.000000,0.000000,0.000000,0.000000,0.000000,0.000000,0.000000,0.000000,1647763611.127363,0.000000
252.000000,-20326.274076,-18550.629145,-29107.872141,-26566.478797,-30822.206238,-1465.000387,-24464.833673,-8942.575329,0.034000,0.978000,0.084000,192.000000,0.000000,0.000000,0.000000,0.000000,0.000000,0.000000,0.000000,0.000000,0.000000,1647763611.127367,0.000000
253.000000,-20334.186594,-18556.239433,-29116.544618,-26576.313564,-30825.044909,-1458.652491,-24471.181568,-8956.299300,0.032000,0.980000,0.084000,192.000000,1.000000,0.000000,30.000000,160.000000,2.000000,160.000000,0.000000,0.000000,0.000000,1647763611.135373,0.000000
254.000000,-20345.317763,-18566.253014,-29127.966360,-26586.550663,-30839.014749,-1479.618428,-24481.888054,-8974.270102,0.032000,0.980000,0.084000,192.000000,0.000000,0.000000,0.000000,0.000000,0.000000,0.000000,0.000000,0.000000,0.000000,1647763611.135377,0.000000
255.000000,-20342.747312,-18567.527064,-29122.557237,-26584.159027,-30838.657121,-1482.077120,-24471.650955,-8968.212780,0.032000,0.980000,0.084000,192.000000,0.000000,0.000000,0.000000,0.000000,0.000000,0.000000,0.000000,0.000000,0.000000,1647763611.143341,0.000000
0.000000,-20340.825062,-18568.175264,-29118.109240,-26585.768352,-30835.885505,-1468.040224,-24477.596519,-8970.649120,0.032000,0.980000,0.084000,192.000000,0.000000,0.000000,0.000000,0.000000,0.000000,0.000000,0.000000,0.000000,0.000000,1647763611.143345,0.000000
1.000000,-20339.662771,-18568.957575,-29118.377461,-26583.063791,-30834.276180,-1464.419241,-24472.522673,-8958.243902,0.032000,0.980000,0.084000,192.000000,0.000000,0.000000,0.000000,0.000000,0.000000,0.000000,0.000000,0.000000,0.000000,1647763611.149965,0.000000
2.000000,-20336.958210,-18568.242320,-29118.668034,-26583.332012,-30834.387938,-1475.975093,-24477.931795,-8970.917341,0.032000,0.980000,0.084000,192.000000,0.000000,0.000000,0.000000,0.000000,0.000000,0.000000,0.000000,0.000000,0.000000,1647763611.149969,0.000000
3.000000,-20333.180765,-18564.487227,-29113.951816,-26578.660498,-30828.755299,-1487.776814,-24475.853083,-8971.476134,0.032000,0.980000,0.084000,192.000000,0.000000,0.000000,0.000000,0.000000,0.000000,0.000000,0.000000,0.000000,0.000000,1647763611.158053,0.000000
4.000000,-20336.041789,-18564.219006,-29114.622368,-26576.961765,-30827.190677,-1480.356035,-24472.455617,-8970.515009,0.032000,0.980000,0.084000,192.000000,0.000000,0.000000,0.000000,0.000000,0.000000,0.000000,0.000000,0.000000,0.000000,1647763611.158060,0.000000
5.000000,-20324.485937,-18551.702029,-29104.228807,-26565.785893,-30817.937054,-1478.992579,-24465.660687,-8949.772590,0.032000,0.980000,0.084000,192.000000,0.000000,0.000000,0.000000,0.000000,0.000000,0.000000,0.000000,0.000000,0.000000,1647763611.165916,0.000000
6.000000,-20330.230335,-18559.256918,-29111.716641,-26574.458370,-30825.246075,-1488.357960,-24473.193225,-8952.991242,0.032000,0.980000,0.084000,192.000000,0.000000,0.000000,0.000000,0.000000,0.000000,0.000000,0.000000,0.000000,0.000000,1647763611.165920,0.000000
7.000000,-20346.927088,-18575.864264,-29126.379386,-26592.518579,-30838.031273,-1492.403626,-24490.225254,-8970.067974,0.028000,0.982000,0.088000,192.000000,0.000000,224.000000,30.000000,176.000000,2.000000,192.000000,0.000000,0.000000,0.000000,1647763611.173089,0.000000
8.000000,-20349.028152,-18576.668927,-29124.233618,-26594.574940,-30836.041967,-1486.413358,-24482.200978,-8976.147649,0.028000,0.982000,0.088000,192.000000,0.000000,0.000000,0.000000,0.000000,0.000000,0.000000,0.000000,0.000000,0.000000,1647763611.179649,0.000000
9.000000,-20340.713303,-18566.074200,-29119.316235,-26584.807227,-30829.872886,-1490.324913,-24475.473103,-8978.159306,0.028000,0.982000,0.088000,192.000000,0.000000,0.000000,0.000000,0.000000,0.000000,0.000000,0.000000,0.000000,0.000000,1647763611.179652,0.000000
10.000000,-20322.474280,-18550.070351,-29106.128705,-26567.752846,-30815.321900,-1488.827346,-24471.293327,-8971.923169,0.028000,0.982000,0.088000,192.000000,0.000000,0.000000,0.000000,0.000000,0.000000,0.000000,0.000000,0.000000,0.000000,1647763611.187627,0.000000
11.000000,-20327.212850,-18554.563052,-29112.320138,-26571.619698,-30815.411307,-1479.439614,-24471.874472,-8965.731736,0.028000,0.982000,0.088000,192.000000,0.000000,0.000000,0.000000,0.000000,0.000000,0.000000,0.000000,0.000000,0.000000,1647763611.187632,0.000000
12.000000,-20330.207983,-18554.518349,-29114.957644,-26575.933585,-30823.480287,-1481.898306,-24477.797684,-8968.056317,0.028000,0.982000,0.088000,192.000000,0.000000,0.000000,0.000000,0.000000,0.000000,0.000000,0.000000,0.000000,0.000000,1647763611.195643,0.000000
13.000000,-20323.100129,-18546.404665,-29106.195761,-26570.993849,-30820.440450,-1494.571745,-24476.590690,-8972.794887,0.028000,0.982000,0.088000,192.000000,0.000000,0.000000,0.000000,0.000000,0.000000,0.000000,0.000000,0.000000,0.000000,1647763611.195647,0.000000
14.000000,-20327.391663,-18549.802130,-29107.402755,-26572.849044,-30819.792249,-1492.180108,-24474.288461,-8976.281759,0.028000,0.982000,0.088000,192.000000,0.000000,0.000000,0.000000,0.000000,0.000000,0.000000,0.000000,0.000000,0.000000,1647763611.202175,0.000000
15.000000,-20330.275039,-18550.919718,-29108.475638,-26572.044381,-30821.356871,-1486.145137,-24470.488664,-8960.054393,0.028000,0.982000,0.088000,192.000000,0.000000,0.000000,0.000000,0.000000,0.000000,0.000000,0.000000,0.000000,0.000000,1647763611.202179,0.000000
16.000000,-20335.907678,-18552.640802,-29115.918769,-26572.580823,-30823.949674,-1477.360902,-24475.540158,-8960.903759,0.028000,0.982000,0.088000,192.000000,0.000000,0.000000,0.000000,0.000000,0.000000,0.000000,0.000000,0.000000,0.000000,1647763611.210263,0.000000
17.000000,-20331.951419,-18548.818654,-29115.695252,-26565.651782,-30824.888447,-1475.639817,-24469.907519,-8961.239035,0.026000,0.984000,0.088000,192.000000,0.000000,208.000000,30.000000,192.000000,2.000000,192.000000,0.000000,0.000000,0.000000,1647763611.210267,0.000000
18.000000,-20330.386797,-18548.908061,-29113.191857,-26564.824768,-30820.596912,-1464.620407,-24460.966821,-8951.627785,0.026000,0.984000,0.088000,192.000000,0.000000,0.000000,0.000000,0.000000,0.000000,0.000000,0.000000,0.000000,0.000000,1647763611.218257,0.000000
19.000000,-20336.041789,-18557.804055,-29119.383290,-26573.318431,-30827.168325,-1475.662169,-24474.422571,-8964.167114,0.026000,0.984000,0.088000,192.000000,0.000000,0.000000,0.000000,0.000000,0.000000,0.000000,0.000000,0.000000,0.000000,1647763611.218260,0.000000
20.000000,-20334.164242,-18558.854587,-29117.773964,-26574.257204,-30826.229552,-1480.892477,-24465.705391,-8971.990224,0.026000,0.984000,0.088000,192.000000,0.000000,0.000000,0.000000,0.000000,0.000000,0.000000,0.000000,0.000000,0.000000,1647763611.225359,0.000000
21.000000,-20342.702608,-18567.996450,-29123.384252,-26582.840274,-30830.834011,-1486.659227,-24475.897786,-8979.567466,0.026000,0.984000,0.088000,192.000000,0.000000,0.000000,0.000000,0.000000,0.000000,0.000000,0.000000,0.000000,0.000000,1647763611.225363,0.000000
22.000000,-20342.769664,-18568.018802,-29121.685519,-26581.499169,-30829.023520,-1488.939105,-24486.894844,-8973.174867,0.026000,0.984000,0.088000,192.000000,0.000000,0.000000,0.000000,0.000000,0.000000,0.000000,0.000000,0.000000,0.000000,1647763611.231860,0.000000
23.000000,-20339.707475,-18565.582462,-29119.673862,-26577.766428,-30826.542476,-1496.896326,-24484.883187,-8977.846381,0.026000,0.984000,0.088000,192.000000,0.000000,0.000000,0.000000,0.000000,0.000000,0.000000,0.000000,0.000000,0.000000,1647763611.239932,0.000000
24.000000,-20340.310972,-18565.224834,-29120.232656,-26574.748942,-30826.788345,-1486.592172,-24476.702449,-8966.335233,0.026000,0.984000,0.088000,192.000000,0.000000,0.000000,0.000000,0.000000,0.000000,0.000000,0.000000,0.000000,0.000000,1647763611.239936,0.000000
25.000000,-20333.583097,-18555.524177,-29113.013043,-26562.924869,-30821.893313,-1475.818631,-24468.946394,-8957.640404,0.026000,0.984000,0.088000,192.000000,0.000000,0.000000,0.000000,0.000000,0.000000,0.000000,0.000000,0.000000,0.000000,1647763611.247962,0.000000
26.000000,-20340.132158,-18556.686468,-29118.779793,-26566.769369,-30826.721290,-1473.024663,-24475.875434,-8972.481963,0.026000,0.984000,0.088000,192.000000,0.000000,0.000000,0.000000,0.000000,0.000000,0.000000,0.000000,0.000000,0.000000,1647763611.247965,0.000000
27.000000,-20335.751216,-18553.780741,-29117.215171,-26567.663439,-30829.671720,-1485.854564,-24481.731591,-8968.257483,0.032000,0.976000,0.088000,192.000000,1.000000,0.000000,30.000000,128.000000,2.000000,192.000000,0.000000,0.000000,0.000000,1647763611.254962,0.000000
28.000000,-20341.942649,-18564.397820,-29118.757441,-26577.833483,-30832.175116,-1490.950762,-24482.692716,-8972.459611,0.032000,0.976000,0.088000,192.000000,0.000000,0.000000,0.000000,0.000000,0.000000,0.000000,0.000000,0.000000,0.000000,1647763611.254967,0.000000
29.000000,-20342.769664,-18566.565939,-29117.081060,-26580.046306,-30830.632845,-1492.537736,-24474.534330,-8982.830820,0.032000,0.976000,0.088000,192.000000,0.000000,0.000000,0.000000,0.000000,0.000000,0.000000,0.000000,0.000000,0.000000,1647763611.262469,0.000000
30.000000,-20331.392626,-18553.959555,-29106.307519,-26566.948183,-30817.557075,-1484.424053,-24465.280708,-8980.238018,0.032000,0.976000,0.088000,192.000000,0.000000,0.000000,0.000000,0.000000,0.000000,0.000000,0.000000,0.000000,0.000000,1647763611.262497,0.000000
31.000000,-20334.968905,-18557.133503,-29109.056784,-26567.976364,-30816.394784,-1475.908038,-24468.834635,-8961.462553,0.032000,0.976000,0.088000,192.000000,0.000000,0.000000,0.000000,0.000000,0.000000,0.000000,0.000000,0.000000,0.000000,1647763611.270537,0.000000
32.000000,-20337.204079,-18557.021744,-29113.325967,-26571.195015,-30824.307302,-1479.439614,-24469.616946,-8964.055355,0.032000,0.976000,0.088000,192.000000,0.000000,0.000000,0.000000,0.000000,0.000000,0.000000,0.000000,0.000000,0.000000,1647763611.270541,0.000000
33.000000,-20331.839661,-18549.846834,-29108.877970,-26568.088122,-30821.222761,-1485.921620,-24472.410914,-8964.636500,0.032000,0.976000,0.088000,192.000000,0.000000,0.000000,0.000000,0.000000,0.000000,0.000000,0.000000,0.000000,0.000000,1647763611.278561,0.000000
34.000000,-20339.260440,-18558.653421,-29117.326929,-26577.699372,-30828.509430,-1488.693236,-24473.260280,-8970.805582,0.032000,0.976000,0.088000,192.000000,0.000000,0.000000,0.000000,0.000000,0.000000,0.000000,0.000000,0.000000,0.000000,1647763611.278564,0.000000
35.000000,-20344.580155,-18564.330764,-29124.255970,-26586.036573,-30837.338369,-1499.690294,-24483.184455,-8974.247751,0.032000,0.976000,0.088000,192.000000,0.000000,0.000000,0.000000,0.000000,0.000000,0.000000,0.000000,0.000000,0.000000,1647763611.285085,0.000000
36.000000,-20333.761911,-18553.110189,-29116.254046,-26576.604137,-30827.168325,-1497.097492,-24470.555719,-8960.881407,0.032000,0.976000,0.088000,192.000000,0.000000,0.000000,0.000000,0.000000,0.000000,0.000000,0.000000,0.000000,0.000000,1647763611.285088,0.000000
37.000000,-20344.088417,-18563.481398,-29124.144211,-26587.444733,-30832.488040,-1492.515384,-24483.139751,-8976.549980,0.036000,0.974000,0.084000,192.000000,1.000000,32.000000,30.000000,112.000000,2.000000,160.000000,0.000000,0.000000,0.000000,1647763611.292091,0.000000
38.000000,-20343.686085,-18566.387125,-29124.300674,-26588.182341,-30835.952560,-1495.532870,-24483.117400,-8974.024233,0.036000,0.974000,0.084000,192.000000,0.000000,0.000000,0.000000,0.000000,0.000000,0.000000,0.000000,0.000000,0.000000,1647763611.292095,0.000000
39.000000,-20340.109806,-18562.475570,-29120.858505,-26583.376716,-30835.840802,-1500.941992,-24488.995908,-8974.359509,0.036000,0.974000,0.084000,192.000000,0.000000,0.000000,0.000000,0.000000,0.000000,0.000000,0.000000,0.000000,0.000000,1647763611.300139,0.000000
40.000000,-20331.660847,-18551.836139,-29112.521304,-26572.871396,-30828.822354,-1492.068349,-24481.619833,-8967.274006,0.036000,0.974000,0.084000,192.000000,0.000000,0.000000,0.000000,0.000000,0.000000,0.000000,0.000000,0.000000,0.000000,1647763611.308090,0.000000
41.000000,-20328.777472,-18550.629145,-29111.046089,-26568.043419,-30825.760165,-1485.653399,-24474.579033,-8963.362451,0.036000,0.974000,0.084000,192.000000,0.000000,0.000000,0.000000,0.000000,0.000000,0.000000,0.000000,0.000000,0.000000,1647763611.308093,0.000000
42.000000,-20346.547108,-18567.683526,-29119.897380,-26577.386448,-30832.555095,-1484.781681,-24481.396315,-8972.325501,0.036000,0.974000,0.084000,192.000000,0.000000,0.000000,0.000000,0.000000,0.000000,0.000000,0.000000,0.000000,0.000000,1647763611.314760,0.000000
43.000000,-20345.876556,-18564.308413,-29119.293883,-26574.368963,-30831.124584,-1492.761253,-24480.770466,-8959.629710,0.036000,0.974000,0.084000,192.000000,0.000000,0.000000,0.000000,0.000000,0.000000,0.000000,0.000000,0.000000,0.000000,1647763611.314799,0.000000
44.000000,-20340.132158,-18562.676735,-29118.153944,-26576.581785,-30831.012825,-1494.415283,-24477.752981,-8953.192407,0.036000,0.974000,0.084000,192.000000,0.000000,0.000000,0.000000,0.000000,0.000000,0.000000,0.000000,0.000000,0.000000,1647763611.322888,0.000000
45.000000,-20341.026228,-18567.415305,-29119.226828,-26580.806265,-30832.018653,-1489.028512,-24472.388562,-8955.919320,0.036000,0.974000,0.084000,192.000000,0.000000,0.000000,0.000000,0.000000,0.000000,0.000000,0.000000,0.000000,0.000000,1647763611.322891,0.000000
46.000000,-20333.761911,-18560.620375,-29113.258912,-26573.676058,-30824.307302,-1489.207326,-24476.255414,-8954.958195,0.036000,0.974000,0.084000,192.000000,0.000000,0.000000,0.000000,0.000000,0.000000,0.000000,0.000000,0.000000,0.000000,1647763611.330839,0.000000
47.000000,-20334.723036,-18558.139331,-29115.449383,-26574.480721,-30825.447241,-1495.488166,-24477.328298,-8960.948463,0.032000,0.980000,0.084000,192.000000,1.000000,0.000000,30.000000,160.000000,2.000000,160.000000,0.000000,0.000000,0.000000,1647763611.330843,0.000000
48.000000,-20330.096225,-18549.645668,-29109.928502,-26568.021067,-30821.647444,-1497.030437,-24469.035801,-8962.513085,0.032000,0.980000,0.084000,192.000000,0.000000,0.000000,0.000000,0.000000,0.000000,0.000000,0.000000,0.000000,0.000000,1647763611.337359,0.000000
49.000000,-20330.409149,-18548.572784,-29108.989729,-26568.535157,-30822.474459,-1490.011989,-24459.648068,-8969.509181,0.032000,0.980000,0.084000,192.000000,0.000000,0.000000,0.000000,0.000000,0.000000,0.000000,0.000000,0.000000,0.000000,1647763611.337363,0.000000
50.000000,-20336.354713,-18556.708819,-29114.912941,-26576.291213,-30830.275217,-1484.938143,-24466.532405,-8956.701631,0.032000,0.980000,0.084000,192.000000,0.000000,0.000000,0.000000,0.000000,0.000000,0.000000,0.000000,0.000000,0.000000,1647763611.345492,0.000000
51.000000,-20341.585021,-18561.916776,-29119.785621,-26580.716858,-30836.198430,-1499.802053,-24487.341879,-8966.759916,0.032000,0.980000,0.084000,192.000000,0.000000,0.000000,0.000000,0.000000,0.000000,0.000000,0.000000,0.000000,0.000000,1647763611.345496,0.000000
52.000000,-20342.322629,-18560.150988,-29121.014967,-26580.068657,-30834.007959,-1500.182033,-24481.441019,-8972.325501,0.032000,0.980000,0.084000,192.000000,0.000000,0.000000,0.000000,0.000000,0.000000,0.000000,0.000000,0.000000,0.000000,1647763611.353484,0.000000
53.000000,-20344.602507,-18567.795285,-29124.680653,-26588.674079,-30838.500659,-1498.058617,-24483.653841,-8978.941617,0.032000,0.980000,0.084000,192.000000,0.000000,0.000000,0.000000,0.000000,0.000000,0.000000,0.000000,0.000000,0.000000,1647763611.353488,0.000000
54.000000,-20339.193385,-18565.671869,-29118.086889,-26585.857759,-30835.997264,-1502.618373,-24474.757847,-8973.599550,0.032000,0.980000,0.084000,192.000000,0.000000,0.000000,0.000000,0.000000,0.000000,0.000000,0.000000,0.000000,0.000000,1647763611.360528,0.000000
55.000000,-20339.081626,-18565.314241,-29116.298749,-26585.276614,-30836.086671,-1495.935201,-24465.325411,-8981.422661,0.032000,0.980000,0.084000,192.000000,0.000000,0.000000,0.000000,0.000000,0.000000,0.000000,0.000000,0.000000,0.000000,1647763611.367017,0.000000
56.000000,-20331.236164,-18557.133503,-29113.281264,-26575.799474,-30830.990473,-1496.538698,-24476.568338,-8981.601474,0.032000,0.980000,0.084000,192.000000,0.000000,0.000000,0.000000,0.000000,0.000000,0.000000,0.000000,0.000000,0.000000,1647763611.367021,0.000000
57.000000,-20328.933934,-18551.165587,-29107.313348,-26567.328163,-30821.222761,-1487.665056,-24470.555719,-8962.311919,0.032000,0.980000,0.084000,192.000000,0.000000,0.000000,0.000000,0.000000,0.000000,0.000000,0.000000,0.000000,0.000000,1647763611.375160,0.000000
58.000000,-20334.924201,-18552.461988,-29111.359013,-26569.943317,-30821.870961,-1478.098509,-24462.307925,-8946.464532,0.020000,0.982000,0.076000,192.000000,0.000000,160.000000,30.000000,176.000000,2.000000,96.000000,0.000000,0.000000,0.000000,1647763611.375164,0.000000
59.000000,-20336.645286,-18555.993564,-29114.532961,-26574.190149,-30827.682415,-1483.731149,-24454.149539,-8946.084553,0.020000,0.982000,0.076000,192.000000,0.000000,0.000000,0.000000,0.000000,0.000000,0.000000,0.000000,0.000000,0.000000,1647763611.383109,0.000000
60.000000,-20348.469359,-18570.522198,-29126.066461,-26586.550663,-30840.199392,-1486.033378,-24468.253490,-8964.770611,0.020000,0.982000,0.076000,192.000000,0.000000,0.000000,0.000000,0.000000,0.000000,0.000000,0.000000,0.000000,0.000000,1647763611.383112,0.000000
61.000000,-20352.783245,-18577.674756,-29130.000368,-26594.060849,-30845.116776,-1487.374483,-24489.934682,-8984.306036,0.020000,0.982000,0.076000,192.000000,0.000000,0.000000,0.000000,0.000000,0.000000,0.000000,0.000000,0.000000,0.000000,1647763611.390107,0.000000
62.000000,-20351.911527,-18574.076125,-29128.838078,-26590.909253,-30844.468575,-1491.755425,-24493.198036,-8979.500410,0.020000,0.982000,0.076000,192.000000,0.000000,0.000000,0.000000,0.000000,0.000000,0.000000,0.000000,0.000000,0.000000,1647763611.390110,0.000000
63.000000,-20344.915431,-18564.219006,-29122.914865,-26580.269823,-30835.393767,-1495.644628,-24479.541120,-8970.023271,0.020000,0.982000,0.076000,192.000000,0.000000,0.000000,0.000000,0.000000,0.000000,0.000000,0.000000,0.000000,0.000000,1647763611.397737,0.000000
64.000000,-20333.896021,-18554.875976,-29110.777868,-26565.987058,-30823.659101,-1488.447367,-24461.793835,-8945.615166,0.020000,0.982000,0.076000,192.000000,0.000000,0.000000,0.000000,0.000000,0.000000,0.000000,0.000000,0.000000,0.000000,1647763611.397741,0.000000
65.000000,-20321.088472,-18542.023723,-29098.216188,-26550.877279,-30811.008014,-1485.139309,-24445.454710,-8931.265346,0.020000,0.982000,0.076000,192.000000,0.000000,0.000000,0.000000,0.000000,0.000000,0.000000,0.000000,0.000000,0.000000,1647763611.405817,0.000000
66.000000,-20325.312951,-18543.856566,-29102.574778,-26554.498262,-30811.857380,-1484.356998,-24459.536309,-8949.303204,0.020000,0.982000,0.076000,192.000000,0.000000,0.000000,0.000000,0.000000,0.000000,0.000000,0.000000,0.000000,0.000000,1647763611.405821,0.000000
67.000000,-20340.065103,-18560.240395,-29118.779793,-26576.045343,-30827.213028,-1495.488166,-24482.603309,-8978.069899,0.020000,0.982000,0.076000,192.000000,0.000000,0.000000,0.000000,0.000000,0.000000,0.000000,0.000000,0.000000,0.000000,1647763611.413636,0.000000
68.000000,-20347.150606,-18569.985756,-29125.664130,-26587.154160,-30838.031273,-1510.396780,-24496.729612,-8980.975626,0.026000,0.978000,0.072000,192.000000,0.000000,208.000000,30.000000,144.000000,2.000000,64.000000,0.000000,0.000000,0.000000,1647763611.413640,0.000000
69.000000,-20348.268193,-18574.120828,-29124.635950,-26589.434038,-30839.707653,-1522.243204,-24502.965749,-8978.114602,0.026000,0.978000,0.072000,192.000000,0.000000,0.000000,0.000000,0.000000,0.000000,0.000000,0.000000,0.000000,0.000000,1647763611.419811,0.000000
70.000000,-20347.284716,-18573.897311,-29120.344415,-26587.645899,-30837.897162,-1515.649440,-24499.881208,-8969.665643,0.026000,0.978000,0.072000,192.000000,0.000000,0.000000,0.000000,0.000000,0.000000,0.000000,0.000000,0.000000,0.000000,1647763611.427360,0.000000
71.000000,-20339.014571,-18564.040192,-29113.080098,-26578.258166,-30829.403499,-1507.446350,-24482.916234,-8967.564579,0.026000,0.978000,0.072000,192.000000,0.000000,0.000000,0.000000,0.000000,0.000000,0.000000,0.000000,0.000000,0.000000,1647763611.427364,0.000000
72.000000,-20344.736617,-18567.817636,-29119.293883,-26580.292175,-30832.376281,-1502.707780,-24476.210711,-8971.297320,0.026000,0.978000,0.072000,192.000000,0.000000,0.000000,0.000000,0.000000,0.000000,0.000000,0.000000,0.000000,0.000000,1647763611.435383,0.000000
73.000000,-20352.649135,-18575.953671,-29124.010101,-26586.774181,-30838.433604,-1500.785530,-24486.872493,-8976.997015,0.026000,0.978000,0.072000,192.000000,0.000000,0.000000,0.000000,0.000000,0.000000,0.000000,0.000000,0.000000,0.000000,1647763611.435387,0.000000
74.000000,-20343.082588,-18565.403648,-29113.325967,-26576.134750,-30829.559962,-1495.018780,-24484.570263,-8971.654948,0.026000,0.978000,0.072000,192.000000,0.000000,0.000000,0.000000,0.000000,0.000000,0.000000,0.000000,0.000000,0.000000,1647763611.443426,0.000000
75.000000,-20344.155472,-18564.151950,-29116.477563,-26573.944279,-30830.141107,-1499.913812,-24485.821961,-8973.241922,0.026000,0.978000,0.072000,192.000000,0.000000,0.000000,0.000000,0.000000,0.000000,0.000000,0.000000,0.000000,0.000000,1647763611.443429,0.000000
76.000000,-20340.668600,-18556.172378,-29113.817705,-26568.535157,-30824.419060,-1500.562012,-24472.120341,-8960.322614,0.026000,0.978000,0.072000,192.000000,0.000000,0.000000,0.000000,0.000000,0.000000,0.000000,0.000000,0.000000,0.000000,1647763611.449938,0.000000
77.000000,-20349.966925,-18566.454180,-29126.804069,-26581.633280,-30833.471517,-1492.358922,-24468.834635,-8963.518913,0.026000,0.978000,0.072000,192.000000,0.000000,0.000000,0.000000,0.000000,0.000000,0.000000,0.000000,0.000000,0.000000,1647763611.449941,0.000000
78.000000,-20343.820196,-18561.223872,-29117.259874,-26577.699372,-30828.509430,-1493.252992,-24463.961955,-8966.357585,0.034000,0.976000,0.078000,192.000000,1.000000,16.000000,30.000000,128.000000,2.000000,112.000000,0.000000,0.000000,0.000000,1647763611.458016,0.000000
79.000000,-20349.944574,-18566.141256,-29125.082985,-26585.366021,-30839.528840,-1505.233527,-24478.937623,-8974.359509,0.034000,0.976000,0.078000,192.000000,0.000000,0.000000,0.000000,0.000000,0.000000,0.000000,0.000000,0.000000,0.000000,1647763611.458020,0.000000
80.000000,-20337.226431,-18553.981907,-29113.281264,-26573.027858,-30828.442374,-1496.851623,-24470.958051,-8955.315823,0.034000,0.976000,0.078000,192.000000,0.000000,0.000000,0.000000,0.000000,0.000000,0.000000,0.000000,0.000000,0.000000,1647763611.465980,0.000000
81.000000,-20332.979600,-18545.287078,-29108.430935,-26565.182396,-30819.456973,-1489.162623,-24462.062056,-8945.928090,0.034000,0.976000,0.078000,192.000000,0.000000,0.000000,0.000000,0.000000,0.000000,0.000000,0.000000,0.000000,0.000000,1647763611.465984,0.000000
82.000000,-20329.000989,-18539.386218,-29103.915883,-26560.399122,-30816.484191,-1478.120861,-24462.397332,-8942.821198,0.034000,0.976000,0.078000,192.000000,0.000000,0.000000,0.000000,0.000000,0.000000,0.000000,0.000000,0.000000,0.000000,1647763611.472535,0.000000
83.000000,-20325.380006,-18536.033456,-29101.881874,-26558.968611,-30817.624130,-1476.667997,-24463.023181,-8957.461590,0.034000,0.976000,0.078000,192.000000,0.000000,0.000000,0.000000,0.000000,0.000000,0.000000,0.000000,0.000000,0.000000,1647763611.472538,0.000000
84.000000,-20312.170126,-18523.225906,-29087.643813,-26548.485642,-30810.225703,-1474.835154,-24461.011524,-8947.738582,0.034000,0.976000,0.078000,192.000000,0.000000,0.000000,0.000000,0.000000,0.000000,0.000000,0.000000,0.000000,0.000000,1647763611.479709,0.000000
85.000000,-20312.974788,-18523.762348,-29087.062667,-26549.625581,-30808.214046,-1466.185029,-24456.317658,-8933.254651,0.034000,0.976000,0.078000,192.000000,0.000000,0.000000,0.000000,0.000000,0.000000,0.000000,0.000000,0.000000,0.000000,1647763611.487634,0.000000
86.000000,-20317.109861,-18530.244354,-29093.656432,-26557.471044,-30816.484191,-1472.734090,-24468.320545,-8948.118561,0.034000,0.976000,0.078000,192.000000,0.000000,0.000000,0.000000,0.000000,0.000000,0.000000,0.000000,0.000000,0.000000,1647763611.487644,0.000000
87.000000,-20340.400379,-18554.451293,-29117.818668,-26579.845140,-30836.936037,-1485.452233,-24485.129057,-8973.130163,0.034000,0.976000,0.078000,192.000000,0.000000,0.000000,0.000000,0.000000,0.000000,0.000000,0.000000,0.000000,0.000000,1647763611.496065,0.000000
88.000000,-20358.728809,-18573.942014,-29140.572743,-26601.146352,-30858.818395,-1503.087759,-24520.578923,-9010.234059,0.034000,0.982000,0.074000,192.000000,1.000000,16.000000,30.000000,176.000000,2.000000,80.000000,0.000000,0.000000,0.000000,1647763611.496082,0.000000
89.000000,-20351.978582,-18565.046020,-29136.705892,-26596.139562,-30859.935982,-1520.298603,-24533.140604,-9022.259298,0.034000,0.982000,0.074000,192.000000,0.000000,0.000000,0.000000,0.000000,0.000000,0.000000,0.000000,0.000000,0.000000,1647763611.502698,0.000000
90.000000,-20344.781321,-18552.529043,-29118.042185,-26576.760599,-30838.232438,-1508.295716,-24503.122211,-8995.928943,0.034000,0.982000,0.074000,192.000000,0.000000,0.000000,0.000000,0.000000,0.000000,0.000000,0.000000,0.000000,0.000000,1647763611.502715,0.000000
91.000000,-20342.523794,-18543.074255,-29109.727336,-26561.650820,-30822.496810,-1492.448329,-24489.353536,-8982.137916,0.034000,0.982000,0.074000,192.000000,0.000000,0.000000,0.000000,0.000000,0.000000,0.000000,0.000000,0.000000,0.000000,1647763611.510643,0.000000
92.000000,-20341.495614,-18544.325953,-29114.912941,-26565.920003,-30827.704767,-1488.916753,-24491.521656,-8985.445975,0.034000,0.982000,0.074000,192.000000,0.000000,0.000000,0.000000,0.000000,0.000000,0.000000,0.000000,0.000000,0.000000,1647763611.510654,0.000000
93.000000,-20346.815329,-18550.316221,-29125.686482,-26576.268861,-30835.393767,-1493.610620,-24495.679080,-8983.769594,0.034000,0.982000,0.074000,192.000000,0.000000,0.000000,0.000000,0.000000,0.000000,0.000000,0.000000,0.000000,0.000000,1647763611.518492,0.000000
94.000000,-20356.895966,-18560.821540,-29133.844868,-26587.422381,-30845.228534,-1497.388065,-24495.522618,-8996.867716,0.034000,0.982000,0.074000,192.000000,0.000000,0.000000,0.000000,0.000000,0.000000,0.000000,0.000000,0.000000,0.000000,1647763611.518509,0.000000
95.000000,-20344.624858,-18548.662191,-29120.120897,-26575.195977,-30836.086671,-1498.483300,-24475.875434,-8965.597625,0.034000,0.982000,0.074000,192.000000,0.000000,0.000000,0.000000,0.000000,0.000000,0.000000,0.000000,0.000000,0.000000,1647763611.525758,0.000000
96.000000,-20332.979600,-18535.675828,-29111.336662,-26564.936526,-30824.307302,-1487.285076,-24464.923080,-8936.741523,0.034000,0.982000,0.074000,192.000000,0.000000,0.000000,0.000000,0.000000,0.000000,0.000000,0.000000,0.000000,0.000000,1647763611.525776,0.000000
97.000000,-20336.801748,-18544.057732,-29116.477563,-26575.128922,-30831.571619,-1495.465815,-24475.160179,-8954.287643,0.034000,0.982000,0.074000,192.000000,0.000000,0.000000,0.000000,0.000000,0.000000,0.000000,0.000000,0.000000,0.000000,1647763611.533322,0.000000
98.000000,-20343.373161,-18552.305526,-29118.891551,-26582.370887,-30836.310188,-1500.584364,-24480.703411,-8962.803657,0.032000,0.988000,0.082000,192.000000,1.000000,0.000000,30.000000,224.000000,2.000000,144.000000,0.000000,0.000000,0.000000,1647763611.533339,0.000000
99.000000,-20341.763835,-18548.997468,-29117.215171,-26578.816960,-30830.811659,-1491.956591,-24477.842388,-8958.176846,0.032000,0.988000,0.082000,192.000000,0.000000,0.000000,0.000000,0.000000,0.000000,0.000000,0.000000,0.000000,0.000000,1647763611.540295,0.000000
100.000000,-20347.485882,-18555.233604,-29122.937217,-26584.226082,-30835.460822,-1489.520251,-24478.088257,-8961.194332,0.032000,0.988000,0.082000,192.000000,0.000000,0.000000,0.000000,0.000000,0.000000,0.000000,0.000000,0.000000,0.000000,1647763611.540311,0.000000
101.000000,-20333.180765,-18538.872127,-29108.252121,-26566.411742,-30819.993415,-1487.285076,-24464.073713,-8943.469398,0.032000,0.988000,0.082000,192.000000,0.000000,0.000000,0.000000,0.000000,0.000000,0.000000,0.000000,0.000000,0.000000,1647763611.548302,0.000000
102.000000,-20338.008742,-18539.721494,-29111.917807,-26568.065771,-30818.920531,-1474.611637,-24462.397332,-8952.298337,0.032000,0.988000,0.082000,192.000000,0.000000,0.000000,0.000000,0.000000,0.000000,0.000000,0.000000,0.000000,0.000000,1647763611.555371,0.000000
103.000000,-20337.025265,-18539.676790,-29111.046089,-26568.333992,-30818.227627,-1469.314274,-24466.666516,-8954.622919,0.032000,0.988000,0.082000,192.000000,0.000000,0.000000,0.000000,0.000000,0.000000,0.000000,0.000000,0.000000,0.000000,1647763611.555388,0.000000
104.000000,-20334.924201,-18536.167566,-29113.325967,-26566.948183,-30818.697014,-1466.453250,-24462.777312,-8958.623881,0.032000,0.988000,0.082000,192.000000,0.000000,0.000000,0.000000,0.000000,0.000000,0.000000,0.000000,0.000000,0.000000,1647763611.562913,0.000000
105.000000,-20339.886289,-18544.035380,-29115.985825,-26572.647878,-30826.073089,-1470.945951,-24466.487702,-8962.714250,0.032000,0.988000,0.082000,192.000000,0.000000,0.000000,0.000000,0.000000,0.000000,0.000000,0.000000,0.000000,0.000000,1647763611.562930,0.000000
106.000000,-20343.820196,-18547.946936,-29118.265703,-26575.128922,-30828.732947,-1474.231657,-24474.802551,-8979.746280,0.032000,0.988000,0.082000,192.000000,0.000000,0.000000,0.000000,0.000000,0.000000,0.000000,0.000000,0.000000,0.000000,1647763611.570864,0.000000
107.000000,-20342.657905,-18547.768122,-29115.739955,-26574.503073,-30827.883581,-1475.304541,-24472.165045,-8970.067974,0.032000,0.988000,0.082000,192.000000,0.000000,0.000000,0.000000,0.000000,0.000000,0.000000,0.000000,0.000000,0.000000,1647763611.570898,0.000000
108.000000,-20345.027190,-18552.082008,-29116.879894,-26574.815997,-30829.649368,-1482.881782,-24475.987193,-8982.316730,0.026000,0.984000,0.082000,192.000000,0.000000,208.000000,30.000000,192.000000,2.000000,144.000000,0.000000,0.000000,0.000000,1647763611.578966,0.000000
109.000000,-20337.204079,-18546.784645,-29112.051918,-26565.495320,-30825.067261,-1488.112091,-24470.600423,-8968.860980,0.026000,0.984000,0.082000,192.000000,0.000000,0.000000,0.000000,0.000000,0.000000,0.000000,0.000000,0.000000,0.000000,1647763611.578983,0.000000
110.000000,-20338.947515,-18548.237508,-29115.717604,-26566.299983,-30824.128488,-1478.992579,-24466.890033,-8947.738582,0.026000,0.984000,0.082000,192.000000,0.000000,0.000000,0.000000,0.000000,0.000000,0.000000,0.000000,0.000000,0.000000,1647763611.585564,0.000000
111.000000,-20334.521870,-18543.364828,-29113.393022,-26563.394256,-30822.765031,-1486.972152,-24470.645126,-8956.232245,0.026000,0.984000,0.082000,192.000000,0.000000,0.000000,0.000000,0.000000,0.000000,0.000000,0.000000,0.000000,0.000000,1647763611.585581,0.000000
112.000000,-20328.956286,-18535.720531,-29109.012080,-26557.247526,-30816.618301,-1493.878841,-24473.863777,-8959.361489,0.026000,0.984000,0.082000,192.000000,0.000000,0.000000,0.000000,0.000000,0.000000,0.000000,0.000000,0.000000,0.000000,1647763611.593523,0.000000
113.000000,-20332.063178,-18538.782720,-29111.515476,-26560.935564,-30818.697014,-1498.706817,-24484.302042,-8958.847399,0.026000,0.984000,0.082000,192.000000,0.000000,0.000000,0.000000,0.000000,0.000000,0.000000,0.000000,0.000000,0.000000,1647763611.593540,0.000000
114.000000,-20335.706512,-18543.610697,-29115.069403,-26565.092989,-30822.541514,-1502.573669,-24472.187397,-8963.787134,0.026000,0.984000,0.082000,192.000000,0.000000,0.000000,0.000000,0.000000,0.000000,0.000000,0.000000,0.000000,0.000000,1647763611.601424,0.000000
115.000000,-20323.904791,-18532.591287,-29102.328909,-26550.005561,-30809.801019,-1491.889535,-24461.033876,-8955.874617,0.026000,0.984000,0.082000,192.000000,0.000000,0.000000,0.000000,0.000000,0.000000,0.000000,0.000000,0.000000,0.000000,1647763611.601440,0.000000
116.000000,-20331.817309,-18539.430921,-29111.940159,-26556.353457,-30815.724232,-1492.716550,-24476.590690,-8965.150591,0.026000,0.984000,0.082000,192.000000,0.000000,0.000000,0.000000,0.000000,0.000000,0.000000,0.000000,0.000000,0.000000,1647763611.607619,0.000000
117.000000,-20332.912544,-18537.687485,-29111.403717,-26555.235869,-30816.417136,-1493.744730,-24480.904577,-8975.477096,0.026000,0.984000,0.082000,192.000000,0.000000,0.000000,0.000000,0.000000,0.000000,0.000000,0.000000,0.000000,0.000000,1647763611.615201,0.000000
118.000000,-20325.134137,-18529.126767,-29103.401792,-26547.055131,-30807.387031,-1490.973114,-24466.577109,-8961.641367,0.030000,0.974000,0.084000,192.000000,0.000000,240.000000,30.000000,112.000000,2.000000,160.000000,0.000000,0.000000,0.000000,1647763611.615217,0.000000
119.000000,-20331.347922,-18538.469796,-29108.229769,-26558.320410,-30814.673700,-1492.180108,-24475.204882,-8967.028137,0.030000,0.974000,0.084000,192.000000,0.000000,0.000000,0.000000,0.000000,0.000000,0.000000,0.000000,0.000000,0.000000,1647763611.623283,0.000000
120.000000,-20333.448986,-18542.314296,-29108.386231,-26560.510881,-30817.512371,-1496.471643,-24484.056173,-8975.253579,0.030000,0.974000,0.084000,192.000000,0.000000,0.000000,0.000000,0.000000,0.000000,0.000000,0.000000,0.000000,0.000000,1647763611.623300,0.000000
121.000000,-20334.231297,-18542.426055,-29110.777868,-26560.846157,-30817.512371,-1491.755425,-24477.752981,-8968.950387,0.030000,0.974000,0.084000,192.000000,0.000000,0.000000,0.000000,0.000000,0.000000,0.000000,0.000000,0.000000,0.000000,1647763611.631228,0.000000
122.000000,-20335.035960,-18545.935279,-29112.275435,-26565.942355,-30818.406441,-1493.856489,-24474.959013,-8959.048564,0.030000,0.974000,0.084000,192.000000,0.000000,0.000000,0.000000,0.000000,0.000000,0.000000,0.000000,0.000000,0.000000,1647763611.631245,0.000000
123.000000,-20329.582134,-18544.080084,-29104.385269,-26565.763541,-30814.651348,-1491.420149,-24459.223385,-8945.972794,0.030000,0.974000,0.084000,192.000000,0.000000,0.000000,0.000000,0.000000,0.000000,0.000000,0.000000,0.000000,0.000000,1647763611.637914,0.000000
124.000000,-20325.000027,-18539.654438,-29098.238539,-26561.360247,-30810.471572,-1489.788471,-24443.465405,-8940.004878,0.030000,0.974000,0.084000,192.000000,0.000000,0.000000,0.000000,0.000000,0.000000,0.000000,0.000000,0.000000,0.000000,1647763611.637931,0.000000
125.000000,-20329.828004,-18545.264726,-29101.345432,-26566.255279,-30813.824333,-1485.809861,-24444.627696,-8960.076745,0.030000,0.974000,0.084000,192.000000,0.000000,0.000000,0.000000,0.000000,0.000000,0.000000,0.000000,0.000000,0.000000,1647763611.645799,0.000000
126.000000,-20328.598658,-18544.661229,-29100.898397,-26564.198919,-30809.510447,-1478.992579,-24445.633524,-8957.662756,0.030000,0.974000,0.084000,192.000000,0.000000,0.000000,0.000000,0.000000,0.000000,0.000000,0.000000,0.000000,0.000000,1647763611.645816,0.000000
127.000000,-20339.014571,-18557.625241,-29111.247255,-26574.815997,-30819.635787,-1483.932314,-24462.062056,-8970.783230,0.030000,0.974000,0.084000,192.000000,0.000000,0.000000,0.000000,0.000000,0.000000,0.000000,0.000000,0.000000,0.000000,1647763611.653908,0.000000
128.000000,-20345.273059,-18567.661174,-29119.405641,-26581.387410,-30826.989511,-1479.931352,-24468.544062,-8954.309994,0.036000,0.978000,0.092000,192.000000,1.000000,32.000000,30.000000,144.000000,2.000000,224.000000,0.000000,0.000000,0.000000,1647763611.653925,0.000000
129.000000,-20343.507271,-18565.828331,-29119.584455,-26577.766428,-30827.727118,-1483.217059,-24457.994039,-8958.333308,0.036000,0.978000,0.092000,192.000000,0.000000,0.000000,0.000000,0.000000,0.000000,0.000000,0.000000,0.000000,0.000000,1647763611.660908,0.000000
130.000000,-20335.885326,-18555.770046,-29111.962511,-26569.697448,-30818.674662,-1478.366730,-24455.758864,-8959.272082,0.036000,0.978000,0.092000,192.000000,0.000000,0.000000,0.000000,0.000000,0.000000,0.000000,0.000000,0.000000,0.000000,1647763611.660925,0.000000
131.000000,-20335.706512,-18555.010087,-29112.029566,-26572.089085,-30814.740755,-1471.415337,-24461.726780,-8967.206951,0.036000,0.978000,0.092000,192.000000,0.000000,0.000000,0.000000,0.000000,0.000000,0.000000,0.000000,0.000000,0.000000,1647763611.667525,0.000000
132.000000,-20335.013608,-18553.981907,-29113.683595,-26572.044381,-30815.657176,-1480.736015,-24460.989173,-8967.877503,0.036000,0.978000,0.092000,192.000000,0.000000,0.000000,0.000000,0.000000,0.000000,0.000000,0.000000,0.000000,0.000000,1647763611.675467,0.000000
133.000000,-20333.292524,-18552.104360,-29110.666109,-26569.473931,-30815.701880,-1486.413358,-24454.328353,-8961.484904,0.036000,0.978000,0.092000,192.000000,0.000000,0.000000,0.000000,0.000000,0.000000,0.000000,0.000000,0.000000,0.000000,1647763611.675483,0.000000
134.000000,-20328.844527,-18550.763255,-29106.240464,-26562.813111,-30809.286929,-1482.501803,-24444.471233,-8945.525759,0.036000,0.978000,0.092000,192.000000,0.000000,0.000000,0.000000,0.000000,0.000000,0.000000,0.000000,0.000000,0.000000,1647763611.683413,0.000000
135.000000,-20327.168146,-18549.153930,-29100.719583,-26559.259183,-30805.375374,-1474.164602,-24442.727797,-8942.195349,0.036000,0.978000,0.092000,192.000000,0.000000,0.000000,0.000000,0.000000,0.000000,0.000000,0.000000,0.000000,0.000000,1647763611.683429,0.000000
136.000000,-20324.105957,-18545.600002,-29097.143304,-26557.538099,-30802.447295,-1467.548486,-24447.198146,-8959.942634,0.036000,0.978000,0.092000,192.000000,0.000000,0.000000,0.000000,0.000000,0.000000,0.000000,0.000000,0.000000,0.000000,1647763611.690619,0.000000
137.000000,-20325.514117,-18547.946936,-29100.138438,-26560.577936,-30805.598891,-1461.625273,-24445.544117,-8952.901835,0.036000,0.978000,0.092000,192.000000,0.000000,0.000000,0.000000,0.000000,0.000000,0.000000,0.000000,0.000000,0.000000,1647763611.690636,0.000000
138.000000,-20328.397492,-18548.013991,-29104.698194,-26562.835462,-30808.459915,-1464.553352,-24457.479949,-8969.553884,0.036000,0.980000,0.086000,192.000000,1.000000,32.000000,30.000000,160.000000,2.000000,176.000000,0.000000,0.000000,0.000000,1647763611.697994,0.000000
139.000000,-20320.932009,-18537.799244,-29099.557292,-26555.012352,-30802.290833,-1459.501858,-24448.025161,-8955.204064,0.036000,0.980000,0.086000,192.000000,0.000000,0.000000,0.000000,0.000000,0.000000,0.000000,0.000000,0.000000,0.000000,1647763611.698009,0.000000
140.000000,-20311.968960,-18531.138424,-29089.744877,-26546.853965,-30794.981813,-1455.858523,-24427.640370,-8934.707515,0.036000,0.980000,0.086000,192.000000,0.000000,0.000000,0.000000,0.000000,0.000000,0.000000,0.000000,0.000000,0.000000,1647763611.706186,0.000000
141.000000,-20323.569515,-18544.795340,-29099.892569,-26558.610983,-30801.419115,-1457.266683,-24429.473213,-8951.404268,0.036000,0.980000,0.086000,192.000000,0.000000,0.000000,0.000000,0.000000,0.000000,0.000000,0.000000,0.000000,0.000000,1647763611.706203,0.000000
142.000000,-20328.621009,-18551.880843,-29105.927540,-26564.042457,-30806.671775,-1460.731204,-24443.621867,-8965.552922,0.036000,0.980000,0.086000,192.000000,0.000000,0.000000,0.000000,0.000000,0.000000,0.000000,0.000000,0.000000,0.000000,1647763611.713265,0.000000
143.000000,-20335.661809,-18560.329802,-29116.164639,-26573.541948,-30818.607607,-1475.013968,-24469.728705,-8976.147649,0.036000,0.980000,0.086000,192.000000,0.000000,0.000000,0.000000,0.000000,0.000000,0.000000,0.000000,0.000000,0.000000,1647763611.713281,0.000000
144.000000,-20334.812443,-18558.876939,-29111.046089,-26569.764503,-30818.071165,-1475.639817,-24476.993022,-8973.867771,0.036000,0.980000,0.086000,192.000000,0.000000,0.000000,0.000000,0.000000,0.000000,0.000000,0.000000,0.000000,0.000000,1647763611.720761,0.000000
145.000000,-20326.184669,-18550.807959,-29102.418316,-26559.929736,-30811.119772,-1469.448384,-24462.620850,-8961.194332,0.036000,0.980000,0.086000,192.000000,0.000000,0.000000,0.000000,0.000000,0.000000,0.000000,0.000000,0.000000,0.000000,1647763611.720778,0.000000
146.000000,-20322.183707,-18546.985811,-29100.272548,-26556.979305,-30806.984700,-1465.782698,-24457.390542,-8964.882370,0.036000,0.980000,0.086000,192.000000,0.000000,0.000000,0.000000,0.000000,0.000000,0.000000,0.000000,0.000000,0.000000,1647763611.727742,0.000000
147.000000,-20328.039864,-18552.529043,-29108.833266,-26561.762579,-30811.298586,-1466.967340,-24461.503263,-8970.783230,0.036000,0.980000,0.086000,192.000000,0.000000,0.000000,0.000000,0.000000,0.000000,0.000000,0.000000,0.000000,0.000000,1647763611.735758,0.000000
148.000000,-20335.617105,-18564.576634,-29118.869200,-26571.731457,-30819.725194,-1479.372559,-24465.660687,-8965.977605,0.038000,0.980000,0.084000,192.000000,1.000000,48.000000,30.000000,160.000000,2.000000,160.000000,0.000000,0.000000,0.000000,1647763611.735774,0.000000
149.000000,-20337.785225,-18568.398782,-29119.048014,-26574.592480,-30820.641615,-1486.234544,-24469.818112,-8979.098079,0.038000,0.980000,0.084000,192.000000,0.000000,0.000000,0.000000,0.000000,0.000000,0.000000,0.000000,0.000000,0.000000,1647763611.742918,0.000000
150.000000,-20335.907678,-18564.464875,-29114.600016,-26571.619698,-30820.418098,-1493.811785,-24466.934737,-8976.706442,0.038000,0.980000,0.084000,192.000000,0.000000,0.000000,0.000000,0.000000,0.000000,0.000000,0.000000,0.000000,0.000000,1647763611.742952,0.000000
151.000000,-20327.861050,-18554.451293,-29108.833266,-26563.751884,-30809.331633,-1477.495012,-24455.043609,-8968.458649,0.038000,0.980000,0.084000,192.000000,0.000000,0.000000,0.000000,0.000000,0.000000,0.000000,0.000000,0.000000,0.000000,1647763611.750384,0.000000
152.000000,-20332.510213,-18555.680639,-29114.622368,-26567.775198,-30812.103249,-1461.446459,-24449.232155,-8960.859056,0.038000,0.980000,0.084000,192.000000,0.000000,0.000000,0.000000,0.000000,0.000000,0.000000,0.000000,0.000000,0.000000,1647763611.750400,0.000000
153.000000,-20335.639457,-18559.681601,-29116.946950,-26572.469064,-30817.869999,-1456.573779,-24446.460539,-8951.583082,0.038000,0.980000,0.084000,192.000000,0.000000,0.000000,0.000000,0.000000,0.000000,0.000000,0.000000,0.000000,0.000000,1647763611.758450,0.000000
154.000000,-20339.796882,-18563.280232,-29120.992615,-26573.586652,-30822.943845,-1458.607788,-24457.748170,-8960.546131,0.038000,0.980000,0.084000,192.000000,0.000000,0.000000,0.000000,0.000000,0.000000,0.000000,0.000000,0.000000,0.000000,1647763611.758467,0.000000
155.000000,-20343.730789,-18565.202482,-29124.613598,-26576.090047,-30829.761127,-1467.168506,-24459.268088,-8971.923169,0.038000,0.980000,0.084000,192.000000,0.000000,0.000000,0.000000,0.000000,0.000000,0.000000,0.000000,0.000000,0.000000,1647763611.767899,0.000000
156.000000,-20341.026228,-18566.342421,-29120.478525,-26580.068657,-30825.268427,-1471.348282,-24455.669457,-8970.135030,0.038000,0.980000,0.084000,192.000000,0.000000,0.000000,0.000000,0.000000,0.000000,0.000000,0.000000,0.000000,0.000000,1647763611.767916,0.000000
157.000000,-20339.506309,-18566.610642,-29117.326929,-26583.197902,-30819.367566,-1464.843925,-24459.357495,-8966.201123,0.038000,0.980000,0.084000,192.000000,0.000000,0.000000,0.000000,0.000000,0.000000,0.000000,0.000000,0.000000,0.000000,1647763611.773986,0.000000
158.000000,-20334.655980,-18561.693258,-29111.828400,-26578.995774,-30814.830162,-1469.873067,-24450.819129,-8955.204064,0.038000,0.980000,0.084000,192.000000,0.000000,0.000000,0.000000,0.000000,0.000000,0.000000,0.000000,0.000000,0.000000,1647763611.774003,0.000000
159.000000,-20340.109806,-18566.454180,-29114.130630,-26582.929681,-30815.210142,-1468.442555,-24451.176757,-8971.677300,0.038000,0.978000,0.082000,192.000000,1.000000,48.000000,30.000000,144.000000,2.000000,144.000000,0.000000,0.000000,0.000000,1647763611.780972,0.000000
160.000000,-20344.021361,-18573.986718,-29116.812839,-26584.449599,-30818.384089,-1470.096585,-24456.809396,-8984.216629,0.038000,0.978000,0.082000,192.000000,0.000000,0.000000,0.000000,0.000000,0.000000,0.000000,0.000000,0.000000,0.000000,1647763611.780988,0.000000
161.000000,-20349.095207,-18577.607701,-29121.126726,-26586.394201,-30822.876790,-1484.714625,-24470.890995,-8995.146632,0.038000,0.978000,0.082000,192.000000,0.000000,0.000000,0.000000,0.000000,0.000000,0.000000,0.000000,0.000000,0.000000,1647763611.787962,0.000000
162.000000,-20351.330382,-18577.093610,-29122.959569,-26582.482646,-30820.172229,-1475.125727,-24458.888109,-8976.617035,0.038000,0.978000,0.082000,192.000000,0.000000,0.000000,0.000000,0.000000,0.000000,0.000000,0.000000,0.000000,0.000000,1647763611.787979,0.000000
163.000000,-20345.585983,-18571.237453,-29121.998444,-26577.677021,-30821.781554,-1482.077120,-24455.244774,-8967.966910,0.038000,0.978000,0.082000,192.000000,0.000000,0.000000,0.000000,0.000000,0.000000,0.000000,0.000000,0.000000,0.000000,1647763611.795807,0.000000
164.000000,-20344.401341,-18569.762238,-29121.663168,-26574.368963,-30821.580389,-1484.245239,-24457.547004,-8966.916378,0.038000,0.978000,0.082000,192.000000,0.000000,0.000000,0.000000,0.000000,0.000000,0.000000,0.000000,0.000000,0.000000,1647763611.802740,0.000000
165.000000,-20347.172957,-18570.343384,-29123.741880,-26574.234852,-30822.094479,-1478.702006,-24461.235042,-8960.456724,0.038000,0.978000,0.082000,192.000000,0.000000,0.000000,0.000000,0.000000,0.000000,0.000000,0.000000,0.000000,0.000000,1647763611.802756,0.000000
166.000000,-20344.423693,-18567.392953,-29122.668996,-26573.497245,-30819.278159,-1472.912904,-24456.764693,-8967.318710,0.038000,0.978000,0.082000,192.000000,0.000000,0.000000,0.000000,0.000000,0.000000,0.000000,0.000000,0.000000,0.000000,1647763611.810716,0.000000
167.000000,-20341.115635,-18567.907043,-29119.986787,-26573.050210,-30819.054642,-1473.181125,-24443.174832,-8965.172942,0.038000,0.978000,0.082000,192.000000,0.000000,0.000000,0.000000,0.000000,0.000000,0.000000,0.000000,0.000000,0.000000,1647763611.810733,0.000000
168.000000,-20347.374123,-18575.394878,-29126.893476,-26580.247471,-30826.520124,-1472.532925,-24449.187452,-8958.176846,0.038000,0.978000,0.082000,192.000000,0.000000,0.000000,0.000000,0.000000,0.000000,0.000000,0.000000,0.000000,0.000000,1647763611.818510,0.000000
169.000000,-20347.105902,-18573.942014,-29124.747708,-26579.822788,-30826.430717,-1465.156849,-24456.295306,-8966.514047,0.040000,0.978000,0.096000,192.000000,1.000000,64.000000,30.000000,144.000000,3.000000,0.000000,0.000000,0.000000,0.000000,1647763611.818527,0.000000
170.000000,-20342.233222,-18567.191788,-29118.243351,-26575.486550,-30822.876790,-1470.565971,-24463.358457,-8968.436297,0.040000,0.978000,0.096000,192.000000,0.000000,0.000000,0.000000,0.000000,0.000000,0.000000,0.000000,0.000000,0.000000,1647763611.825847,0.000000
171.000000,-20351.017457,-18580.356965,-29129.039243,-26588.137637,-30830.655197,-1472.287056,-24472.992059,-8975.767669,0.040000,0.978000,0.096000,192.000000,0.000000,0.000000,0.000000,0.000000,0.000000,0.000000,0.000000,0.000000,0.000000,1647763611.825881,0.000000
172.000000,-20343.417864,-18578.300605,-29117.930426,-26581.856797,-30822.049775,-1466.296788,-24462.442036,-8961.887236,0.040000,0.978000,0.096000,192.000000,0.000000,0.000000,0.000000,0.000000,0.000000,0.000000,0.000000,0.000000,0.000000,1647763611.833395,0.000000
173.000000,-20346.278888,-18580.133448,-29116.812839,-26584.293137,-30822.072127,-1461.826439,-24459.044571,-8968.659814,0.040000,0.978000,0.096000,192.000000,0.000000,0.000000,0.000000,0.000000,0.000000,0.000000,0.000000,0.000000,0.000000,1647763611.833412,0.000000
174.000000,-20341.294449,-18576.356003,-29114.175333,-26583.913157,-30820.194581,-1470.789489,-24459.201033,-8972.370204,0.040000,0.978000,0.096000,192.000000,0.000000,0.000000,0.000000,0.000000,0.000000,0.000000,0.000000,0.000000,0.000000,1647763611.841234,0.000000
175.000000,-20350.816292,-18585.609625,-29122.981921,-26594.731402,-30828.800002,-1471.728262,-24468.208786,-8984.820126,0.040000,0.978000,0.096000,192.000000,0.000000,0.000000,0.000000,0.000000,0.000000,0.000000,0.000000,0.000000,0.000000,1647763611.841250,0.000000
176.000000,-20346.435350,-18578.591177,-29121.618464,-26590.551626,-30825.201371,-1464.665111,-24465.437170,-8976.214704,0.040000,0.978000,0.096000,192.000000,0.000000,0.000000,0.000000,0.000000,0.000000,0.000000,0.000000,0.000000,0.000000,1647763611.848354,0.000000
177.000000,-20341.942649,-18574.478456,-29115.538790,-26584.918986,-30820.686319,-1463.636930,-24457.926984,-8974.672434,0.040000,0.978000,0.096000,192.000000,0.000000,0.000000,0.000000,0.000000,0.000000,0.000000,0.000000,0.000000,0.000000,1647763611.848371,0.000000
178.000000,-20334.857146,-18569.873997,-29107.670976,-26576.559434,-30817.937054,-1469.448384,-24456.518824,-8981.109736,0.040000,0.978000,0.096000,192.000000,0.000000,0.000000,0.000000,0.000000,0.000000,0.000000,0.000000,0.000000,0.000000,1647763611.855029,0.000000
179.000000,-20337.293486,-18570.410439,-29110.867275,-26577.811131,-30819.613435,-1465.760346,-24455.110664,-8963.809486,0.046000,0.982000,0.090000,192.000000,1.000000,112.000000,30.000000,176.000000,2.000000,208.000000,0.000000,0.000000,0.000000,1647763611.862997,0.000000
180.000000,-20338.165204,-18569.024631,-29114.197685,-26580.158064,-30826.609531,-1476.377425,-24459.826882,-8967.095192,0.046000,0.982000,0.090000,192.000000,0.000000,0.000000,0.000000,0.000000,0.000000,0.000000,0.000000,0.000000,0.000000,1647763611.863014,0.000000
181.000000,-20334.745387,-18564.174302,-29114.644720,-26578.705201,-30823.703804,-1482.837079,-24473.260280,-8978.047547,0.046000,0.982000,0.090000,192.000000,0.000000,0.000000,0.000000,0.000000,0.000000,0.000000,0.000000,0.000000,0.000000,1647763611.870911,0.000000
182.000000,-20334.052483,-18564.822503,-29113.638891,-26578.481684,-30822.027424,-1476.176259,-24452.383751,-8971.163210,0.046000,0.982000,0.090000,192.000000,0.000000,0.000000,0.000000,0.000000,0.000000,0.000000,0.000000,0.000000,0.000000,1647763611.870928,0.000000
183.000000,-20335.706512,-18572.265634,-29114.309444,-26581.923852,-30824.754336,-1479.551372,-24460.989173,-8971.565541,0.046000,0.982000,0.090000,192.000000,0.000000,0.000000,0.000000,0.000000,0.000000,0.000000,0.000000,0.000000,0.000000,1647763611.878165,0.000000
184.000000,-20346.100074,-18587.084840,-29124.926522,-26594.418477,-30836.556058,-1490.235506,-24486.201940,-8988.441108,0.046000,0.982000,0.090000,192.000000,0.000000,0.000000,0.000000,0.000000,0.000000,0.000000,0.000000,0.000000,0.000000,1647763611.878181,0.000000
185.000000,-20340.936821,-18580.692241,-29118.399813,-26589.009355,-30830.677549,-1481.294809,-24472.455617,-8986.876486,0.046000,0.982000,0.090000,192.000000,0.000000,0.000000,0.000000,0.000000,0.000000,0.000000,0.000000,0.000000,0.000000,1647763611.885435,0.000000
186.000000,-20344.960135,-18579.820523,-29117.952778,-26588.249396,-30829.023520,-1477.539715,-24462.129112,-8983.210800,0.046000,0.982000,0.090000,192.000000,0.000000,0.000000,0.000000,0.000000,0.000000,0.000000,0.000000,0.000000,0.000000,1647763611.885451,0.000000
187.000000,-20343.708437,-18574.523160,-29117.885723,-26585.321317,-30827.302435,-1473.851678,-24460.788007,-8981.579123,0.046000,0.982000,0.090000,192.000000,0.000000,0.000000,0.000000,0.000000,0.000000,0.000000,0.000000,0.000000,0.000000,1647763611.893613,0.000000
188.000000,-20348.737579,-18578.144142,-29127.251104,-26587.601195,-30832.353930,-1469.046053,-24444.582992,-8988.351701,0.046000,0.982000,0.090000,192.000000,0.000000,0.000000,0.000000,0.000000,0.000000,0.000000,0.000000,0.000000,0.000000,1647763611.893631,0.000000
189.000000,-20346.211832,-18574.500808,-29125.597075,-26580.873320,-30833.560924,-1482.233582,-24458.530481,-8990.966855,0.038000,0.976000,0.094000,192.000000,1.000000,48.000000,30.000000,128.000000,2.000000,240.000000,0.000000,0.000000,0.000000,1647763611.901440,0.000000
190.000000,-20346.524757,-18575.305471,-29123.741880,-26575.687715,-30828.576485,-1479.059634,-24459.670420,-8965.441163,0.038000,0.976000,0.094000,192.000000,0.000000,0.000000,0.000000,0.000000,0.000000,0.000000,0.000000,0.000000,0.000000,1647763611.901457,0.000000
191.000000,-20350.749236,-18579.932282,-29125.999406,-26580.627451,-30830.834011,-1476.824460,-24459.581013,-8971.811410,0.038000,0.976000,0.094000,192.000000,0.000000,0.000000,0.000000,0.000000,0.000000,0.000000,0.000000,0.000000,0.000000,1647763611.908173,0.000000
192.000000,-20352.202100,-18580.826352,-29125.574723,-26585.947166,-30834.544401,-1485.362826,-24460.095103,-8974.538323,0.038000,0.976000,0.094000,192.000000,0.000000,0.000000,0.000000,0.000000,0.000000,0.000000,0.000000,0.000000,0.000000,1647763611.908190,0.000000
193.000000,-20353.006763,-18586.526047,-29123.294845,-26594.954919,-30838.724177,-1486.592172,-24467.471178,-8980.461536,0.038000,0.976000,0.094000,192.000000,0.000000,0.000000,0.000000,0.000000,0.000000,0.000000,0.000000,0.000000,0.000000,1647763611.915172,0.000000
194.000000,-20355.353696,-18592.270445,-29123.160735,-26599.671137,-30839.506488,-1477.830288,-24465.124245,-8977.466402,0.038000,0.976000,0.094000,192.000000,0.000000,0.000000,0.000000,0.000000,0.000000,0.000000,0.000000,0.000000,0.000000,1647763611.923263,0.000000
195.000000,-20345.898908,-18585.341404,-29111.850752,-26590.462219,-30832.420985,-1482.457099,-24460.989173,-8968.212780,0.038000,0.976000,0.094000,192.000000,0.000000,0.000000,0.000000,0.000000,0.000000,0.000000,0.000000,0.000000,0.000000,1647763611.923279,0.000000
196.000000,-20345.988315,-18585.050831,-29109.012080,-26587.757657,-30824.731985,-1479.484317,-24455.535347,-8971.856114,0.038000,0.976000,0.094000,192.000000,0.000000,0.000000,0.000000,0.000000,0.000000,0.000000,0.000000,0.000000,0.000000,1647763611.931115,0.000000
197.000000,-20346.748274,-18583.642672,-29114.354147,-26588.495265,-30824.642578,-1477.047977,-24458.150501,-8976.974663,0.038000,0.976000,0.094000,192.000000,0.000000,0.000000,0.000000,0.000000,0.000000,0.000000,0.000000,0.000000,0.000000,1647763611.931131,0.000000
198.000000,-20342.903774,-18576.668927,-29109.794391,-26579.420457,-30818.361738,-1473.069367,-24450.103873,-8965.396460,0.038000,0.976000,0.094000,192.000000,0.000000,0.000000,0.000000,0.000000,0.000000,0.000000,0.000000,0.000000,0.000000,1647763611.937767,0.000000
199.000000,-20349.072856,-18581.251035,-29113.258912,-26579.711029,-30821.513334,-1472.398814,-24458.150501,-8973.040756,0.040000,0.982000,0.092000,192.000000,1.000000,64.000000,30.000000,176.000000,2.000000,224.000000,0.000000,0.000000,0.000000,1647763611.937783,0.000000
200.000000,-20349.542242,-18582.547436,-29115.404679,-26581.454466,-30826.363662,-1485.027550,-24476.411876,-8983.322559,0.040000,0.982000,0.092000,192.000000,0.000000,0.000000,0.000000,0.000000,0.000000,0.000000,0.000000,0.000000,0.000000,1647763611.945911,0.000000
201.000000,-20344.155472,-18578.010032,-29110.509647,-26576.939413,-30819.658139,-1488.715588,-24471.338030,-8975.901780,0.040000,0.982000,0.092000,192.000000,0.000000,0.000000,0.000000,0.000000,0.000000,0.000000,0.000000,0.000000,0.000000,1647763611.945928,0.000000
202.000000,-20347.575289,-18584.156762,-29113.057746,-26579.196939,-30818.182924,-1487.106262,-24471.159216,-8980.617998,0.040000,0.982000,0.092000,192.000000,0.000000,0.000000,0.000000,0.000000,0.000000,0.000000,0.000000,0.000000,0.000000,1647763611.953800,0.000000
203.000000,-20359.801693,-18600.987625,-29125.038281,-26593.144428,-30834.700863,-1495.398759,-24473.349687,-8988.396405,0.040000,0.982000,0.092000,192.000000,0.000000,0.000000,0.000000,0.000000,0.000000,0.000000,0.000000,0.000000,0.000000,1647763611.953815,0.000000
204.000000,-20341.093283,-18583.329747,-29109.839095,-26580.336878,-30824.553171,-1486.011027,-24462.084408,-8972.079631,0.040000,0.982000,0.092000,192.000000,0.000000,0.000000,0.000000,0.000000,0.000000,0.000000,0.000000,0.000000,0.000000,1647763611.960912,0.000000
205.000000,-20332.979600,-18573.182055,-29105.033470,-26574.592480,-30817.735889,-1472.912904,-24451.892013,-8967.318710,0.040000,0.982000,0.092000,192.000000,0.000000,0.000000,0.000000,0.000000,0.000000,0.000000,0.000000,0.000000,0.000000,1647763611.960928,0.000000
206.000000,-20326.318780,-18559.681601,-29102.641833,-26567.484625,-30814.539589,-1477.495012,-24448.852175,-8964.211817,0.040000,0.982000,0.092000,192.000000,0.000000,0.000000,0.000000,0.000000,0.000000,0.000000,0.000000,0.000000,0.000000,1647763611.968235,0.000000
207.000000,-20334.879498,-18569.315203,-29108.743859,-26575.754771,-30819.479325,-1483.306466,-24463.492568,-8969.285663,0.040000,0.982000,0.092000,192.000000,0.000000,0.000000,0.000000,0.000000,0.000000,0.000000,0.000000,0.000000,0.000000,1647763611.968251,0.000000
208.000000,-20342.747312,-18578.993509,-29114.287092,-26585.522483,-30827.324787,-1485.429881,-24464.811321,-8979.500410,0.040000,0.982000,0.092000,192.000000,0.000000,0.000000,0.000000,0.000000,0.000000,0.000000,0.000000,0.000000,0.000000,1647763611.975547,0.000000
209.000000,-20340.690951,-18576.288948,-29112.588359,-26581.163893,-30825.201371,-1473.248181,-24450.908536,-8965.485867,0.038000,0.984000,0.092000,192.000000,1.000000,48.000000,30.000000,192.000000,2.000000,224.000000,0.000000,0.000000,0.000000,1647763611.983639,0.000000
210.000000,-20327.212850,-18565.046020,-29099.132609,-26565.897651,-30813.354947,-1472.287056,-24453.724856,-8960.769649,0.038000,0.984000,0.092000,192.000000,0.000000,0.000000,0.000000,0.000000,0.000000,0.000000,0.000000,0.000000,0.000000,1647763611.983655,0.000000
211.000000,-20332.443158,-18567.616471,-29101.703060,-26565.696486,-30812.483229,-1468.219038,-24453.099007,-8964.323576,0.038000,0.984000,0.092000,192.000000,0.000000,0.000000,0.000000,0.000000,0.000000,0.000000,0.000000,0.000000,0.000000,1647763611.990118,0.000000
212.000000,-20336.198251,-18568.756410,-29107.246293,-26566.277631,-30816.797115,-1467.079099,-24444.851213,-8969.106849,0.038000,0.984000,0.092000,192.000000,0.000000,0.000000,0.000000,0.000000,0.000000,0.000000,0.000000,0.000000,0.000000,1647763611.990134,0.000000
213.000000,-20332.510213,-18565.157779,-29098.819685,-26561.807282,-30812.684394,-1475.036320,-24444.761806,-8982.897876,0.038000,0.984000,0.092000,192.000000,0.000000,0.000000,0.000000,0.000000,0.000000,0.000000,0.000000,0.000000,0.000000,1647763611.998045,0.000000
214.000000,-20333.985428,-18565.493055,-29100.026679,-26559.259183,-30813.198485,-1476.310370,-24442.638390,-8977.622864,0.038000,0.984000,0.092000,192.000000,0.000000,0.000000,0.000000,0.000000,0.000000,0.000000,0.000000,0.000000,0.000000,1647763611.998080,0.000000
215.000000,-20341.003876,-18570.879825,-29111.403717,-26565.830596,-30822.876790,-1482.367692,-24471.293327,-8975.141820,0.038000,0.984000,0.092000,192.000000,0.000000,0.000000,0.000000,0.000000,0.000000,0.000000,0.000000,0.000000,0.000000,1647763612.005815,0.000000
216.000000,-20340.690951,-18570.432791,-29110.330833,-26567.864605,-30823.860267,-1493.118881,-24469.974574,-8968.101021,0.038000,0.984000,0.092000,192.000000,0.000000,0.000000,0.000000,0.000000,0.000000,0.000000,0.000000,0.000000,0.000000,1647763612.005825,0.000000
217.000000,-20340.221565,-18567.504712,-29109.593226,-26568.825730,-30818.853476,-1480.333684,-24463.336106,-8959.674413,0.038000,0.984000,0.092000,192.000000,0.000000,0.000000,0.000000,0.000000,0.000000,0.000000,0.000000,0.000000,0.000000,1647763612.013974,0.000000
218.000000,-20352.090341,-18579.418192,-29119.383290,-26579.286346,-30831.929246,-1485.809861,-24474.534330,-8970.649120,0.038000,0.984000,0.092000,192.000000,0.000000,0.000000,0.000000,0.000000,0.000000,0.000000,0.000000,0.000000,0.000000,1647763612.013990,0.000000
219.000000,-20348.335248,-18578.479419,-29112.856580,-26577.721724,-30830.588142,-1488.536774,-24467.761751,-8975.164172,0.040000,0.984000,0.088000,192.000000,1.000000,64.000000,30.000000,192.000000,2.000000,192.000000,0.000000,0.000000,0.000000,1647763612.020568,0.000000
220.000000,-20350.302202,-18588.917683,-29113.884761,-26590.819846,-30838.835935,-1493.074178,-24467.806455,-8977.824030,0.040000,0.984000,0.088000,192.000000,0.000000,0.000000,0.000000,0.000000,0.000000,0.000000,0.000000,0.000000,0.000000,1647763612.020579,0.000000
221.000000,-20347.731751,-18588.314186,-29109.526170,-26593.837332,-30837.405424,-1497.812748,-24463.559623,-8959.964986,0.040000,0.984000,0.088000,192.000000,0.000000,0.000000,0.000000,0.000000,0.000000,0.000000,0.000000,0.000000,0.000000,1647763612.028716,0.000000
222.000000,-20361.343963,-18599.780631,-29121.149078,-26602.621568,-30844.312113,-1488.983809,-24454.730684,-8966.826971,0.040000,0.984000,0.088000,192.000000,0.000000,0.000000,0.000000,0.000000,0.000000,0.000000,0.000000,0.000000,0.000000,1647763612.028732,0.000000
223.000000,-20360.181673,-18597.187829,-29124.188915,-26596.430134,-30843.641561,-1488.827346,-24457.010562,-8971.699652,0.040000,0.984000,0.088000,192.000000,0.000000,0.000000,0.000000,0.000000,0.000000,0.000000,0.000000,0.000000,0.000000,1647763612.035748,0.000000
224.000000,-20357.387705,-18591.823410,-29121.774926,-26590.551626,-30837.248962,-1487.329780,-24462.620850,-8980.014501,0.040000,0.984000,0.088000,192.000000,0.000000,0.000000,0.000000,0.000000,0.000000,0.000000,0.000000,0.000000,0.000000,1647763612.035760,0.000000
225.000000,-20355.152530,-18588.627111,-29119.003310,-26586.438905,-30835.684339,-1487.329780,-24468.767580,-8987.971722,0.040000,0.984000,0.088000,192.000000,0.000000,0.000000,0.000000,0.000000,0.000000,0.000000,0.000000,0.000000,0.000000,1647763612.042937,0.000000
226.000000,-20348.692876,-18580.155799,-29113.594188,-26581.610928,-30832.935075,-1493.074178,-24468.499359,-8992.576181,0.040000,0.984000,0.088000,192.000000,0.000000,0.000000,0.000000,0.000000,0.000000,0.000000,0.000000,0.000000,0.000000,1647763612.050404,0.000000
227.000000,-20336.064140,-18564.241357,-29105.927540,-26569.943317,-30824.061432,-1489.944934,-24452.651972,-8973.800716,0.040000,0.984000,0.088000,192.000000,0.000000,0.000000,0.000000,0.000000,0.000000,0.000000,0.000000,0.000000,0.000000,1647763612.050420,0.000000
228.000000,-20334.320704,-18566.409477,-29108.788563,-26571.396181,-30826.676586,-1490.973114,-24456.921155,-8973.197219,0.040000,0.984000,0.088000,192.000000,0.000000,0.000000,0.000000,0.000000,0.000000,0.000000,0.000000,0.000000,0.000000,1647763612.058405,0.000000
229.000000,-20343.484919,-18574.813732,-29114.398851,-26575.307736,-30828.665892,-1481.093643,-24454.954202,-8973.666605,0.040000,0.984000,0.092000,192.000000,1.000000,64.000000,30.000000,192.000000,2.000000,224.000000,0.000000,0.000000,0.000000,1647763612.058421,0.000000
230.000000,-20349.743408,-18578.032384,-29120.500877,-26580.091009,-30834.924380,-1476.645646,-24453.188414,-8984.596608,0.040000,0.984000,0.092000,192.000000,0.000000,0.000000,0.000000,0.000000,0.000000,0.000000,0.000000,0.000000,0.000000,1647763612.066434,0.000000
231.000000,-20350.011629,-18582.100401,-29115.583493,-26586.349498,-30835.639636,-1480.043111,-24451.355571,-8979.411004,0.040000,0.984000,0.092000,192.000000,0.000000,0.000000,0.000000,0.000000,0.000000,0.000000,0.000000,0.000000,0.000000,1647763612.066450,0.000000
232.000000,-20357.119484,-18590.750526,-29121.841982,-26593.636166,-30835.594933,-1482.725320,-24459.268088,-8979.746280,0.040000,0.984000,0.092000,192.000000,0.000000,0.000000,0.000000,0.000000,0.000000,0.000000,0.000000,0.000000,0.000000,1647763612.073070,0.000000
233.000000,-20370.128199,-18604.854477,-29135.588304,-26606.376661,-30849.564773,-1491.598963,-24484.011469,-8998.678207,0.040000,0.984000,0.092000,192.000000,0.000000,0.000000,0.000000,0.000000,0.000000,0.000000,0.000000,0.000000,0.000000,1647763612.073086,0.000000
234.000000,-20368.496522,-18605.614436,-29131.766156,-26603.537989,-30850.503546,-1493.185937,-24479.429362,-8992.754995,0.040000,0.984000,0.092000,192.000000,0.000000,0.000000,0.000000,0.000000,0.000000,0.000000,0.000000,0.000000,0.000000,1647763612.080982,0.000000
235.000000,-20367.803617,-18603.401614,-29127.809897,-26601.034594,-30846.860212,-1488.425015,-24470.354554,-9000.019312,0.040000,0.984000,0.092000,192.000000,0.000000,0.000000,0.000000,0.000000,0.000000,0.000000,0.000000,0.000000,0.000000,1647763612.081016,0.000000
236.000000,-20356.784207,-18590.482305,-29117.461040,-26589.143466,-30830.699900,-1477.629122,-24465.347763,-8998.409986,0.040000,0.984000,0.092000,192.000000,0.000000,0.000000,0.000000,0.000000,0.000000,0.000000,0.000000,0.000000,0.000000,1647763612.089115,0.000000
237.000000,-20354.526681,-18584.916721,-29117.215171,-26586.148332,-30823.547342,-1460.708852,-24446.371132,-8966.648157,0.040000,0.984000,0.092000,192.000000,0.000000,0.000000,0.000000,0.000000,0.000000,0.000000,0.000000,0.000000,0.000000,1647763612.089132,0.000000
238.000000,-20357.253594,-18586.749564,-29125.105336,-26588.249396,-30833.203296,-1472.756442,-24446.706408,-8972.012576,0.040000,0.984000,0.092000,192.000000,0.000000,0.000000,0.000000,0.000000,0.000000,0.000000,0.000000,0.000000,0.000000,1647763612.096114,0.000000
239.000000,-20374.665603,-18599.534762,-29139.611618,-26598.262977,-30847.106081,-1486.905096,-24467.113551,-8989.893972,0.040000,0.980000,0.096000,192.000000,1.000000,64.000000,30.000000,160.000000,3.000000,0.000000,0.000000,0.000000,0.000000,1647763612.096130,0.000000
240.000000,-20375.313804,-18598.081898,-29140.908020,-26592.719745,-30842.211049,-1483.239410,-24466.867681,-8988.552867,0.040000,0.980000,0.096000,192.000000,0.000000,0.000000,0.000000,0.000000,0.000000,0.000000,0.000000,0.000000,0.000000,1647763612.102557,0.000000
241.000000,-20376.923129,-18599.043023,-29141.757386,-26590.015184,-30843.798023,-1491.777777,-24480.390487,-8996.107757,0.040000,0.980000,0.096000,192.000000,0.000000,0.000000,0.000000,0.000000,0.000000,0.000000,0.000000,0.000000,0.000000,1647763612.110671,0.000000
242.000000,-20374.643251,-18594.773840,-29141.466813,-26585.835407,-30841.115813,-1490.168451,-24485.464333,-9003.863812,0.040000,0.980000,0.096000,192.000000,0.000000,0.000000,0.000000,0.000000,0.000000,0.000000,0.000000,0.000000,0.000000,1647763612.110687,0.000000
243.000000,-20370.776399,-18593.522143,-29142.584400,-26582.840274,-30845.496755,-1492.671846,-24471.427437,-8986.876486,0.040000,0.980000,0.096000,192.000000,0.000000,0.000000,0.000000,0.000000,0.000000,0.000000,0.000000,0.000000,0.000000,1647763612.118699,0.000000
244.000000,-20364.763780,-18591.309320,-29136.705892,-26580.113361,-30841.294627,-1494.549393,-24456.988210,-8970.537361,0.040000,0.980000,0.096000,192.000000,0.000000,0.000000,0.000000,0.000000,0.000000,0.000000,0.000000,0.000000,0.000000,1647763612.118710,0.000000
245.000000,-20353.073818,-18578.948805,-29120.947912,-26570.971497,-30828.755299,-1481.115995,-24451.824957,-8972.794887,0.040000,0.980000,0.096000,192.000000,0.000000,0.000000,0.000000,0.000000,0.000000,0.000000,0.000000,0.000000,0.000000,1647763612.125293,0.000000
246.000000,-20353.677315,-18577.518294,-29119.383290,-26572.871396,-30830.297569,-1479.841945,-24465.079542,-8986.049472,0.040000,0.980000,0.096000,192.000000,0.000000,0.000000,0.000000,0.000000,0.000000,0.000000,0.000000,0.000000,0.000000,1647763612.125310,0.000000
247.000000,-20357.879443,-18585.542570,-29120.769098,-26579.845140,-30833.493869,-1474.477526,-24464.185472,-8984.551905,0.040000,0.980000,0.096000,192.000000,0.000000,0.000000,0.000000,0.000000,0.000000,0.000000,0.000000,0.000000,0.000000,1647763612.133365,0.000000
248.000000,-20358.281774,-18590.035270,-29119.495048,-26583.600233,-30836.421947,-1477.807936,-24463.000830,-8984.641312,0.040000,0.980000,0.096000,192.000000,0.000000,0.000000,0.000000,0.000000,0.000000,0.000000,0.000000,0.000000,0.000000,1647763612.133381,0.000000
249.000000,-20363.310917,-18597.254884,-29126.491144,-26591.758620,-30841.741662,-1480.914829,-24469.996926,-8990.698634,0.034000,0.980000,0.092000,192.000000,1.000000,16.000000,30.000000,160.000000,2.000000,224.000000,0.000000,0.000000,0.000000,1647763612.141404,0.000000
250.000000,-20368.116542,-18601.322901,-29130.939142,-26598.933530,-30843.194526,-1481.563029,-24483.162103,-8990.296303,0.034000,0.980000,0.092000,192.000000,0.000000,0.000000,0.000000,0.000000,0.000000,0.000000,0.000000,0.000000,0.000000,1647763612.141421,0.000000
251.000000,-20370.128199,-18598.283064,-29134.873049,-26595.200788,-30845.496755,-1483.261762,-24478.423533,-8990.318655,0.034000,0.980000,0.092000,192.000000,0.000000,0.000000,0.000000,0.000000,0.000000,0.000000,0.000000,0.000000,0.000000,1647763612.148220,0.000000
252.000000,-20374.777362,-18601.836992,-29141.846793,-26598.285329,-30849.810642,-1487.374483,-24483.430324,-9010.234059,0.034000,0.980000,0.092000,192.000000,0.000000,0.000000,0.000000,0.000000,0.000000,0.000000,0.000000,0.000000,0.000000,1647763612.148237,0.000000
253.000000,-20364.629670,-18588.403593,-29132.481412,-26587.198864,-30840.869944,-1487.955628,-24478.758809,-8997.806489,0.034000,0.980000,0.092000,192.000000,0.000000,0.000000,0.000000,0.000000,0.000000,0.000000,0.000000,0.000000,0.000000,1647763612.155939,0.000000
254.000000,-20354.571385,-18573.629090,-29119.897380,-26572.200843,-30826.989511,-1474.991617,-24457.167024,-8981.489716,0.034000,0.980000,0.092000,192.000000,0.000000,0.000000,0.000000,0.000000,0.000000,0.000000,0.000000,0.000000,0.000000,1647763612.155957,0.000000
255.000000,-20360.315783,-18575.014898,-29123.451307,-26572.469064,-30827.548305,-1477.316198,-24463.827844,-8992.173850,0.034000,0.980000,0.092000,192.000000,0.000000,0.000000,0.000000,0.000000,0.000000,0.000000,0.000000,0.000000,0.000000,1647763612.162735,0.000000
0.000000,-20377.683089,-18590.236436,-29139.365749,-26590.641033,-30841.138165,-1483.731149,-24480.636356,-8998.454690,0.034000,0.980000,0.092000,192.000000,0.000000,0.000000,0.000000,0.000000,0.000000,0.000000,0.000000,0.000000,0.000000,1647763612.171057,0.000000
1.000000,-20375.604376,-18590.035270,-29138.203459,-26593.211483,-30843.641561,-1484.871088,-24485.687850,-8999.907553,0.034000,0.980000,0.092000,192.000000,0.000000,0.000000,0.000000,0.000000,0.000000,0.000000,0.000000,0.000000,0.000000,1647763612.171091,0.000000
2.000000,-20363.556786,-18580.826352,-29125.686482,-26583.801399,-30835.237305,-1486.547468,-24472.276804,-8986.518858,0.034000,0.980000,0.092000,192.000000,0.000000,0.000000,0.000000,0.000000,0.000000,0.000000,0.000000,0.000000,0.000000,1647763612.177997,0.000000
3.000000,-20355.331344,-18575.238416,-29118.086889,-26577.989945,-30827.347139,-1481.183050,-24457.859928,-8976.371166,0.030000,0.982000,0.094000,192.000000,0.000000,240.000000,30.000000,176.000000,2.000000,240.000000,0.000000,0.000000,0.000000,1647763612.178013,0.000000
4.000000,-20352.582079,-18574.903139,-29114.979996,-26579.219291,-30824.977854,-1487.218021,-24452.808434,-8968.212780,0.030000,0.982000,0.094000,192.000000,0.000000,0.000000,0.000000,0.000000,0.000000,0.000000,0.000000,0.000000,0.000000,1647763612.185659,0.000000
5.000000,-20358.438237,-18579.597006,-29122.356072,-26583.756695,-30826.274255,-1487.441538,-24453.076655,-8975.119469,0.030000,0.982000,0.094000,192.000000,0.000000,0.000000,0.000000,0.000000,0.000000,0.000000,0.000000,0.000000,0.000000,1647763612.185674,0.000000
6.000000,-20380.342946,-18600.048852,-29145.467776,-26601.995719,-30844.893258,-1494.191765,-24469.102856,-8998.544097,0.030000,0.982000,0.094000,192.000000,0.000000,0.000000,0.000000,0.000000,0.000000,0.000000,0.000000,0.000000,0.000000,1647763612.194195,0.000000
7.000000,-20379.091248,-18600.384128,-29142.137366,-26595.938396,-30846.569639,-1496.762216,-24474.959013,-9005.562545,0.030000,0.982000,0.094000,192.000000,0.000000,0.000000,0.000000,0.000000,0.000000,0.000000,0.000000,0.000000,0.000000,1647763612.194211,0.000000
8.000000,-20369.859978,-18590.996395,-29132.392005,-26587.154160,-30836.220781,-1487.642704,-24466.554757,-8989.335178,0.030000,0.982000,0.094000,192.000000,0.000000,0.000000,0.000000,0.000000,0.000000,0.000000,0.000000,0.000000,0.000000,1647763612.201413,0.000000
9.000000,-20367.848321,-18586.995433,-29131.788508,-26585.075448,-30831.705729,-1479.640779,-24462.419684,-8985.513030,0.030000,0.982000,0.094000,192.000000,0.000000,0.000000,0.000000,0.000000,0.000000,0.000000,0.000000,0.000000,0.000000,1647763612.201428,0.000000
10.000000,-20369.748219,-18588.671814,-29135.230677,-26585.768352,-30832.175116,-1477.025625,-24462.777312,-8988.418757,0.030000,0.982000,0.094000,192.000000,0.000000,0.000000,0.000000,0.000000,0.000000,0.000000,0.000000,0.000000,0.000000,1647763612.208191,0.000000
11.000000,-20367.021306,-18585.229645,-29132.123784,-26582.192073,-30831.638674,-1485.809861,-24462.978478,-8991.369187,0.030000,0.982000,0.094000,192.000000,0.000000,0.000000,0.000000,0.000000,0.000000,0.000000,0.000000,0.000000,0.000000,1647763612.208207,0.000000
12.000000,-20367.825969,-18586.570750,-29129.262761,-26579.375753,-30832.800964,-1487.150966,-24462.084408,-8985.043643,0.030000,0.982000,0.094000,192.000000,0.000000,0.000000,0.000000,0.000000,0.000000,0.000000,0.000000,0.000000,0.000000,1647763612.216243,0.000000
13.000000,-20372.296318,-18590.147029,-29132.950799,-26579.487512,-30832.465688,-1474.030492,-24456.809396,-8969.889160,0.030000,0.982000,0.094000,192.000000,0.000000,0.000000,0.000000,0.000000,0.000000,0.000000,0.000000,0.000000,0.000000,1647763612.216259,0.000000
14.000000,-20375.872597,-18591.242265,-29132.861392,-26582.728515,-30831.638674,-1470.320102,-24471.382734,-8983.076690,0.032000,0.984000,0.096000,192.000000,1.000000,0.000000,30.000000,192.000000,3.000000,0.000000,0.000000,0.000000,0.000000,1647763612.223271,0.000000
15.000000,-20365.657850,-18579.708765,-29121.372595,-26570.211538,-30819.456973,-1462.407584,-24460.542138,-8974.493620,0.032000,0.984000,0.096000,192.000000,0.000000,0.000000,0.000000,0.000000,0.000000,0.000000,0.000000,0.000000,0.000000,1647763612.230988,0.000000
16.000000,-20355.800731,-18569.315203,-29114.689423,-26560.913212,-30811.633862,-1454.986805,-24458.776350,-8970.582064,0.032000,0.984000,0.096000,192.000000,0.000000,0.000000,0.000000,0.000000,0.000000,0.000000,0.000000,0.000000,0.000000,1647763612.231004,0.000000
17.000000,-20343.708437,-18557.871110,-29107.425106,-26549.446768,-30808.459915,-1463.301654,-24463.827844,-8971.252617,0.032000,0.984000,0.096000,192.000000,0.000000,0.000000,0.000000,0.000000,0.000000,0.000000,0.000000,0.000000,0.000000,1647763612.237905,0.000000
18.000000,-20334.298353,-18548.952764,-29100.406659,-26541.847174,-30802.827275,-1462.876971,-24469.527539,-8974.091288,0.032000,0.984000,0.096000,192.000000,0.000000,0.000000,0.000000,0.000000,0.000000,0.000000,0.000000,0.000000,0.000000,1647763612.237921,0.000000
19.000000,-20343.328457,-18559.569843,-29114.376499,-26559.147425,-30812.594987,-1469.761308,-24477.261243,-8993.269085,0.032000,0.984000,0.096000,192.000000,0.000000,0.000000,0.000000,0.000000,0.000000,0.000000,0.000000,0.000000,0.000000,1647763612.246005,0.000000
20.000000,-20351.509196,-18567.862340,-29127.407566,-26574.927756,-30829.336444,-1483.418224,-24493.712126,-8997.292399,0.032000,0.984000,0.096000,192.000000,0.000000,0.000000,0.000000,0.000000,0.000000,0.000000,0.000000,0.000000,0.000000,1647763612.246021,0.000000
21.000000,-20358.684106,-18574.836084,-29137.264685,-26586.818884,-30844.736796,-1495.175242,-24505.133868,-9013.564469,0.032000,0.984000,0.096000,192.000000,0.000000,0.000000,0.000000,0.000000,0.000000,0.000000,0.000000,0.000000,0.000000,1647763612.253942,0.000000
22.000000,-20371.022269,-18587.643634,-29150.496918,-26600.296986,-30858.349008,-1503.020704,-24505.424441,-9026.081446,0.032000,0.984000,0.096000,192.000000,0.000000,0.000000,0.000000,0.000000,0.000000,0.000000,0.000000,0.000000,0.000000,1647763612.253976,0.000000
23.000000,-20366.820141,-18583.173285,-29147.926467,-26597.391259,-30857.007904,-1502.998352,-24495.701432,-9019.465330,0.032000,0.984000,0.096000,192.000000,0.000000,0.000000,0.000000,0.000000,0.000000,0.000000,0.000000,0.000000,0.000000,1647763612.260908,0.000000
24.000000,-20348.067027,-18563.414343,-29132.816688,-26583.510826,-30843.842726,-1505.658210,-24493.466257,-9019.197109,0.030000,0.984000,0.094000,192.000000,0.000000,240.000000,30.000000,192.000000,2.000000,240.000000,0.000000,0.000000,0.000000,1647763612.260924,0.000000
25.000000,-20348.402303,-18567.460009,-29130.357996,-26592.719745,-30843.552154,-1516.744675,-24498.361289,-9020.314696,0.030000,0.984000,0.094000,192.000000,0.000000,0.000000,0.000000,0.000000,0.000000,0.000000,0.000000,0.000000,0.000000,1647763612.269073,0.000000
26.000000,-20355.487806,-18576.937148,-29125.194743,-26595.670175,-30839.081805,-1511.022629,-24489.062964,-9013.720931,0.030000,0.984000,0.094000,192.000000,0.000000,0.000000,0.000000,0.000000,0.000000,0.000000,0.000000,0.000000,0.000000,1647763612.269089,0.000000
27.000000,-20372.743353,-18594.438564,-29134.515421,-26605.549646,-30848.670703,-1510.061504,-24496.148467,-9008.691789,0.030000,0.984000,0.094000,192.000000,0.000000,0.000000,0.000000,0.000000,0.000000,0.000000,0.000000,0.000000,0.000000,1647763612.276532,0.000000
28.000000,-20368.116542,-18590.929340,-29131.140307,-26603.917969,-30846.659046,-1507.066370,-24478.557644,-9004.891992,0.030000,0.984000,0.094000,192.000000,0.000000,0.000000,0.000000,0.000000,0.000000,0.000000,0.000000,0.000000,0.000000,1647763612.276550,0.000000
29.000000,-20363.534434,-18586.011956,-29125.395909,-26594.306719,-30840.087633,-1499.958515,-24461.033876,-8981.489716,0.030000,0.984000,0.094000,192.000000,0.000000,0.000000,0.000000,0.000000,0.000000,0.000000,0.000000,0.000000,0.000000,1647763612.283553,0.000000
30.000000,-20355.890138,-18578.255901,-29121.506705,-26585.500131,-30836.310188,-1501.232565,-24457.703466,-8981.467364,0.030000,0.984000,0.094000,192.000000,0.000000,0.000000,0.000000,0.000000,0.000000,0.000000,0.000000,0.000000,0.000000,1647763612.283570,0.000000
31.000000,-20353.409094,-18574.612567,-29118.891551,-26577.811131,-30833.426813,-1495.912849,-24453.300172,-8975.007710,0.030000,0.984000,0.094000,192.000000,0.000000,0.000000,0.000000,0.000000,0.000000,0.000000,0.000000,0.000000,0.000000,1647763612.290187,0.000000
32.000000,-20360.069914,-18581.653366,-29124.412432,-26578.280518,-30840.646427,-1499.332666,-24470.533367,-8985.848306,0.030000,0.984000,0.094000,192.000000,0.000000,0.000000,0.000000,0.000000,0.000000,0.000000,0.000000,0.000000,0.000000,1647763612.298116,0.000000
33.000000,-20359.354658,-18579.597006,-29124.814764,-26572.402009,-30837.070148,-1492.001294,-24479.295251,-8986.340044,0.030000,0.984000,0.094000,192.000000,0.000000,0.000000,0.000000,0.000000,0.000000,0.000000,0.000000,0.000000,0.000000,1647763612.298132,0.000000
34.000000,-20356.985373,-18576.847741,-29124.434784,-26571.306774,-30834.410290,-1483.172355,-24477.596519,-8984.328387,0.032000,0.984000,0.098000,192.000000,1.000000,0.000000,30.000000,192.000000,3.000000,16.000000,0.000000,0.000000,0.000000,1647763612.306225,0.000000
35.000000,-20357.611222,-18577.540645,-29127.876953,-26570.658573,-30837.003092,-1489.184974,-24477.305946,-8988.843440,0.032000,0.984000,0.098000,192.000000,0.000000,0.000000,0.000000,0.000000,0.000000,0.000000,0.000000,0.000000,0.000000,1647763612.306242,0.000000
36.000000,-20363.579138,-18585.207294,-29129.575685,-26576.760599,-30846.636694,-1496.829271,-24486.827789,-8997.270047,0.032000,0.984000,0.098000,192.000000,0.000000,0.000000,0.000000,0.000000,0.000000,0.000000,0.000000,0.000000,0.000000,1647763612.313301,0.000000
37.000000,-20368.049487,-18590.191733,-29136.974113,-26582.437942,-30855.443282,-1506.820501,-24486.760734,-8996.331274,0.032000,0.984000,0.098000,192.000000,0.000000,0.000000,0.000000,0.000000,0.000000,0.000000,0.000000,0.000000,0.000000,1647763612.313317,0.000000
38.000000,-20375.559673,-18595.757317,-29139.879839,-26587.332974,-30859.757168,-1508.116902,-24491.611062,-9016.045513,0.032000,0.984000,0.098000,192.000000,0.000000,0.000000,0.000000,0.000000,0.000000,0.000000,0.000000,0.000000,0.000000,1647763612.320682,0.000000
39.000000,-20375.157341,-18594.617378,-29136.817650,-26587.221216,-30858.550174,-1510.955573,-24488.615929,-9005.786062,0.032000,0.984000,0.098000,192.000000,0.000000,0.000000,0.000000,0.000000,0.000000,0.000000,0.000000,0.000000,0.000000,1647763612.320698,0.000000
40.000000,-20364.182635,-18583.553265,-29125.328854,-26578.191111,-30845.027369,-1507.267536,-24473.975536,-8971.051451,0.032000,0.984000,0.098000,192.000000,0.000000,0.000000,0.000000,0.000000,0.000000,0.000000,0.000000,0.000000,0.000000,1647763612.328629,0.000000
41.000000,-20350.168091,-18566.744753,-29114.376499,-26565.383561,-30832.800964,-1503.914774,-24467.493530,-8953.415925,0.032000,0.984000,0.098000,192.000000,0.000000,0.000000,0.000000,0.000000,0.000000,0.000000,0.000000,0.000000,0.000000,1647763612.328645,0.000000
42.000000,-20346.412998,-18564.554282,-29110.979034,-26564.645954,-30826.833049,-1493.565916,-24454.127187,-8951.158399,0.032000,0.984000,0.098000,192.000000,0.000000,0.000000,0.000000,0.000000,0.000000,0.000000,0.000000,0.000000,0.000000,1647763612.336718,0.000000
43.000000,-20348.514062,-18570.857474,-29115.359976,-26574.905404,-30832.756261,-1496.762216,-24451.310867,-8957.863922,0.032000,0.984000,0.098000,192.000000,0.000000,0.000000,0.000000,0.000000,0.000000,0.000000,0.000000,0.000000,0.000000,1647763612.336753,0.000000
44.000000,-20360.271080,-18585.430811,-29130.246238,-26595.446658,-30845.675569,-1506.775797,-24473.349687,-8983.434318,0.034000,0.982000,0.098000,192.000000,1.000000,16.000000,30.000000,176.000000,3.000000,16.000000,0.000000,0.000000,0.000000,1647763612.343337,0.000000
45.000000,-20357.991202,-18586.458991,-29130.313293,-26596.094858,-30848.447186,-1516.029419,-24469.639298,-8986.429451,0.034000,0.982000,0.098000,192.000000,0.000000,0.000000,0.000000,0.000000,0.000000,0.000000,0.000000,0.000000,0.000000,1647763612.343353,0.000000
46.000000,-20352.626783,-18582.167456,-29125.708833,-26592.317413,-30844.423872,-1523.763123,-24469.080504,-8983.501373,0.034000,0.982000,0.098000,192.000000,0.000000,0.000000,0.000000,0.000000,0.000000,0.000000,0.000000,0.000000,0.000000,1647763612.350462,0.000000
47.000000,-20354.213757,-18584.223817,-29128.212229,-26595.469009,-30846.793156,-1516.878786,-24471.740362,-8984.708367,0.034000,0.982000,0.098000,192.000000,0.000000,0.000000,0.000000,0.000000,0.000000,0.000000,0.000000,0.000000,0.000000,1647763612.358505,0.000000
48.000000,-20350.369257,-18581.452201,-29126.535848,-26589.858721,-30846.055549,-1513.928355,-24466.577109,-8974.493620,0.034000,0.982000,0.098000,192.000000,0.000000,0.000000,0.000000,0.000000,0.000000,0.000000,0.000000,0.000000,0.000000,1647763612.358521,0.000000
49.000000,-20352.850300,-18580.669890,-29131.252066,-26588.383506,-30843.641561,-1509.413303,-24476.255414,-8988.798736,0.034000,0.982000,0.098000,192.000000,0.000000,0.000000,0.000000,0.000000,0.000000,0.000000,0.000000,0.000000,0.000000,1647763612.366401,0.000000
50.000000,-20345.653039,-18571.930357,-29126.088813,-26581.476817,-30838.523011,-1509.100379,-24473.930833,-8990.139841,0.034000,0.982000,0.098000,192.000000,0.000000,0.000000,0.000000,0.000000,0.000000,0.000000,0.000000,0.000000,0.000000,1647763612.366417,0.000000
51.000000,-20335.147719,-18557.982869,-29112.454249,-26563.684829,-30826.497773,-1511.559071,-24464.431341,-8995.995998,0.034000,0.982000,0.098000,192.000000,0.000000,0.000000,0.000000,0.000000,0.000000,0.000000,0.000000,0.000000,0.000000,1647763612.373043,0.000000
52.000000,-20339.059274,-18558.765180,-29113.951816,-26559.773273,-30828.107098,-1520.991507,-24470.443960,-8995.727777,0.034000,0.982000,0.098000,192.000000,0.000000,0.000000,0.000000,0.000000,0.000000,0.000000,0.000000,0.000000,0.000000,1647763612.373059,0.000000
53.000000,-20348.290545,-18566.208311,-29119.562104,-26566.925832,-30834.387938,-1523.405495,-24470.600423,-8985.758899,0.034000,0.982000,0.098000,192.000000,0.000000,0.000000,0.000000,0.000000,0.000000,0.000000,0.000000,0.000000,0.000000,1647763612.380965,0.000000
54.000000,-20345.071893,-18563.503750,-29114.979996,-26563.193090,-30829.247037,-1525.908890,-24478.557644,-8986.563562,0.032000,0.984000,0.094000,192.000000,1.000000,0.000000,30.000000,192.000000,2.000000,240.000000,0.000000,0.000000,0.000000,1647763612.380982,0.000000
55.000000,-20339.841585,-18561.737962,-29114.220037,-26558.767445,-30826.631883,-1514.040114,-24463.425513,-8989.625751,0.032000,0.984000,0.094000,192.000000,0.000000,0.000000,0.000000,0.000000,0.000000,0.000000,0.000000,0.000000,0.000000,1647763612.389091,0.000000
56.000000,-20342.680257,-18562.989660,-29114.130630,-26559.952087,-30827.145973,-1504.987658,-24450.640315,-8990.899800,0.032000,0.984000,0.094000,192.000000,0.000000,0.000000,0.000000,0.000000,0.000000,0.000000,0.000000,0.000000,0.000000,1647763612.389107,0.000000
57.000000,-20351.419789,-18570.142218,-29127.228752,-26570.837387,-30838.835935,-1508.586289,-24457.144673,-8992.464422,0.032000,0.984000,0.094000,192.000000,0.000000,0.000000,0.000000,0.000000,0.000000,0.000000,0.000000,0.000000,0.000000,1647763612.395713,0.000000
58.000000,-20344.669562,-18562.319107,-29125.373557,-26564.645954,-30836.377244,-1507.982791,-24450.573260,-8992.620884,0.032000,0.984000,0.094000,192.000000,0.000000,0.000000,0.000000,0.000000,0.000000,0.000000,0.000000,0.000000,0.000000,1647763612.395729,0.000000
59.000000,-20338.321667,-18555.546529,-29119.763269,-26554.408855,-30827.213028,-1499.533832,-24441.721969,-8959.607358,0.032000,0.984000,0.094000,192.000000,0.000000,0.000000,0.000000,0.000000,0.000000,0.000000,0.000000,0.000000,0.000000,1647763612.403632,0.000000
60.000000,-20348.178786,-18567.549416,-29126.088813,-26566.031762,-30831.459860,-1500.562012,-24453.791911,-8962.088402,0.032000,0.984000,0.094000,192.000000,0.000000,0.000000,0.000000,0.000000,0.000000,0.000000,0.000000,0.000000,0.000000,1647763612.403649,0.000000
61.000000,-20346.971792,-18570.790418,-29124.658301,-26571.127960,-30831.526915,-1497.991562,-24445.655876,-8968.101021,0.032000,0.984000,0.094000,192.000000,0.000000,0.000000,0.000000,0.000000,0.000000,0.000000,0.000000,0.000000,0.000000,1647763612.410478,0.000000
62.000000,-20361.232205,-18587.129544,-29136.080043,-26585.924814,-30840.400558,-1487.106262,-24459.446902,-8979.969797,0.032000,0.984000,0.094000,192.000000,0.000000,0.000000,0.000000,0.000000,0.000000,0.000000,0.000000,0.000000,0.000000,1647763612.418573,0.000000
63.000000,-20366.775437,-18595.109116,-29140.930371,-26595.424306,-30851.017636,-1499.667942,-24473.841426,-8991.212725,0.032000,0.984000,0.094000,192.000000,0.000000,0.000000,0.000000,0.000000,0.000000,0.000000,0.000000,0.000000,0.000000,1647763612.418589,0.000000
64.000000,-20366.104885,-18593.432736,-29138.359921,-26597.033631,-30847.754281,-1505.233527,-24471.002754,-8986.317693,0.030000,0.988000,0.098000,192.000000,0.000000,240.000000,30.000000,224.000000,3.000000,16.000000,0.000000,0.000000,0.000000,1647763612.425391,0.000000
65.000000,-20371.514007,-18598.059547,-29141.064482,-26602.710975,-30848.626000,-1497.209251,-24470.399257,-8995.861887,0.030000,0.988000,0.098000,192.000000,0.000000,0.000000,0.000000,0.000000,0.000000,0.000000,0.000000,0.000000,0.000000,1647763612.425426,0.000000
66.000000,-20366.149588,-18594.147991,-29137.063520,-26595.983099,-30842.658084,-1487.799166,-24449.410969,-8988.329350,0.030000,0.988000,0.098000,192.000000,0.000000,0.000000,0.000000,0.000000,0.000000,0.000000,0.000000,0.000000,0.000000,1647763612.433331,0.000000
67.000000,-20365.166112,-18593.768012,-29135.700063,-26593.345594,-30839.439433,-1488.335608,-24460.385675,-8980.170963,0.030000,0.988000,0.098000,192.000000,0.000000,0.000000,0.000000,0.000000,0.000000,0.000000,0.000000,0.000000,0.000000,1647763612.433347,0.000000
68.000000,-20368.809446,-18599.177134,-29135.878877,-26597.413611,-30834.142069,-1482.792375,-24457.591707,-8987.904666,0.030000,0.988000,0.098000,192.000000,0.000000,0.000000,0.000000,0.000000,0.000000,0.000000,0.000000,0.000000,0.000000,1647763612.441281,0.000000
69.000000,-20371.245786,-18603.446317,-29137.912886,-26599.514675,-30833.471517,-1478.322027,-24460.720952,-8995.951294,0.030000,0.988000,0.098000,192.000000,0.000000,0.000000,0.000000,0.000000,0.000000,0.000000,0.000000,0.000000,0.000000,1647763612.441297,0.000000
70.000000,-20365.948423,-18598.461878,-29135.051863,-26595.714879,-30829.492906,-1478.389082,-24453.389579,-8988.843440,0.030000,0.988000,0.098000,192.000000,0.000000,0.000000,0.000000,0.000000,0.000000,0.000000,0.000000,0.000000,0.000000,1647763612.448294,0.000000
71.000000,-20376.096115,-18609.660102,-29145.579534,-26609.818829,-30840.020578,-1488.447367,-24463.671382,-9000.399292,0.030000,0.988000,0.098000,192.000000,0.000000,0.000000,0.000000,0.000000,0.000000,0.000000,0.000000,0.000000,0.000000,1647763612.448310,0.000000
72.000000,-20376.073763,-18609.861268,-29144.618409,-26610.623492,-30840.959351,-1495.063483,-24471.941527,-9001.516879,0.030000,0.988000,0.098000,192.000000,0.000000,0.000000,0.000000,0.000000,0.000000,0.000000,0.000000,0.000000,0.000000,1647763612.455999,0.000000
73.000000,-20369.189426,-18602.708710,-29138.494031,-26603.403879,-30832.689206,-1486.122785,-24466.957088,-9000.622809,0.030000,0.988000,0.098000,192.000000,0.000000,0.000000,0.000000,0.000000,0.000000,0.000000,0.000000,0.000000,0.000000,1647763612.456015,0.000000
74.000000,-20367.222472,-18600.652349,-29138.739900,-26602.666271,-30829.381148,-1477.673826,-24452.316696,-8996.845364,0.028000,0.986000,0.098000,192.000000,0.000000,224.000000,30.000000,208.000000,3.000000,16.000000,0.000000,0.000000,0.000000,1647763612.463941,0.000000
75.000000,-20373.480961,-18608.296646,-29145.959514,-26607.807172,-30834.320883,-1477.539715,-24456.094141,-8994.252562,0.028000,0.986000,0.098000,192.000000,0.000000,0.000000,0.000000,0.000000,0.000000,0.000000,0.000000,0.000000,0.000000,1647763612.463958,0.000000
76.000000,-20375.447914,-18610.487117,-29146.942991,-26609.997643,-30837.226610,-1479.618428,-24455.200071,-8986.272989,0.028000,0.986000,0.098000,192.000000,0.000000,0.000000,0.000000,0.000000,0.000000,0.000000,0.000000,0.000000,0.000000,1647763612.471053,0.000000
77.000000,-20376.677260,-18613.906934,-29145.311313,-26612.188114,-30836.980741,-1478.277323,-24455.200071,-8989.357530,0.028000,0.986000,0.098000,192.000000,0.000000,0.000000,0.000000,0.000000,0.000000,0.000000,0.000000,0.000000,0.000000,1647763612.478045,0.000000
78.000000,-20375.805542,-18608.967198,-29143.478470,-26611.674024,-30837.651293,-1480.288980,-24464.632507,-9003.126204,0.028000,0.986000,0.098000,192.000000,0.000000,0.000000,0.000000,0.000000,0.000000,0.000000,0.000000,0.000000,0.000000,1647763612.478062,0.000000
79.000000,-20370.396420,-18601.166439,-29136.482374,-26603.314472,-30831.124584,-1485.429881,-24465.258356,-9002.679169,0.028000,0.986000,0.098000,192.000000,0.000000,0.000000,0.000000,0.000000,0.000000,0.000000,0.000000,0.000000,0.000000,1647763612.485544,0.000000
80.000000,-20380.365298,-18610.889448,-29144.931334,-26608.053041,-30835.840802,-1485.876916,-24476.747152,-9022.326353,0.028000,0.986000,0.098000,192.000000,0.000000,0.000000,0.000000,0.000000,0.000000,0.000000,0.000000,0.000000,0.000000,1647763612.485560,0.000000
81.000000,-20398.850191,-18625.909820,-29166.880747,-26621.017053,-30852.984590,-1494.594096,-24502.071679,-9039.917176,0.028000,0.986000,0.098000,192.000000,0.000000,0.000000,0.000000,0.000000,0.000000,0.000000,0.000000,0.000000,0.000000,1647763612.493531,0.000000
82.000000,-20385.506199,-18610.844745,-29155.548412,-26604.029727,-30843.596857,-1499.489129,-24482.849179,-9015.978457,0.028000,0.986000,0.098000,192.000000,0.000000,0.000000,0.000000,0.000000,0.000000,0.000000,0.000000,0.000000,0.000000,1647763612.493547,0.000000
83.000000,-20369.792923,-18601.077032,-29137.242334,-26592.071544,-30830.677549,-1494.258820,-24468.454655,-9006.166042,0.028000,0.986000,0.098000,192.000000,0.000000,0.000000,0.000000,0.000000,0.000000,0.000000,0.000000,0.000000,0.000000,1647763612.501498,0.000000
84.000000,-20372.877463,-18605.860306,-29139.924543,-26598.821771,-30833.180944,-1498.975038,-24479.719934,-9019.241812,0.026000,0.982000,0.090000,192.000000,0.000000,208.000000,30.000000,176.000000,2.000000,208.000000,0.000000,0.000000,0.000000,1647763612.501514,0.000000
85.000000,-20377.839551,-18611.872925,-29143.590229,-26605.639053,-30839.327674,-1511.223794,-24503.189266,-9041.995888,0.026000,0.982000,0.090000,192.000000,0.000000,0.000000,0.000000,0.000000,0.000000,0.000000,0.000000,0.000000,0.000000,1647763612.508323,0.000000
86.000000,-20374.665603,-18609.950675,-29142.427938,-26605.549646,-30838.388901,-1507.356943,-24497.154295,-9026.014391,0.026000,0.982000,0.090000,192.000000,0.000000,0.000000,0.000000,0.000000,0.000000,0.000000,0.000000,0.000000,0.000000,1647763612.508358,0.000000
87.000000,-20375.157341,-18612.342311,-29144.126671,-26607.650710,-30840.020578,-1503.467739,-24492.706298,-9015.777292,0.026000,0.982000,0.090000,192.000000,0.000000,0.000000,0.000000,0.000000,0.000000,0.000000,0.000000,0.000000,0.000000,1647763612.516202,0.000000
88.000000,-20379.515932,-18618.354931,-29144.864278,-26611.428155,-30843.306284,-1497.365713,-24494.583844,-9016.850175,0.026000,0.982000,0.090000,192.000000,0.000000,0.000000,0.000000,0.000000,0.000000,0.000000,0.000000,0.000000,0.000000,1647763612.516218,0.000000
89.000000,-20375.447914,-18615.628018,-29142.226773,-26608.611835,-30840.266447,-1490.235506,-24477.596519,-8999.616981,0.026000,0.982000,0.090000,192.000000,0.000000,0.000000,0.000000,0.000000,0.000000,0.000000,0.000000,0.000000,0.000000,1647763612.524261,0.000000
90.000000,-20386.623786,-18627.005056,-29156.196613,-26619.161858,-30855.487985,-1505.859376,-24490.895807,-9020.135882,0.026000,0.982000,0.090000,192.000000,0.000000,0.000000,0.000000,0.000000,0.000000,0.000000,0.000000,0.000000,0.000000,1647763612.524277,0.000000
91.000000,-20372.877463,-18612.208201,-29143.053787,-26600.587559,-30841.361683,-1503.803015,-24476.478931,-9000.466347,0.026000,0.982000,0.090000,192.000000,0.000000,0.000000,0.000000,0.000000,0.000000,0.000000,0.000000,0.000000,0.000000,1647763612.530507,0.000000
92.000000,-20374.978527,-18613.772823,-29145.177203,-26601.526332,-30836.533706,-1488.827346,-24470.779237,-8993.872582,0.026000,0.982000,0.090000,192.000000,0.000000,0.000000,0.000000,0.000000,0.000000,0.000000,0.000000,0.000000,0.000000,1647763612.530523,0.000000
93.000000,-20373.100981,-18614.063396,-29144.573706,-26603.225065,-30838.612418,-1489.587306,-24471.606251,-9002.254486,0.026000,0.982000,0.090000,192.000000,0.000000,0.000000,0.000000,0.000000,0.000000,0.000000,0.000000,0.000000,0.000000,1647763612.537961,0.000000
94.000000,-20375.224397,-18615.583314,-29143.344360,-26607.427193,-30839.439433,-1490.235506,-24479.205844,-9005.562545,0.028000,0.982000,0.098000,192.000000,0.000000,224.000000,30.000000,176.000000,3.000000,16.000000,0.000000,0.000000,0.000000,1647763612.545988,0.000000
95.000000,-20377.057240,-18618.153765,-29142.964380,-26607.941283,-30839.595895,-1492.716550,-24478.937623,-9004.467309,0.028000,0.982000,0.098000,192.000000,0.000000,0.000000,0.000000,0.000000,0.000000,0.000000,0.000000,0.000000,0.000000,1647763612.546004,0.000000
96.000000,-20372.698649,-18617.907896,-29139.343398,-26606.913102,-30838.567715,-1501.791358,-24477.484760,-9010.368170,0.028000,0.982000,0.098000,192.000000,0.000000,0.000000,0.000000,0.000000,0.000000,0.000000,0.000000,0.000000,0.000000,1647763612.553988,0.000000
97.000000,-20372.855112,-18618.913724,-29139.253991,-26610.087050,-30840.512316,-1500.763178,-24483.966766,-9025.813225,0.028000,0.982000,0.098000,192.000000,0.000000,0.000000,0.000000,0.000000,0.000000,0.000000,0.000000,0.000000,0.000000,1647763612.554004,0.000000
98.000000,-20380.052373,-18625.194564,-29144.908982,-26614.400937,-30847.284895,-1503.937126,-24487.163065,-9022.192242,0.028000,0.982000,0.098000,192.000000,0.000000,0.000000,0.000000,0.000000,0.000000,0.000000,0.000000,0.000000,0.000000,1647763612.560572,0.000000
99.000000,-20376.096115,-18616.589143,-29144.260781,-26610.511733,-30841.965180,-1489.877878,-24470.376905,-9011.597516,0.028000,0.982000,0.098000,192.000000,0.000000,0.000000,0.000000,0.000000,0.000000,0.000000,0.000000,0.000000,0.000000,1647763612.560588,0.000000
100.000000,-20381.371126,-18619.919553,-29152.240354,-26616.390242,-30846.994322,-1497.991562,-24472.388562,-9022.907498,0.028000,0.982000,0.098000,192.000000,0.000000,0.000000,0.000000,0.000000,0.000000,0.000000,0.000000,0.000000,0.000000,1647763612.568352,0.000000
101.000000,-20376.341984,-18616.924419,-29150.720435,-26611.674024,-30845.072072,-1500.114977,-24474.310812,-9015.039684,0.028000,0.982000,0.098000,192.000000,0.000000,0.000000,0.000000,0.000000,0.000000,0.000000,0.000000,0.000000,0.000000,1647763612.568369,0.000000
102.000000,-20373.525664,-18614.935114,-29146.272438,-26608.544780,-30839.528840,-1492.045998,-24469.281670,-9008.200050,0.028000,0.982000,0.098000,192.000000,0.000000,0.000000,0.000000,0.000000,0.000000,0.000000,0.000000,0.000000,0.000000,1647763612.576575,0.000000
103.000000,-20380.678222,-18624.389902,-29144.908982,-26615.764393,-30836.399595,-1477.606771,-24465.727742,-8996.510088,0.028000,0.982000,0.098000,192.000000,0.000000,0.000000,0.000000,0.000000,0.000000,0.000000,0.000000,0.000000,0.000000,1647763612.576591,0.000000
104.000000,-20380.968795,-18626.736835,-29145.870107,-26618.401899,-30837.740700,-1487.218021,-24475.540158,-9005.160213,0.022000,0.986000,0.094000,192.000000,0.000000,176.000000,30.000000,208.000000,2.000000,240.000000,0.000000,0.000000,0.000000,1647763612.583676,0.000000
105.000000,-20384.165094,-18630.111948,-29149.066406,-26621.531143,-30839.864116,-1483.105300,-24473.774370,-9005.987228,0.022000,0.986000,0.094000,192.000000,0.000000,0.000000,0.000000,0.000000,0.000000,0.000000,0.000000,0.000000,0.000000,1647763612.583692,0.000000
106.000000,-20380.052373,-18625.060454,-29144.998389,-26615.272655,-30836.511354,-1470.320102,-24454.730684,-9011.508109,0.022000,0.986000,0.094000,192.000000,0.000000,0.000000,0.000000,0.000000,0.000000,0.000000,0.000000,0.000000,0.000000,1647763612.591199,0.000000
107.000000,-20377.660737,-18622.735873,-29142.562049,-26607.226027,-30835.259656,-1471.303579,-24448.941582,-9010.010542,0.022000,0.986000,0.094000,192.000000,0.000000,0.000000,0.000000,0.000000,0.000000,0.000000,0.000000,0.000000,0.000000,1647763612.591234,0.000000
108.000000,-20371.402248,-18615.292742,-29138.717549,-26596.184265,-30827.391842,-1476.824460,-24460.676248,-9013.251545,0.022000,0.986000,0.094000,192.000000,0.000000,0.000000,0.000000,0.000000,0.000000,0.000000,0.000000,0.000000,0.000000,1647763612.598186,0.000000
109.000000,-20387.339042,-18630.402521,-29152.083892,-26609.617664,-30834.857325,-1476.109204,-24468.879338,-9014.324428,0.022000,0.986000,0.094000,192.000000,0.000000,0.000000,0.000000,0.000000,0.000000,0.000000,0.000000,0.000000,0.000000,1647763612.609171,0.000000
110.000000,-20392.904626,-18637.353913,-29157.984752,-26614.892675,-30842.702787,-1487.419187,-24479.205844,-8997.694730,0.022000,0.986000,0.094000,192.000000,0.000000,0.000000,0.000000,0.000000,0.000000,0.000000,0.000000,0.000000,0.000000,1647763612.609187,0.000000
111.000000,-20390.401231,-18635.297553,-29158.342380,-26612.143411,-30843.798023,-1488.313256,-24475.249586,-8985.423623,0.022000,0.986000,0.094000,192.000000,0.000000,0.000000,0.000000,0.000000,0.000000,0.000000,0.000000,0.000000,0.000000,1647763612.615461,0.000000
112.000000,-20385.148571,-18627.474442,-29153.246183,-26602.867437,-30840.512316,-1490.794300,-24478.870568,-8997.091233,0.022000,0.986000,0.094000,192.000000,0.000000,0.000000,0.000000,0.000000,0.000000,0.000000,0.000000,0.000000,0.000000,1647763612.615477,0.000000
113.000000,-20397.151458,-18640.103178,-29164.064427,-26616.256132,-30854.817433,-1503.199518,-24494.963824,-9010.792853,0.022000,0.986000,0.094000,192.000000,0.000000,0.000000,0.000000,0.000000,0.000000,0.000000,0.000000,0.000000,0.000000,1647763612.621574,0.000000
114.000000,-20390.065955,-18636.750416,-29155.883688,-26616.703167,-30853.878659,-1515.068294,-24494.203865,-9010.211707,0.022000,0.986000,0.094000,192.000000,0.000000,0.000000,0.000000,0.000000,0.000000,0.000000,0.000000,0.000000,0.000000,1647763612.621590,0.000000
115.000000,-20393.731641,-18641.488986,-29158.208270,-26623.498097,-30854.660971,-1513.414265,-24495.343804,-9014.860870,0.026000,0.980000,0.088000,192.000000,0.000000,208.000000,30.000000,160.000000,2.000000,192.000000,0.000000,0.000000,0.000000,1647763612.628922,0.000000
116.000000,-20393.888103,-18641.220765,-29159.012933,-26626.202658,-30856.516165,-1515.358867,-24494.181513,-9012.536289,0.026000,0.980000,0.088000,192.000000,0.000000,0.000000,0.000000,0.000000,0.000000,0.000000,0.000000,0.000000,0.000000,1647763612.628938,0.000000
117.000000,-20395.452725,-18640.594916,-29159.392912,-26625.062719,-30859.310133,-1521.863225,-24499.143600,-9030.976478,0.026000,0.980000,0.088000,192.000000,0.000000,0.000000,0.000000,0.000000,0.000000,0.000000,0.000000,0.000000,0.000000,1647763612.636908,0.000000
118.000000,-20391.094135,-18635.833995,-29155.660171,-26620.100632,-30856.046779,-1521.907928,-24488.995908,-9027.511958,0.026000,0.980000,0.088000,192.000000,0.000000,0.000000,0.000000,0.000000,0.000000,0.000000,0.000000,0.000000,0.000000,1647763612.636924,0.000000
119.000000,-20392.435240,-18637.443320,-29161.113997,-26622.514620,-30857.007904,-1520.209196,-24492.840408,-9021.029952,0.026000,0.980000,0.088000,192.000000,0.000000,0.000000,0.000000,0.000000,0.000000,0.000000,0.000000,0.000000,0.000000,1647763612.643498,0.000000
120.000000,-20396.346795,-18639.902012,-29164.086779,-26624.526277,-30860.584183,-1525.484207,-24495.880246,-9019.241812,0.026000,0.980000,0.088000,192.000000,0.000000,0.000000,0.000000,0.000000,0.000000,0.000000,0.000000,0.000000,0.000000,1647763612.643514,0.000000
121.000000,-20370.597586,-18609.995378,-29142.092662,-26597.212445,-30838.500659,-1510.061504,-24476.210711,-8991.168021,0.026000,0.980000,0.088000,192.000000,0.000000,0.000000,0.000000,0.000000,0.000000,0.000000,0.000000,0.000000,0.000000,1647763612.651422,0.000000
122.000000,-20375.827894,-18611.470593,-29149.513441,-26600.542855,-30845.116776,-1507.446350,-24473.662612,-8995.258390,0.026000,0.980000,0.088000,192.000000,0.000000,0.000000,0.000000,0.000000,0.000000,0.000000,0.000000,0.000000,0.000000,1647763612.651438,0.000000
123.000000,-20380.007670,-18618.131413,-29151.972133,-26605.214370,-30848.044854,-1501.232565,-24471.226272,-9008.535327,0.026000,0.980000,0.088000,192.000000,0.000000,0.000000,0.000000,0.000000,0.000000,0.000000,0.000000,0.000000,0.000000,1647763612.658537,0.000000
124.000000,-20375.559673,-18611.604704,-29145.847755,-26600.364041,-30842.188697,-1496.158719,-24474.109647,-9005.853117,0.026000,0.980000,0.088000,192.000000,0.000000,0.000000,0.000000,0.000000,0.000000,0.000000,0.000000,0.000000,0.000000,1647763612.665904,0.000000
125.000000,-20370.709344,-18603.602779,-29140.259819,-26591.691565,-30838.232438,-1494.638800,-24475.316641,-9003.595591,0.030000,0.984000,0.086000,192.000000,0.000000,240.000000,30.000000,192.000000,2.000000,176.000000,0.000000,0.000000,0.000000,1647763612.665921,0.000000
126.000000,-20378.308937,-18614.331617,-29145.378369,-26596.631300,-30843.865078,-1495.331704,-24477.730629,-9017.028989,0.030000,0.984000,0.086000,192.000000,0.000000,0.000000,0.000000,0.000000,0.000000,0.000000,0.000000,0.000000,0.000000,1647763612.673641,0.000000
127.000000,-20385.327385,-18626.222745,-29155.034322,-26609.483553,-30856.247944,-1510.441483,-24493.130981,-9043.471103,0.030000,0.984000,0.086000,192.000000,0.000000,0.000000,0.000000,0.000000,0.000000,0.000000,0.000000,0.000000,0.000000,1647763612.673658,0.000000
128.000000,-20378.443048,-18620.545402,-29146.630066,-26601.906312,-30850.592953,-1506.708742,-24471.896824,-9028.674248,0.030000,0.984000,0.086000,192.000000,0.000000,0.000000,0.000000,0.000000,0.000000,0.000000,0.000000,0.000000,0.000000,1647763612.689445,0.000000
129.000000,-20376.274929,-18614.957466,-29145.378369,-26596.698355,-30846.435529,-1502.461911,-24465.638335,-8992.531478,0.030000,0.984000,0.086000,192.000000,0.000000,0.000000,0.000000,0.000000,0.000000,0.000000,0.000000,0.000000,0.000000,1647763612.696154,0.000000
130.000000,-20374.464437,-18611.336483,-29144.417244,-26595.424306,-30847.463709,-1505.904079,-24464.230176,-8973.867771,0.030000,0.984000,0.086000,192.000000,0.000000,0.000000,0.000000,0.000000,0.000000,0.000000,0.000000,0.000000,0.000000,1647763612.696170,0.000000
131.000000,-20375.939652,-18610.978855,-29148.954648,-26600.296986,-30851.062340,-1499.243259,-24469.192263,-8976.795849,0.030000,0.984000,0.086000,192.000000,0.000000,0.000000,0.000000,0.000000,0.000000,0.000000,0.000000,0.000000,0.000000,1647763612.702355,0.000000
132.000000,-20376.364336,-18615.136279,-29154.855508,-26606.197847,-30858.684285,-1501.925469,-24477.440056,-8990.788041,0.030000,0.984000,0.086000,192.000000,0.000000,0.000000,0.000000,0.000000,0.000000,0.000000,0.000000,0.000000,0.000000,1647763612.702371,0.000000
133.000000,-20368.943556,-18609.995378,-29139.075177,-26593.323242,-30845.653218,-1496.941030,-24471.069809,-8988.798736,0.030000,0.984000,0.086000,192.000000,0.000000,0.000000,0.000000,0.000000,0.000000,0.000000,0.000000,0.000000,0.000000,1647763612.708684,0.000000
134.000000,-20373.279795,-18609.436585,-29136.974113,-26589.791666,-30840.691130,-1487.083910,-24467.918213,-8977.466402,0.030000,0.984000,0.086000,192.000000,0.000000,0.000000,0.000000,0.000000,0.000000,0.000000,0.000000,0.000000,0.000000,1647763612.708700,0.000000
135.000000,-20372.855112,-18613.594009,-29136.594133,-26594.418477,-30847.463709,-1500.517309,-24478.200016,-8987.256466,0.030000,0.982000,0.090000,192.000000,0.000000,240.000000,30.000000,176.000000,2.000000,208.000000,0.000000,0.000000,0.000000,1647763612.714666,0.000000
136.000000,-20366.954251,-18614.666893,-29131.855563,-26589.590501,-30845.809680,-1508.295716,-24471.852120,-8987.055300,0.030000,0.982000,0.090000,192.000000,0.000000,0.000000,0.000000,0.000000,0.000000,0.000000,0.000000,0.000000,0.000000,1647763612.714682,0.000000
137.000000,-20368.518873,-18615.896239,-29135.163621,-26587.288271,-30847.173136,-1503.154815,-24465.504225,-8983.411966,0.030000,0.982000,0.090000,192.000000,0.000000,0.000000,0.000000,0.000000,0.000000,0.000000,0.000000,0.000000,0.000000,1647763612.720991,0.000000
138.000000,-20368.161245,-18615.382149,-29132.794336,-26583.756695,-30846.815508,-1503.423036,-24471.740362,-8986.161230,0.030000,0.982000,0.090000,192.000000,0.000000,0.000000,0.000000,0.000000,0.000000,0.000000,0.000000,0.000000,0.000000,1647763612.727048,0.000000
139.000000,-20370.128199,-18615.650370,-29132.347302,-26588.897596,-30843.239229,-1500.852585,-24475.942490,-8987.278818,0.030000,0.982000,0.090000,192.000000,0.000000,0.000000,0.000000,0.000000,0.000000,0.000000,0.000000,0.000000,0.000000,1647763612.727064,0.000000
140.000000,-20373.369202,-18618.913724,-29131.877915,-26595.089030,-30847.463709,-1506.172300,-24471.248623,-8980.796812,0.030000,0.982000,0.090000,192.000000,0.000000,0.000000,0.000000,0.000000,0.000000,0.000000,0.000000,0.000000,0.000000,1647763612.733176,0.000000
141.000000,-20375.336155,-18619.606628,-29134.537772,-26595.759582,-30852.448148,-1509.368600,-24475.964841,-8984.842477,0.030000,0.982000,0.090000,192.000000,0.000000,0.000000,0.000000,0.000000,0.000000,0.000000,0.000000,0.000000,0.000000,1647763612.733192,0.000000
142.000000,-20378.465400,-18624.322846,-29139.611618,-26602.755678,-30857.946677,-1512.833120,-24486.559568,-8993.693768,0.030000,0.982000,0.090000,192.000000,0.000000,0.000000,0.000000,0.000000,0.000000,0.000000,0.000000,0.000000,0.000000,1647763612.739372,0.000000
143.000000,-20381.974623,-18628.815547,-29142.494994,-26605.102611,-30859.734817,-1510.173262,-24486.917196,-8996.890068,0.030000,0.982000,0.090000,192.000000,0.000000,0.000000,0.000000,0.000000,0.000000,0.000000,0.000000,0.000000,0.000000,1647763612.739388,0.000000
144.000000,-20372.408077,-18616.700902,-29131.766156,-26594.686698,-30850.011808,-1505.971134,-24480.077562,-9010.748149,0.030000,0.982000,0.090000,192.000000,0.000000,0.000000,0.000000,0.000000,0.000000,0.000000,0.000000,0.000000,0.000000,1647763612.745535,0.000000
145.000000,-20366.529568,-18609.883620,-29126.044110,-26590.573977,-30849.140090,-1514.420094,-24482.580958,-9003.148556,0.034000,0.986000,0.090000,192.000000,1.000000,16.000000,30.000000,208.000000,2.000000,208.000000,0.000000,0.000000,0.000000,1647763612.745551,0.000000
146.000000,-20360.807521,-18604.519201,-29120.679691,-26583.823750,-30844.647389,-1523.964289,-24484.302042,-8997.448861,0.034000,0.986000,0.090000,192.000000,0.000000,0.000000,0.000000,0.000000,0.000000,0.000000,0.000000,0.000000,0.000000,1647763612.753071,0.000000
147.000000,-20362.305088,-18605.100346,-29123.250142,-26586.327146,-30842.211049,-1509.435655,-24462.352629,-8990.184544,0.034000,0.986000,0.090000,192.000000,0.000000,0.000000,0.000000,0.000000,0.000000,0.000000,0.000000,0.000000,0.000000,1647763612.753087,0.000000
148.000000,-20370.552882,-18616.075053,-29135.029511,-26597.882998,-30853.856308,-1506.485225,-24473.595556,-8988.664626,0.034000,0.986000,0.090000,192.000000,0.000000,0.000000,0.000000,0.000000,0.000000,0.000000,0.000000,0.000000,0.000000,1647763612.761111,0.000000
149.000000,-20370.284661,-18614.063396,-29136.638836,-26596.385431,-30855.018598,-1509.748579,-24483.184455,-8980.305073,0.034000,0.986000,0.090000,192.000000,0.000000,0.000000,0.000000,0.000000,0.000000,0.000000,0.000000,0.000000,0.000000,1647763612.761127,0.000000
150.000000,-20363.914414,-18603.535724,-29131.408528,-26587.735306,-30850.928229,-1526.422981,-24484.480856,-8991.235076,0.034000,0.986000,0.090000,192.000000,0.000000,0.000000,0.000000,0.000000,0.000000,0.000000,0.000000,0.000000,0.000000,1647763612.769120,0.000000
151.000000,-20358.326478,-18597.254884,-29127.765194,-26582.952032,-30847.374302,-1521.393838,-24475.584862,-8995.034873,0.034000,0.986000,0.090000,192.000000,0.000000,0.000000,0.000000,0.000000,0.000000,0.000000,0.000000,0.000000,0.000000,1647763612.769136,0.000000
152.000000,-20361.075742,-18599.646521,-29130.514458,-26586.640070,-30850.145918,-1515.269460,-24470.287498,-8993.157326,0.034000,0.986000,0.090000,192.000000,0.000000,0.000000,0.000000,0.000000,0.000000,0.000000,0.000000,0.000000,0.000000,1647763612.776230,0.000000
153.000000,-20371.715173,-18614.108099,-29142.673807,-26597.927701,-30858.840747,-1517.839911,-24469.035801,-8979.120431,0.034000,0.986000,0.090000,192.000000,0.000000,0.000000,0.000000,0.000000,0.000000,0.000000,0.000000,0.000000,0.000000,1647763612.782448,0.000000
