%OpenBCI Raw EEG Data
%Number of channels = 8
%Sample Rate = 256 Hz
%Board = OpenBCI_GUI$BoardCytonSerial
%Channels = Fp1, Fp2, F3, F4, Fz, Pz, O1, O2
%Data recorded at AIMS Lab (http://aimsl.uiu.ac.bd) by Rana Depto (mail@ranadepto.com)
%Brainwaves were obtained via the Ultracortex Mark IV Headset using the OpenBCI Cyton Board
%Recording Application = ConcentrateToday (https://concentrate.today)
%Data type = RAW data with noise
%Day No = 8
%Subject ID = 2
%Session ID = 7
%Record starting timestamp (UTC+6) = 2022-03-16T12:53:32.183791
%Record ending timestamp (UTC+6)   = 2022-03-16T12:53:58.033359
%Recorded durations = ~25 seconds
Sample Index, EXG Channel 0, EXG Channel 1, EXG Channel 2, EXG Channel 3, EXG Channel 4, EXG Channel 5, EXG Channel 6, EXG Channel 7, Accel Channel 0, Accel Channel 1, Accel Channel 2, Other, Other, Other, Other, Other, Other, Other, Analog Channel 0, Analog Channel 1, Analog Channel 2, Timestamp, Timestamp (Formatted)
219.000000,44554.313368,34493.860244,32550.979561,6998.107672,36410.544683,43972.095129,27649.420816,23331.622580,-0.044000,0.970000,0.182000,192.000000,0.000000,0.000000,0.000000,0.000000,0.000000,0.000000,0.000000,0.000000,0.000000,1647413612.187638,0.000000
220.000000,44551.854676,34490.552186,32549.593753,6995.850145,36404.085029,43975.246725,27658.808548,23340.116243,-0.044000,0.970000,0.182000,192.000000,0.000000,0.000000,0.000000,0.000000,0.000000,0.000000,0.000000,0.000000,0.000000,1647413612.187647,0.000000
221.000000,44554.134554,34490.060447,32549.660808,6993.838488,36404.643822,43980.722902,27657.243926,23356.969459,-0.044000,0.970000,0.182000,192.000000,0.000000,0.000000,0.000000,0.000000,0.000000,0.000000,0.000000,0.000000,0.000000,1647413612.194068,0.000000
222.000000,44548.121935,34482.773779,32543.648189,6987.870573,36403.839159,43980.208812,27659.121473,23355.091912,-0.044000,0.970000,0.182000,192.000000,0.000000,0.000000,0.000000,0.000000,0.000000,0.000000,0.000000,0.000000,0.000000,1647413612.194074,0.000000
223.000000,44547.876066,34484.517215,32544.318741,6989.256381,36405.716706,43979.985294,27655.992229,23352.320296,-0.042000,0.968000,0.180000,192.000000,254.000000,176.000000,30.000000,64.000000,5.000000,160.000000,0.000000,0.000000,0.000000,1647413612.202167,0.000000
224.000000,44550.133592,34486.126540,32545.257514,6991.022169,36401.492226,43978.800652,27651.991266,23350.889784,-0.042000,0.968000,0.180000,192.000000,0.000000,0.000000,0.000000,0.000000,0.000000,0.000000,0.000000,0.000000,0.000000,1647413612.202171,0.000000
225.000000,44556.325025,34493.323802,32549.146718,6998.040616,36400.396991,43982.734559,27655.165214,23353.817863,-0.042000,0.968000,0.180000,192.000000,0.000000,0.000000,0.000000,0.000000,0.000000,0.000000,0.000000,0.000000,0.000000,1647413612.209161,0.000000
226.000000,44556.436784,34492.161511,32550.085491,6996.721863,36403.459180,43980.208812,27651.320714,23352.052075,-0.042000,0.968000,0.180000,192.000000,0.000000,0.000000,0.000000,0.000000,0.000000,0.000000,0.000000,0.000000,0.000000,1647413612.209165,0.000000
227.000000,44553.128726,34486.752389,32546.643322,6991.648017,36401.782799,43974.889097,27648.191470,23343.960743,-0.042000,0.968000,0.180000,192.000000,0.000000,0.000000,0.000000,0.000000,0.000000,0.000000,0.000000,0.000000,0.000000,1647413612.217257,0.000000
228.000000,44554.089851,34486.975907,32545.123404,6988.563477,36396.865415,43974.062082,27648.906726,23342.329066,-0.042000,0.968000,0.180000,192.000000,0.000000,0.000000,0.000000,0.000000,0.000000,0.000000,0.000000,0.000000,0.000000,1647413612.223666,0.000000
229.000000,44557.196743,34489.926337,32545.481032,6992.385625,36394.965517,43975.023207,27651.879508,23349.034589,-0.042000,0.968000,0.180000,192.000000,0.000000,0.000000,0.000000,0.000000,0.000000,0.000000,0.000000,0.000000,0.000000,1647413612.223670,0.000000
230.000000,44552.704043,34484.606622,32545.212811,6986.104785,36390.137540,43968.474146,27638.647275,23341.345589,-0.042000,0.968000,0.180000,192.000000,0.000000,0.000000,0.000000,0.000000,0.000000,0.000000,0.000000,0.000000,0.000000,1647413612.231786,0.000000
231.000000,44554.179258,34487.869977,32543.871706,6984.696625,36388.438808,43968.630608,27633.349911,23339.579802,-0.042000,0.968000,0.180000,192.000000,0.000000,0.000000,0.000000,0.000000,0.000000,0.000000,0.000000,0.000000,0.000000,1647413612.231791,0.000000
232.000000,44557.174391,34491.155683,32541.144793,6988.138793,36392.685639,43973.100957,27645.464557,23347.492319,-0.042000,0.968000,0.180000,192.000000,0.000000,0.000000,0.000000,0.000000,0.000000,0.000000,0.000000,0.000000,0.000000,1647413612.239781,0.000000
233.000000,44557.621426,34491.714477,32542.329436,6991.357445,36393.959688,43972.609219,27627.002016,23352.968496,-0.042000,0.972000,0.174000,192.000000,254.000000,176.000000,30.000000,96.000000,5.000000,112.000000,0.000000,0.000000,0.000000,1647413612.239786,0.000000
234.000000,44551.050013,34484.248994,32537.657921,6984.540163,36388.774084,43970.977541,27642.491775,23344.184261,-0.042000,0.972000,0.174000,192.000000,0.000000,0.000000,0.000000,0.000000,0.000000,0.000000,0.000000,0.000000,0.000000,1647413612.246685,0.000000
235.000000,44554.089851,34485.388933,32541.435366,6985.054253,36390.159892,43970.642265,27652.706522,23327.643970,-0.042000,0.972000,0.174000,192.000000,0.000000,0.000000,0.000000,0.000000,0.000000,0.000000,0.000000,0.000000,0.000000,1647413612.246695,0.000000
236.000000,44556.213266,34489.099322,32541.703587,6984.942494,36391.880976,43966.596599,27652.080673,23308.801449,-0.042000,0.972000,0.174000,192.000000,0.000000,0.000000,0.000000,0.000000,0.000000,0.000000,0.000000,0.000000,0.000000,1647413612.254423,0.000000
237.000000,44565.668054,34500.990451,32552.432424,6996.967733,36401.693392,43983.114539,27666.519900,23358.198805,-0.042000,0.972000,0.174000,192.000000,0.000000,0.000000,0.000000,0.000000,0.000000,0.000000,0.000000,0.000000,0.000000,1647413612.254427,0.000000
238.000000,44568.462022,34502.800942,32555.874593,7002.354503,36405.314375,43984.947382,27661.446054,23363.630279,-0.042000,0.972000,0.174000,192.000000,0.000000,0.000000,0.000000,0.000000,0.000000,0.000000,0.000000,0.000000,0.000000,1647413612.262457,0.000000
239.000000,44569.020816,34501.839817,32554.511136,7002.399206,36399.726438,43981.304047,27662.317772,23346.374732,-0.042000,0.972000,0.174000,192.000000,0.000000,0.000000,0.000000,0.000000,0.000000,0.000000,0.000000,0.000000,0.000000,1647413612.262461,0.000000
240.000000,44565.221019,34497.771799,32552.655942,6996.967733,36397.379505,43981.236992,27663.189490,23344.161909,-0.042000,0.972000,0.174000,192.000000,0.000000,0.000000,0.000000,0.000000,0.000000,0.000000,0.000000,0.000000,0.000000,1647413612.270321,0.000000
241.000000,44555.542714,34491.110979,32547.582096,6990.910410,36395.613718,43978.644190,27651.074845,23357.327087,-0.042000,0.972000,0.174000,192.000000,0.000000,0.000000,0.000000,0.000000,0.000000,0.000000,0.000000,0.000000,0.000000,1647413612.270324,0.000000
242.000000,44559.118993,34496.698916,32556.612200,6996.453642,36402.140427,43981.527565,27652.103025,23354.488415,-0.042000,0.972000,0.174000,192.000000,0.000000,0.000000,0.000000,0.000000,0.000000,0.000000,0.000000,0.000000,0.000000,1647413612.276609,0.000000
243.000000,44559.454269,34494.731962,32551.359540,6994.553744,36398.564148,43981.773434,27660.551984,23352.633220,-0.044000,0.962000,0.176000,192.000000,254.000000,160.000000,30.000000,16.000000,5.000000,128.000000,0.000000,0.000000,0.000000,1647413612.284126,0.000000
244.000000,44565.757461,34499.448180,32554.131157,7003.203869,36401.961613,43987.830757,27661.378999,23358.601136,-0.044000,0.962000,0.176000,192.000000,0.000000,0.000000,0.000000,0.000000,0.000000,0.000000,0.000000,0.000000,0.000000,1647413612.284129,0.000000
245.000000,44576.665113,34502.599776,32552.298314,7005.640209,36408.041287,43990.043579,27660.686095,23359.428151,-0.044000,0.962000,0.176000,192.000000,0.000000,0.000000,0.000000,0.000000,0.000000,0.000000,0.000000,0.000000,0.000000,1647413612.292119,0.000000
246.000000,44581.537793,34502.733887,32545.235162,7004.120291,36416.870226,43990.490614,27659.568508,23357.975287,-0.044000,0.962000,0.176000,192.000000,0.000000,0.000000,0.000000,0.000000,0.000000,0.000000,0.000000,0.000000,0.000000,1647413612.292122,0.000000
247.000000,44570.965418,34503.873826,32552.812404,7003.405035,36415.216197,43988.411902,27660.015543,23356.209499,-0.044000,0.962000,0.176000,192.000000,0.000000,0.000000,0.000000,0.000000,0.000000,0.000000,0.000000,0.000000,0.000000,1647413612.299119,0.000000
248.000000,44565.869220,34504.387916,32553.393549,7007.629515,36419.910064,43987.361370,27651.343066,23353.348476,-0.044000,0.962000,0.176000,192.000000,0.000000,0.000000,0.000000,0.000000,0.000000,0.000000,0.000000,0.000000,0.000000,1647413612.299122,0.000000
249.000000,44578.810880,34516.413154,32559.473224,7015.497329,36426.392070,43993.105768,27640.569525,23359.942241,-0.044000,0.962000,0.176000,192.000000,0.000000,0.000000,0.000000,0.000000,0.000000,0.000000,0.000000,0.000000,0.000000,1647413612.306695,0.000000
250.000000,44577.447424,34515.094401,32560.032017,7010.937573,36425.766221,43990.624725,27626.778499,23358.064694,-0.044000,0.962000,0.176000,192.000000,0.000000,0.000000,0.000000,0.000000,0.000000,0.000000,0.000000,0.000000,0.000000,1647413612.306698,0.000000
251.000000,44570.719549,34505.930186,32554.913468,7002.578020,36421.586445,43983.695684,27650.516051,23343.312543,-0.044000,0.962000,0.176000,192.000000,0.000000,0.000000,0.000000,0.000000,0.000000,0.000000,0.000000,0.000000,0.000000,1647413612.314682,0.000000
252.000000,44568.842002,34502.756238,32554.309971,7002.153337,36420.804134,43984.612105,27662.206013,23340.004485,-0.044000,0.962000,0.176000,192.000000,0.000000,0.000000,0.000000,0.000000,0.000000,0.000000,0.000000,0.000000,0.000000,1647413612.314687,0.000000
253.000000,44565.064557,34499.135256,32547.805613,6999.381721,36422.078183,43978.487727,27641.530650,23340.652685,-0.044000,0.968000,0.176000,192.000000,254.000000,160.000000,30.000000,64.000000,5.000000,128.000000,0.000000,0.000000,0.000000,1647413612.322598,0.000000
254.000000,44566.495069,34501.169264,32548.543221,6998.465299,36417.987814,43973.168012,27621.637597,23338.596325,-0.044000,0.968000,0.176000,192.000000,0.000000,0.000000,0.000000,0.000000,0.000000,0.000000,0.000000,0.000000,0.000000,1647413612.322602,0.000000
255.000000,44565.779813,34498.755276,32548.476165,6995.336055,36413.293947,43970.552858,27633.416967,23332.427243,-0.044000,0.968000,0.176000,192.000000,0.000000,0.000000,0.000000,0.000000,0.000000,0.000000,0.000000,0.000000,0.000000,1647413612.329270,0.000000
0.000000,44574.474642,34502.912701,32553.371197,6999.582887,36416.758468,43976.207850,27658.115644,23331.443767,-0.044000,0.968000,0.176000,192.000000,0.000000,0.000000,0.000000,0.000000,0.000000,0.000000,0.000000,0.000000,0.000000,1647413612.329275,0.000000
1.000000,44575.435767,34503.829122,32551.359540,6998.510003,36419.954767,43979.091225,27658.339162,23347.157043,-0.044000,0.968000,0.176000,192.000000,0.000000,0.000000,0.000000,0.000000,0.000000,0.000000,0.000000,0.000000,0.000000,1647413612.336358,0.000000
2.000000,44580.420206,34512.278081,32563.362427,7007.495404,36427.777878,43988.657771,27660.999019,23365.083142,-0.044000,0.968000,0.176000,192.000000,0.000000,0.000000,0.000000,0.000000,0.000000,0.000000,0.000000,0.000000,0.000000,1647413612.344400,0.000000
3.000000,44570.272514,34506.243110,32557.081587,7001.683951,36425.654462,43982.935725,27652.013618,23354.153139,-0.044000,0.968000,0.176000,192.000000,0.000000,0.000000,0.000000,0.000000,0.000000,0.000000,0.000000,0.000000,0.000000,1647413612.344404,0.000000
4.000000,44571.859488,34504.298509,32560.009665,7005.506099,36422.972253,43983.494518,27665.357609,23351.247412,-0.044000,0.968000,0.176000,192.000000,0.000000,0.000000,0.000000,0.000000,0.000000,0.000000,0.000000,0.000000,0.000000,1647413612.352320,0.000000
5.000000,44576.732168,34508.210064,32564.904698,7008.568288,36426.347366,43988.858937,27671.414932,23355.382485,-0.044000,0.968000,0.176000,192.000000,0.000000,0.000000,0.000000,0.000000,0.000000,0.000000,0.000000,0.000000,0.000000,1647413612.352324,0.000000
6.000000,44573.535868,34506.176055,32560.836680,7005.103768,36426.637939,43984.969733,27662.049551,23349.995714,-0.044000,0.968000,0.176000,192.000000,0.000000,0.000000,0.000000,0.000000,0.000000,0.000000,0.000000,0.000000,0.000000,1647413612.358927,0.000000
7.000000,44585.114072,34517.776611,32569.687971,7013.776244,36432.024709,43990.445911,27661.043723,23355.203671,-0.038000,0.978000,0.180000,192.000000,254.000000,208.000000,30.000000,144.000000,5.000000,160.000000,0.000000,0.000000,0.000000,1647413612.358930,0.000000
8.000000,44586.231659,34518.201294,32570.202061,7015.340866,36431.622378,43989.328324,27654.449958,23355.807168,-0.038000,0.978000,0.180000,192.000000,0.000000,0.000000,0.000000,0.000000,0.000000,0.000000,0.000000,0.000000,0.000000,1647413612.366979,0.000000
9.000000,44580.375502,34512.166323,32563.340075,7010.579945,36423.911026,43984.232126,27650.203127,23351.962668,-0.038000,0.978000,0.180000,192.000000,0.000000,0.000000,0.000000,0.000000,0.000000,0.000000,0.000000,0.000000,0.000000,1647413612.366982,0.000000
10.000000,44580.643723,34512.859227,32560.479052,7008.791805,36424.380413,43979.493556,27642.782348,23348.632258,-0.038000,0.978000,0.180000,192.000000,0.000000,0.000000,0.000000,0.000000,0.000000,0.000000,0.000000,0.000000,0.000000,1647413612.374962,0.000000
11.000000,44578.408549,34511.115791,32556.008703,7003.717959,36428.962520,43980.655847,27660.753150,23347.022932,-0.038000,0.978000,0.180000,192.000000,0.000000,0.000000,0.000000,0.000000,0.000000,0.000000,0.000000,0.000000,0.000000,1647413612.374968,0.000000
12.000000,44577.916810,34509.774686,32557.685084,7000.856936,36419.686546,43977.794823,27655.902822,23351.448578,-0.038000,0.978000,0.180000,192.000000,0.000000,0.000000,0.000000,0.000000,0.000000,0.000000,0.000000,0.000000,0.000000,1647413612.381976,0.000000
13.000000,44576.463947,34506.176055,32559.629686,6996.699512,36414.903273,43975.649056,27653.868813,23347.358209,-0.038000,0.978000,0.180000,192.000000,0.000000,0.000000,0.000000,0.000000,0.000000,0.000000,0.000000,0.000000,0.000000,1647413612.381981,0.000000
14.000000,44574.340531,34505.281985,32553.415901,6995.336055,36416.289081,43976.632533,27651.968915,23350.219232,-0.038000,0.978000,0.180000,192.000000,0.000000,0.000000,0.000000,0.000000,0.000000,0.000000,0.000000,0.000000,0.000000,1647413612.389615,0.000000
15.000000,44577.156851,34509.148837,32556.098110,6998.688817,36414.769163,43976.409015,27643.810528,23349.995714,-0.038000,0.978000,0.180000,192.000000,0.000000,0.000000,0.000000,0.000000,0.000000,0.000000,0.000000,0.000000,0.000000,1647413612.389619,0.000000
16.000000,44581.649552,34512.926282,32562.982448,7005.059064,36421.206465,43981.415806,27644.145804,23355.918927,-0.038000,0.978000,0.180000,192.000000,0.000000,0.000000,0.000000,0.000000,0.000000,0.000000,0.000000,0.000000,0.000000,1647413612.396577,0.000000
17.000000,44578.274438,34509.417058,32559.495575,7002.265096,36423.978081,43978.912411,27659.680266,23348.364037,-0.038000,0.978000,0.180000,192.000000,0.000000,0.000000,0.000000,0.000000,0.000000,0.000000,0.000000,0.000000,0.000000,1647413612.404605,0.000000
18.000000,44569.557258,34498.643517,32547.939723,6992.206811,36412.824561,43968.563553,27652.930040,23338.126938,-0.038000,0.972000,0.172000,192.000000,254.000000,208.000000,30.000000,96.000000,5.000000,96.000000,0.000000,0.000000,0.000000,1647413612.404609,0.000000
19.000000,44566.942104,34496.542453,32545.838660,6989.010512,36403.637994,43966.238972,27645.755130,23339.490395,-0.038000,0.972000,0.172000,192.000000,0.000000,0.000000,0.000000,0.000000,0.000000,0.000000,0.000000,0.000000,0.000000,1647413612.411216,0.000000
20.000000,44568.462022,34500.051677,32546.106880,6990.262209,36401.179302,43965.434309,27646.380978,23343.871336,-0.038000,0.972000,0.172000,192.000000,0.000000,0.000000,0.000000,0.000000,0.000000,0.000000,0.000000,0.000000,0.000000,1647413612.411219,0.000000
21.000000,44576.463947,34506.600738,32551.292485,6995.224296,36404.688526,43967.155393,27650.784272,23339.155118,-0.038000,0.972000,0.172000,192.000000,0.000000,0.000000,0.000000,0.000000,0.000000,0.000000,0.000000,0.000000,0.000000,1647413612.419138,0.000000
22.000000,44578.743825,34509.797038,32552.722997,6997.906506,36404.621471,43967.803594,27647.386807,23337.657551,-0.038000,0.972000,0.172000,192.000000,0.000000,0.000000,0.000000,0.000000,0.000000,0.000000,0.000000,0.000000,0.000000,1647413612.419147,0.000000
23.000000,44569.490203,34504.119695,32550.979561,7000.700474,36407.191921,43974.307951,27652.080673,23339.468043,-0.038000,0.972000,0.172000,192.000000,0.000000,0.000000,0.000000,0.000000,0.000000,0.000000,0.000000,0.000000,0.000000,1647413612.427301,0.000000
24.000000,44563.231714,34501.772762,32549.861974,7003.092111,36407.437790,43977.616009,27647.945601,23348.162871,-0.038000,0.972000,0.172000,192.000000,0.000000,0.000000,0.000000,0.000000,0.000000,0.000000,0.000000,0.000000,0.000000,1647413612.427306,0.000000
25.000000,44570.674845,34506.377221,32553.438253,7003.539145,36415.976157,43979.739425,27650.292534,23354.913098,-0.038000,0.972000,0.172000,192.000000,0.000000,0.000000,0.000000,0.000000,0.000000,0.000000,0.000000,0.000000,0.000000,1647413612.434248,0.000000
26.000000,44570.518383,34505.751372,32552.655942,7001.102805,36419.686546,43980.544088,27666.452845,23350.800377,-0.038000,0.972000,0.172000,192.000000,0.000000,0.000000,0.000000,0.000000,0.000000,0.000000,0.000000,0.000000,0.000000,1647413612.434252,0.000000
27.000000,44571.948894,34510.020555,32554.555840,7003.561497,36410.052944,43980.499384,27664.150615,23357.483549,-0.038000,0.972000,0.172000,192.000000,0.000000,0.000000,0.000000,0.000000,0.000000,0.000000,0.000000,0.000000,0.000000,1647413612.441756,0.000000
28.000000,44572.261819,34507.025422,32555.561668,7002.689779,36413.204540,43983.271001,27663.770636,23374.649689,-0.040000,0.972000,0.176000,192.000000,254.000000,192.000000,30.000000,96.000000,5.000000,128.000000,0.000000,0.000000,0.000000,1647413612.441760,0.000000
29.000000,44574.675807,34508.277119,32554.958171,7002.667427,36412.578692,43980.052350,27657.556851,23368.838235,-0.040000,0.972000,0.176000,192.000000,0.000000,0.000000,0.000000,0.000000,0.000000,0.000000,0.000000,0.000000,0.000000,1647413612.449856,0.000000
30.000000,44584.465871,34517.329576,32561.194308,7010.915221,36414.903273,43981.952248,27661.244888,23362.959726,-0.040000,0.972000,0.176000,192.000000,0.000000,0.000000,0.000000,0.000000,0.000000,0.000000,0.000000,0.000000,0.000000,1647413612.449860,0.000000
31.000000,44582.543621,34516.279044,32558.869727,7010.244669,36416.154971,43977.593658,27649.644333,23361.238642,-0.040000,0.972000,0.176000,192.000000,0.000000,0.000000,0.000000,0.000000,0.000000,0.000000,0.000000,0.000000,0.000000,1647413612.456803,0.000000
32.000000,44580.710778,34515.988471,32557.193346,7008.881212,36414.746811,43979.314742,27657.802720,23359.517558,-0.040000,0.972000,0.176000,192.000000,0.000000,0.000000,0.000000,0.000000,0.000000,0.000000,0.000000,0.000000,0.000000,1647413612.456807,0.000000
33.000000,44574.809918,34511.071087,32553.728825,7003.427387,36411.774029,43975.045559,27651.387769,23347.805243,-0.040000,0.972000,0.176000,192.000000,0.000000,0.000000,0.000000,0.000000,0.000000,0.000000,0.000000,0.000000,0.000000,1647413612.463937,0.000000
34.000000,44578.788528,34511.294605,32557.796843,7006.064893,36414.523293,43975.045559,27652.706522,23350.152177,-0.040000,0.972000,0.176000,192.000000,0.000000,0.000000,0.000000,0.000000,0.000000,0.000000,0.000000,0.000000,0.000000,1647413612.471404,0.000000
35.000000,44586.611639,34524.146858,32563.675352,7014.782073,36421.608796,43979.582963,27655.925173,23359.964592,-0.040000,0.972000,0.176000,192.000000,0.000000,0.000000,0.000000,0.000000,0.000000,0.000000,0.000000,0.000000,0.000000,1647413612.471408,0.000000
36.000000,44596.982848,34537.826125,32563.317724,7013.888003,36425.118020,43971.581038,27649.621981,23352.879089,-0.040000,0.972000,0.176000,192.000000,0.000000,0.000000,0.000000,0.000000,0.000000,0.000000,0.000000,0.000000,0.000000,1647413612.479493,0.000000
37.000000,44595.395874,34528.661910,32562.155433,7010.602297,36422.636977,43964.674349,27643.095272,23347.827595,-0.040000,0.972000,0.176000,192.000000,0.000000,0.000000,0.000000,0.000000,0.000000,0.000000,0.000000,0.000000,0.000000,1647413612.479498,0.000000
38.000000,44581.850717,34506.757201,32560.032017,7005.684913,36422.771087,43963.847335,27640.346007,23348.699313,-0.038000,0.976000,0.178000,192.000000,254.000000,208.000000,30.000000,128.000000,5.000000,144.000000,0.000000,0.000000,0.000000,1647413612.487650,0.000000
39.000000,44576.173374,34500.006974,32559.137947,7002.332151,36421.720555,43963.601466,27641.441243,23346.039456,-0.038000,0.976000,0.178000,192.000000,0.000000,0.000000,0.000000,0.000000,0.000000,0.000000,0.000000,0.000000,0.000000,1647413612.487656,0.000000
40.000000,44584.823499,34509.551169,32563.563593,7008.367122,36425.095668,43964.607294,27633.953408,23348.811072,-0.038000,0.976000,0.178000,192.000000,0.000000,0.000000,0.000000,0.000000,0.000000,0.000000,0.000000,0.000000,0.000000,1647413612.494156,0.000000
41.000000,44577.246258,34497.861206,32552.208907,6993.078529,36415.707936,43949.072832,27624.923304,23335.422377,-0.038000,0.976000,0.178000,192.000000,0.000000,0.000000,0.000000,0.000000,0.000000,0.000000,0.000000,0.000000,0.000000,1647413612.494160,0.000000
42.000000,44580.978999,34500.878692,32556.723959,6993.771433,36411.125828,43949.139887,27624.275103,23334.394197,-0.038000,0.976000,0.178000,192.000000,0.000000,0.000000,0.000000,0.000000,0.000000,0.000000,0.000000,0.000000,0.000000,1647413612.502064,0.000000
43.000000,44578.788528,34501.593948,32557.170994,6994.553744,36414.746811,43951.978559,27628.119603,23334.952990,-0.038000,0.976000,0.178000,192.000000,0.000000,0.000000,0.000000,0.000000,0.000000,0.000000,0.000000,0.000000,0.000000,1647413612.502074,0.000000
44.000000,44580.800185,34502.465666,32557.863898,6993.749081,36416.087915,43952.649111,27641.016560,23333.723644,-0.038000,0.976000,0.178000,192.000000,0.000000,0.000000,0.000000,0.000000,0.000000,0.000000,0.000000,0.000000,0.000000,1647413612.510153,0.000000
45.000000,44585.784624,34506.354869,32560.702570,6995.090186,36420.379450,43952.850277,27644.458728,23326.481679,-0.038000,0.976000,0.178000,192.000000,0.000000,0.000000,0.000000,0.000000,0.000000,0.000000,0.000000,0.000000,0.000000,1647413612.510157,0.000000
46.000000,44583.661209,34508.232416,32559.003837,6999.024093,36422.078183,43950.324529,27639.742510,23325.229982,-0.038000,0.976000,0.178000,192.000000,0.000000,0.000000,0.000000,0.000000,0.000000,0.000000,0.000000,0.000000,0.000000,1647413612.517251,0.000000
47.000000,44586.142252,34511.853398,32560.814328,7006.377817,36428.739003,43962.036844,27648.951429,23359.785778,-0.038000,0.976000,0.178000,192.000000,0.000000,0.000000,0.000000,0.000000,0.000000,0.000000,0.000000,0.000000,0.000000,1647413612.517255,0.000000
48.000000,44589.070331,34516.971948,32561.864860,7009.574116,36429.744831,43963.333245,27643.765824,23352.186185,-0.036000,0.970000,0.176000,192.000000,254.000000,224.000000,30.000000,80.000000,5.000000,128.000000,0.000000,0.000000,0.000000,1647413612.523709,0.000000
49.000000,44585.315238,34515.496733,32560.680218,7009.060026,36432.181171,43959.868724,27636.009769,23351.515633,-0.036000,0.970000,0.176000,192.000000,0.000000,0.000000,0.000000,0.000000,0.000000,0.000000,0.000000,0.000000,0.000000,1647413612.531714,0.000000
50.000000,44586.477528,34516.569616,32564.345904,7012.211622,36437.009148,43964.540239,27649.398464,23365.351363,-0.036000,0.970000,0.176000,192.000000,0.000000,0.000000,0.000000,0.000000,0.000000,0.000000,0.000000,0.000000,0.000000,1647413612.531717,0.000000
51.000000,44592.914831,34523.006919,32568.860956,7015.787901,36442.440622,43962.930913,27650.493699,23358.154101,-0.036000,0.970000,0.176000,192.000000,0.000000,0.000000,0.000000,0.000000,0.000000,0.000000,0.000000,0.000000,0.000000,1647413612.539760,0.000000
52.000000,44588.667999,34516.256692,32562.446006,7007.853032,36435.936265,43954.236085,27639.586048,23347.246450,-0.036000,0.970000,0.176000,192.000000,0.000000,0.000000,0.000000,0.000000,0.000000,0.000000,0.000000,0.000000,0.000000,1647413612.539764,0.000000
53.000000,44583.258877,34513.775648,32561.820157,7005.103768,36429.096631,43951.375061,27636.009769,23345.190089,-0.036000,0.970000,0.176000,192.000000,0.000000,0.000000,0.000000,0.000000,0.000000,0.000000,0.000000,0.000000,0.000000,1647413612.546825,0.000000
54.000000,44582.990656,34513.798000,32557.707436,7005.953134,36427.576712,43953.386718,27637.149708,23347.201746,-0.036000,0.970000,0.176000,192.000000,0.000000,0.000000,0.000000,0.000000,0.000000,0.000000,0.000000,0.000000,0.000000,1647413612.546828,0.000000
55.000000,44584.108243,34514.669718,32558.020360,7006.020189,36430.750660,43952.045614,27635.830955,23340.317409,-0.036000,0.970000,0.176000,192.000000,0.000000,0.000000,0.000000,0.000000,0.000000,0.000000,0.000000,0.000000,0.000000,1647413612.554299,0.000000
56.000000,44588.466834,34520.771744,32564.457663,7013.262154,36436.562113,43955.957169,27636.836784,23343.670171,-0.036000,0.970000,0.176000,192.000000,0.000000,0.000000,0.000000,0.000000,0.000000,0.000000,0.000000,0.000000,0.000000,1647413612.554302,0.000000
57.000000,44587.393950,34521.732869,32565.105863,7013.351561,36436.785631,43956.918294,27638.177888,23344.787758,-0.036000,0.970000,0.176000,192.000000,0.000000,0.000000,0.000000,0.000000,0.000000,0.000000,0.000000,0.000000,0.000000,1647413612.562433,0.000000
58.000000,44585.203479,34516.301395,32562.133081,7006.243706,36424.983910,43950.279826,27636.948542,23342.306714,-0.038000,0.964000,0.178000,192.000000,254.000000,208.000000,30.000000,32.000000,5.000000,144.000000,0.000000,0.000000,0.000000,1647413612.562436,0.000000
59.000000,44593.920659,34522.761050,32569.799730,7014.178576,36432.695262,43956.560666,27642.692941,23350.018066,-0.038000,0.964000,0.178000,192.000000,0.000000,0.000000,0.000000,0.000000,0.000000,0.000000,0.000000,0.000000,0.000000,1647413612.569633,0.000000
60.000000,44590.277325,34517.530741,32566.670485,7011.697532,36434.885733,43952.515000,27635.205106,23350.062770,-0.038000,0.964000,0.178000,192.000000,0.000000,0.000000,0.000000,0.000000,0.000000,0.000000,0.000000,0.000000,0.000000,1647413612.569637,0.000000
61.000000,44590.679656,34519.251826,32567.855128,7012.479843,36435.712747,43950.860971,27632.589952,23343.848985,-0.038000,0.964000,0.178000,192.000000,0.000000,0.000000,0.000000,0.000000,0.000000,0.000000,0.000000,0.000000,0.000000,1647413612.577008,0.000000
62.000000,44589.360903,34518.648329,32569.196232,7011.585773,36437.076203,43953.431422,27638.714330,23347.089988,-0.038000,0.964000,0.178000,192.000000,0.000000,0.000000,0.000000,0.000000,0.000000,0.000000,0.000000,0.000000,0.000000,1647413612.577012,0.000000
63.000000,44582.431863,34511.652233,32561.775453,7002.376855,36428.649596,43946.345919,27631.762938,23340.429168,-0.038000,0.964000,0.178000,192.000000,0.000000,0.000000,0.000000,0.000000,0.000000,0.000000,0.000000,0.000000,0.000000,1647413612.583926,0.000000
64.000000,44583.594153,34510.869922,32560.143776,7001.326323,36428.001395,43940.869742,27608.226551,23336.718778,-0.038000,0.964000,0.178000,192.000000,0.000000,0.000000,0.000000,0.000000,0.000000,0.000000,0.000000,0.000000,0.000000,1647413612.592028,0.000000
65.000000,44589.092682,34515.966119,32563.720055,7007.450701,36433.745794,43946.927064,27619.625940,23346.039456,-0.038000,0.964000,0.178000,192.000000,0.000000,0.000000,0.000000,0.000000,0.000000,0.000000,0.000000,0.000000,0.000000,1647413612.592036,0.000000
66.000000,44586.119900,34511.607529,32562.088378,7005.774320,36439.221971,43957.141812,27666.296383,23347.715836,-0.038000,0.964000,0.178000,192.000000,0.000000,0.000000,0.000000,0.000000,0.000000,0.000000,0.000000,0.000000,0.000000,1647413612.599151,0.000000
67.000000,44582.789491,34505.349041,32559.272058,7001.706302,36434.148125,43955.979521,27656.483967,23348.274630,-0.038000,0.964000,0.178000,192.000000,0.000000,0.000000,0.000000,0.000000,0.000000,0.000000,0.000000,0.000000,0.000000,1647413612.599156,0.000000
68.000000,44583.102415,34506.019593,32562.133081,7004.120291,36432.292930,43956.806535,27648.727912,23351.426226,-0.032000,0.968000,0.180000,192.000000,255.000000,0.000000,30.000000,64.000000,5.000000,160.000000,0.000000,0.000000,0.000000,1647413612.606783,0.000000
69.000000,44580.442557,34503.806770,32560.948439,7004.343808,36430.527142,43957.052405,27654.628772,23351.627392,-0.032000,0.968000,0.180000,192.000000,0.000000,0.000000,0.000000,0.000000,0.000000,0.000000,0.000000,0.000000,0.000000,1647413612.606786,0.000000
70.000000,44584.868203,34506.556035,32564.077683,7005.103768,36439.020805,43960.136945,27658.137996,23345.435959,-0.032000,0.968000,0.180000,192.000000,0.000000,0.000000,0.000000,0.000000,0.000000,0.000000,0.000000,0.000000,0.000000,1647413612.614660,0.000000
71.000000,44586.678694,34509.551169,32563.049503,7006.958962,36430.840067,43959.645207,27654.002923,23350.263935,-0.032000,0.968000,0.180000,192.000000,0.000000,0.000000,0.000000,0.000000,0.000000,0.000000,0.000000,0.000000,0.000000,1647413612.614664,0.000000
72.000000,44585.203479,34509.886445,32560.255535,7004.969657,36427.979043,43955.867762,27643.922287,23348.542851,-0.032000,0.968000,0.180000,192.000000,0.000000,0.000000,0.000000,0.000000,0.000000,0.000000,0.000000,0.000000,0.000000,1647413612.622708,0.000000
73.000000,44584.398816,34507.651270,32560.926087,7001.415730,36426.995567,43955.644245,27645.218688,23341.323238,-0.032000,0.968000,0.180000,192.000000,0.000000,0.000000,0.000000,0.000000,0.000000,0.000000,0.000000,0.000000,0.000000,1647413612.622712,0.000000
74.000000,44580.330799,34502.130389,32556.343979,6997.459471,36420.625320,43955.174858,27649.711388,23347.760540,-0.032000,0.968000,0.180000,192.000000,0.000000,0.000000,0.000000,0.000000,0.000000,0.000000,0.000000,0.000000,0.000000,1647413612.629339,0.000000
75.000000,44585.605810,34507.785381,32558.690913,7000.521660,36427.710823,43957.454736,27650.627810,23351.940316,-0.032000,0.968000,0.180000,192.000000,0.000000,0.000000,0.000000,0.000000,0.000000,0.000000,0.000000,0.000000,0.000000,1647413612.629343,0.000000
76.000000,44592.601906,34510.869922,32566.335209,7005.550802,36433.857552,43962.439175,27651.052493,23358.869357,-0.032000,0.968000,0.180000,192.000000,0.000000,0.000000,0.000000,0.000000,0.000000,0.000000,0.000000,0.000000,0.000000,1647413612.637294,0.000000
77.000000,44592.445444,34511.048736,32570.269116,7009.685875,36439.020805,43964.227314,27648.414987,23362.311526,-0.032000,0.968000,0.180000,192.000000,0.000000,0.000000,0.000000,0.000000,0.000000,0.000000,0.000000,0.000000,0.000000,1647413612.637298,0.000000
78.000000,44588.958572,34508.835913,32567.095168,7008.054198,36439.937227,43961.478050,27650.828976,23354.868395,-0.038000,0.962000,0.184000,192.000000,254.000000,208.000000,30.000000,16.000000,5.000000,192.000000,0.000000,0.000000,0.000000,1647413612.644438,0.000000
79.000000,44586.991619,34508.612395,32565.150567,7006.936611,36438.283198,43960.382814,27650.203127,23353.348476,-0.038000,0.962000,0.184000,192.000000,0.000000,0.000000,0.000000,0.000000,0.000000,0.000000,0.000000,0.000000,0.000000,1647413612.651553,0.000000
80.000000,44585.270534,34507.070125,32563.295372,7004.500270,36437.724404,43957.924123,27647.900897,23353.214366,-0.038000,0.962000,0.184000,192.000000,0.000000,0.000000,0.000000,0.000000,0.000000,0.000000,0.000000,0.000000,0.000000,1647413612.651557,0.000000
81.000000,44589.405607,34510.534645,32565.128215,7006.847204,36437.053852,43957.812364,27650.069016,23352.342648,-0.038000,0.962000,0.184000,192.000000,0.000000,0.000000,0.000000,0.000000,0.000000,0.000000,0.000000,0.000000,0.000000,1647413612.659029,0.000000
82.000000,44590.634953,34512.859227,32568.480977,7009.171785,36436.629169,43958.013530,27643.251734,23350.867432,-0.038000,0.962000,0.184000,192.000000,0.000000,0.000000,0.000000,0.000000,0.000000,0.000000,0.000000,0.000000,0.000000,1647413612.659032,0.000000
83.000000,44587.908040,34510.936977,32567.251631,7007.338942,36433.656387,43952.716166,27635.003940,23346.911174,-0.038000,0.962000,0.184000,192.000000,0.000000,0.000000,0.000000,0.000000,0.000000,0.000000,0.000000,0.000000,0.000000,1647413612.666957,0.000000
84.000000,44584.376464,34504.231453,32562.267192,7001.751006,36435.243360,43945.943588,27634.087519,23338.886897,-0.038000,0.962000,0.184000,192.000000,0.000000,0.000000,0.000000,0.000000,0.000000,0.000000,0.000000,0.000000,0.000000,1647413612.666961,0.000000
85.000000,44581.113110,34499.895215,32559.763796,6998.644113,36440.652483,43945.340090,27639.764862,23345.145386,-0.038000,0.962000,0.184000,192.000000,0.000000,0.000000,0.000000,0.000000,0.000000,0.000000,0.000000,0.000000,0.000000,1647413612.675297,0.000000
86.000000,44584.309409,34504.343212,32562.803634,7001.415730,36444.429927,43948.268169,27633.104042,23352.744979,-0.038000,0.962000,0.184000,192.000000,0.000000,0.000000,0.000000,0.000000,0.000000,0.000000,0.000000,0.000000,0.000000,1647413612.675313,0.000000
87.000000,44589.047979,34507.628919,32562.915392,7004.410863,36441.993587,43950.279826,27639.787214,23348.051113,-0.038000,0.962000,0.184000,192.000000,0.000000,0.000000,0.000000,0.000000,0.000000,0.000000,0.000000,0.000000,0.000000,1647413612.681733,0.000000
88.000000,44587.058674,34505.684317,32557.998008,7001.214564,36439.132564,43948.983425,27656.819243,23345.748883,-0.038000,0.964000,0.184000,192.000000,254.000000,208.000000,30.000000,32.000000,5.000000,192.000000,0.000000,0.000000,0.000000,1647413612.681745,0.000000
89.000000,44591.305505,34513.239206,32563.138910,7007.517756,36448.341483,43952.425593,27660.842557,23352.879089,-0.038000,0.964000,0.184000,192.000000,0.000000,0.000000,0.000000,0.000000,0.000000,0.000000,0.000000,0.000000,0.000000,1647413612.689939,0.000000
90.000000,44585.203479,34505.550206,32560.635514,7001.192212,36445.167535,43944.513076,27650.426644,23338.171642,-0.038000,0.964000,0.184000,192.000000,0.000000,0.000000,0.000000,0.000000,0.000000,0.000000,0.000000,0.000000,0.000000,1647413612.689956,0.000000
91.000000,44586.119900,34504.186750,32563.965924,7000.476956,36440.250151,43942.903750,27643.654066,23344.027799,-0.038000,0.964000,0.184000,192.000000,0.000000,0.000000,0.000000,0.000000,0.000000,0.000000,0.000000,0.000000,0.000000,1647413612.698028,0.000000
92.000000,44587.192784,34505.013765,32565.329381,7001.706302,36438.752584,43945.250683,27645.241039,23343.893688,-0.038000,0.964000,0.184000,192.000000,0.000000,0.000000,0.000000,0.000000,0.000000,0.000000,0.000000,0.000000,0.000000,1647413612.698046,0.000000
93.000000,44585.896383,34502.376259,32562.222488,7000.856936,36440.540724,43942.747288,27635.070996,23335.511784,-0.038000,0.964000,0.184000,192.000000,0.000000,0.000000,0.000000,0.000000,0.000000,0.000000,0.000000,0.000000,0.000000,1647413612.705101,0.000000
94.000000,44588.712703,34505.259634,32563.496538,7004.790843,36446.173363,43947.843486,27644.257563,23345.793586,-0.038000,0.964000,0.184000,192.000000,0.000000,0.000000,0.000000,0.000000,0.000000,0.000000,0.000000,0.000000,0.000000,1647413612.705122,0.000000
95.000000,44591.260802,34507.427753,32564.569421,7005.081416,36447.737986,43945.608311,27647.297400,23342.731397,-0.038000,0.964000,0.184000,192.000000,0.000000,0.000000,0.000000,0.000000,0.000000,0.000000,0.000000,0.000000,0.000000,1647413612.711621,0.000000
96.000000,44588.019799,34503.449142,32562.155433,7005.103768,36444.452279,43945.943588,27643.855231,23358.332915,-0.038000,0.964000,0.184000,192.000000,0.000000,0.000000,0.000000,0.000000,0.000000,0.000000,0.000000,0.000000,0.000000,1647413612.719518,0.000000
97.000000,44589.115034,34504.499674,32563.317724,7006.780148,36441.479497,43946.122401,27644.391673,23351.381523,-0.038000,0.964000,0.184000,192.000000,0.000000,0.000000,0.000000,0.000000,0.000000,0.000000,0.000000,0.000000,0.000000,1647413612.719535,0.000000
98.000000,44591.931354,34508.210064,32567.430445,7011.205794,36448.810869,43948.268169,27642.916458,23348.766368,-0.038000,0.966000,0.180000,192.000000,254.000000,208.000000,30.000000,48.000000,5.000000,160.000000,0.000000,0.000000,0.000000,1647413612.727677,0.000000
99.000000,44596.200537,34511.339308,32572.034904,7016.011419,36453.862364,43953.163201,27647.073882,23351.090950,-0.038000,0.966000,0.180000,192.000000,0.000000,0.000000,0.000000,0.000000,0.000000,0.000000,0.000000,0.000000,0.000000,1647413612.727694,0.000000
100.000000,44594.010066,34505.103171,32568.905660,7010.445834,36453.325922,43947.619968,27640.077786,23341.613810,-0.038000,0.966000,0.180000,192.000000,0.000000,0.000000,0.000000,0.000000,0.000000,0.000000,0.000000,0.000000,0.000000,1647413612.734886,0.000000
101.000000,44595.239412,34506.645442,32570.135006,7011.541070,36449.615532,43948.469335,27638.535516,23342.798453,-0.038000,0.966000,0.180000,192.000000,0.000000,0.000000,0.000000,0.000000,0.000000,0.000000,0.000000,0.000000,0.000000,1647413612.734902,0.000000
102.000000,44588.064502,34508.098305,32564.122386,7008.121253,36442.306512,43944.066041,27632.925228,23338.641028,-0.038000,0.966000,0.180000,192.000000,0.000000,0.000000,0.000000,0.000000,0.000000,0.000000,0.000000,0.000000,0.000000,1647413612.742267,0.000000
103.000000,44597.474587,34520.771744,32565.687009,7009.305895,36439.624302,43939.126305,27634.601609,23343.111377,-0.038000,0.966000,0.180000,192.000000,0.000000,0.000000,0.000000,0.000000,0.000000,0.000000,0.000000,0.000000,0.000000,1647413612.742283,0.000000
104.000000,44605.543566,34522.336366,32569.039770,7007.249535,36446.665102,43937.293462,27634.199278,23341.166775,-0.038000,0.966000,0.180000,192.000000,0.000000,0.000000,0.000000,0.000000,0.000000,0.000000,0.000000,0.000000,0.000000,1647413612.750267,0.000000
105.000000,44590.612601,34502.130389,32565.329381,7001.907468,36445.279294,43938.813381,27634.087519,23340.786796,-0.038000,0.966000,0.180000,192.000000,0.000000,0.000000,0.000000,0.000000,0.000000,0.000000,0.000000,0.000000,0.000000,1647413612.750283,0.000000
106.000000,44590.925526,34504.969061,32567.318686,7004.433215,36445.748680,43943.797820,27637.328522,23346.754711,-0.038000,0.966000,0.180000,192.000000,0.000000,0.000000,0.000000,0.000000,0.000000,0.000000,0.000000,0.000000,0.000000,1647413612.758372,0.000000
107.000000,44591.104339,34504.656137,32570.291468,7006.176651,36442.060642,43945.809477,27640.077786,23338.819842,-0.038000,0.966000,0.180000,192.000000,0.000000,0.000000,0.000000,0.000000,0.000000,0.000000,0.000000,0.000000,0.000000,1647413612.758407,0.000000
108.000000,44582.521270,34493.860244,32567.653962,6999.761701,36437.344424,43943.529599,27638.446109,23332.404892,-0.038000,0.966000,0.180000,192.000000,0.000000,0.000000,0.000000,0.000000,0.000000,0.000000,0.000000,0.000000,0.000000,1647413612.764784,0.000000
109.000000,44589.405607,34499.269366,32570.805558,6999.739349,36441.255980,43943.574303,27636.725025,23336.629371,-0.042000,0.974000,0.176000,192.000000,254.000000,176.000000,30.000000,112.000000,5.000000,128.000000,0.000000,0.000000,0.000000,1647413612.764801,0.000000
110.000000,44592.490148,34502.085686,32572.750160,7003.494442,36442.753547,43943.730765,27627.069071,23340.809147,-0.042000,0.974000,0.176000,192.000000,0.000000,0.000000,0.000000,0.000000,0.000000,0.000000,0.000000,0.000000,0.000000,1647413612.772013,0.000000
111.000000,44584.935258,34497.816503,32565.061160,7001.974523,36436.226837,43938.098125,27617.457821,23337.992828,-0.042000,0.974000,0.176000,192.000000,0.000000,0.000000,0.000000,0.000000,0.000000,0.000000,0.000000,0.000000,0.000000,1647413612.779984,0.000000
112.000000,44582.744787,34494.106113,32559.584982,7000.521660,36434.662215,43936.019413,27617.860152,23333.008389,-0.042000,0.974000,0.176000,192.000000,0.000000,0.000000,0.000000,0.000000,0.000000,0.000000,0.000000,0.000000,0.000000,1647413612.780001,0.000000
113.000000,44584.890555,34494.419038,32559.920259,6999.404073,36435.377471,43940.713279,27646.358627,23334.975342,-0.042000,0.974000,0.176000,192.000000,0.000000,0.000000,0.000000,0.000000,0.000000,0.000000,0.000000,0.000000,0.000000,1647413612.787046,0.000000
114.000000,44585.292886,34496.989488,32563.429482,7002.041579,36439.534895,43946.770602,27666.832825,23337.523441,-0.042000,0.974000,0.176000,192.000000,0.000000,0.000000,0.000000,0.000000,0.000000,0.000000,0.000000,0.000000,0.000000,1647413612.787063,0.000000
115.000000,44585.426996,34498.151779,32565.530546,7001.393378,36437.903218,43943.574303,27655.902822,23326.638141,-0.042000,0.974000,0.176000,192.000000,0.000000,0.000000,0.000000,0.000000,0.000000,0.000000,0.000000,0.000000,0.000000,1647413612.794548,0.000000
116.000000,44583.638857,34493.726134,32561.306067,6998.577058,36431.108288,43947.687024,27648.169118,23357.952935,-0.042000,0.974000,0.176000,192.000000,0.000000,0.000000,0.000000,0.000000,0.000000,0.000000,0.000000,0.000000,0.000000,1647413612.794565,0.000000
117.000000,44588.511537,34496.274232,32564.435311,7003.606201,36431.264750,43953.096146,27645.844537,23368.234738,-0.042000,0.974000,0.176000,192.000000,0.000000,0.000000,0.000000,0.000000,0.000000,0.000000,0.000000,0.000000,0.000000,1647413612.802551,0.000000
118.000000,44586.701046,34494.709610,32563.988276,7003.740311,36429.275445,43949.251646,27647.789138,23351.225060,-0.042000,0.974000,0.176000,192.000000,0.000000,0.000000,0.000000,0.000000,0.000000,0.000000,0.000000,0.000000,0.000000,1647413612.802567,0.000000
119.000000,44582.610677,34491.401552,32562.848337,7001.728654,36426.593235,43949.184590,27647.565621,23346.575898,-0.038000,0.970000,0.172000,192.000000,254.000000,208.000000,30.000000,80.000000,5.000000,96.000000,0.000000,0.000000,0.000000,1647413612.810579,0.000000
120.000000,44581.135461,34489.836930,32559.696741,6998.979390,36426.861456,43950.570399,27647.073882,23351.113302,-0.038000,0.970000,0.172000,192.000000,0.000000,0.000000,0.000000,0.000000,0.000000,0.000000,0.000000,0.000000,0.000000,1647413612.810596,0.000000
121.000000,44580.084929,34488.249956,32557.908602,6997.347712,36424.648634,43949.251646,27642.894106,23350.062770,-0.038000,0.970000,0.172000,192.000000,0.000000,0.000000,0.000000,0.000000,0.000000,0.000000,0.000000,0.000000,0.000000,1647413612.817160,0.000000
122.000000,44574.966380,34484.137235,32555.785186,6992.162107,36421.541741,43946.971768,27641.195374,23347.134691,-0.038000,0.970000,0.172000,192.000000,0.000000,0.000000,0.000000,0.000000,0.000000,0.000000,0.000000,0.000000,0.000000,1647413612.817177,0.000000
123.000000,44578.565011,34488.294660,32558.757968,6992.944419,36423.352232,43950.413936,27648.169118,23354.287249,-0.038000,0.970000,0.172000,192.000000,0.000000,0.000000,0.000000,0.000000,0.000000,0.000000,0.000000,0.000000,0.000000,1647413612.825600,0.000000
124.000000,44573.245296,34480.985639,32547.224468,6986.574171,36415.126790,43942.568474,27632.947580,23342.664342,-0.038000,0.970000,0.172000,192.000000,0.000000,0.000000,0.000000,0.000000,0.000000,0.000000,0.000000,0.000000,0.000000,1647413612.825617,0.000000
125.000000,44578.073272,34487.892328,32552.186555,6992.586791,36421.228817,43946.860009,27636.009769,23345.033627,-0.038000,0.970000,0.172000,192.000000,0.000000,0.000000,0.000000,0.000000,0.000000,0.000000,0.000000,0.000000,0.000000,1647413612.831925,0.000000
126.000000,44580.509613,34493.435561,32557.238049,6997.280657,36428.001395,43953.453774,27644.257563,23350.286287,-0.038000,0.970000,0.172000,192.000000,0.000000,0.000000,0.000000,0.000000,0.000000,0.000000,0.000000,0.000000,0.000000,1647413612.840212,0.000000
127.000000,44581.403682,34491.714477,32556.276924,6994.732558,36426.056793,43954.504306,27636.657970,23350.398046,-0.038000,0.970000,0.172000,192.000000,0.000000,0.000000,0.000000,0.000000,0.000000,0.000000,0.000000,0.000000,0.000000,1647413612.840229,0.000000
128.000000,44574.496993,34487.311183,32548.364407,6991.446852,36416.803171,43948.737556,27630.511240,23343.759578,-0.038000,0.970000,0.172000,192.000000,0.000000,0.000000,0.000000,0.000000,0.000000,0.000000,0.000000,0.000000,0.000000,1647413612.846817,0.000000
129.000000,44573.602924,34486.528872,32546.240991,6985.903619,36414.925625,43946.971768,27637.462632,23342.843156,-0.038000,0.966000,0.178000,192.000000,254.000000,208.000000,30.000000,48.000000,5.000000,144.000000,0.000000,0.000000,0.000000,1647413612.846851,0.000000
130.000000,44570.071348,34480.963287,32540.250723,6980.092165,36410.097648,43937.829904,27622.330501,23333.611886,-0.038000,0.966000,0.178000,192.000000,0.000000,0.000000,0.000000,0.000000,0.000000,0.000000,0.000000,0.000000,0.000000,1647413612.854751,0.000000
131.000000,44575.949857,34487.020610,32543.961113,6986.954151,36412.019898,43942.724936,27631.137089,23338.082235,-0.038000,0.966000,0.178000,192.000000,0.000000,0.000000,0.000000,0.000000,0.000000,0.000000,0.000000,0.000000,0.000000,1647413612.854767,0.000000
132.000000,44580.040226,34492.273270,32551.359540,6993.078529,36410.432924,43949.206942,27642.625885,23342.083197,-0.038000,0.966000,0.178000,192.000000,0.000000,0.000000,0.000000,0.000000,0.000000,0.000000,0.000000,0.000000,0.000000,1647413612.862744,0.000000
133.000000,44580.733130,34497.592985,32557.618029,6998.062968,36415.104439,43950.928027,27634.065167,23343.670171,-0.038000,0.966000,0.178000,192.000000,0.000000,0.000000,0.000000,0.000000,0.000000,0.000000,0.000000,0.000000,0.000000,1647413612.862760,0.000000
134.000000,44574.452290,34496.385991,32553.393549,6994.240820,36412.399878,43951.106841,27649.197298,23345.301848,-0.038000,0.966000,0.178000,192.000000,0.000000,0.000000,0.000000,0.000000,0.000000,0.000000,0.000000,0.000000,0.000000,1647413612.869994,0.000000
135.000000,44572.038301,34494.128465,32549.593753,6992.117404,36409.717668,43948.111707,27634.936885,23347.313505,-0.038000,0.966000,0.178000,192.000000,0.000000,0.000000,0.000000,0.000000,0.000000,0.000000,0.000000,0.000000,0.000000,1647413612.870012,0.000000
136.000000,44577.112147,34495.938956,32552.208907,6994.576096,36411.818732,43950.369233,27641.150670,23341.390293,-0.038000,0.966000,0.178000,192.000000,0.000000,0.000000,0.000000,0.000000,0.000000,0.000000,0.000000,0.000000,0.000000,1647413612.877547,0.000000
137.000000,44576.620409,34494.553148,32552.410072,6994.397282,36413.852741,43951.375061,27641.888278,23342.440825,-0.038000,0.966000,0.178000,192.000000,0.000000,0.000000,0.000000,0.000000,0.000000,0.000000,0.000000,0.000000,0.000000,1647413612.877564,0.000000
138.000000,44580.464909,34496.184825,32556.478090,6997.213602,36413.092782,43953.140849,27644.056397,23348.542851,-0.038000,0.966000,0.178000,192.000000,0.000000,0.000000,0.000000,0.000000,0.000000,0.000000,0.000000,0.000000,0.000000,1647413612.885420,0.000000
139.000000,44580.710778,34494.709610,32552.924162,6993.659674,36410.276462,43947.530561,27640.413063,23339.490395,-0.032000,0.968000,0.184000,192.000000,255.000000,0.000000,30.000000,64.000000,5.000000,192.000000,0.000000,0.000000,0.000000,1647413612.885436,0.000000
140.000000,44583.750616,34501.102209,32555.159337,6996.498346,36411.796380,43943.931931,27628.477231,23338.663380,-0.032000,0.968000,0.184000,192.000000,0.000000,0.000000,0.000000,0.000000,0.000000,0.000000,0.000000,0.000000,0.000000,1647413612.892425,0.000000
141.000000,44581.917773,34502.733887,32556.969828,6999.046445,36415.886750,43945.384794,27642.156499,23337.635200,-0.032000,0.968000,0.184000,192.000000,0.000000,0.000000,0.000000,0.000000,0.000000,0.000000,0.000000,0.000000,0.000000,1647413612.899508,0.000000
142.000000,44585.382293,34503.560901,32559.920259,7003.650904,36417.786648,43950.883323,27644.503432,23352.007371,-0.032000,0.968000,0.184000,192.000000,0.000000,0.000000,0.000000,0.000000,0.000000,0.000000,0.000000,0.000000,0.000000,1647413612.899525,0.000000
143.000000,44577.246258,34494.016706,32548.632628,6997.034788,36417.116096,43942.009681,27638.334350,23334.081272,-0.032000,0.968000,0.184000,192.000000,0.000000,0.000000,0.000000,0.000000,0.000000,0.000000,0.000000,0.000000,0.000000,1647413612.907139,0.000000
144.000000,44586.499880,34503.136218,32556.165165,7004.321456,36419.463029,43950.413936,27649.532574,23339.289229,-0.032000,0.968000,0.184000,192.000000,0.000000,0.000000,0.000000,0.000000,0.000000,0.000000,0.000000,0.000000,0.000000,1647413612.907156,0.000000
145.000000,44590.478491,34505.527855,32560.188479,7003.226221,36414.433886,43955.577189,27653.891165,23353.326124,-0.032000,0.968000,0.184000,192.000000,0.000000,0.000000,0.000000,0.000000,0.000000,0.000000,0.000000,0.000000,0.000000,1647413612.914878,0.000000
146.000000,44590.232621,34504.589081,32559.205003,7000.320494,36408.890654,43957.119460,27642.648237,23365.418418,-0.032000,0.968000,0.184000,192.000000,0.000000,0.000000,0.000000,0.000000,0.000000,0.000000,0.000000,0.000000,0.000000,1647413612.914894,0.000000
147.000000,44582.677732,34498.174131,32552.655942,6992.609142,36402.699221,43952.537352,27639.921324,23355.583651,-0.032000,0.968000,0.184000,192.000000,0.000000,0.000000,0.000000,0.000000,0.000000,0.000000,0.000000,0.000000,0.000000,1647413612.922125,0.000000
148.000000,44575.927505,34492.720305,32547.671503,6985.545991,36400.575805,43949.206942,27647.431510,23352.856738,-0.032000,0.968000,0.184000,192.000000,0.000000,0.000000,0.000000,0.000000,0.000000,0.000000,0.000000,0.000000,0.000000,1647413612.922143,0.000000
149.000000,44577.358017,34493.972003,32549.481994,6983.400224,36399.525273,43947.888189,27646.559792,23353.057903,-0.036000,0.960000,0.184000,192.000000,254.000000,224.000000,30.000000,0.000000,5.000000,192.000000,0.000000,0.000000,0.000000,1647413612.929781,0.000000
150.000000,44577.380368,34496.363639,32552.275962,6987.915276,36404.867340,43949.721032,27639.742510,23347.246450,-0.036000,0.960000,0.184000,192.000000,0.000000,0.000000,0.000000,0.000000,0.000000,0.000000,0.000000,0.000000,0.000000,1647413612.929816,0.000000
151.000000,44581.582496,34498.822331,32555.047578,6990.172802,36406.163741,43953.431422,27646.313923,23356.701238,-0.036000,0.960000,0.184000,192.000000,0.000000,0.000000,0.000000,0.000000,0.000000,0.000000,0.000000,0.000000,0.000000,1647413612.937774,0.000000
152.000000,44583.527098,34495.849549,32554.444081,6988.563477,36405.247319,43951.732689,27647.632676,23354.376656,-0.036000,0.960000,0.184000,192.000000,0.000000,0.000000,0.000000,0.000000,0.000000,0.000000,0.000000,0.000000,0.000000,1647413612.937791,0.000000
153.000000,44579.950819,34494.284927,32549.370235,6986.082433,36400.978136,43947.105878,27644.838708,23348.744017,-0.036000,0.960000,0.184000,192.000000,0.000000,0.000000,0.000000,0.000000,0.000000,0.000000,0.000000,0.000000,0.000000,1647413612.945789,0.000000
154.000000,44580.375502,34497.078895,32546.397453,6984.629570,36402.341593,43945.161276,27640.077786,23345.793586,-0.036000,0.960000,0.184000,192.000000,0.000000,0.000000,0.000000,0.000000,0.000000,0.000000,0.000000,0.000000,0.000000,1647413612.945806,0.000000
155.000000,44589.450310,34508.277119,32548.833793,6990.284561,36400.732267,43943.551951,27635.138051,23343.133729,-0.036000,0.960000,0.184000,192.000000,0.000000,0.000000,0.000000,0.000000,0.000000,0.000000,0.000000,0.000000,0.000000,1647413612.951590,0.000000
156.000000,44590.590249,34508.299471,32548.342055,6990.128099,36396.686601,43940.579169,27620.497658,23341.233831,-0.036000,0.960000,0.184000,192.000000,0.000000,0.000000,0.000000,0.000000,0.000000,0.000000,0.000000,0.000000,0.000000,1647413612.951605,0.000000
157.000000,44578.274438,34493.234395,32549.861974,6988.630532,36404.688526,43948.089355,27628.410176,23348.386389,-0.036000,0.960000,0.184000,192.000000,0.000000,0.000000,0.000000,0.000000,0.000000,0.000000,0.000000,0.000000,0.000000,1647413612.959465,0.000000
158.000000,44575.279304,34493.815541,32548.498517,6987.624703,36404.129732,43942.613178,27628.946618,23338.551621,-0.036000,0.960000,0.184000,192.000000,0.000000,0.000000,0.000000,0.000000,0.000000,0.000000,0.000000,0.000000,0.000000,1647413612.967375,0.000000
159.000000,44581.314275,34499.962270,32549.034959,6987.669407,36404.062677,43943.484896,27640.077786,23345.882993,-0.038000,0.966000,0.178000,192.000000,254.000000,208.000000,30.000000,48.000000,5.000000,144.000000,0.000000,0.000000,0.000000,1647413612.967393,0.000000
160.000000,44578.162679,34495.514273,32546.956247,6985.903619,36401.067543,43944.490724,27658.026237,23344.921868,-0.038000,0.966000,0.178000,192.000000,0.000000,0.000000,0.000000,0.000000,0.000000,0.000000,0.000000,0.000000,0.000000,1647413612.975479,0.000000
161.000000,44582.744787,34501.549244,32552.119500,6992.407977,36406.946052,43946.189457,27650.516051,23344.586592,-0.038000,0.966000,0.178000,192.000000,0.000000,0.000000,0.000000,0.000000,0.000000,0.000000,0.000000,0.000000,0.000000,1647413612.975496,0.000000
162.000000,44580.174336,34497.749448,32550.376064,6990.664541,36403.302718,43939.998024,27632.746414,23341.524403,-0.038000,0.966000,0.178000,192.000000,0.000000,0.000000,0.000000,0.000000,0.000000,0.000000,0.000000,0.000000,0.000000,1647413612.981814,0.000000
163.000000,44580.889592,34498.956442,32550.756043,6991.536259,36407.817770,43941.316776,27637.730853,23340.116243,-0.038000,0.966000,0.178000,192.000000,0.000000,0.000000,0.000000,0.000000,0.000000,0.000000,0.000000,0.000000,0.000000,1647413612.981831,0.000000
164.000000,44587.393950,34506.980718,32555.472261,6996.788919,36416.870226,43946.524733,27641.217725,23342.351418,-0.038000,0.966000,0.178000,192.000000,0.000000,0.000000,0.000000,0.000000,0.000000,0.000000,0.000000,0.000000,0.000000,1647413612.989945,0.000000
165.000000,44589.047979,34505.013765,32555.159337,6993.011474,36412.377526,43944.893056,27641.731816,23334.863583,-0.038000,0.966000,0.178000,192.000000,0.000000,0.000000,0.000000,0.000000,0.000000,0.000000,0.000000,0.000000,0.000000,1647413612.989962,0.000000
166.000000,44585.851680,34499.939919,32551.583058,6986.104785,36409.404744,43942.143791,27636.948542,23339.669208,-0.038000,0.966000,0.178000,192.000000,0.000000,0.000000,0.000000,0.000000,0.000000,0.000000,0.000000,0.000000,0.000000,1647413612.998108,0.000000
167.000000,44584.354113,34500.744581,32552.141851,6983.221410,36407.706011,43938.455753,27623.649254,23339.490395,-0.038000,0.966000,0.178000,192.000000,0.000000,0.000000,0.000000,0.000000,0.000000,0.000000,0.000000,0.000000,0.000000,1647413612.998130,0.000000
168.000000,44589.964401,34508.970023,32562.043674,6989.412843,36414.366831,43945.049518,27642.983513,23344.407778,-0.038000,0.966000,0.178000,192.000000,0.000000,0.000000,0.000000,0.000000,0.000000,0.000000,0.000000,0.000000,0.000000,1647413613.004953,0.000000
169.000000,44589.673828,34506.265462,32553.617067,6986.998855,36410.768200,43941.897922,27640.413063,23337.165813,-0.034000,0.970000,0.176000,192.000000,254.000000,240.000000,30.000000,80.000000,5.000000,128.000000,0.000000,0.000000,0.000000,1647413613.004963,0.000000
170.000000,44585.538755,34501.281023,32547.693854,6981.925009,36405.828465,43939.081602,27634.221629,23341.546755,-0.034000,0.970000,0.176000,192.000000,0.000000,0.000000,0.000000,0.000000,0.000000,0.000000,0.000000,0.000000,0.000000,1647413613.012603,0.000000
171.000000,44584.555278,34500.096381,32544.385796,6982.483802,36404.353250,43941.383832,27641.329484,23344.966572,-0.034000,0.970000,0.176000,192.000000,0.000000,0.000000,0.000000,0.000000,0.000000,0.000000,0.000000,0.000000,0.000000,1647413613.012639,0.000000
172.000000,44584.488223,34498.576462,32545.861011,6980.047462,36401.335764,43939.863913,27641.441243,23343.200784,-0.034000,0.970000,0.176000,192.000000,0.000000,0.000000,0.000000,0.000000,0.000000,0.000000,0.000000,0.000000,0.000000,1647413613.019741,0.000000
173.000000,44588.600944,34504.723192,32556.276924,6987.177668,36405.314375,43945.250683,27642.514127,23345.771235,-0.034000,0.970000,0.176000,192.000000,0.000000,0.000000,0.000000,0.000000,0.000000,0.000000,0.000000,0.000000,0.000000,1647413613.027684,0.000000
174.000000,44587.773930,34503.359735,32554.309971,6985.143660,36404.241491,43936.891131,27618.284836,23332.829575,-0.034000,0.970000,0.176000,192.000000,0.000000,0.000000,0.000000,0.000000,0.000000,0.000000,0.000000,0.000000,0.000000,1647413613.027701,0.000000
175.000000,44586.097549,34500.945747,32551.761872,6981.410918,36402.073372,43933.001927,27629.170135,23319.709101,-0.034000,0.970000,0.176000,192.000000,0.000000,0.000000,0.000000,0.000000,0.000000,0.000000,0.000000,0.000000,0.000000,1647413613.034383,0.000000
176.000000,44585.181127,34501.213968,32552.365369,6982.841430,36401.358116,43941.048555,27647.386807,23349.436921,-0.034000,0.970000,0.176000,192.000000,0.000000,0.000000,0.000000,0.000000,0.000000,0.000000,0.000000,0.000000,0.000000,1647413613.034399,0.000000
177.000000,44592.579555,34508.366526,32559.361465,6988.094090,36404.330898,43945.049518,27640.368359,23352.074427,-0.034000,0.970000,0.176000,192.000000,0.000000,0.000000,0.000000,0.000000,0.000000,0.000000,0.000000,0.000000,0.000000,1647413613.042331,0.000000
178.000000,44593.853604,34509.886445,32561.820157,6989.524602,36406.990755,43946.412974,27634.914533,23348.341685,-0.034000,0.970000,0.176000,192.000000,0.000000,0.000000,0.000000,0.000000,0.000000,0.000000,0.000000,0.000000,0.000000,1647413613.042348,0.000000
179.000000,44588.355075,34502.398610,32557.796843,6984.562514,36403.190959,43942.881399,27634.243981,23345.011275,-0.034000,0.968000,0.176000,192.000000,254.000000,240.000000,30.000000,64.000000,5.000000,128.000000,0.000000,0.000000,0.000000,1647413613.050354,0.000000
180.000000,44597.049904,34509.394706,32562.311895,6990.172802,36409.494151,43942.724936,27633.416967,23346.799415,-0.034000,0.968000,0.176000,192.000000,0.000000,0.000000,0.000000,0.000000,0.000000,0.000000,0.000000,0.000000,0.000000,1647413613.050371,0.000000
181.000000,44602.034343,34515.921416,32567.229279,6996.341884,36418.211331,43950.346881,27648.124414,23342.776101,-0.034000,0.968000,0.176000,192.000000,0.000000,0.000000,0.000000,0.000000,0.000000,0.000000,0.000000,0.000000,0.000000,1647413613.057494,0.000000
182.000000,44592.423092,34506.958366,32559.920259,6988.205849,36409.874130,43944.222503,27637.574391,23337.970476,-0.034000,0.968000,0.176000,192.000000,0.000000,0.000000,0.000000,0.000000,0.000000,0.000000,0.000000,0.000000,0.000000,1647413613.057510,0.000000
183.000000,44592.624258,34506.757201,32555.226392,6983.042596,36404.554415,43935.997061,27624.677435,23332.337836,-0.034000,0.968000,0.176000,192.000000,0.000000,0.000000,0.000000,0.000000,0.000000,0.000000,0.000000,0.000000,0.000000,1647413613.064846,0.000000
184.000000,44598.055732,34509.059430,32561.037846,6986.998855,36411.058773,43942.613178,27645.196336,23334.729473,-0.034000,0.968000,0.176000,192.000000,0.000000,0.000000,0.000000,0.000000,0.000000,0.000000,0.000000,0.000000,0.000000,1647413613.064862,0.000000
185.000000,44599.530947,34510.668756,32561.395474,6989.457546,36415.104439,43946.412974,27644.659894,23339.758615,-0.034000,0.968000,0.176000,192.000000,0.000000,0.000000,0.000000,0.000000,0.000000,0.000000,0.000000,0.000000,0.000000,1647413613.072929,0.000000
186.000000,44597.452235,34509.215892,32557.349808,6989.256381,36409.851779,43941.808515,27639.004903,23340.429168,-0.034000,0.968000,0.176000,192.000000,0.000000,0.000000,0.000000,0.000000,0.000000,0.000000,0.000000,0.000000,0.000000,1647413613.072946,0.000000
187.000000,44604.291869,34513.730945,32564.792939,6996.364235,36415.998508,43950.704509,27648.973781,23343.960743,-0.034000,0.968000,0.176000,192.000000,0.000000,0.000000,0.000000,0.000000,0.000000,0.000000,0.000000,0.000000,0.000000,1647413613.080017,0.000000
188.000000,44594.814729,34507.047773,32557.193346,6988.921105,36408.890654,43943.976634,27636.702673,23341.166775,-0.034000,0.968000,0.176000,192.000000,0.000000,0.000000,0.000000,0.000000,0.000000,0.000000,0.000000,0.000000,0.000000,1647413613.087028,0.000000
189.000000,44593.115996,34506.511331,32558.020360,6987.848221,36409.158875,43941.964977,27630.466536,23335.020046,-0.032000,0.974000,0.178000,192.000000,255.000000,0.000000,30.000000,112.000000,5.000000,144.000000,0.000000,0.000000,0.000000,1647413613.087045,0.000000
190.000000,44597.496938,34509.886445,32562.267192,6990.463375,36411.394049,43946.524733,27631.315903,23346.195918,-0.032000,0.974000,0.178000,192.000000,0.000000,0.000000,0.000000,0.000000,0.000000,0.000000,0.000000,0.000000,0.000000,1647413613.094674,0.000000
191.000000,44602.235508,34514.513256,32567.072817,6995.045483,36416.557302,43952.090317,27632.612304,23352.052075,-0.032000,0.974000,0.178000,192.000000,0.000000,0.000000,0.000000,0.000000,0.000000,0.000000,0.000000,0.000000,0.000000,1647413613.094691,0.000000
192.000000,44606.012953,34523.342195,32573.241898,7004.835547,36420.088878,43962.081547,27661.110778,23354.980153,-0.032000,0.974000,0.178000,192.000000,0.000000,0.000000,0.000000,0.000000,0.000000,0.000000,0.000000,0.000000,0.000000,1647413613.102623,0.000000
193.000000,44609.544529,34528.483096,32575.208852,7009.641172,36423.911026,43962.774451,27658.473272,23354.287249,-0.032000,0.974000,0.178000,192.000000,0.000000,0.000000,0.000000,0.000000,0.000000,0.000000,0.000000,0.000000,0.000000,1647413613.102659,0.000000
194.000000,44617.322936,34531.299416,32578.293392,7009.574116,36426.146200,43957.633550,27639.675455,23348.766368,-0.032000,0.974000,0.178000,192.000000,0.000000,0.000000,0.000000,0.000000,0.000000,0.000000,0.000000,0.000000,0.000000,1647413613.110664,0.000000
195.000000,44609.298659,34523.163381,32570.917317,6997.973561,36409.002412,43946.502381,27625.795022,23336.897592,-0.032000,0.974000,0.178000,192.000000,0.000000,0.000000,0.000000,0.000000,0.000000,0.000000,0.000000,0.000000,0.000000,1647413613.110680,0.000000
196.000000,44608.806921,34526.091460,32573.398360,7004.634381,36410.969366,43953.163201,27641.307132,23342.552584,-0.032000,0.974000,0.178000,192.000000,0.000000,0.000000,0.000000,0.000000,0.000000,0.000000,0.000000,0.000000,0.000000,1647413613.117255,0.000000
197.000000,44605.342401,34521.039965,32568.972715,7000.409901,36409.449447,43950.816268,27637.462632,23336.919944,-0.032000,0.974000,0.178000,192.000000,0.000000,0.000000,0.000000,0.000000,0.000000,0.000000,0.000000,0.000000,0.000000,1647413613.117271,0.000000
198.000000,44602.704895,34515.183808,32565.619953,6995.604276,36411.595215,43946.457678,27624.498621,23331.667284,-0.032000,0.974000,0.178000,192.000000,0.000000,0.000000,0.000000,0.000000,0.000000,0.000000,0.000000,0.000000,0.000000,1647413613.125284,0.000000
199.000000,44602.257860,34513.887407,32563.116558,6995.716035,36412.802209,43949.162239,27637.730853,23335.489432,-0.030000,0.974000,0.178000,192.000000,255.000000,16.000000,30.000000,112.000000,5.000000,144.000000,0.000000,0.000000,0.000000,1647413613.125302,0.000000
200.000000,44604.202462,34516.211988,32567.743369,6997.660637,36411.461104,43950.257474,27635.786252,23330.773214,-0.030000,0.974000,0.178000,192.000000,0.000000,0.000000,0.000000,0.000000,0.000000,0.000000,0.000000,0.000000,0.000000,1647413613.133249,0.000000
201.000000,44606.549395,34519.721212,32573.130139,7002.667427,36415.015032,43958.572323,27646.738606,23350.733322,-0.030000,0.974000,0.178000,192.000000,0.000000,0.000000,0.000000,0.000000,0.000000,0.000000,0.000000,0.000000,0.000000,1647413613.133265,0.000000
202.000000,44605.096532,34519.676509,32573.174843,7001.840413,36417.294910,43965.233143,27658.897955,23354.957802,-0.030000,0.974000,0.178000,192.000000,0.000000,0.000000,0.000000,0.000000,0.000000,0.000000,0.000000,0.000000,0.000000,1647413613.140307,0.000000
203.000000,44604.269517,34517.195465,32572.817215,7000.141680,36420.893540,43963.445003,27650.761920,23349.258107,-0.030000,0.974000,0.178000,192.000000,0.000000,0.000000,0.000000,0.000000,0.000000,0.000000,0.000000,0.000000,0.000000,1647413613.146871,0.000000
204.000000,44601.587308,34514.490904,32571.498462,6998.018265,36420.737078,43961.276884,27649.152595,23349.906307,-0.030000,0.974000,0.178000,192.000000,0.000000,0.000000,0.000000,0.000000,0.000000,0.000000,0.000000,0.000000,0.000000,1647413613.146887,0.000000
205.000000,44598.234546,34512.814523,32568.235107,6994.106709,36413.852741,43957.790012,27651.208955,23346.575898,-0.030000,0.974000,0.178000,192.000000,0.000000,0.000000,0.000000,0.000000,0.000000,0.000000,0.000000,0.000000,0.000000,1647413613.154905,0.000000
206.000000,44600.581479,34514.557959,32569.464453,6995.403110,36408.108343,43958.035881,27642.558830,23352.834386,-0.030000,0.974000,0.178000,192.000000,0.000000,0.000000,0.000000,0.000000,0.000000,0.000000,0.000000,0.000000,0.000000,1647413613.154922,0.000000
207.000000,44605.878843,34517.530741,32573.934802,6999.113500,36412.757506,43957.790012,27633.707539,23348.095816,-0.030000,0.974000,0.178000,192.000000,0.000000,0.000000,0.000000,0.000000,0.000000,0.000000,0.000000,0.000000,0.000000,1647413613.163003,0.000000
208.000000,44605.700029,34514.915587,32570.447930,6996.386587,36412.712802,43956.113631,27647.744435,23343.200784,-0.030000,0.974000,0.178000,192.000000,0.000000,0.000000,0.000000,0.000000,0.000000,0.000000,0.000000,0.000000,0.000000,1647413613.163019,0.000000
209.000000,44603.889537,34513.261558,32565.508195,6992.989122,36402.229834,43950.503343,27642.804699,23345.324200,-0.030000,0.974000,0.178000,192.000000,0.000000,0.000000,0.000000,0.000000,0.000000,0.000000,0.000000,0.000000,0.000000,1647413613.169896,0.000000
210.000000,44601.632011,34513.172151,32562.423654,6991.849183,36399.122941,43950.033957,27636.881487,23344.564241,-0.028000,0.970000,0.172000,192.000000,255.000000,32.000000,30.000000,80.000000,5.000000,96.000000,0.000000,0.000000,0.000000,1647413613.169913,0.000000
211.000000,44601.363790,34515.586140,32562.378950,6995.000779,36402.229834,43952.090317,27634.154574,23339.021008,-0.028000,0.970000,0.172000,192.000000,0.000000,0.000000,0.000000,0.000000,0.000000,0.000000,0.000000,0.000000,0.000000,1647413613.177502,0.000000
212.000000,44594.725322,34511.048736,32557.170994,6991.200982,36403.012145,43949.989253,27639.854269,23335.690598,-0.028000,0.970000,0.172000,192.000000,0.000000,0.000000,0.000000,0.000000,0.000000,0.000000,0.000000,0.000000,0.000000,1647413613.177519,0.000000
213.000000,44600.022686,34516.860189,32564.658828,6995.939552,36408.264805,43955.912466,27648.504394,23338.842194,-0.028000,0.970000,0.172000,192.000000,0.000000,0.000000,0.000000,0.000000,0.000000,0.000000,0.000000,0.000000,0.000000,1647413613.185510,0.000000
214.000000,44606.661154,34521.397593,32569.062122,6999.359369,36412.131657,43962.819155,27650.292534,23366.267784,-0.028000,0.970000,0.172000,192.000000,0.000000,0.000000,0.000000,0.000000,0.000000,0.000000,0.000000,0.000000,0.000000,1647413613.185545,0.000000
215.000000,44603.196633,34516.100230,32568.212756,6995.358407,36403.682697,43957.879419,27653.667647,23361.618622,-0.028000,0.970000,0.172000,192.000000,0.000000,0.000000,0.000000,0.000000,0.000000,0.000000,0.000000,0.000000,0.000000,1647413613.192715,0.000000
216.000000,44595.641744,34510.981680,32562.825985,6990.731596,36401.782799,43949.318701,27634.087519,23354.577822,-0.028000,0.970000,0.172000,192.000000,0.000000,0.000000,0.000000,0.000000,0.000000,0.000000,0.000000,0.000000,0.000000,1647413613.192733,0.000000
217.000000,44602.771950,34518.402459,32568.838605,6997.504174,36407.057811,43956.717128,27649.376112,23360.970421,-0.028000,0.970000,0.172000,192.000000,0.000000,0.000000,0.000000,0.000000,0.000000,0.000000,0.000000,0.000000,0.000000,1647413613.198947,0.000000
218.000000,44599.642706,34513.082744,32564.189442,6992.027997,36405.314375,43952.157372,27639.630752,23347.805243,-0.028000,0.970000,0.172000,192.000000,0.000000,0.000000,0.000000,0.000000,0.000000,0.000000,0.000000,0.000000,0.000000,1647413613.198965,0.000000
219.000000,44601.073218,34516.189637,32564.949401,6993.056177,36405.783761,43956.538314,27647.811490,23348.341685,-0.028000,0.970000,0.172000,192.000000,0.000000,0.000000,0.000000,0.000000,0.000000,0.000000,0.000000,0.000000,0.000000,1647413613.206972,0.000000
220.000000,44610.796226,34523.744526,32574.225375,6999.158204,36406.700183,43966.082509,27660.797854,23352.230889,-0.032000,0.958000,0.174000,192.000000,255.000000,0.000000,29.000000,240.000000,5.000000,112.000000,0.000000,0.000000,0.000000,1647413613.214885,0.000000
221.000000,44606.772912,34520.212951,32569.822081,6999.247610,36406.700183,43966.328378,27661.066074,23357.081217,-0.032000,0.958000,0.174000,192.000000,0.000000,0.000000,0.000000,0.000000,0.000000,0.000000,0.000000,0.000000,0.000000,1647413613.214894,0.000000
222.000000,44598.659229,34511.495770,32561.015494,6989.099918,36397.379505,43956.515963,27649.689037,23347.715836,-0.032000,0.958000,0.174000,192.000000,0.000000,0.000000,0.000000,0.000000,0.000000,0.000000,0.000000,0.000000,0.000000,1647413613.222096,0.000000
223.000000,44601.207328,34514.937939,32562.155433,6988.831698,36401.715744,43957.387681,27644.168156,23346.799415,-0.032000,0.958000,0.174000,192.000000,0.000000,0.000000,0.000000,0.000000,0.000000,0.000000,0.000000,0.000000,0.000000,1647413613.222108,0.000000
224.000000,44600.246203,34513.865055,32563.116558,6986.842392,36402.073372,43956.337149,27640.301304,23347.268802,-0.032000,0.958000,0.174000,192.000000,0.000000,0.000000,0.000000,0.000000,0.000000,0.000000,0.000000,0.000000,0.000000,1647413613.229774,0.000000
225.000000,44607.666982,34522.470477,32571.163186,6994.553744,36408.376564,43962.327416,27646.112757,23351.761502,-0.032000,0.958000,0.174000,192.000000,0.000000,0.000000,0.000000,0.000000,0.000000,0.000000,0.000000,0.000000,0.000000,1647413613.229790,0.000000
226.000000,44606.102360,34518.871846,32570.023247,6991.446852,36403.302718,43960.047538,27641.396539,23346.799415,-0.032000,0.958000,0.174000,192.000000,0.000000,0.000000,0.000000,0.000000,0.000000,0.000000,0.000000,0.000000,0.000000,1647413613.237804,0.000000
227.000000,44605.029476,34519.341233,32572.437235,6994.821965,36410.075296,43965.501364,27651.477176,23346.821767,-0.032000,0.958000,0.174000,192.000000,0.000000,0.000000,0.000000,0.000000,0.000000,0.000000,0.000000,0.000000,0.000000,1647413613.237822,0.000000
228.000000,44604.425979,34517.955425,32569.240936,6991.715073,36416.490247,43967.445966,27652.192432,23344.787758,-0.032000,0.958000,0.174000,192.000000,0.000000,0.000000,0.000000,0.000000,0.000000,0.000000,0.000000,0.000000,0.000000,1647413613.246506,0.000000
229.000000,44608.158721,34519.452991,32573.487767,6993.391453,36418.926587,43972.385701,27651.924211,23349.056941,-0.032000,0.958000,0.174000,192.000000,0.000000,0.000000,0.000000,0.000000,0.000000,0.000000,0.000000,0.000000,0.000000,1647413613.246523,0.000000
230.000000,44604.962421,34517.418983,32571.587869,6990.083395,36410.924662,43968.965884,27645.375150,23349.861604,-0.036000,0.972000,0.182000,192.000000,254.000000,224.000000,30.000000,96.000000,5.000000,176.000000,0.000000,0.000000,0.000000,1647413613.253152,0.000000
231.000000,44613.456084,34524.482134,32579.567442,6994.732558,36416.825523,43973.547992,27640.346007,23350.398046,-0.036000,0.972000,0.182000,192.000000,0.000000,0.000000,0.000000,0.000000,0.000000,0.000000,0.000000,0.000000,0.000000,1647413613.253169,0.000000
232.000000,44618.105247,34529.779497,32583.210776,7000.968695,36424.849799,43980.432329,27659.903784,23356.164796,-0.036000,0.972000,0.182000,192.000000,0.000000,0.000000,0.000000,0.000000,0.000000,0.000000,0.000000,0.000000,0.000000,1647413613.260259,0.000000
233.000000,44614.260747,34526.784364,32578.248689,6998.197078,36420.111229,43975.760815,27653.868813,23354.734284,-0.036000,0.972000,0.182000,192.000000,0.000000,0.000000,0.000000,0.000000,0.000000,0.000000,0.000000,0.000000,0.000000,1647413613.260276,0.000000
234.000000,44608.561052,34522.872808,32571.900794,6990.910410,36414.657404,43967.133041,27645.218688,23353.460235,-0.036000,0.972000,0.182000,192.000000,0.000000,0.000000,0.000000,0.000000,0.000000,0.000000,0.000000,0.000000,0.000000,1647413613.266779,0.000000
235.000000,44609.365715,34524.616244,32572.392532,6990.664541,36414.031555,43969.077643,27659.344990,23358.243508,-0.036000,0.972000,0.182000,192.000000,0.000000,0.000000,0.000000,0.000000,0.000000,0.000000,0.000000,0.000000,0.000000,1647413613.274751,0.000000
236.000000,44612.092628,34523.476305,32574.560651,6991.357445,36408.577729,43964.003797,27654.159385,23350.621563,-0.036000,0.972000,0.182000,192.000000,0.000000,0.000000,0.000000,0.000000,0.000000,0.000000,0.000000,0.000000,0.000000,1647413613.274768,0.000000
237.000000,44609.365715,34518.223645,32571.140834,6988.049387,36405.336726,43954.347843,27640.122490,23341.345589,-0.036000,0.972000,0.182000,192.000000,0.000000,0.000000,0.000000,0.000000,0.000000,0.000000,0.000000,0.000000,0.000000,1647413613.282598,0.000000
238.000000,44609.030439,34519.296529,32571.543166,6989.792823,36409.650613,43954.258436,27638.267295,23348.274630,-0.036000,0.972000,0.182000,192.000000,0.000000,0.000000,0.000000,0.000000,0.000000,0.000000,0.000000,0.000000,0.000000,1647413613.282615,0.000000
239.000000,44604.448331,34515.474381,32568.905660,6986.998855,36405.381430,43949.832791,27633.416967,23360.836310,-0.036000,0.972000,0.182000,192.000000,0.000000,0.000000,0.000000,0.000000,0.000000,0.000000,0.000000,0.000000,0.000000,1647413613.289696,0.000000
240.000000,44603.263688,34515.340270,32568.749198,6982.461450,36407.504846,43943.909579,27630.801813,23344.765406,-0.030000,0.974000,0.182000,192.000000,255.000000,16.000000,30.000000,112.000000,5.000000,176.000000,0.000000,0.000000,0.000000,1647413613.289713,0.000000
241.000000,44607.510520,34522.068146,32575.789997,6992.027997,36414.858569,43955.130155,27655.679304,23357.103569,-0.030000,0.974000,0.182000,192.000000,0.000000,0.000000,0.000000,0.000000,0.000000,0.000000,0.000000,0.000000,0.000000,1647413613.297432,0.000000
242.000000,44604.873014,34520.861151,32575.007686,6991.670369,36414.076258,43955.778355,27654.718179,23362.825616,-0.030000,0.974000,0.182000,192.000000,0.000000,0.000000,0.000000,0.000000,0.000000,0.000000,0.000000,0.000000,0.000000,1647413613.297449,0.000000
243.000000,44604.671848,34519.900026,32572.772512,6987.132965,36413.361003,43950.883323,27645.799833,23356.522424,-0.030000,0.974000,0.182000,192.000000,0.000000,0.000000,0.000000,0.000000,0.000000,0.000000,0.000000,0.000000,0.000000,1647413613.305480,0.000000
244.000000,44604.113055,34518.648329,32571.789035,6986.328302,36411.237587,43953.833753,27647.386807,23357.662363,-0.030000,0.974000,0.182000,192.000000,0.000000,0.000000,0.000000,0.000000,0.000000,0.000000,0.000000,0.000000,0.000000,1647413613.305498,0.000000
245.000000,44605.878843,34519.430640,32571.833738,6985.590695,36406.297851,43953.766698,27649.957258,23354.644877,-0.030000,0.974000,0.182000,192.000000,0.000000,0.000000,0.000000,0.000000,0.000000,0.000000,0.000000,0.000000,0.000000,1647413613.313480,0.000000
246.000000,44606.080008,34517.508390,32571.431407,6986.305950,36408.443619,43952.425593,27646.000999,23353.594345,-0.030000,0.974000,0.182000,192.000000,0.000000,0.000000,0.000000,0.000000,0.000000,0.000000,0.000000,0.000000,0.000000,1647413613.313497,0.000000
247.000000,44606.638802,34518.715384,32572.146663,6987.401186,36412.757506,43950.257474,27636.076824,23352.052075,-0.030000,0.974000,0.182000,192.000000,0.000000,0.000000,0.000000,0.000000,0.000000,0.000000,0.000000,0.000000,0.000000,1647413613.320007,0.000000
248.000000,44610.483302,34524.415079,32575.745294,6991.916238,36420.625320,43954.481954,27646.716255,23351.158005,-0.030000,0.974000,0.182000,192.000000,0.000000,0.000000,0.000000,0.000000,0.000000,0.000000,0.000000,0.000000,0.000000,1647413613.320024,0.000000
249.000000,44611.153854,34529.667739,32576.169977,6996.721863,36415.104439,43953.923160,27646.962124,23352.052075,-0.030000,0.974000,0.182000,192.000000,0.000000,0.000000,0.000000,0.000000,0.000000,0.000000,0.000000,0.000000,0.000000,1647413613.327083,0.000000
250.000000,44611.355020,34530.651215,32570.805558,6991.804480,36413.852741,43947.530561,27637.149708,23347.648781,-0.028000,0.966000,0.188000,192.000000,255.000000,32.000000,30.000000,48.000000,5.000000,224.000000,0.000000,0.000000,0.000000,1647413613.335045,0.000000
251.000000,44607.689334,34521.732869,32573.040733,6990.418671,36419.172456,43954.750175,27642.692941,23354.421360,-0.028000,0.966000,0.188000,192.000000,0.000000,0.000000,0.000000,0.000000,0.000000,0.000000,0.000000,0.000000,0.000000,1647413613.335061,0.000000
252.000000,44591.417264,34502.309203,32569.240936,6983.981369,36418.904235,43959.287579,27646.470385,23351.895613,-0.028000,0.966000,0.188000,192.000000,0.000000,0.000000,0.000000,0.000000,0.000000,0.000000,0.000000,0.000000,0.000000,1647413613.342304,0.000000
253.000000,44589.986752,34500.051677,32569.755026,6982.595561,36420.960596,43956.851239,27638.826089,23351.940316,-0.028000,0.966000,0.188000,192.000000,0.000000,0.000000,0.000000,0.000000,0.000000,0.000000,0.000000,0.000000,0.000000,1647413613.342320,0.000000
254.000000,44597.496938,34507.204235,32574.381837,6985.545991,36424.603930,43956.448907,27642.692941,23353.348476,-0.028000,0.966000,0.188000,192.000000,0.000000,0.000000,0.000000,0.000000,0.000000,0.000000,0.000000,0.000000,0.000000,1647413613.349472,0.000000
255.000000,44598.838043,34506.399573,32576.035866,6988.407014,36429.275445,43958.572323,27642.268257,23352.454406,-0.028000,0.966000,0.188000,192.000000,0.000000,0.000000,0.000000,0.000000,0.000000,0.000000,0.000000,0.000000,0.000000,1647413613.349489,0.000000
0.000000,44594.792377,34500.990451,32569.173881,6980.762718,36426.392070,43952.783221,27632.746414,23352.722627,-0.028000,0.966000,0.188000,192.000000,0.000000,0.000000,0.000000,0.000000,0.000000,0.000000,0.000000,0.000000,0.000000,1647413613.357690,0.000000
1.000000,44594.926488,34499.247014,32567.206927,6977.700529,36419.552436,43950.525695,27641.262429,23345.838290,-0.028000,0.966000,0.188000,192.000000,0.000000,0.000000,0.000000,0.000000,0.000000,0.000000,0.000000,0.000000,0.000000,1647413613.357726,0.000000
2.000000,44594.010066,34500.632823,32568.145700,6978.572247,36419.217160,43955.331320,27640.949504,23348.654610,-0.028000,0.966000,0.188000,192.000000,0.000000,0.000000,0.000000,0.000000,0.000000,0.000000,0.000000,0.000000,0.000000,1647413613.365714,0.000000
3.000000,44588.846813,34498.308241,32564.681180,6975.286540,36417.093744,43961.321588,27648.504394,23356.522424,-0.028000,0.966000,0.188000,192.000000,0.000000,0.000000,0.000000,0.000000,0.000000,0.000000,0.000000,0.000000,0.000000,1647413613.365731,0.000000
4.000000,44589.763235,34501.795113,32567.564555,6978.415785,36411.528160,43963.757928,27643.341141,23353.303773,-0.034000,0.964000,0.190000,192.000000,254.000000,240.000000,30.000000,32.000000,5.000000,240.000000,0.000000,0.000000,0.000000,1647413613.372201,0.000000
5.000000,44587.840985,34500.677526,32562.155433,6976.605293,36415.484418,43957.588846,27630.287722,23344.430130,-0.034000,0.964000,0.190000,192.000000,0.000000,0.000000,0.000000,0.000000,0.000000,0.000000,0.000000,0.000000,0.000000,1647413613.372218,0.000000
6.000000,44589.338552,34502.800942,32561.775453,6976.381776,36420.021822,43956.761832,27643.721121,23344.430130,-0.034000,0.964000,0.190000,192.000000,0.000000,0.000000,0.000000,0.000000,0.000000,0.000000,0.000000,0.000000,0.000000,1647413613.380296,0.000000
7.000000,44593.920659,34504.477323,32566.491671,6975.465354,36418.323090,43960.382814,27653.198260,23344.921868,-0.034000,0.964000,0.190000,192.000000,0.000000,0.000000,0.000000,0.000000,0.000000,0.000000,0.000000,0.000000,0.000000,1647413613.380307,0.000000
8.000000,44593.473624,34503.113866,32565.798767,6976.270017,36418.948939,43958.013530,27636.121528,23347.514671,-0.034000,0.964000,0.190000,192.000000,0.000000,0.000000,0.000000,0.000000,0.000000,0.000000,0.000000,0.000000,0.000000,1647413613.387398,0.000000
9.000000,44594.725322,34506.578387,32565.463491,6980.561552,36421.564093,43956.471259,27646.738606,23339.199822,-0.034000,0.964000,0.190000,192.000000,0.000000,0.000000,0.000000,0.000000,0.000000,0.000000,0.000000,0.000000,0.000000,1647413613.395405,0.000000
10.000000,44590.299677,34499.872863,32560.814328,6973.766622,36416.959633,43946.547085,27631.762938,23327.062825,-0.034000,0.964000,0.190000,192.000000,0.000000,0.000000,0.000000,0.000000,0.000000,0.000000,0.000000,0.000000,0.000000,1647413613.395422,0.000000
11.000000,44588.243316,34496.765971,32560.993142,6973.610160,36413.115133,43946.725899,27621.749356,23357.841177,-0.034000,0.964000,0.190000,192.000000,0.000000,0.000000,0.000000,0.000000,0.000000,0.000000,0.000000,0.000000,0.000000,1647413613.402027,0.000000
12.000000,44584.443520,34494.195520,32560.255535,6973.856029,36410.723497,43946.815306,27630.891219,23355.762464,-0.034000,0.964000,0.190000,192.000000,0.000000,0.000000,0.000000,0.000000,0.000000,0.000000,0.000000,0.000000,0.000000,1647413613.402044,0.000000
13.000000,44581.515441,34490.887462,32557.238049,6971.531447,36409.807075,43945.496553,27636.747377,23346.128863,-0.034000,0.964000,0.190000,192.000000,0.000000,0.000000,0.000000,0.000000,0.000000,0.000000,0.000000,0.000000,0.000000,1647413613.410020,0.000000
14.000000,44579.369674,34487.400590,32553.192383,6966.681119,36401.894558,43941.987329,27636.076824,23340.384464,-0.036000,0.962000,0.184000,192.000000,254.000000,224.000000,30.000000,16.000000,5.000000,192.000000,0.000000,0.000000,0.000000,1647413613.410037,0.000000
15.000000,44577.000389,34485.031305,32547.917372,6963.998909,36398.161816,43937.673442,27623.984530,23332.449595,-0.036000,0.962000,0.184000,192.000000,0.000000,0.000000,0.000000,0.000000,0.000000,0.000000,0.000000,0.000000,0.000000,1647413613.417917,0.000000
16.000000,44590.478491,34496.877730,32561.931916,6979.622779,36413.852741,43954.169029,27639.742510,23349.995714,-0.036000,0.962000,0.184000,192.000000,0.000000,0.000000,0.000000,0.000000,0.000000,0.000000,0.000000,0.000000,0.000000,1647413613.417933,0.000000
17.000000,44593.294810,34503.136218,32565.150567,6985.009549,36420.826485,43957.208867,27629.259542,23360.925717,-0.036000,0.962000,0.184000,192.000000,0.000000,0.000000,0.000000,0.000000,0.000000,0.000000,0.000000,0.000000,0.000000,1647413613.425182,0.000000
18.000000,44592.937183,34503.784419,32566.134043,6984.227238,36415.573825,43957.275922,27633.796946,23352.476758,-0.036000,0.962000,0.184000,192.000000,0.000000,0.000000,0.000000,0.000000,0.000000,0.000000,0.000000,0.000000,0.000000,1647413613.425198,0.000000
19.000000,44591.126691,34499.336421,32563.876517,6981.947360,36412.735154,43957.678253,27655.433435,23343.536060,-0.036000,0.962000,0.184000,192.000000,0.000000,0.000000,0.000000,0.000000,0.000000,0.000000,0.000000,0.000000,0.000000,1647413613.432632,0.000000
20.000000,44590.836119,34496.475398,32562.580116,6977.432308,36410.455276,43955.040748,27647.431510,23341.725569,-0.036000,0.962000,0.184000,192.000000,0.000000,0.000000,0.000000,0.000000,0.000000,0.000000,0.000000,0.000000,0.000000,1647413613.432649,0.000000
21.000000,44593.451273,34501.325727,32567.966887,6981.589732,36416.691413,43961.589809,27643.475252,23350.330991,-0.036000,0.962000,0.184000,192.000000,0.000000,0.000000,0.000000,0.000000,0.000000,0.000000,0.000000,0.000000,0.000000,1647413613.440621,0.000000
22.000000,44588.511537,34495.246052,32562.647171,6975.778279,36416.378488,43955.331320,27631.517068,23343.692522,-0.036000,0.962000,0.184000,192.000000,0.000000,0.000000,0.000000,0.000000,0.000000,0.000000,0.000000,0.000000,0.000000,1647413613.440656,0.000000
23.000000,44587.617467,34495.246052,32559.607334,6976.560590,36407.996584,43953.163201,27631.405310,23343.781929,-0.036000,0.962000,0.184000,192.000000,0.000000,0.000000,0.000000,0.000000,0.000000,0.000000,0.000000,0.000000,0.000000,1647413613.447661,0.000000
24.000000,44591.730188,34501.504541,32563.988276,6983.780203,36407.035459,43957.879419,27631.785289,23347.782892,-0.044000,0.968000,0.188000,192.000000,254.000000,160.000000,30.000000,64.000000,5.000000,224.000000,0.000000,0.000000,0.000000,1647413613.447679,0.000000
25.000000,44597.452235,34507.427753,32571.610221,6989.926933,36412.645747,43964.249666,27641.217725,23350.375694,-0.044000,0.968000,0.188000,192.000000,0.000000,0.000000,0.000000,0.000000,0.000000,0.000000,0.000000,0.000000,0.000000,1647413613.454485,0.000000
26.000000,44589.673828,34500.677526,32564.100035,6982.059119,36407.214273,43954.951341,27636.009769,23337.612848,-0.044000,0.968000,0.188000,192.000000,0.000000,0.000000,0.000000,0.000000,0.000000,0.000000,0.000000,0.000000,0.000000,1647413613.461910,0.000000
27.000000,44588.667999,34498.867035,32561.440177,6978.661654,36407.437790,43954.079623,27633.081690,23341.926735,-0.044000,0.968000,0.188000,192.000000,0.000000,0.000000,0.000000,0.000000,0.000000,0.000000,0.000000,0.000000,0.000000,1647413613.461918,0.000000
28.000000,44593.764197,34505.304337,32566.514023,6984.875439,36406.096686,43959.958131,27639.787214,23351.895613,-0.044000,0.968000,0.188000,192.000000,0.000000,0.000000,0.000000,0.000000,0.000000,0.000000,0.000000,0.000000,0.000000,1647413613.470199,0.000000
29.000000,44596.535813,34508.277119,32568.637439,6987.647055,36402.118075,43962.238009,27641.418891,23350.643915,-0.044000,0.968000,0.188000,192.000000,0.000000,0.000000,0.000000,0.000000,0.000000,0.000000,0.000000,0.000000,0.000000,1647413613.470216,0.000000
30.000000,44594.837081,34504.052639,32567.788073,6984.920142,36402.475703,43960.494573,27637.283818,23353.482587,-0.044000,0.968000,0.188000,192.000000,0.000000,0.000000,0.000000,0.000000,0.000000,0.000000,0.000000,0.000000,0.000000,1647413613.477472,0.000000
31.000000,44593.160700,34500.096381,32564.994105,6982.863782,36406.476665,43959.086413,27638.468461,23348.922831,-0.044000,0.968000,0.188000,192.000000,0.000000,0.000000,0.000000,0.000000,0.000000,0.000000,0.000000,0.000000,0.000000,1647413613.477488,0.000000
32.000000,44590.746712,34498.487055,32564.189442,6983.601389,36407.393087,43957.298274,27640.703635,23341.166775,-0.044000,0.968000,0.188000,192.000000,0.000000,0.000000,0.000000,0.000000,0.000000,0.000000,0.000000,0.000000,0.000000,1647413613.484888,0.000000
33.000000,44591.238450,34499.090552,32565.083511,6981.477974,36405.068505,43957.633550,27640.569525,23341.680865,-0.044000,0.968000,0.188000,192.000000,0.000000,0.000000,0.000000,0.000000,0.000000,0.000000,0.000000,0.000000,0.000000,1647413613.484904,0.000000
34.000000,44593.965363,34504.119695,32567.922183,6985.166011,36406.253148,43959.533448,27638.624923,23351.940316,-0.034000,0.964000,0.182000,192.000000,254.000000,240.000000,30.000000,32.000000,5.000000,176.000000,0.000000,0.000000,0.000000,1647413613.492900,0.000000
35.000000,44598.279249,34507.830084,32573.063084,6989.859878,36411.975194,43962.282713,27645.173984,23351.783854,-0.034000,0.964000,0.182000,192.000000,0.000000,0.000000,0.000000,0.000000,0.000000,0.000000,0.000000,0.000000,0.000000,1647413613.492916,0.000000
36.000000,44598.078084,34509.282948,32571.006724,6989.032863,36412.958671,43959.756966,27639.027254,23350.666267,-0.034000,0.964000,0.182000,192.000000,0.000000,0.000000,0.000000,0.000000,0.000000,0.000000,0.000000,0.000000,0.000000,1647413613.500873,0.000000
37.000000,44590.992581,34501.683355,32562.401302,6982.327340,36409.963537,43953.207904,27630.421833,23341.680865,-0.034000,0.964000,0.182000,192.000000,0.000000,0.000000,0.000000,0.000000,0.000000,0.000000,0.000000,0.000000,0.000000,1647413613.500890,0.000000
38.000000,44584.935258,34493.614375,32555.896945,6977.566418,36399.122941,43953.274960,27644.503432,23344.139557,-0.034000,0.964000,0.182000,192.000000,0.000000,0.000000,0.000000,0.000000,0.000000,0.000000,0.000000,0.000000,0.000000,1647413613.507461,0.000000
39.000000,44594.770026,34502.331555,32562.446006,6983.646093,36403.682697,43958.684082,27640.100138,23352.074427,-0.034000,0.964000,0.182000,192.000000,0.000000,0.000000,0.000000,0.000000,0.000000,0.000000,0.000000,0.000000,0.000000,1647413613.507477,0.000000
40.000000,44595.462930,34501.057506,32559.741445,6979.712186,36401.559282,43952.894980,27635.808603,23345.145386,-0.034000,0.964000,0.182000,192.000000,0.000000,0.000000,0.000000,0.000000,0.000000,0.000000,0.000000,0.000000,0.000000,1647413613.514682,0.000000
41.000000,44591.439616,34499.314070,32557.282753,6977.722881,36396.865415,43951.822096,27640.882449,23336.025874,-0.034000,0.964000,0.182000,192.000000,0.000000,0.000000,0.000000,0.000000,0.000000,0.000000,0.000000,0.000000,0.000000,1647413613.522499,0.000000
42.000000,44588.556241,34497.592985,32554.667599,6975.778279,36397.446561,43950.011605,27636.434452,23330.460290,-0.034000,0.964000,0.182000,192.000000,0.000000,0.000000,0.000000,0.000000,0.000000,0.000000,0.000000,0.000000,0.000000,1647413613.522515,0.000000
43.000000,44586.991619,34499.224663,32554.891116,6978.527543,36391.232776,43956.024224,27647.856194,23353.460235,-0.034000,0.964000,0.182000,192.000000,0.000000,0.000000,0.000000,0.000000,0.000000,0.000000,0.000000,0.000000,0.000000,1647413613.530577,0.000000
44.000000,44585.181127,34498.151779,32556.589849,6979.220447,36390.673982,43956.471259,27641.105967,23351.359171,-0.034000,0.964000,0.182000,192.000000,0.000000,0.000000,0.000000,0.000000,0.000000,0.000000,0.000000,0.000000,0.000000,1647413613.530594,0.000000
45.000000,44591.372560,34503.985584,32564.435311,6986.283599,36401.246357,43965.948399,27647.677380,23370.559319,-0.032000,0.960000,0.182000,192.000000,255.000000,0.000000,30.000000,0.000000,5.000000,176.000000,0.000000,0.000000,0.000000,1647413613.537185,0.000000
46.000000,44590.165566,34499.045849,32561.641343,6984.942494,36398.631203,43961.321588,27643.698769,23358.601136,-0.032000,0.960000,0.182000,192.000000,0.000000,0.000000,0.000000,0.000000,0.000000,0.000000,0.000000,0.000000,0.000000,1647413613.537202,0.000000
47.000000,44593.697142,34499.224663,32562.915392,6984.562514,36400.464046,43961.790974,27643.698769,23352.029723,-0.032000,0.960000,0.182000,192.000000,0.000000,0.000000,0.000000,0.000000,0.000000,0.000000,0.000000,0.000000,0.000000,1647413613.545122,0.000000
48.000000,44588.802110,34498.956442,32559.361465,6980.740366,36395.256090,43958.907599,27637.574391,23348.274630,-0.032000,0.960000,0.182000,192.000000,0.000000,0.000000,0.000000,0.000000,0.000000,0.000000,0.000000,0.000000,0.000000,1647413613.545138,0.000000
49.000000,44591.484319,34498.710573,32563.205965,6981.053290,36396.977174,43956.359500,27626.711443,23352.409703,-0.032000,0.960000,0.182000,192.000000,0.000000,0.000000,0.000000,0.000000,0.000000,0.000000,0.000000,0.000000,0.000000,1647413613.553528,0.000000
50.000000,44600.223851,34504.544378,32568.682142,6986.887096,36401.939261,43959.466393,27633.506374,23360.098703,-0.032000,0.960000,0.182000,192.000000,0.000000,0.000000,0.000000,0.000000,0.000000,0.000000,0.000000,0.000000,0.000000,1647413613.553545,0.000000
51.000000,44598.972154,34505.125523,32565.977581,6987.289427,36404.397953,43962.617989,27653.332371,23356.991810,-0.032000,0.960000,0.182000,192.000000,0.000000,0.000000,0.000000,0.000000,0.000000,0.000000,0.000000,0.000000,0.000000,1647413613.560243,0.000000
52.000000,44598.458063,34508.053602,32565.888174,6988.362311,36399.011183,43960.159297,27645.263391,23350.152177,-0.032000,0.960000,0.182000,192.000000,0.000000,0.000000,0.000000,0.000000,0.000000,0.000000,0.000000,0.000000,0.000000,1647413613.560261,0.000000
53.000000,44595.239412,34507.293642,32563.362427,6986.775337,36396.373677,43958.147640,27629.885391,23354.130787,-0.032000,0.960000,0.182000,192.000000,0.000000,0.000000,0.000000,0.000000,0.000000,0.000000,0.000000,0.000000,0.000000,1647413613.567753,0.000000
54.000000,44595.842909,34507.740677,32563.049503,6988.362311,36395.948994,43960.695739,27625.772670,23359.808130,-0.032000,0.960000,0.182000,192.000000,0.000000,0.000000,0.000000,0.000000,0.000000,0.000000,0.000000,0.000000,0.000000,1647413613.567769,0.000000
55.000000,44587.326895,34499.090552,32553.795881,6979.175744,36392.305659,43957.745309,27645.822185,23347.022932,-0.032000,0.968000,0.182000,192.000000,255.000000,0.000000,30.000000,64.000000,5.000000,176.000000,0.000000,0.000000,0.000000,1647413613.574726,0.000000
56.000000,44586.768101,34500.454009,32553.281790,6981.545029,36391.679810,43953.923160,27646.962124,23343.334895,-0.032000,0.968000,0.182000,192.000000,0.000000,0.000000,0.000000,0.000000,0.000000,0.000000,0.000000,0.000000,0.000000,1647413613.582734,0.000000
57.000000,44592.154871,34504.812599,32557.506270,6982.617913,36392.953860,43956.515963,27646.872717,23350.778025,-0.032000,0.968000,0.182000,192.000000,0.000000,0.000000,0.000000,0.000000,0.000000,0.000000,0.000000,0.000000,0.000000,1647413613.582751,0.000000
58.000000,44586.678694,34499.112904,32552.052444,6976.158258,36391.500997,43949.363404,27632.634656,23344.921868,-0.032000,0.968000,0.182000,192.000000,0.000000,0.000000,0.000000,0.000000,0.000000,0.000000,0.000000,0.000000,0.000000,1647413613.589781,0.000000
59.000000,44590.254973,34501.169264,32557.238049,6978.929875,36396.016049,43950.905675,27644.078749,23353.080255,-0.032000,0.968000,0.182000,192.000000,0.000000,0.000000,0.000000,0.000000,0.000000,0.000000,0.000000,0.000000,0.000000,1647413613.589798,0.000000
60.000000,44587.684523,34498.330593,32556.008703,6977.231142,36398.206520,43945.451849,27633.595781,23344.541889,-0.032000,0.968000,0.182000,192.000000,0.000000,0.000000,0.000000,0.000000,0.000000,0.000000,0.000000,0.000000,0.000000,1647413613.597397,0.000000
61.000000,44588.265668,34497.771799,32555.785186,6976.404128,36398.139465,43943.887227,27629.036025,23336.674075,-0.032000,0.968000,0.182000,192.000000,0.000000,0.000000,0.000000,0.000000,0.000000,0.000000,0.000000,0.000000,0.000000,1647413613.597415,0.000000
62.000000,44592.937183,34502.353907,32561.261363,6982.349692,36398.653555,43950.816268,27635.562734,23355.226023,-0.032000,0.968000,0.182000,192.000000,0.000000,0.000000,0.000000,0.000000,0.000000,0.000000,0.000000,0.000000,0.000000,1647413613.605461,0.000000
63.000000,44597.765159,34506.131352,32565.664657,6985.568343,36401.134598,43952.447945,27633.707539,23352.901441,-0.032000,0.968000,0.182000,192.000000,0.000000,0.000000,0.000000,0.000000,0.000000,0.000000,0.000000,0.000000,0.000000,1647413613.605477,0.000000
64.000000,44594.568860,34502.622128,32563.787110,6983.824907,36399.078238,43954.884285,27640.971856,23343.670171,-0.032000,0.968000,0.182000,192.000000,0.000000,0.000000,0.000000,0.000000,0.000000,0.000000,0.000000,0.000000,0.000000,1647413613.612495,0.000000
65.000000,44594.099473,34502.555073,32564.234145,6987.110613,36400.352287,43956.806535,27632.277028,23342.619639,-0.030000,0.966000,0.190000,192.000000,255.000000,16.000000,30.000000,48.000000,5.000000,240.000000,0.000000,0.000000,0.000000,1647413613.612530,0.000000
66.000000,44601.587308,34509.819390,32570.246764,6993.190288,36404.532064,43960.963960,27641.441243,23350.599212,-0.030000,0.966000,0.190000,192.000000,0.000000,0.000000,0.000000,0.000000,0.000000,0.000000,0.000000,0.000000,0.000000,1647413613.620078,0.000000
67.000000,44596.111130,34504.410267,32567.631610,6988.697587,36399.994659,43956.627721,27645.241039,23344.787758,-0.030000,0.966000,0.190000,192.000000,0.000000,0.000000,0.000000,0.000000,0.000000,0.000000,0.000000,0.000000,0.000000,1647413613.620094,0.000000
68.000000,44591.841947,34496.274232,32562.758930,6981.455622,36394.920813,43948.759907,27640.256600,23338.596325,-0.030000,0.966000,0.190000,192.000000,0.000000,0.000000,0.000000,0.000000,0.000000,0.000000,0.000000,0.000000,0.000000,1647413613.628050,0.000000
69.000000,44597.519290,34500.565767,32566.804596,6983.981369,36401.022840,43949.430460,27636.345045,23341.502052,-0.030000,0.966000,0.190000,192.000000,0.000000,0.000000,0.000000,0.000000,0.000000,0.000000,0.000000,0.000000,0.000000,1647413613.628066,0.000000
70.000000,44594.077122,34497.525930,32562.535413,6980.628607,36399.257052,43946.055346,27625.347987,23342.910211,-0.030000,0.966000,0.190000,192.000000,0.000000,0.000000,0.000000,0.000000,0.000000,0.000000,0.000000,0.000000,0.000000,1647413613.635103,0.000000
71.000000,44601.430845,34503.627956,32566.201099,6984.942494,36398.787665,43952.224428,27635.495679,23348.721665,-0.030000,0.966000,0.190000,192.000000,0.000000,0.000000,0.000000,0.000000,0.000000,0.000000,0.000000,0.000000,0.000000,1647413613.642189,0.000000
72.000000,44589.405607,34493.681430,32555.628724,6975.733575,36391.568052,43946.032995,27625.996187,23348.945182,-0.030000,0.966000,0.190000,192.000000,0.000000,0.000000,0.000000,0.000000,0.000000,0.000000,0.000000,0.000000,0.000000,1647413613.642205,0.000000
73.000000,44594.546508,34499.872863,32558.534450,6980.494497,36393.266784,43948.938721,27627.940789,23348.520499,-0.030000,0.966000,0.190000,192.000000,0.000000,0.000000,0.000000,0.000000,0.000000,0.000000,0.000000,0.000000,0.000000,1647413613.649677,0.000000
74.000000,44600.648534,34506.488980,32562.490709,6986.082433,36398.228872,43953.364367,27648.504394,23346.374732,-0.030000,0.966000,0.190000,192.000000,0.000000,0.000000,0.000000,0.000000,0.000000,0.000000,0.000000,0.000000,0.000000,1647413613.649694,0.000000
75.000000,44602.235508,34509.394706,32561.976619,6988.138793,36402.028668,43955.174858,27647.878545,23355.740113,-0.026000,0.966000,0.190000,192.000000,255.000000,48.000000,30.000000,48.000000,5.000000,240.000000,0.000000,0.000000,0.000000,1647413613.657393,0.000000
76.000000,44606.527043,34515.943768,32563.541241,6991.156279,36402.408648,43956.001873,27646.448034,23357.036514,-0.026000,0.966000,0.190000,192.000000,0.000000,0.000000,0.000000,0.000000,0.000000,0.000000,0.000000,0.000000,0.000000,1647413613.657404,0.000000
77.000000,44605.208290,34517.709555,32562.334247,6989.323436,36398.720610,43948.514038,27630.220667,23347.514671,-0.026000,0.966000,0.190000,192.000000,0.000000,0.000000,0.000000,0.000000,0.000000,0.000000,0.000000,0.000000,0.000000,1647413613.665610,0.000000
78.000000,44600.179148,34510.825218,32563.630648,6985.948323,36395.032572,43946.904713,27627.158478,23350.152177,-0.026000,0.966000,0.190000,192.000000,0.000000,0.000000,0.000000,0.000000,0.000000,0.000000,0.000000,0.000000,0.000000,1647413613.665621,0.000000
79.000000,44598.234546,34507.517160,32566.514023,6987.222372,36397.714781,43952.693814,27641.754167,23353.303773,-0.026000,0.966000,0.190000,192.000000,0.000000,0.000000,0.000000,0.000000,0.000000,0.000000,0.000000,0.000000,0.000000,1647413613.672257,0.000000
80.000000,44599.195671,34509.461762,32563.094206,6986.127136,36398.385334,43949.162239,27640.569525,23344.184261,-0.026000,0.966000,0.190000,192.000000,0.000000,0.000000,0.000000,0.000000,0.000000,0.000000,0.000000,0.000000,0.000000,1647413613.672273,0.000000
81.000000,44603.934241,34513.865055,32568.928012,6993.927895,36405.873168,43954.057271,27645.308095,23350.062770,-0.026000,0.966000,0.190000,192.000000,0.000000,0.000000,0.000000,0.000000,0.000000,0.000000,0.000000,0.000000,0.000000,1647413613.680384,0.000000
82.000000,44597.273421,34504.522026,32564.569421,6987.200020,36402.945090,43947.687024,27637.909667,23349.280459,-0.026000,0.966000,0.190000,192.000000,0.000000,0.000000,0.000000,0.000000,0.000000,0.000000,0.000000,0.000000,0.000000,1647413613.680401,0.000000
83.000000,44593.048941,34499.805808,32556.254572,6980.092165,36395.725476,43938.254587,27624.498621,23338.283400,-0.026000,0.966000,0.190000,192.000000,0.000000,0.000000,0.000000,0.000000,0.000000,0.000000,0.000000,0.000000,0.000000,1647413613.688399,0.000000
84.000000,44597.429883,34506.421924,32559.517927,6984.338997,36397.647726,43942.903750,27628.074900,23343.580764,-0.026000,0.966000,0.190000,192.000000,0.000000,0.000000,0.000000,0.000000,0.000000,0.000000,0.000000,0.000000,0.000000,1647413613.688418,0.000000
85.000000,44597.653401,34508.970023,32560.702570,6986.484764,36396.708953,43942.210846,27630.019501,23338.417511,-0.038000,0.968000,0.190000,192.000000,254.000000,208.000000,30.000000,64.000000,5.000000,240.000000,0.000000,0.000000,0.000000,1647413613.695554,0.000000
86.000000,44594.077122,34504.097343,32556.902773,6981.992064,36395.367848,43939.148657,27632.634656,23334.237735,-0.038000,0.968000,0.190000,192.000000,0.000000,0.000000,0.000000,0.000000,0.000000,0.000000,0.000000,0.000000,0.000000,1647413613.695589,0.000000
87.000000,44596.401703,34503.829122,32556.925125,6979.801593,36387.768255,43940.310948,27628.521935,23338.998656,-0.038000,0.968000,0.190000,192.000000,0.000000,0.000000,0.000000,0.000000,0.000000,0.000000,0.000000,0.000000,0.000000,1647413613.702043,0.000000
88.000000,44602.213156,34509.215892,32562.602468,6984.540163,36393.132674,43946.390622,27633.461670,23345.212441,-0.038000,0.968000,0.190000,192.000000,0.000000,0.000000,0.000000,0.000000,0.000000,0.000000,0.000000,0.000000,0.000000,1647413613.710001,0.000000
89.000000,44603.889537,34513.686241,32563.340075,6988.474070,36395.256090,43948.983425,27643.899935,23345.815938,-0.038000,0.968000,0.190000,192.000000,0.000000,0.000000,0.000000,0.000000,0.000000,0.000000,0.000000,0.000000,0.000000,1647413613.710018,0.000000
90.000000,44605.275345,34514.781477,32565.172918,6986.909448,36396.708953,43950.346881,27636.054472,23344.877165,-0.038000,0.968000,0.190000,192.000000,0.000000,0.000000,0.000000,0.000000,0.000000,0.000000,0.000000,0.000000,0.000000,1647413613.718022,0.000000
91.000000,44607.510520,34516.033175,32567.296334,6988.898753,36398.988831,43953.654939,27639.250772,23344.988924,-0.038000,0.968000,0.190000,192.000000,0.000000,0.000000,0.000000,0.000000,0.000000,0.000000,0.000000,0.000000,0.000000,1647413613.718041,0.000000
92.000000,44604.940069,34512.456895,32562.893041,6985.791860,36396.373677,43949.028128,27630.690054,23338.082235,-0.038000,0.968000,0.190000,192.000000,0.000000,0.000000,0.000000,0.000000,0.000000,0.000000,0.000000,0.000000,0.000000,1647413613.724620,0.000000
93.000000,44603.017819,34508.590044,32559.406168,6981.880305,36393.065619,43943.619006,27619.111850,23330.102662,-0.038000,0.968000,0.190000,192.000000,0.000000,0.000000,0.000000,0.000000,0.000000,0.000000,0.000000,0.000000,0.000000,1647413613.724636,0.000000
94.000000,44603.643668,34508.143009,32559.070892,6982.349692,36391.635107,43946.681195,27625.705615,23342.262011,-0.038000,0.968000,0.190000,192.000000,0.000000,0.000000,0.000000,0.000000,0.000000,0.000000,0.000000,0.000000,0.000000,1647413613.732611,0.000000
95.000000,44606.862319,34512.792172,32560.367293,6984.629570,36390.405761,43950.324529,27635.339217,23346.598249,-0.034000,0.972000,0.190000,192.000000,254.000000,240.000000,30.000000,96.000000,5.000000,240.000000,0.000000,0.000000,0.000000,1647413613.732628,0.000000
96.000000,44594.948840,34503.851474,32549.124366,6975.465354,36383.119092,43938.612215,27619.782402,23334.640066,-0.034000,0.972000,0.190000,192.000000,0.000000,0.000000,0.000000,0.000000,0.000000,0.000000,0.000000,0.000000,0.000000,1647413613.740640,0.000000
97.000000,44594.479453,34504.969061,32552.655942,6978.795764,36387.097703,43941.026204,27631.315903,23332.896630,-0.034000,0.972000,0.190000,192.000000,0.000000,0.000000,0.000000,0.000000,0.000000,0.000000,0.000000,0.000000,0.000000,1647413613.740656,0.000000
98.000000,44593.652438,34504.522026,32552.410072,6978.080508,36381.509767,43940.087430,27633.484022,23339.490395,-0.034000,0.972000,0.190000,192.000000,0.000000,0.000000,0.000000,0.000000,0.000000,0.000000,0.000000,0.000000,0.000000,1647413613.747752,0.000000
99.000000,44596.155834,34508.455933,32554.734654,6979.935703,36382.470892,43941.160314,27628.611342,23346.620601,-0.034000,0.972000,0.190000,192.000000,0.000000,0.000000,0.000000,0.000000,0.000000,0.000000,0.000000,0.000000,0.000000,1647413613.747769,0.000000
100.000000,44591.976058,34502.689183,32550.286657,6974.951264,36376.502976,43936.734669,27624.923304,23342.709046,-0.034000,0.972000,0.190000,192.000000,0.000000,0.000000,0.000000,0.000000,0.000000,0.000000,0.000000,0.000000,0.000000,1647413613.755230,0.000000
101.000000,44594.121825,34500.096381,32553.952343,6976.270017,36378.179357,43937.896960,27624.811545,23340.876203,-0.034000,0.972000,0.190000,192.000000,0.000000,0.000000,0.000000,0.000000,0.000000,0.000000,0.000000,0.000000,0.000000,1647413613.755247,0.000000
102.000000,44594.054770,34497.235357,32553.773529,6974.481878,36377.307639,43936.265282,27622.777536,23327.822784,-0.034000,0.972000,0.190000,192.000000,0.000000,0.000000,0.000000,0.000000,0.000000,0.000000,0.000000,0.000000,0.000000,1647413613.762312,0.000000
103.000000,44594.814729,34499.984622,32553.594715,6975.443003,36375.854775,43934.991233,27622.397557,23313.137688,-0.034000,0.972000,0.190000,192.000000,0.000000,0.000000,0.000000,0.000000,0.000000,0.000000,0.000000,0.000000,0.000000,1647413613.770047,0.000000
104.000000,44591.596078,34498.241186,32551.381892,6971.084412,36378.604040,43930.543236,27607.198370,23309.181429,-0.034000,0.972000,0.190000,192.000000,0.000000,0.000000,0.000000,0.000000,0.000000,0.000000,0.000000,0.000000,0.000000,1647413613.770064,0.000000
105.000000,44599.463892,34508.098305,32557.707436,6979.913352,36383.946107,43945.943588,27630.980626,23342.485528,-0.038000,0.974000,0.186000,192.000000,254.000000,208.000000,30.000000,112.000000,5.000000,208.000000,0.000000,0.000000,0.000000,1647413613.777309,0.000000
106.000000,44600.804997,34509.886445,32555.628724,6982.170878,36378.827557,43946.792954,27625.526801,23348.811072,-0.038000,0.974000,0.186000,192.000000,0.000000,0.000000,0.000000,0.000000,0.000000,0.000000,0.000000,0.000000,0.000000,1647413613.777326,0.000000
107.000000,44601.877880,34509.551169,32554.064101,6982.439099,36379.431055,43944.893056,27626.823202,23341.725569,-0.038000,0.974000,0.186000,192.000000,0.000000,0.000000,0.000000,0.000000,0.000000,0.000000,0.000000,0.000000,0.000000,1647413613.784916,0.000000
108.000000,44603.688372,34508.992375,32553.773529,6979.063985,36377.106473,43941.361480,27620.743528,23331.175546,-0.038000,0.974000,0.186000,192.000000,0.000000,0.000000,0.000000,0.000000,0.000000,0.000000,0.000000,0.000000,0.000000,1647413613.784932,0.000000
109.000000,44600.447369,34510.244073,32550.688988,6975.375947,36377.195880,43937.896960,27612.607493,23329.677979,-0.038000,0.974000,0.186000,192.000000,0.000000,0.000000,0.000000,0.000000,0.000000,0.000000,0.000000,0.000000,0.000000,1647413613.792802,0.000000
110.000000,44605.275345,34517.418983,32552.767700,6979.823945,36385.242508,43943.730765,27625.571504,23334.684769,-0.038000,0.974000,0.186000,192.000000,0.000000,0.000000,0.000000,0.000000,0.000000,0.000000,0.000000,0.000000,0.000000,1647413613.792819,0.000000
111.000000,44610.751523,34525.644425,32556.343979,6983.310817,36388.327049,43945.787125,27630.690054,23337.635200,-0.038000,0.974000,0.186000,192.000000,0.000000,0.000000,0.000000,0.000000,0.000000,0.000000,0.000000,0.000000,0.000000,1647413613.800915,0.000000
112.000000,44617.211177,34539.681320,32560.188479,6987.580000,36389.735209,43941.987329,27622.308150,23332.941333,-0.038000,0.974000,0.186000,192.000000,0.000000,0.000000,0.000000,0.000000,0.000000,0.000000,0.000000,0.000000,0.000000,1647413613.800931,0.000000
113.000000,44618.462875,34541.111832,32562.423654,6987.378834,36392.730342,43941.137962,27617.994263,23332.896630,-0.038000,0.974000,0.186000,192.000000,0.000000,0.000000,0.000000,0.000000,0.000000,0.000000,0.000000,0.000000,0.000000,1647413613.807502,0.000000
114.000000,44601.520252,34518.938901,32559.540279,6979.801593,36389.779912,43945.407146,27622.263446,23331.823746,-0.038000,0.974000,0.186000,192.000000,0.000000,0.000000,0.000000,0.000000,0.000000,0.000000,0.000000,0.000000,0.000000,1647413613.807518,0.000000
115.000000,44599.128616,34516.234340,32559.316761,6978.505192,36388.371752,43948.379928,27632.813470,23334.014217,-0.026000,0.970000,0.188000,192.000000,255.000000,48.000000,30.000000,80.000000,5.000000,224.000000,0.000000,0.000000,0.000000,1647413613.815365,0.000000
116.000000,44602.481377,34521.308186,32557.170994,6974.884209,36384.639011,43941.272073,27626.532629,23329.655627,-0.026000,0.970000,0.188000,192.000000,0.000000,0.000000,0.000000,0.000000,0.000000,0.000000,0.000000,0.000000,0.000000,1647413613.815382,0.000000
117.000000,44605.543566,34523.699823,32561.887212,6976.672349,36378.335819,43942.054384,27617.010786,23331.443767,-0.026000,0.970000,0.188000,192.000000,0.000000,0.000000,0.000000,0.000000,0.000000,0.000000,0.000000,0.000000,0.000000,1647413613.822536,0.000000
118.000000,44605.320049,34526.091460,32560.121424,6975.845334,36375.810072,43941.808515,27626.443222,23331.644932,-0.026000,0.970000,0.188000,192.000000,0.000000,0.000000,0.000000,0.000000,0.000000,0.000000,0.000000,0.000000,0.000000,1647413613.830447,0.000000
119.000000,44604.805959,34527.946654,32556.232221,6975.040671,36375.765368,43941.495590,27617.524876,23328.158060,-0.026000,0.970000,0.188000,192.000000,0.000000,0.000000,0.000000,0.000000,0.000000,0.000000,0.000000,0.000000,0.000000,1647413613.830464,0.000000
120.000000,44599.352133,34521.531704,32553.550011,6972.224351,36378.246412,43945.295387,27630.377129,23330.504993,-0.026000,0.970000,0.188000,192.000000,0.000000,0.000000,0.000000,0.000000,0.000000,0.000000,0.000000,0.000000,0.000000,1647413613.837047,0.000000
121.000000,44603.755427,34524.728003,32556.858070,6975.934741,36375.743017,43949.586922,27637.507336,23337.657551,-0.026000,0.970000,0.188000,192.000000,0.000000,0.000000,0.000000,0.000000,0.000000,0.000000,0.000000,0.000000,0.000000,1647413613.837064,0.000000
122.000000,44603.554261,34523.319843,32553.639418,6972.961959,36372.636124,43944.915407,27630.041853,23330.974380,-0.026000,0.970000,0.188000,192.000000,0.000000,0.000000,0.000000,0.000000,0.000000,0.000000,0.000000,0.000000,0.000000,1647413613.845207,0.000000
123.000000,44595.887613,34519.721212,32546.576267,6965.697642,36366.265877,43939.193361,27621.078804,23332.539002,-0.026000,0.970000,0.188000,192.000000,0.000000,0.000000,0.000000,0.000000,0.000000,0.000000,0.000000,0.000000,0.000000,1647413613.845224,0.000000
124.000000,44593.495976,34521.263483,32545.235162,6965.317662,36371.831461,43941.741460,27630.287722,23341.859679,-0.026000,0.970000,0.188000,192.000000,0.000000,0.000000,0.000000,0.000000,0.000000,0.000000,0.000000,0.000000,0.000000,1647413613.853096,0.000000
125.000000,44599.732113,34528.773669,32548.878497,6968.737479,36372.971400,43941.406183,27624.118641,23337.501089,-0.026000,0.968000,0.186000,192.000000,255.000000,48.000000,30.000000,64.000000,5.000000,208.000000,0.000000,0.000000,0.000000,1647413613.853112,0.000000
126.000000,44602.302563,34530.740622,32549.973732,6969.139811,36370.244488,43943.708413,27630.801813,23337.411682,-0.026000,0.968000,0.186000,192.000000,0.000000,0.000000,0.000000,0.000000,0.000000,0.000000,0.000000,0.000000,0.000000,1647413613.859797,0.000000
127.000000,44597.854566,34526.896122,32546.442157,6965.921159,36366.824671,43941.249721,27633.864001,23331.287304,-0.026000,0.968000,0.186000,192.000000,0.000000,0.000000,0.000000,0.000000,0.000000,0.000000,0.000000,0.000000,0.000000,1647413613.859814,0.000000
128.000000,44595.999372,34523.275140,32544.363444,6963.596578,36362.935467,43940.221541,27623.246923,23334.237735,-0.026000,0.968000,0.186000,192.000000,0.000000,0.000000,0.000000,0.000000,0.000000,0.000000,0.000000,0.000000,0.000000,1647413613.867522,0.000000
129.000000,44599.396837,34525.778535,32549.258476,6966.569360,36370.199784,43948.961073,27634.646313,23347.715836,-0.026000,0.968000,0.186000,192.000000,0.000000,0.000000,0.000000,0.000000,0.000000,0.000000,0.000000,0.000000,0.000000,1647413613.867543,0.000000
130.000000,44596.826386,34527.141992,32548.207944,6965.965863,36363.404854,43945.362442,27627.270237,23330.817918,-0.026000,0.968000,0.186000,192.000000,0.000000,0.000000,0.000000,0.000000,0.000000,0.000000,0.000000,0.000000,0.000000,1647413613.875676,0.000000
131.000000,44594.837081,34525.309148,32546.531564,6964.781221,36358.085139,43945.071870,27622.039929,23336.048226,-0.026000,0.968000,0.186000,192.000000,0.000000,0.000000,0.000000,0.000000,0.000000,0.000000,0.000000,0.000000,0.000000,1647413613.875688,0.000000
132.000000,44599.374485,34530.070070,32551.605410,6971.822020,36364.075406,43951.643282,27625.862077,23348.229927,-0.026000,0.968000,0.186000,192.000000,0.000000,0.000000,0.000000,0.000000,0.000000,0.000000,0.000000,0.000000,0.000000,1647413613.882829,0.000000
133.000000,44600.894404,34531.478230,32550.823099,6972.000834,36366.735264,43950.011605,27625.973836,23337.590496,-0.026000,0.968000,0.186000,192.000000,0.000000,0.000000,0.000000,0.000000,0.000000,0.000000,0.000000,0.000000,0.000000,1647413613.889320,0.000000
134.000000,44602.079046,34530.405346,32551.046616,6970.302101,36365.416511,43951.822096,27635.003940,23336.964647,-0.026000,0.968000,0.186000,192.000000,0.000000,0.000000,0.000000,0.000000,0.000000,0.000000,0.000000,0.000000,0.000000,1647413613.889338,0.000000
135.000000,44604.001296,34533.623997,32554.779357,6972.403165,36371.004447,43951.218599,27620.296493,23340.183299,-0.030000,0.966000,0.190000,192.000000,255.000000,16.000000,30.000000,48.000000,5.000000,240.000000,0.000000,0.000000,0.000000,1647413613.897488,0.000000
136.000000,44596.982848,34526.806715,32552.387721,6966.636415,36365.707083,43952.962035,27629.170135,23345.123034,-0.030000,0.966000,0.190000,192.000000,0.000000,0.000000,0.000000,0.000000,0.000000,0.000000,0.000000,0.000000,0.000000,1647413613.897504,0.000000
137.000000,44603.643668,34533.042852,32559.339113,6973.297235,36370.691522,43960.002835,27635.272161,23349.503976,-0.030000,0.966000,0.190000,192.000000,0.000000,0.000000,0.000000,0.000000,0.000000,0.000000,0.000000,0.000000,0.000000,1647413613.905522,0.000000
138.000000,44610.751523,34540.106003,32566.402264,6984.651921,36377.173528,43964.964922,27635.450975,23351.202709,-0.030000,0.966000,0.190000,192.000000,0.000000,0.000000,0.000000,0.000000,0.000000,0.000000,0.000000,0.000000,0.000000,1647413613.905539,0.000000
139.000000,44606.839968,34535.434489,32564.278849,6978.751061,36377.240584,43958.795841,27634.758071,23341.211479,-0.030000,0.966000,0.190000,192.000000,0.000000,0.000000,0.000000,0.000000,0.000000,0.000000,0.000000,0.000000,0.000000,1647413613.912482,0.000000
140.000000,44612.271441,34539.770727,32566.022285,6980.293331,36378.179357,43955.621893,27618.843629,23344.094854,-0.030000,0.966000,0.190000,192.000000,0.000000,0.000000,0.000000,0.000000,0.000000,0.000000,0.000000,0.000000,0.000000,1647413613.912499,0.000000
141.000000,44616.562976,34543.145841,32567.586907,6983.154354,36377.106473,43960.226352,27632.701711,23345.458310,-0.030000,0.966000,0.190000,192.000000,0.000000,0.000000,0.000000,0.000000,0.000000,0.000000,0.000000,0.000000,0.000000,1647413613.920077,0.000000
142.000000,44620.295718,34547.727948,32571.476110,6985.568343,36382.336781,43962.215657,27642.737644,23341.904383,-0.030000,0.966000,0.190000,192.000000,0.000000,0.000000,0.000000,0.000000,0.000000,0.000000,0.000000,0.000000,0.000000,1647413613.920093,0.000000
143.000000,44620.675697,34552.891201,32571.945497,6986.887096,36381.062732,43956.873591,27625.370339,23334.841232,-0.030000,0.966000,0.190000,192.000000,0.000000,0.000000,0.000000,0.000000,0.000000,0.000000,0.000000,0.000000,0.000000,1647413613.928126,0.000000
144.000000,44618.999317,34553.248829,32570.224413,6986.842392,36378.425226,43951.911503,27617.658987,23329.476813,-0.030000,0.966000,0.190000,192.000000,0.000000,0.000000,0.000000,0.000000,0.000000,0.000000,0.000000,0.000000,0.000000,1647413613.928142,0.000000
145.000000,44614.283098,34547.146803,32563.004799,6977.834639,36373.127863,43940.534465,27612.227513,23317.742147,-0.030000,0.966000,0.190000,192.000000,0.000000,0.000000,0.000000,0.000000,0.000000,0.000000,0.000000,0.000000,0.000000,1647413613.936106,0.000000
146.000000,44611.198558,34543.190544,32558.355636,6973.207828,36367.852851,43936.891131,27616.608455,23325.967589,-0.026000,0.960000,0.192000,192.000000,255.000000,48.000000,30.000000,0.000000,6.000000,0.000000,0.000000,0.000000,0.000000,1647413613.936123,0.000000
147.000000,44605.275345,34535.590951,32552.857107,6967.396375,36361.840232,43931.169084,27607.064260,23327.129880,-0.026000,0.960000,0.192000,192.000000,0.000000,0.000000,0.000000,0.000000,0.000000,0.000000,0.000000,0.000000,0.000000,1647413613.942281,0.000000
148.000000,44599.128616,34531.232361,32549.191421,6964.378889,36357.191069,43931.169084,27610.662891,23326.056996,-0.026000,0.960000,0.192000,192.000000,0.000000,0.000000,0.000000,0.000000,0.000000,0.000000,0.000000,0.000000,0.000000,1647413613.942297,0.000000
149.000000,44607.041133,34541.402404,32557.126290,6972.984311,36364.522441,43943.417840,27633.528725,23335.109453,-0.026000,0.960000,0.192000,192.000000,0.000000,0.000000,0.000000,0.000000,0.000000,0.000000,0.000000,0.000000,0.000000,1647413613.949806,0.000000
150.000000,44608.315183,34543.525820,32560.702570,6974.951264,36367.651685,43949.251646,27631.137089,23342.820804,-0.026000,0.960000,0.192000,192.000000,0.000000,0.000000,0.000000,0.000000,0.000000,0.000000,0.000000,0.000000,0.000000,1647413613.957745,0.000000
151.000000,44605.275345,34544.106966,32559.652038,6973.766622,36365.818842,43953.431422,27638.915496,23341.725569,-0.026000,0.960000,0.192000,192.000000,0.000000,0.000000,0.000000,0.000000,0.000000,0.000000,0.000000,0.000000,0.000000,1647413613.957762,0.000000
152.000000,44610.013915,34547.169155,32565.329381,6976.359424,36368.433996,43959.935780,27633.551077,23355.762464,-0.026000,0.960000,0.192000,192.000000,0.000000,0.000000,0.000000,0.000000,0.000000,0.000000,0.000000,0.000000,0.000000,1647413613.966126,0.000000
153.000000,44609.700991,34544.978684,32565.575250,6973.252532,36367.875203,43958.907599,27629.348949,23354.264898,-0.026000,0.960000,0.192000,192.000000,0.000000,0.000000,0.000000,0.000000,0.000000,0.000000,0.000000,0.000000,0.000000,1647413613.966144,0.000000
154.000000,44614.104285,34549.627846,32568.302163,6977.812288,36369.350418,43963.556762,27651.141900,23352.007371,-0.026000,0.960000,0.192000,192.000000,0.000000,0.000000,0.000000,0.000000,0.000000,0.000000,0.000000,0.000000,0.000000,1647413613.972248,0.000000
155.000000,44609.656287,34548.845535,32562.110729,6975.979445,36363.807185,43955.241913,27638.334350,23338.976304,-0.026000,0.960000,0.192000,192.000000,0.000000,0.000000,0.000000,0.000000,0.000000,0.000000,0.000000,0.000000,0.000000,1647413613.972265,0.000000
156.000000,44609.544529,34547.236210,32562.557764,6974.034843,36360.789700,43953.207904,27630.086557,23335.444729,-0.032000,0.970000,0.192000,192.000000,255.000000,0.000000,30.000000,80.000000,6.000000,0.000000,0.000000,0.000000,0.000000,1647413613.980175,0.000000
157.000000,44609.209253,34545.872753,32561.976619,6973.140773,36364.678903,43955.510134,27630.667702,23356.924755,-0.032000,0.970000,0.192000,192.000000,0.000000,0.000000,0.000000,0.000000,0.000000,0.000000,0.000000,0.000000,0.000000,1647413613.980186,0.000000
158.000000,44610.259784,34549.203163,32562.155433,6971.732613,36367.092892,43954.504306,27638.759034,23355.583651,-0.032000,0.970000,0.192000,192.000000,0.000000,0.000000,0.000000,0.000000,0.000000,0.000000,0.000000,0.000000,0.000000,1647413613.988294,0.000000
159.000000,44612.204386,34554.031140,32562.893041,6973.096069,36369.484528,43956.135983,27637.060301,23353.884918,-0.032000,0.970000,0.192000,192.000000,0.000000,0.000000,0.000000,0.000000,0.000000,0.000000,0.000000,0.000000,0.000000,1647413613.988311,0.000000
160.000000,44606.638802,34550.521916,32560.032017,6969.296273,36364.455386,43955.621893,27642.670589,23349.101645,-0.032000,0.970000,0.192000,192.000000,0.000000,0.000000,0.000000,0.000000,0.000000,0.000000,0.000000,0.000000,0.000000,1647413613.995041,0.000000
161.000000,44606.482340,34550.119585,32558.176822,6966.278787,36357.079310,43951.419765,27636.277990,23346.151214,-0.032000,0.970000,0.192000,192.000000,0.000000,0.000000,0.000000,0.000000,0.000000,0.000000,0.000000,0.000000,0.000000,1647413613.995057,0.000000
