%OpenBCI Raw EEG Data
%Number of channels = 8
%Sample Rate = 256 Hz
%Board = OpenBCI_GUI$BoardCytonSerial
%Channels = Fp1, Fp2, F3, F4, Fz, Pz, O1, O2
%Data recorded at AIMS Lab (http://aimsl.uiu.ac.bd) by Rana Depto (mail@ranadepto.com)
%Brainwaves were obtained via the Ultracortex Mark IV Headset using the OpenBCI Cyton Board
%Recording Application = ConcentrateToday (https://concentrate.today)
%Data type = RAW data with noise
%Day No = 8
%Subject ID = 1
%Session ID = 7
%Record starting timestamp (UTC+6) = 2022-03-16T13:24:24.455109
%Record ending timestamp (UTC+6)   = 2022-03-16T13:24:45.322596
%Recorded durations = ~20 seconds
Sample Index, EXG Channel 0, EXG Channel 1, EXG Channel 2, EXG Channel 3, EXG Channel 4, EXG Channel 5, EXG Channel 6, EXG Channel 7, Accel Channel 0, Accel Channel 1, Accel Channel 2, Other, Other, Other, Other, Other, Other, Other, Analog Channel 0, Analog Channel 1, Analog Channel 2, Timestamp, Timestamp (Formatted)
221.000000,28704.423154,19890.549170,15661.599119,15887.999938,-11043.348735,11180.141411,18086.942206,11353.456837,0.084000,0.960000,0.202000,192.000000,0.000000,0.000000,0.000000,0.000000,0.000000,0.000000,0.000000,0.000000,0.000000,1647415464.458674,0.000000
222.000000,28706.859494,19891.845571,15663.364907,15890.033947,-11043.639307,11177.749774,18081.354270,11346.661907,0.084000,0.960000,0.202000,192.000000,0.000000,0.000000,0.000000,0.000000,0.000000,0.000000,0.000000,0.000000,0.000000,1647415464.458683,0.000000
223.000000,28712.290968,19894.125449,15665.868302,15892.559694,-11040.621822,11182.108364,18083.969424,11360.587044,0.084000,0.958000,0.210000,192.000000,2.000000,160.000000,29.000000,240.000000,6.000000,144.000000,0.000000,0.000000,0.000000,1647415464.466628,0.000000
224.000000,28717.275407,19900.093365,15671.679756,15896.940636,-11034.832720,11186.824582,18090.160857,11362.553997,0.084000,0.958000,0.210000,192.000000,0.000000,0.000000,0.000000,0.000000,0.000000,0.000000,0.000000,0.000000,0.000000,1647415464.466634,0.000000
225.000000,28723.131564,19908.788193,15677.647671,15903.132069,-11028.373066,11189.819716,18090.585541,11356.049640,0.084000,0.958000,0.210000,192.000000,0.000000,0.000000,0.000000,0.000000,0.000000,0.000000,0.000000,0.000000,0.000000,1647415464.474586,0.000000
226.000000,28720.158782,19904.407251,15672.462067,15899.265218,-11031.792883,11183.471821,18083.410631,11347.846549,0.084000,0.958000,0.210000,192.000000,0.000000,0.000000,0.000000,0.000000,0.000000,0.000000,0.000000,0.000000,0.000000,1647415464.474591,0.000000
227.000000,28716.202523,19903.781403,15664.706011,15891.710328,-11040.621822,11168.160876,18063.897558,11322.164395,0.084000,0.958000,0.210000,192.000000,0.000000,0.000000,0.000000,0.000000,0.000000,0.000000,0.000000,0.000000,0.000000,1647415464.481665,0.000000
228.000000,28709.251131,19893.566655,15658.134599,15881.987319,-11049.964851,11159.086068,18054.085142,11312.419035,0.084000,0.958000,0.210000,192.000000,0.000000,0.000000,0.000000,0.000000,0.000000,0.000000,0.000000,0.000000,0.000000,1647415464.481669,0.000000
229.000000,28714.459087,19892.292606,15669.533988,15890.056299,-11040.420656,11175.760469,18075.632224,11334.882538,0.084000,0.958000,0.210000,192.000000,0.000000,0.000000,0.000000,0.000000,0.000000,0.000000,0.000000,0.000000,0.000000,1647415464.489285,0.000000
230.000000,28717.275407,19900.115716,15677.200637,15898.013520,-11032.374028,11186.466955,18090.004395,11351.959270,0.084000,0.958000,0.210000,192.000000,0.000000,0.000000,0.000000,0.000000,0.000000,0.000000,0.000000,0.000000,0.000000,1647415464.489289,0.000000
231.000000,28711.531009,19895.712423,15670.740982,15890.033947,-11038.386648,11178.196809,18083.477686,11342.124503,0.084000,0.958000,0.210000,192.000000,0.000000,0.000000,0.000000,0.000000,0.000000,0.000000,0.000000,0.000000,0.000000,1647415464.496352,0.000000
232.000000,28709.005262,19892.069088,15665.734192,15883.462534,-11042.566424,11175.268731,18079.119096,11354.887349,0.084000,0.958000,0.210000,192.000000,0.000000,0.000000,0.000000,0.000000,0.000000,0.000000,0.000000,0.000000,0.000000,1647415464.496357,0.000000
233.000000,28709.519352,19895.041870,15666.158875,15883.104906,-11042.074685,11174.687585,18078.314433,11359.447105,0.088000,0.960000,0.206000,192.000000,2.000000,192.000000,30.000000,0.000000,6.000000,112.000000,0.000000,0.000000,0.000000,1647415464.504312,0.000000
234.000000,28709.854628,19893.968987,15667.164703,15883.060203,-11044.063991,11172.921797,18070.647785,11351.042849,0.088000,0.960000,0.206000,192.000000,0.000000,0.000000,0.000000,0.000000,0.000000,0.000000,0.000000,0.000000,0.000000,1647415464.510871,0.000000
235.000000,28705.004299,19882.055507,15665.421267,15882.300244,-11046.925014,11175.827524,18076.056907,11357.971890,0.088000,0.960000,0.206000,192.000000,0.000000,0.000000,0.000000,0.000000,0.000000,0.000000,0.000000,0.000000,0.000000,1647415464.510884,0.000000
236.000000,28705.563093,19883.128391,15660.973270,15880.757973,-11048.400229,11168.004414,18071.363040,11341.185730,0.088000,0.960000,0.206000,192.000000,0.000000,0.000000,0.000000,0.000000,0.000000,0.000000,0.000000,0.000000,0.000000,1647415464.519021,0.000000
237.000000,28709.340538,19886.749373,15667.589386,15885.027156,-11044.801598,11172.653576,18081.644843,11349.120599,0.088000,0.960000,0.206000,192.000000,0.000000,0.000000,0.000000,0.000000,0.000000,0.000000,0.000000,0.000000,0.000000,1647415464.519025,0.000000
238.000000,28706.278349,19886.145876,15665.264805,15881.696747,-11048.847264,11168.518504,18072.502979,11346.348983,0.088000,0.960000,0.206000,192.000000,0.000000,0.000000,0.000000,0.000000,0.000000,0.000000,0.000000,0.000000,0.000000,1647415464.526985,0.000000
239.000000,28700.288081,19880.557940,15663.141389,15877.516970,-11051.395363,11162.684698,18057.706125,11326.612392,0.088000,0.960000,0.206000,192.000000,0.000000,0.000000,0.000000,0.000000,0.000000,0.000000,0.000000,0.000000,0.000000,1647415464.526990,0.000000
240.000000,28702.478552,19877.473399,15663.007279,15878.098116,-11050.925976,11168.965539,18069.440790,11341.521006,0.088000,0.960000,0.206000,192.000000,0.000000,0.000000,0.000000,0.000000,0.000000,0.000000,0.000000,0.000000,0.000000,1647415464.533924,0.000000
241.000000,28705.697203,19882.167266,15665.465971,15882.523761,-11047.729677,11172.944149,18076.481590,11346.438390,0.088000,0.960000,0.206000,192.000000,0.000000,0.000000,0.000000,0.000000,0.000000,0.000000,0.000000,0.000000,0.000000,1647415464.533927,0.000000
242.000000,28715.017881,19896.293568,15679.033480,15895.018386,-11034.095113,11180.186114,18076.593349,11346.460741,0.088000,0.960000,0.206000,192.000000,0.000000,0.000000,0.000000,0.000000,0.000000,0.000000,0.000000,0.000000,0.000000,1647415464.541547,0.000000
243.000000,28726.506677,19910.174001,15691.349291,15903.132069,-11024.483862,11188.545667,18082.896541,11352.518064,0.084000,0.966000,0.202000,192.000000,2.000000,160.000000,30.000000,48.000000,6.000000,80.000000,0.000000,0.000000,0.000000,1647415464.541551,0.000000
244.000000,28716.358985,19903.289664,15682.967387,15892.470287,-11035.100941,11181.482516,18078.359136,11350.349945,0.084000,0.966000,0.202000,192.000000,0.000000,0.000000,0.000000,0.000000,0.000000,0.000000,0.000000,0.000000,0.000000,1647415464.549699,0.000000
245.000000,28702.411497,19894.796001,15671.411535,15881.875561,-11044.823950,11171.603044,18069.753715,11339.777570,0.084000,0.966000,0.202000,192.000000,0.000000,0.000000,0.000000,0.000000,0.000000,0.000000,0.000000,0.000000,0.000000,1647415464.549704,0.000000
246.000000,28699.885750,19885.743545,15665.756543,15879.528627,-11050.456590,11166.395088,18068.054982,11332.021514,0.084000,0.966000,0.202000,192.000000,0.000000,0.000000,0.000000,0.000000,0.000000,0.000000,0.000000,0.000000,0.000000,1647415464.557500,0.000000
247.000000,28691.928529,19875.327632,15650.423247,15868.352755,-11062.638290,11152.246434,18067.876168,11308.775700,0.084000,0.966000,0.202000,192.000000,0.000000,0.000000,0.000000,0.000000,0.000000,0.000000,0.000000,0.000000,0.000000,1647415464.557504,0.000000
248.000000,28697.717631,19880.446181,15651.943165,15870.163246,-11062.191255,11148.916024,18060.231872,11313.424863,0.084000,0.966000,0.202000,192.000000,0.000000,0.000000,0.000000,0.000000,0.000000,0.000000,0.000000,0.000000,0.000000,1647415464.563575,0.000000
249.000000,28708.669985,19892.739641,15665.845950,15889.162229,-11046.813255,11168.786725,18085.534046,11364.655061,0.084000,0.966000,0.202000,192.000000,0.000000,0.000000,0.000000,0.000000,0.000000,0.000000,0.000000,0.000000,0.000000,1647415464.571272,0.000000
250.000000,28707.060660,19890.079783,15669.154009,15888.424622,-11045.628613,11176.900408,18091.971349,11373.908684,0.084000,0.966000,0.202000,192.000000,0.000000,0.000000,0.000000,0.000000,0.000000,0.000000,0.000000,0.000000,0.000000,1647415464.571275,0.000000
251.000000,28709.184075,19891.219722,15683.615587,15894.303130,-11035.525624,11178.017995,18097.313416,11348.293584,0.084000,0.966000,0.202000,192.000000,0.000000,0.000000,0.000000,0.000000,0.000000,0.000000,0.000000,0.000000,0.000000,1647415464.579233,0.000000
252.000000,28703.819657,19889.900969,15672.149142,15888.603436,-11043.326383,11166.596254,18089.624416,11337.721209,0.084000,0.966000,0.202000,192.000000,0.000000,0.000000,0.000000,0.000000,0.000000,0.000000,0.000000,0.000000,0.000000,1647415464.579237,0.000000
253.000000,28700.444543,19887.688147,15665.935357,15880.646215,-11051.685935,11161.634166,18075.274596,11350.707573,0.080000,0.966000,0.198000,192.000000,2.000000,128.000000,30.000000,48.000000,6.000000,48.000000,0.000000,0.000000,0.000000,1647415464.587265,0.000000
254.000000,28705.652500,19890.951501,15669.735154,15882.322595,-11048.377877,11167.803248,18075.967500,11363.537474,0.080000,0.966000,0.198000,192.000000,0.000000,0.000000,0.000000,0.000000,0.000000,0.000000,0.000000,0.000000,0.000000,1647415464.587269,0.000000
255.000000,28702.567959,19882.904873,15669.221064,15879.640386,-11050.277776,11162.394126,18074.648747,11349.008840,0.080000,0.966000,0.198000,192.000000,0.000000,0.000000,0.000000,0.000000,0.000000,0.000000,0.000000,0.000000,0.000000,1647415464.593768,0.000000
0.000000,28703.327918,19882.636652,15667.254110,15880.445049,-11052.021212,11156.739134,18071.228930,11329.831043,0.080000,0.966000,0.198000,192.000000,0.000000,0.000000,0.000000,0.000000,0.000000,0.000000,0.000000,0.000000,0.000000,1647415464.593773,0.000000
1.000000,28705.160761,19886.436449,15669.355174,15879.372165,-11050.568348,11162.550588,18082.985947,11349.522930,0.080000,0.966000,0.198000,192.000000,0.000000,0.000000,0.000000,0.000000,0.000000,0.000000,0.000000,0.000000,0.000000,1647415464.601856,0.000000
2.000000,28703.059698,19878.434524,15665.465971,15874.633595,-11054.211683,11162.595291,18085.198770,11367.829009,0.080000,0.966000,0.198000,192.000000,0.000000,0.000000,0.000000,0.000000,0.000000,0.000000,0.000000,0.000000,0.000000,1647415464.601860,0.000000
3.000000,28698.164665,19868.018611,15658.827503,15864.955290,-11064.247616,11151.777047,18077.777991,11344.069105,0.080000,0.966000,0.198000,192.000000,0.000000,0.000000,0.000000,0.000000,0.000000,0.000000,0.000000,0.000000,0.000000,1647415464.609912,0.000000
4.000000,28688.374601,19860.441370,15649.149197,15858.182711,-11073.054203,11145.339745,18075.811038,11344.493788,0.080000,0.966000,0.198000,192.000000,0.000000,0.000000,0.000000,0.000000,0.000000,0.000000,0.000000,0.000000,0.000000,1647415464.609916,0.000000
5.000000,28691.459142,19866.543396,15657.687564,15864.709421,-11069.343814,11145.362096,18072.458276,11337.005953,0.080000,0.966000,0.198000,192.000000,0.000000,0.000000,0.000000,0.000000,0.000000,0.000000,0.000000,0.000000,0.000000,1647415464.616922,0.000000
6.000000,28694.923663,19869.605585,15657.687564,15868.531569,-11067.980357,11150.145370,18075.296947,11335.307221,0.080000,0.966000,0.198000,192.000000,0.000000,0.000000,0.000000,0.000000,0.000000,0.000000,0.000000,0.000000,0.000000,1647415464.616926,0.000000
7.000000,28694.566035,19871.974870,15651.898462,15867.928072,-11071.601340,11152.693469,18083.991776,11350.998145,0.080000,0.966000,0.198000,192.000000,0.000000,0.000000,0.000000,0.000000,0.000000,0.000000,0.000000,0.000000,0.000000,1647415464.623479,0.000000
8.000000,28690.654479,19863.637670,15655.742962,15860.283775,-11072.629520,11151.598233,18086.964558,11358.687146,0.080000,0.962000,0.196000,192.000000,2.000000,128.000000,30.000000,16.000000,6.000000,32.000000,0.000000,0.000000,0.000000,1647415464.631449,0.000000
9.000000,28689.000450,19863.280042,15653.954822,15864.195331,-11070.059069,11149.385410,18082.471857,11346.036058,0.080000,0.962000,0.196000,192.000000,0.000000,0.000000,0.000000,0.000000,0.000000,0.000000,0.000000,0.000000,0.000000,1647415464.631452,0.000000
10.000000,28690.028630,19866.923376,15658.715744,15866.519912,-11067.622729,11145.898538,18073.821732,11333.586137,0.080000,0.962000,0.196000,192.000000,0.000000,0.000000,0.000000,0.000000,0.000000,0.000000,0.000000,0.000000,0.000000,1647415464.639479,0.000000
11.000000,28687.122904,19866.856321,15659.609814,15866.072877,-11067.421564,11150.458294,18084.103535,11345.700782,0.080000,0.962000,0.196000,192.000000,0.000000,0.000000,0.000000,0.000000,0.000000,0.000000,0.000000,0.000000,0.000000,1647415464.639483,0.000000
12.000000,28684.172473,19866.074010,15658.782799,15866.251691,-11065.700479,11153.140504,18086.226950,11354.976756,0.080000,0.962000,0.196000,192.000000,0.000000,0.000000,0.000000,0.000000,0.000000,0.000000,0.000000,0.000000,0.000000,1647415464.646270,0.000000
13.000000,28686.519407,19867.884501,15655.698258,15864.240034,-11067.868598,11146.993774,18083.410631,11344.024401,0.080000,0.962000,0.196000,192.000000,0.000000,0.000000,0.000000,0.000000,0.000000,0.000000,0.000000,0.000000,0.000000,1647415464.646275,0.000000
14.000000,28693.806075,19875.372335,15658.492226,15869.917377,-11062.258311,11153.542835,18095.368814,11363.336308,0.080000,0.962000,0.196000,192.000000,0.000000,0.000000,0.000000,0.000000,0.000000,0.000000,0.000000,0.000000,0.000000,1647415464.654028,0.000000
15.000000,28687.100552,19867.415114,15649.059790,15859.747333,-11070.841380,11144.132751,18090.362023,11351.020497,0.080000,0.962000,0.196000,192.000000,0.000000,0.000000,0.000000,0.000000,0.000000,0.000000,0.000000,0.000000,0.000000,1647415464.654032,0.000000
16.000000,28687.815808,19865.962251,15652.792532,15861.043735,-11070.327290,11143.104570,18086.048136,11349.701744,0.080000,0.962000,0.196000,192.000000,0.000000,0.000000,0.000000,0.000000,0.000000,0.000000,0.000000,0.000000,0.000000,1647415464.662229,0.000000
17.000000,28697.136485,19875.797019,15659.408648,15870.364412,-11062.459476,11154.973347,18099.637997,11370.980605,0.080000,0.962000,0.196000,192.000000,0.000000,0.000000,0.000000,0.000000,0.000000,0.000000,0.000000,0.000000,0.000000,1647415464.662233,0.000000
18.000000,28700.869227,19881.742583,15663.722535,15877.494619,-11058.614976,11153.945166,18091.859590,11347.220701,0.076000,0.958000,0.198000,192.000000,2.000000,96.000000,29.000000,240.000000,6.000000,48.000000,0.000000,0.000000,0.000000,1647415464.669227,0.000000
19.000000,28691.436790,19872.578367,15646.623450,15866.005822,-11072.763630,11143.641012,18087.501000,11344.538491,0.076000,0.958000,0.198000,192.000000,0.000000,0.000000,0.000000,0.000000,0.000000,0.000000,0.000000,0.000000,0.000000,1647415464.669231,0.000000
20.000000,28698.164665,19877.138123,15659.900386,15873.985395,-11062.280662,11155.509788,18093.915951,11371.315881,0.076000,0.958000,0.198000,192.000000,0.000000,0.000000,0.000000,0.000000,0.000000,0.000000,0.000000,0.000000,0.000000,1647415464.676845,0.000000
21.000000,28700.444543,19878.769801,15668.662270,15880.780325,-11053.317613,11155.509788,18088.126849,11361.794038,0.076000,0.958000,0.198000,192.000000,0.000000,0.000000,0.000000,0.000000,0.000000,0.000000,0.000000,0.000000,0.000000,1647415464.676850,0.000000
22.000000,28704.400802,19883.843647,15666.427096,15883.775459,-11054.882235,11154.168684,18087.836276,11354.999108,0.076000,0.958000,0.198000,192.000000,0.000000,0.000000,0.000000,0.000000,0.000000,0.000000,0.000000,0.000000,0.000000,1647415464.683787,0.000000
23.000000,28701.606834,19879.619167,15663.476665,15879.372165,-11058.614976,11145.943242,18078.336785,11339.464645,0.076000,0.958000,0.198000,192.000000,0.000000,0.000000,0.000000,0.000000,0.000000,0.000000,0.000000,0.000000,0.000000,1647415464.693291,0.000000
24.000000,28703.149104,19882.167266,15665.533026,15880.757973,-11055.485732,11147.351402,18081.533084,11334.435503,0.076000,0.958000,0.198000,192.000000,0.000000,0.000000,0.000000,0.000000,0.000000,0.000000,0.000000,0.000000,0.000000,1647415464.693321,0.000000
25.000000,28703.864360,19882.904873,15665.465971,15878.992185,-11054.345793,11150.905329,18083.522389,11352.830989,0.076000,0.958000,0.198000,192.000000,0.000000,0.000000,0.000000,0.000000,0.000000,0.000000,0.000000,0.000000,0.000000,1647415464.699374,0.000000
26.000000,28702.255035,19880.602644,15662.023802,15875.170037,-11057.586796,11154.660422,18091.300796,11362.576349,0.076000,0.958000,0.198000,192.000000,0.000000,0.000000,0.000000,0.000000,0.000000,0.000000,0.000000,0.000000,0.000000,1647415464.699378,0.000000
27.000000,28703.529084,19887.822257,15664.706011,15881.830857,-11055.239863,11156.292100,18091.457259,11359.804733,0.076000,0.958000,0.198000,192.000000,0.000000,0.000000,0.000000,0.000000,0.000000,0.000000,0.000000,0.000000,0.000000,1647415464.706480,0.000000
28.000000,28700.735116,19883.016632,15663.901349,15877.449915,-11055.195159,11152.335841,18084.058831,11359.357698,0.076000,0.962000,0.204000,192.000000,2.000000,96.000000,30.000000,16.000000,6.000000,96.000000,0.000000,0.000000,0.000000,1647415464.706484,0.000000
29.000000,28704.646671,19881.519065,15664.795418,15877.159342,-11053.295261,11156.783838,18093.737137,11360.072954,0.076000,0.962000,0.204000,192.000000,0.000000,0.000000,0.000000,0.000000,0.000000,0.000000,0.000000,0.000000,0.000000,1647415464.714430,0.000000
30.000000,28706.814791,19880.312071,15665.577729,15880.042717,-11050.791866,11159.019012,18094.564151,11355.244977,0.076000,0.962000,0.204000,192.000000,0.000000,0.000000,0.000000,0.000000,0.000000,0.000000,0.000000,0.000000,0.000000,1647415464.714434,0.000000
31.000000,28709.094669,19879.552112,15669.623395,15884.647177,-11049.115485,11157.230873,18085.869323,11340.783398,0.076000,0.962000,0.204000,192.000000,0.000000,0.000000,0.000000,0.000000,0.000000,0.000000,0.000000,0.000000,0.000000,1647415464.722354,0.000000
32.000000,28712.246264,19878.725097,15673.110267,15886.860000,-11047.819084,11163.489361,18096.844029,11351.713401,0.076000,0.962000,0.204000,192.000000,0.000000,0.000000,0.000000,0.000000,0.000000,0.000000,0.000000,0.000000,0.000000,1647415464.722358,0.000000
33.000000,28704.020823,19870.097324,15660.325069,15876.846418,-11059.017308,11155.845065,18093.267750,11344.426733,0.076000,0.962000,0.204000,192.000000,0.000000,0.000000,0.000000,0.000000,0.000000,0.000000,0.000000,0.000000,0.000000,1647415464.729012,0.000000
34.000000,28699.885750,19868.443295,15660.593290,15873.963043,-11061.476000,11155.688602,18089.602064,11366.778477,0.076000,0.962000,0.204000,192.000000,0.000000,0.000000,0.000000,0.000000,0.000000,0.000000,0.000000,0.000000,0.000000,1647415464.729016,0.000000
35.000000,28699.930453,19870.924338,15663.007279,15875.058278,-11059.039659,11156.269748,18089.467953,11358.351869,0.076000,0.962000,0.204000,192.000000,0.000000,0.000000,0.000000,0.000000,0.000000,0.000000,0.000000,0.000000,0.000000,1647415464.737126,0.000000
36.000000,28701.718593,19872.176036,15664.348383,15875.035927,-11058.994956,11152.693469,18082.315395,11341.319840,0.076000,0.962000,0.204000,192.000000,0.000000,0.000000,0.000000,0.000000,0.000000,0.000000,0.000000,0.000000,0.000000,1647415464.737132,0.000000
37.000000,28693.940186,19866.789265,15654.915947,15867.458685,-11066.147514,11144.177454,18073.240587,11338.794093,0.076000,0.962000,0.204000,192.000000,0.000000,0.000000,0.000000,0.000000,0.000000,0.000000,0.000000,0.000000,0.000000,1647415464.744018,0.000000
38.000000,28701.249206,19874.567673,15660.481532,15874.879464,-11058.793790,11159.376640,18100.889695,11368.007823,0.078000,0.964000,0.198000,192.000000,2.000000,112.000000,30.000000,32.000000,6.000000,48.000000,0.000000,0.000000,0.000000,1647415464.744021,0.000000
39.000000,28705.898369,19881.027327,15665.130695,15880.601511,-11051.864749,11166.685661,18108.958675,11379.764841,0.078000,0.964000,0.198000,192.000000,0.000000,0.000000,0.000000,0.000000,0.000000,0.000000,0.000000,0.000000,0.000000,1647415464.752233,0.000000
40.000000,28703.998471,19880.848513,15663.074334,15880.400345,-11052.490598,11156.314451,18090.719651,11351.221663,0.078000,0.964000,0.198000,192.000000,0.000000,0.000000,0.000000,0.000000,0.000000,0.000000,0.000000,0.000000,0.000000,1647415464.758759,0.000000
41.000000,28699.081087,19873.964175,15659.363944,15876.086459,-11055.642194,11154.146332,18084.036479,11356.429619,0.078000,0.964000,0.198000,192.000000,0.000000,0.000000,0.000000,0.000000,0.000000,0.000000,0.000000,0.000000,0.000000,1647415464.758763,0.000000
42.000000,28698.969328,19870.901986,15660.056849,15873.895988,-11055.977470,11159.689565,18092.977177,11367.381974,0.078000,0.964000,0.198000,192.000000,0.000000,0.000000,0.000000,0.000000,0.000000,0.000000,0.000000,0.000000,0.000000,1647415464.766683,0.000000
43.000000,28706.658328,19878.747449,15667.343517,15882.993148,-11049.718982,11166.015108,18095.502924,11369.237169,0.078000,0.964000,0.198000,192.000000,0.000000,0.000000,0.000000,0.000000,0.000000,0.000000,0.000000,0.000000,0.000000,1647415464.766694,0.000000
44.000000,28706.077183,19876.713440,15664.974232,15878.701613,-11053.183502,11159.823675,18089.311491,11357.882483,0.078000,0.964000,0.198000,192.000000,0.000000,0.000000,0.000000,0.000000,0.000000,0.000000,0.000000,0.000000,0.000000,1647415464.774635,0.000000
45.000000,28693.336689,19863.972946,15651.742000,15866.564616,-11065.275796,11150.860626,18083.254168,11352.719230,0.078000,0.964000,0.198000,192.000000,0.000000,0.000000,0.000000,0.000000,0.000000,0.000000,0.000000,0.000000,0.000000,1647415464.774639,0.000000
46.000000,28690.676831,19859.346135,15649.976212,15866.139932,-11066.058107,11149.206597,18077.621529,11339.486997,0.078000,0.964000,0.198000,192.000000,0.000000,0.000000,0.000000,0.000000,0.000000,0.000000,0.000000,0.000000,0.000000,1647415464.781311,0.000000
47.000000,28695.661270,19861.558957,15657.374639,15876.466438,-11058.749087,11160.203655,18086.942206,11350.685221,0.078000,0.964000,0.198000,192.000000,0.000000,0.000000,0.000000,0.000000,0.000000,0.000000,0.000000,0.000000,0.000000,1647415464.781315,0.000000
48.000000,28697.315299,19869.113847,15662.135561,15881.696747,-11054.211683,11169.032594,18093.312453,11356.675489,0.078000,0.962000,0.206000,192.000000,2.000000,112.000000,30.000000,16.000000,6.000000,112.000000,0.000000,0.000000,0.000000,1647415464.789282,0.000000
49.000000,28691.749715,19867.146893,15656.189997,15876.131162,-11059.218473,11167.982062,18090.764355,11363.023384,0.078000,0.962000,0.206000,192.000000,0.000000,0.000000,0.000000,0.000000,0.000000,0.000000,0.000000,0.000000,0.000000,1647415464.789286,0.000000
50.000000,28690.877997,19865.559920,15655.184168,15873.493656,-11060.626633,11165.076335,18090.987872,11352.406305,0.078000,0.962000,0.206000,192.000000,0.000000,0.000000,0.000000,0.000000,0.000000,0.000000,0.000000,0.000000,0.000000,1647415464.797286,0.000000
51.000000,28689.581596,19862.743600,15653.172511,15869.850322,-11062.370069,11164.159914,18096.754622,11352.294547,0.078000,0.962000,0.206000,192.000000,0.000000,0.000000,0.000000,0.000000,0.000000,0.000000,0.000000,0.000000,0.000000,1647415464.797289,0.000000
52.000000,28698.589349,19873.606548,15661.129732,15879.036889,-11056.536264,11168.205579,18091.859590,11348.315936,0.078000,0.962000,0.206000,192.000000,0.000000,0.000000,0.000000,0.000000,0.000000,0.000000,0.000000,0.000000,0.000000,1647415464.804444,0.000000
53.000000,28700.265729,19880.803809,15661.420305,15880.042717,-11055.865712,11166.596254,18091.680776,11347.779494,0.078000,0.962000,0.206000,192.000000,0.000000,0.000000,0.000000,0.000000,0.000000,0.000000,0.000000,0.000000,0.000000,1647415464.804448,0.000000
54.000000,28699.416363,19870.231434,15664.460142,15879.975662,-11053.339965,11171.424231,18096.285235,11363.649233,0.078000,0.962000,0.206000,192.000000,0.000000,0.000000,0.000000,0.000000,0.000000,0.000000,0.000000,0.000000,0.000000,1647415464.810880,0.000000
55.000000,28691.682660,19858.764989,15664.348383,15879.193351,-11054.457552,11177.347443,18101.850820,11380.524800,0.078000,0.962000,0.206000,192.000000,0.000000,0.000000,0.000000,0.000000,0.000000,0.000000,0.000000,0.000000,0.000000,1647415464.818960,0.000000
56.000000,28697.270596,19868.510350,15664.951881,15880.601511,-11054.368145,11169.971367,18095.480573,11360.274119,0.078000,0.962000,0.206000,192.000000,0.000000,0.000000,0.000000,0.000000,0.000000,0.000000,0.000000,0.000000,0.000000,1647415464.818964,0.000000
57.000000,28691.436790,19857.602699,15659.565110,15872.398421,-11059.777267,11159.220178,18076.034555,11326.902965,0.078000,0.962000,0.206000,192.000000,0.000000,0.000000,0.000000,0.000000,0.000000,0.000000,0.000000,0.000000,0.000000,1647415464.826999,0.000000
58.000000,28701.182151,19865.112885,15667.745849,15881.406174,-11050.814217,11171.334824,18088.685642,11349.657041,0.082000,0.964000,0.210000,192.000000,2.000000,144.000000,30.000000,32.000000,6.000000,144.000000,0.000000,0.000000,0.000000,1647415464.827003,0.000000
59.000000,28704.199636,19868.823274,15664.974232,15880.892084,-11052.065915,11176.833353,18100.710881,11380.860076,0.082000,0.964000,0.210000,192.000000,0.000000,0.000000,0.000000,0.000000,0.000000,0.000000,0.000000,0.000000,0.000000,1647415464.834135,0.000000
60.000000,28697.315299,19863.034172,15655.810017,15877.204046,-11056.469209,11173.167667,18099.414480,11363.246901,0.082000,0.964000,0.210000,192.000000,0.000000,0.000000,0.000000,0.000000,0.000000,0.000000,0.000000,0.000000,0.000000,1647415464.834139,0.000000
61.000000,28700.131619,19868.085667,15663.431962,15881.272063,-11050.836569,11174.262902,18096.888733,11359.380050,0.082000,0.964000,0.210000,192.000000,0.000000,0.000000,0.000000,0.000000,0.000000,0.000000,0.000000,0.000000,0.000000,1647415464.841935,0.000000
62.000000,28701.249206,19868.264481,15658.715744,15877.114639,-11055.463380,11172.877094,18094.139468,11383.274064,0.082000,0.964000,0.210000,192.000000,0.000000,0.000000,0.000000,0.000000,0.000000,0.000000,0.000000,0.000000,0.000000,1647415464.841939,0.000000
63.000000,28712.603892,19875.752315,15671.702107,15887.709366,-11047.349697,11178.465030,18095.614683,11377.507314,0.082000,0.964000,0.210000,192.000000,0.000000,0.000000,0.000000,0.000000,0.000000,0.000000,0.000000,0.000000,0.000000,1647415464.849493,0.000000
64.000000,28706.859494,19872.176036,15668.304642,15886.815296,-11050.747162,11174.642882,18095.346462,11363.917454,0.082000,0.964000,0.210000,192.000000,0.000000,0.000000,0.000000,0.000000,0.000000,0.000000,0.000000,0.000000,0.000000,1647415464.849497,0.000000
65.000000,28699.595177,19870.857283,15670.159837,15887.307034,-11049.651927,11175.358138,18098.162782,11369.997128,0.082000,0.964000,0.210000,192.000000,0.000000,0.000000,0.000000,0.000000,0.000000,0.000000,0.000000,0.000000,0.000000,1647415464.857584,0.000000
66.000000,28697.963500,19869.784399,15667.321165,15886.032985,-11051.440066,11173.614701,18096.844029,11369.125410,0.082000,0.964000,0.210000,192.000000,0.000000,0.000000,0.000000,0.000000,0.000000,0.000000,0.000000,0.000000,0.000000,1647415464.857588,0.000000
67.000000,28699.103439,19873.338327,15663.297851,15884.870694,-11052.311784,11171.468934,18094.452392,11366.152628,0.082000,0.964000,0.210000,192.000000,0.000000,0.000000,0.000000,0.000000,0.000000,0.000000,0.000000,0.000000,0.000000,1647415464.864233,0.000000
68.000000,28701.249206,19875.461742,15671.255073,15888.357566,-11048.757857,11169.926664,18092.708956,11358.575387,0.078000,0.962000,0.208000,192.000000,2.000000,112.000000,30.000000,16.000000,6.000000,128.000000,0.000000,0.000000,0.000000,1647415464.864237,0.000000
69.000000,28698.835218,19870.320841,15668.148180,15885.116563,-11051.082438,11165.277501,18088.909160,11349.388820,0.078000,0.962000,0.208000,192.000000,0.000000,0.000000,0.000000,0.000000,0.000000,0.000000,0.000000,0.000000,0.000000,1647415464.871254,0.000000
70.000000,28695.974195,19868.666812,15659.654517,15884.446011,-11055.709249,11164.741059,18090.876113,11355.043811,0.078000,0.962000,0.208000,192.000000,0.000000,0.000000,0.000000,0.000000,0.000000,0.000000,0.000000,0.000000,0.000000,1647415464.879381,0.000000
71.000000,28694.186055,19870.030268,15669.645747,15887.351738,-11051.887101,11171.357175,18094.452392,11374.087497,0.078000,0.962000,0.208000,192.000000,0.000000,0.000000,0.000000,0.000000,0.000000,0.000000,0.000000,0.000000,0.000000,1647415464.879385,0.000000
72.000000,28691.347383,19867.459818,15672.931453,15885.876523,-11051.171845,11172.206542,18093.692433,11371.494695,0.078000,0.962000,0.208000,192.000000,0.000000,0.000000,0.000000,0.000000,0.000000,0.000000,0.000000,0.000000,0.000000,1647415464.886227,0.000000
73.000000,28691.369735,19870.946690,15669.042250,15885.787116,-11050.613052,11168.809076,18093.155991,11356.899006,0.078000,0.962000,0.208000,192.000000,0.000000,0.000000,0.000000,0.000000,0.000000,0.000000,0.000000,0.000000,0.000000,1647415464.886231,0.000000
74.000000,28689.223968,19868.823274,15665.421267,15885.183619,-11051.507122,11164.450486,18084.483514,11348.494750,0.078000,0.962000,0.208000,192.000000,0.000000,0.000000,0.000000,0.000000,0.000000,0.000000,0.000000,0.000000,0.000000,1647415464.893769,0.000000
75.000000,28684.843026,19862.520082,15662.895520,15882.434354,-11051.238901,11170.440754,18093.021881,11359.357698,0.078000,0.962000,0.208000,192.000000,0.000000,0.000000,0.000000,0.000000,0.000000,0.000000,0.000000,0.000000,0.000000,1647415464.893773,0.000000
76.000000,28684.664212,19861.335440,15660.235662,15882.456706,-11052.691764,11172.161838,18098.632169,11363.403364,0.078000,0.962000,0.208000,192.000000,0.000000,0.000000,0.000000,0.000000,0.000000,0.000000,0.000000,0.000000,0.000000,1647415464.901837,0.000000
77.000000,28682.518444,19859.212024,15658.536930,15875.460610,-11057.653851,11165.344556,18084.192942,11358.508332,0.078000,0.962000,0.208000,192.000000,0.000000,0.000000,0.000000,0.000000,0.000000,0.000000,0.000000,0.000000,0.000000,1647415464.901841,0.000000
78.000000,28680.752657,19860.977812,15658.648689,15872.957214,-11057.050354,11167.020937,18091.144334,11357.726021,0.074000,0.960000,0.206000,192.000000,2.000000,80.000000,30.000000,0.000000,6.000000,112.000000,0.000000,0.000000,0.000000,1647415464.909958,0.000000
79.000000,28684.463046,19859.547300,15661.062677,15879.305110,-11051.864749,11173.324129,18103.638959,11367.784306,0.074000,0.960000,0.206000,192.000000,0.000000,0.000000,0.000000,0.000000,0.000000,0.000000,0.000000,0.000000,0.000000,1647415464.909989,0.000000
80.000000,28688.441657,19865.202292,15665.242453,15883.998976,-11047.617918,11172.742983,18098.431003,11363.671585,0.074000,0.960000,0.206000,192.000000,0.000000,0.000000,0.000000,0.000000,0.000000,0.000000,0.000000,0.000000,0.000000,1647415464.916363,0.000000
81.000000,28685.960613,19867.281004,15663.499017,15882.166133,-11049.406058,11168.272635,18086.852799,11361.302300,0.074000,0.960000,0.206000,192.000000,0.000000,0.000000,0.000000,0.000000,0.000000,0.000000,0.000000,0.000000,0.000000,1647415464.916381,0.000000
82.000000,28686.653517,19865.626975,15664.728363,15886.345909,-11047.908491,11169.971367,18089.669119,11367.001994,0.074000,0.960000,0.206000,192.000000,0.000000,0.000000,0.000000,0.000000,0.000000,0.000000,0.000000,0.000000,0.000000,1647415464.924492,0.000000
83.000000,28694.364869,19873.181864,15670.606872,15893.185543,-11042.052334,11176.855704,18095.905256,11385.352777,0.074000,0.960000,0.206000,192.000000,0.000000,0.000000,0.000000,0.000000,0.000000,0.000000,0.000000,0.000000,0.000000,1647415464.924496,0.000000
84.000000,28693.448447,19872.556016,15666.091820,15887.038813,-11048.333174,11168.272635,18089.669119,11362.844570,0.074000,0.960000,0.206000,192.000000,0.000000,0.000000,0.000000,0.000000,0.000000,0.000000,0.000000,0.000000,0.000000,1647415464.931537,0.000000
85.000000,28687.815808,19870.253786,15662.090857,15881.473229,-11051.507122,11164.741059,18084.282349,11354.261500,0.074000,0.960000,0.206000,192.000000,0.000000,0.000000,0.000000,0.000000,0.000000,0.000000,0.000000,0.000000,0.000000,1647415464.939461,0.000000
86.000000,28688.575767,19869.627937,15660.615642,15883.864866,-11052.803523,11165.433963,18080.527256,11359.022422,0.074000,0.960000,0.206000,192.000000,0.000000,0.000000,0.000000,0.000000,0.000000,0.000000,0.000000,0.000000,0.000000,1647415464.939470,0.000000
87.000000,28680.618546,19858.005030,15653.217215,15875.728831,-11060.067840,11158.124943,18073.665270,11345.499616,0.074000,0.960000,0.206000,192.000000,0.000000,0.000000,0.000000,0.000000,0.000000,0.000000,0.000000,0.000000,0.000000,1647415464.946395,0.000000
88.000000,28680.663250,19862.497731,15657.374639,15879.975662,-11056.670374,11163.511713,18079.499075,11341.006916,0.072000,0.954000,0.206000,192.000000,2.000000,64.000000,29.000000,208.000000,6.000000,112.000000,0.000000,0.000000,0.000000,1647415464.946402,0.000000
89.000000,28684.954785,19865.694030,15659.207482,15881.540284,-11053.898758,11174.173495,18095.033538,11367.158457,0.072000,0.954000,0.206000,192.000000,0.000000,0.000000,0.000000,0.000000,0.000000,0.000000,0.000000,0.000000,0.000000,1647415464.954368,0.000000
90.000000,28692.643785,19871.438428,15658.536930,15885.630654,-11052.378840,11174.844047,18090.809058,11372.254654,0.072000,0.954000,0.206000,192.000000,0.000000,0.000000,0.000000,0.000000,0.000000,0.000000,0.000000,0.000000,0.000000,1647415464.954378,0.000000
91.000000,28694.521331,19875.417039,15662.739058,15887.508200,-11049.830741,11176.453373,18094.921779,11368.745431,0.072000,0.954000,0.206000,192.000000,0.000000,0.000000,0.000000,0.000000,0.000000,0.000000,0.000000,0.000000,0.000000,1647415464.962203,0.000000
92.000000,28689.559244,19872.019574,15667.432924,15882.791982,-11052.624709,11173.391184,18094.832372,11356.139047,0.072000,0.954000,0.206000,192.000000,0.000000,0.000000,0.000000,0.000000,0.000000,0.000000,0.000000,0.000000,0.000000,1647415464.962212,0.000000
93.000000,28687.078200,19871.036097,15666.360040,15883.686052,-11055.329270,11171.491286,18094.988834,11353.434486,0.072000,0.954000,0.206000,192.000000,0.000000,0.000000,0.000000,0.000000,0.000000,0.000000,0.000000,0.000000,0.000000,1647415464.969317,0.000000
94.000000,28682.831369,19862.542434,15661.532064,15881.428526,-11055.798656,11175.067565,18098.721576,11364.476247,0.072000,0.954000,0.206000,192.000000,0.000000,0.000000,0.000000,0.000000,0.000000,0.000000,0.000000,0.000000,0.000000,1647415464.969329,0.000000
95.000000,28680.707953,19857.245071,15655.273575,15874.678299,-11060.738392,11168.831428,18086.830448,11362.174018,0.072000,0.954000,0.206000,192.000000,0.000000,0.000000,0.000000,0.000000,0.000000,0.000000,0.000000,0.000000,0.000000,1647415464.977241,0.000000
96.000000,28678.539834,19857.267422,15654.424209,15873.270139,-11062.235959,11171.401879,18095.122945,11372.254654,0.072000,0.954000,0.206000,192.000000,0.000000,0.000000,0.000000,0.000000,0.000000,0.000000,0.000000,0.000000,0.000000,1647415464.977257,0.000000
97.000000,28680.998526,19862.408324,15656.793494,15877.226398,-11060.112543,11174.106440,18099.526238,11372.031137,0.072000,0.954000,0.206000,192.000000,0.000000,0.000000,0.000000,0.000000,0.000000,0.000000,0.000000,0.000000,0.000000,1647415464.985163,0.000000
98.000000,28676.036438,19855.054600,15655.519444,15871.861979,-11063.442953,11170.552512,18093.759488,11374.668643,0.072000,0.954000,0.206000,192.000000,0.000000,0.000000,0.000000,0.000000,0.000000,0.000000,0.000000,0.000000,0.000000,1647415464.985179,0.000000
99.000000,28677.265784,19857.379181,15659.252186,15874.119505,-11059.017308,11170.798382,18089.043270,11360.497637,0.068000,0.958000,0.208000,192.000000,2.000000,32.000000,29.000000,240.000000,6.000000,128.000000,0.000000,0.000000,0.000000,1647415464.992103,0.000000
100.000000,28680.059752,19863.704725,15659.945090,15881.562636,-11052.535302,11172.586521,18085.265825,11359.670622,0.068000,0.958000,0.208000,192.000000,0.000000,0.000000,0.000000,0.000000,0.000000,0.000000,0.000000,0.000000,0.000000,1647415464.992120,0.000000
101.000000,28686.899386,19870.700821,15670.092782,15892.671453,-11043.035810,11177.012167,18084.617625,11359.312994,0.068000,0.958000,0.208000,192.000000,0.000000,0.000000,0.000000,0.000000,0.000000,0.000000,0.000000,0.000000,0.000000,1647415464.999164,0.000000
102.000000,28681.177340,19867.325707,15666.270633,15887.038813,-11047.103828,11173.815867,18088.864456,11362.486942,0.068000,0.958000,0.208000,192.000000,0.000000,0.000000,0.000000,0.000000,0.000000,0.000000,0.000000,0.000000,0.000000,1647415465.006658,0.000000
103.000000,28677.310488,19865.872844,15661.889692,15882.032023,-11049.070781,11176.587483,18103.706015,11376.166210,0.068000,0.958000,0.208000,192.000000,0.000000,0.000000,0.000000,0.000000,0.000000,0.000000,0.000000,0.000000,0.000000,1647415465.006667,0.000000
104.000000,28672.326049,19860.441370,15660.883863,15878.254578,-11052.267081,11169.926664,18094.295930,11363.962157,0.068000,0.958000,0.208000,192.000000,0.000000,0.000000,0.000000,0.000000,0.000000,0.000000,0.000000,0.000000,0.000000,1647415465.014795,0.000000
105.000000,28678.293965,19861.290736,15665.018936,15881.383822,-11047.372049,11173.994681,18098.341596,11365.392669,0.068000,0.958000,0.208000,192.000000,0.000000,0.000000,0.000000,0.000000,0.000000,0.000000,0.000000,0.000000,0.000000,1647415465.014812,0.000000
106.000000,28674.315354,19855.367524,15660.973270,15877.539322,-11050.121313,11172.810039,18091.993701,11368.521913,0.068000,0.958000,0.208000,192.000000,0.000000,0.000000,0.000000,0.000000,0.000000,0.000000,0.000000,0.000000,0.000000,1647415465.021669,0.000000
107.000000,28674.404761,19857.982678,15658.939261,15880.377994,-11050.411886,11174.441716,18090.742003,11368.499561,0.068000,0.958000,0.208000,192.000000,0.000000,0.000000,0.000000,0.000000,0.000000,0.000000,0.000000,0.000000,0.000000,1647415465.021704,0.000000
108.000000,28680.640898,19864.174111,15671.255073,15887.351738,-11042.924052,11180.029652,18096.508753,11369.013651,0.068000,0.958000,0.208000,192.000000,0.000000,0.000000,0.000000,0.000000,0.000000,0.000000,0.000000,0.000000,0.000000,1647415465.029301,0.000000
109.000000,28679.769180,19860.240204,15670.897445,15882.948444,-11044.823950,11181.303702,18100.174439,11377.417907,0.068000,0.958000,0.206000,192.000000,2.000000,32.000000,29.000000,240.000000,6.000000,112.000000,0.000000,0.000000,0.000000,1647415465.029312,0.000000
110.000000,28677.802226,19858.541472,15664.415439,15878.120467,-11048.400229,11173.927626,18088.350366,11354.015631,0.068000,0.958000,0.206000,192.000000,0.000000,0.000000,0.000000,0.000000,0.000000,0.000000,0.000000,0.000000,0.000000,1647415465.037428,0.000000
111.000000,28674.404761,19858.183844,15658.492226,15880.199180,-11051.775342,11173.838219,18085.981081,11355.535550,0.068000,0.958000,0.206000,192.000000,0.000000,0.000000,0.000000,0.000000,0.000000,0.000000,0.000000,0.000000,0.000000,1647415465.037444,0.000000
112.000000,28681.177340,19867.057486,15668.662270,15888.134049,-11044.868653,11184.500001,18100.912047,11378.602550,0.068000,0.958000,0.206000,192.000000,0.000000,0.000000,0.000000,0.000000,0.000000,0.000000,0.000000,0.000000,0.000000,1647415465.045393,0.000000
113.000000,28678.025744,19863.347097,15665.398915,15883.104906,-11046.947366,11180.767260,18091.792535,11359.894140,0.068000,0.958000,0.206000,192.000000,0.000000,0.000000,0.000000,0.000000,0.000000,0.000000,0.000000,0.000000,0.000000,1647415465.045409,0.000000
114.000000,28671.253165,19856.663925,15653.999526,15872.890159,-11055.888063,11173.279425,18085.087011,11346.840721,0.068000,0.958000,0.206000,192.000000,0.000000,0.000000,0.000000,0.000000,0.000000,0.000000,0.000000,0.000000,0.000000,1647415465.052106,0.000000
115.000000,28675.410590,19861.938937,15663.946052,15881.674395,-11048.847264,11186.556362,18102.007282,11385.866867,0.068000,0.958000,0.206000,192.000000,0.000000,0.000000,0.000000,0.000000,0.000000,0.000000,0.000000,0.000000,0.000000,1647415465.052123,0.000000
116.000000,28675.298831,19856.842739,15666.807075,15881.160305,-11049.339002,11185.885809,18095.659387,11376.456782,0.068000,0.958000,0.206000,192.000000,0.000000,0.000000,0.000000,0.000000,0.000000,0.000000,0.000000,0.000000,0.000000,1647415465.059179,0.000000
117.000000,28683.233700,19860.866053,15668.818732,15882.568465,-11049.137837,11183.002434,18090.451430,11361.503465,0.068000,0.958000,0.206000,192.000000,0.000000,0.000000,0.000000,0.000000,0.000000,0.000000,0.000000,0.000000,0.000000,1647415465.067109,0.000000
118.000000,28690.118037,19870.454952,15671.098610,15883.686052,-11050.031906,11180.543742,18091.859590,11359.424753,0.068000,0.958000,0.206000,192.000000,0.000000,0.000000,0.000000,0.000000,0.000000,0.000000,0.000000,0.000000,0.000000,1647415465.067125,0.000000
119.000000,28685.871206,19870.320841,15667.589386,15883.954273,-11050.903624,11176.207504,18084.707032,11353.814465,0.072000,0.960000,0.206000,192.000000,2.000000,64.000000,30.000000,0.000000,6.000000,112.000000,0.000000,0.000000,0.000000,1647415465.075226,0.000000
120.000000,28675.499997,19865.828140,15664.840122,15887.016462,-11049.361354,11181.080184,18083.142410,11356.228454,0.072000,0.960000,0.206000,192.000000,0.000000,0.000000,0.000000,0.000000,0.000000,0.000000,0.000000,0.000000,0.000000,1647415465.075244,0.000000
121.000000,28672.951898,19865.850492,15662.046154,15889.139877,-11047.349697,11186.399899,18093.535971,11362.911625,0.072000,0.960000,0.206000,192.000000,0.000000,0.000000,0.000000,0.000000,0.000000,0.000000,0.000000,0.000000,0.000000,1647415465.081787,0.000000
122.000000,28677.265784,19871.505484,15658.224005,15887.955235,-11048.869616,11179.292045,18086.159895,11354.082686,0.072000,0.960000,0.206000,192.000000,0.000000,0.000000,0.000000,0.000000,0.000000,0.000000,0.000000,0.000000,0.000000,1647415465.081803,0.000000
123.000000,28676.036438,19872.980699,15656.927604,15887.172924,-11050.613052,11180.700204,18087.657462,11361.972852,0.072000,0.960000,0.206000,192.000000,0.000000,0.000000,0.000000,0.000000,0.000000,0.000000,0.000000,0.000000,0.000000,1647415465.090183,0.000000
124.000000,28674.740037,19869.203254,15654.424209,15888.715194,-11050.367183,11185.237609,18095.637035,11376.143858,0.072000,0.960000,0.206000,192.000000,0.000000,0.000000,0.000000,0.000000,0.000000,0.000000,0.000000,0.000000,0.000000,1647415465.090199,0.000000
125.000000,28668.235680,19858.273251,15641.862529,15878.478095,-11061.118372,11179.202638,18094.050061,11376.993224,0.072000,0.960000,0.206000,192.000000,0.000000,0.000000,0.000000,0.000000,0.000000,0.000000,0.000000,0.000000,0.000000,1647415465.097807,0.000000
126.000000,28664.860566,19855.546338,15648.724514,15874.544188,-11060.961909,11175.268731,18090.652596,11352.428657,0.072000,0.960000,0.206000,192.000000,0.000000,0.000000,0.000000,0.000000,0.000000,0.000000,0.000000,0.000000,0.000000,1647415465.097823,0.000000
127.000000,28678.562186,19875.260577,15667.924663,15891.397404,-11044.756895,11190.691434,18103.750718,11369.974777,0.072000,0.960000,0.206000,192.000000,0.000000,0.000000,0.000000,0.000000,0.000000,0.000000,0.000000,0.000000,0.000000,1647415465.104889,0.000000
128.000000,28681.423209,19880.401478,15669.221064,15897.767651,-11040.107732,11196.636998,18112.646712,11389.957236,0.072000,0.960000,0.206000,192.000000,0.000000,0.000000,0.000000,0.000000,0.000000,0.000000,0.000000,0.000000,0.000000,1647415465.104906,0.000000
129.000000,28679.858587,19878.479228,15661.174436,15894.727814,-11045.092171,11186.891638,18098.051023,11375.003919,0.078000,0.956000,0.202000,192.000000,2.000000,112.000000,29.000000,224.000000,6.000000,80.000000,0.000000,0.000000,0.000000,1647415465.112289,0.000000
130.000000,28685.200654,19877.719269,15665.510674,15892.336177,-11044.891005,11184.120021,18091.390203,11364.275082,0.078000,0.956000,0.202000,192.000000,0.000000,0.000000,0.000000,0.000000,0.000000,0.000000,0.000000,0.000000,0.000000,1647415465.112307,0.000000
131.000000,28680.842064,19870.946690,15657.240529,15885.675357,-11053.272909,11177.302739,18090.674948,11361.168189,0.078000,0.956000,0.202000,192.000000,0.000000,0.000000,0.000000,0.000000,0.000000,0.000000,0.000000,0.000000,0.000000,1647415465.119423,0.000000
132.000000,28676.952860,19869.002088,15655.385334,15885.474191,-11058.659680,11178.129754,18094.653558,11372.366413,0.078000,0.956000,0.202000,192.000000,0.000000,0.000000,0.000000,0.000000,0.000000,0.000000,0.000000,0.000000,0.000000,1647415465.127298,0.000000
133.000000,28683.256052,19875.215873,15658.492226,15889.653968,-11054.368145,11180.856667,18094.318282,11367.985471,0.078000,0.956000,0.202000,192.000000,0.000000,0.000000,0.000000,0.000000,0.000000,0.000000,0.000000,0.000000,0.000000,1647415465.127315,0.000000
134.000000,28686.541758,19877.026364,15656.681735,15888.581084,-11052.244729,11179.023824,18092.843067,11362.419887,0.078000,0.956000,0.202000,192.000000,0.000000,0.000000,0.000000,0.000000,0.000000,0.000000,0.000000,0.000000,0.000000,1647415465.134397,0.000000
135.000000,28687.368773,19877.406344,15661.017974,15886.390613,-11052.132970,11179.202638,18094.430041,11370.175942,0.078000,0.956000,0.202000,192.000000,0.000000,0.000000,0.000000,0.000000,0.000000,0.000000,0.000000,0.000000,0.000000,1647415465.134414,0.000000
136.000000,28695.862436,19885.564731,15672.618529,15895.755994,-11043.102866,11184.432946,18092.485439,11356.988413,0.078000,0.956000,0.202000,192.000000,0.000000,0.000000,0.000000,0.000000,0.000000,0.000000,0.000000,0.000000,0.000000,1647415465.141804,0.000000
137.000000,28691.772067,19878.613338,15661.085029,15890.101002,-11051.238901,11174.486419,18079.409668,11335.351924,0.078000,0.956000,0.202000,192.000000,0.000000,0.000000,0.000000,0.000000,0.000000,0.000000,0.000000,0.000000,0.000000,1647415465.141821,0.000000
138.000000,28682.607851,19877.093420,15656.391162,15887.329386,-11055.195159,11173.324129,18077.777991,11359.804733,0.078000,0.956000,0.202000,192.000000,0.000000,0.000000,0.000000,0.000000,0.000000,0.000000,0.000000,0.000000,0.000000,1647415465.149995,0.000000
139.000000,28691.213273,19885.408269,15665.331860,15895.867753,-11044.041639,11184.410594,18092.932474,11377.753184,0.080000,0.956000,0.204000,192.000000,2.000000,128.000000,29.000000,224.000000,6.000000,96.000000,0.000000,0.000000,0.000000,1647415465.150011,0.000000
140.000000,28687.972270,19881.452010,15661.263843,15893.230247,-11045.494502,11176.766297,18087.903331,11351.042849,0.080000,0.956000,0.204000,192.000000,0.000000,0.000000,0.000000,0.000000,0.000000,0.000000,0.000000,0.000000,0.000000,1647415465.158080,0.000000
141.000000,28685.692392,19878.881559,15659.207482,15890.950369,-11046.813255,11177.615664,18084.259997,11363.716288,0.080000,0.956000,0.204000,192.000000,0.000000,0.000000,0.000000,0.000000,0.000000,0.000000,0.000000,0.000000,0.000000,1647415465.158098,0.000000
142.000000,28684.239529,19876.512274,15652.233738,15886.994110,-11051.641232,11175.782821,18080.281386,11373.327538,0.080000,0.956000,0.204000,192.000000,0.000000,0.000000,0.000000,0.000000,0.000000,0.000000,0.000000,0.000000,0.000000,1647415465.164686,0.000000
143.000000,28682.607851,19880.669699,15657.464046,15890.525686,-11049.227244,11176.073393,18084.796439,11358.485980,0.080000,0.956000,0.204000,192.000000,0.000000,0.000000,0.000000,0.000000,0.000000,0.000000,0.000000,0.000000,0.000000,1647415465.164702,0.000000
144.000000,28688.978099,19884.290681,15669.288119,15893.833744,-11041.024153,11185.192905,18099.392128,11372.142896,0.080000,0.956000,0.204000,192.000000,0.000000,0.000000,0.000000,0.000000,0.000000,0.000000,0.000000,0.000000,0.000000,1647415465.172672,0.000000
145.000000,28691.056811,19885.609434,15670.428058,15895.554828,-11039.213662,11182.980082,18098.252189,11364.699765,0.080000,0.956000,0.204000,192.000000,0.000000,0.000000,0.000000,0.000000,0.000000,0.000000,0.000000,0.000000,0.000000,1647415465.172689,0.000000
146.000000,28679.165683,19878.143952,15656.704087,15887.061165,-11050.545996,11166.417440,18077.822695,11329.719285,0.080000,0.956000,0.204000,192.000000,0.000000,0.000000,0.000000,0.000000,0.000000,0.000000,0.000000,0.000000,0.000000,1647415465.179674,0.000000
147.000000,28681.758485,19876.914606,15657.598157,15889.653968,-11049.294299,11173.301777,18092.597198,11346.281927,0.080000,0.956000,0.204000,192.000000,0.000000,0.000000,0.000000,0.000000,0.000000,0.000000,0.000000,0.000000,0.000000,1647415465.186593,0.000000
148.000000,28692.889654,19882.457838,15668.684622,15898.549962,-11038.744275,11186.176382,18094.742965,11382.983492,0.080000,0.956000,0.204000,192.000000,0.000000,0.000000,0.000000,0.000000,0.000000,0.000000,0.000000,0.000000,0.000000,1647415465.186609,0.000000
149.000000,28690.386258,19877.920434,15662.873168,15894.481944,-11042.566424,11177.839181,18084.818791,11356.787247,0.078000,0.954000,0.200000,192.000000,2.000000,112.000000,29.000000,208.000000,6.000000,64.000000,0.000000,0.000000,0.000000,1647415465.194095,0.000000
150.000000,28690.632128,19879.619167,15660.123904,15895.957160,-11044.265156,11175.492248,18073.911139,11348.092419,0.078000,0.954000,0.200000,192.000000,0.000000,0.000000,0.000000,0.000000,0.000000,0.000000,0.000000,0.000000,0.000000,1647415465.194131,0.000000
151.000000,28697.315299,19886.861132,15665.242453,15901.254523,-11038.654868,11184.432946,18078.716764,11365.929111,0.078000,0.954000,0.200000,192.000000,0.000000,0.000000,0.000000,0.000000,0.000000,0.000000,0.000000,0.000000,0.000000,1647415465.202146,0.000000
152.000000,28695.147180,19887.486981,15666.091820,15902.394462,-11037.604336,11187.919818,18092.016052,11363.693936,0.078000,0.954000,0.200000,192.000000,0.000000,0.000000,0.000000,0.000000,0.000000,0.000000,0.000000,0.000000,0.000000,1647415465.202161,0.000000
153.000000,28694.208407,19883.038984,15667.879959,15901.008654,-11038.565461,11189.909123,18096.888733,11366.443201,0.078000,0.954000,0.200000,192.000000,0.000000,0.000000,0.000000,0.000000,0.000000,0.000000,0.000000,0.000000,0.000000,1647415465.210208,0.000000
154.000000,28690.274500,19879.283891,15659.743924,15895.219552,-11043.862825,11183.069489,18084.930549,11361.905797,0.078000,0.954000,0.200000,192.000000,0.000000,0.000000,0.000000,0.000000,0.000000,0.000000,0.000000,0.000000,0.000000,1647415465.210225,0.000000
155.000000,28693.470799,19881.295548,15653.306622,15894.705462,-11047.573214,11179.180286,18077.889750,11336.938898,0.078000,0.954000,0.200000,192.000000,0.000000,0.000000,0.000000,0.000000,0.000000,0.000000,0.000000,0.000000,0.000000,1647415465.216901,0.000000
156.000000,28692.241453,19881.608472,15662.716706,15895.420718,-11042.566424,11183.672986,18080.259035,11347.645384,0.078000,0.954000,0.200000,192.000000,0.000000,0.000000,0.000000,0.000000,0.000000,0.000000,0.000000,0.000000,0.000000,1647415465.216917,0.000000
157.000000,28692.912006,19884.178923,15670.562168,15902.617979,-11035.480921,11195.117080,18097.693395,11379.921303,0.078000,0.954000,0.200000,192.000000,0.000000,0.000000,0.000000,0.000000,0.000000,0.000000,0.000000,0.000000,0.000000,1647415465.224938,0.000000
158.000000,28697.538817,19890.035080,15672.618529,15906.954218,-11031.792883,11198.559248,18100.889695,11383.698748,0.078000,0.954000,0.200000,192.000000,0.000000,0.000000,0.000000,0.000000,0.000000,0.000000,0.000000,0.000000,0.000000,1647415465.224954,0.000000
159.000000,28697.695279,19887.509333,15670.942148,15904.629636,-11033.022229,11195.072376,18101.582599,11372.858152,0.070000,0.960000,0.198000,192.000000,2.000000,48.000000,30.000000,0.000000,6.000000,48.000000,0.000000,0.000000,0.000000,1647415465.232740,0.000000
160.000000,28696.331822,19887.934016,15669.265767,15903.422642,-11036.062066,11187.428080,18091.971349,11352.182788,0.070000,0.960000,0.198000,192.000000,0.000000,0.000000,0.000000,0.000000,0.000000,0.000000,0.000000,0.000000,0.000000,1647415465.232754,0.000000
161.000000,28700.869227,19891.130315,15669.422229,15905.479003,-11036.084418,11183.941207,18088.328014,11345.767837,0.070000,0.960000,0.198000,192.000000,0.000000,0.000000,0.000000,0.000000,0.000000,0.000000,0.000000,0.000000,0.000000,1647415465.239778,0.000000
162.000000,28692.174398,19885.028289,15657.329936,15902.506221,-11042.186444,11182.600103,18097.827506,11368.074878,0.070000,0.960000,0.198000,192.000000,0.000000,0.000000,0.000000,0.000000,0.000000,0.000000,0.000000,0.000000,0.000000,1647415465.239795,0.000000
163.000000,28689.671003,19882.547245,15652.613718,15895.957160,-11048.064953,11179.157934,18094.720613,11381.262407,0.070000,0.960000,0.198000,192.000000,0.000000,0.000000,0.000000,0.000000,0.000000,0.000000,0.000000,0.000000,0.000000,1647415465.246352,0.000000
164.000000,28693.403744,19885.363565,15662.224968,15898.594665,-11043.482845,11177.727422,18091.859590,11370.019480,0.070000,0.960000,0.198000,192.000000,0.000000,0.000000,0.000000,0.000000,0.000000,0.000000,0.000000,0.000000,0.000000,1647415465.254495,0.000000
165.000000,28695.616567,19884.134219,15659.118075,15900.114584,-11044.421619,11175.112268,18097.000491,11369.684204,0.070000,0.960000,0.198000,192.000000,0.000000,0.000000,0.000000,0.000000,0.000000,0.000000,0.000000,0.000000,0.000000,1647415465.254512,0.000000
166.000000,28696.421229,19881.541417,15652.747828,15897.745299,-11050.769514,11162.528236,18084.774087,11350.975794,0.070000,0.960000,0.198000,192.000000,0.000000,0.000000,0.000000,0.000000,0.000000,0.000000,0.000000,0.000000,0.000000,1647415465.262550,0.000000
167.000000,28697.203540,19885.676490,15659.274537,15901.232171,-11048.064953,11166.171571,18092.127811,11355.446143,0.070000,0.960000,0.198000,192.000000,0.000000,0.000000,0.000000,0.000000,0.000000,0.000000,0.000000,0.000000,0.000000,1647415465.262566,0.000000
168.000000,28693.739020,19887.889312,15661.152084,15906.373072,-11042.521720,11174.844047,18103.750718,11382.000015,0.070000,0.960000,0.198000,192.000000,0.000000,0.000000,0.000000,0.000000,0.000000,0.000000,0.000000,0.000000,0.000000,1647415465.269724,0.000000
169.000000,28694.677793,19891.219722,15666.114171,15907.781232,-11039.615993,11175.224027,18107.438756,11380.569503,0.078000,0.964000,0.200000,192.000000,2.000000,112.000000,30.000000,32.000000,6.000000,64.000000,0.000000,0.000000,0.000000,1647415465.269740,0.000000
170.000000,28697.583520,19892.672586,15669.332822,15911.178697,-11040.107732,11168.429097,18098.542762,11369.281872,0.078000,0.964000,0.200000,192.000000,0.000000,0.000000,0.000000,0.000000,0.000000,0.000000,0.000000,0.000000,0.000000,1647415465.277210,0.000000
171.000000,28698.321128,19892.694937,15665.175398,15908.988227,-11043.505197,11163.198789,18094.541799,11356.340212,0.078000,0.964000,0.200000,192.000000,0.000000,0.000000,0.000000,0.000000,0.000000,0.000000,0.000000,0.000000,0.000000,1647415465.277246,0.000000
172.000000,28698.276424,19894.237208,15665.689488,15905.680168,-11046.679145,11165.255149,18101.582599,11368.231340,0.078000,0.964000,0.200000,192.000000,0.000000,0.000000,0.000000,0.000000,0.000000,0.000000,0.000000,0.000000,0.000000,1647415465.284933,0.000000
173.000000,28694.253110,19888.626920,15658.916910,15898.594665,-11053.786999,11157.454390,18092.306625,11359.692974,0.078000,0.964000,0.200000,192.000000,0.000000,0.000000,0.000000,0.000000,0.000000,0.000000,0.000000,0.000000,0.000000,1647415465.284943,0.000000
174.000000,28695.102476,19889.811562,15654.848892,15897.521782,-11056.111581,11154.571015,18091.345500,11351.959270,0.078000,0.964000,0.200000,192.000000,0.000000,0.000000,0.000000,0.000000,0.000000,0.000000,0.000000,0.000000,0.000000,1647415465.292100,0.000000
175.000000,28691.257976,19882.122562,15652.457255,15891.330348,-11059.218473,11150.704163,18091.926645,11359.715326,0.078000,0.964000,0.200000,192.000000,0.000000,0.000000,0.000000,0.000000,0.000000,0.000000,0.000000,0.000000,0.000000,1647415465.292113,0.000000
176.000000,28702.836180,19892.449068,15665.108343,15905.456651,-11046.187406,11158.728440,18097.805154,11373.260483,0.078000,0.964000,0.200000,192.000000,0.000000,0.000000,0.000000,0.000000,0.000000,0.000000,0.000000,0.000000,0.000000,1647415465.299613,0.000000
177.000000,28703.238511,19895.153629,15669.623395,15908.138860,-11043.080514,11162.260015,18101.470840,11376.121506,0.078000,0.964000,0.200000,192.000000,0.000000,0.000000,0.000000,0.000000,0.000000,0.000000,0.000000,0.000000,0.000000,1647415465.299631,0.000000
178.000000,28703.082049,19895.779478,15666.829427,15906.864811,-11045.606261,11156.292100,18102.476669,11358.217759,0.078000,0.964000,0.200000,192.000000,0.000000,0.000000,0.000000,0.000000,0.000000,0.000000,0.000000,0.000000,0.000000,1647415465.306779,0.000000
179.000000,28694.901311,19886.034117,15655.452389,15894.794869,-11056.782133,11141.651707,18084.684680,11338.347058,0.072000,0.966000,0.198000,192.000000,2.000000,64.000000,30.000000,48.000000,6.000000,48.000000,0.000000,0.000000,0.000000,1647415465.314905,0.000000
180.000000,28701.919759,19893.611359,15663.610776,15900.896895,-11049.227244,11159.063716,18106.567038,11381.150649,0.072000,0.966000,0.198000,192.000000,0.000000,0.000000,0.000000,0.000000,0.000000,0.000000,0.000000,0.000000,0.000000,1647415465.314922,0.000000
181.000000,28702.322090,19898.305225,15666.114171,15909.547020,-11045.807427,11162.416477,18108.802212,11383.028195,0.072000,0.966000,0.198000,192.000000,0.000000,0.000000,0.000000,0.000000,0.000000,0.000000,0.000000,0.000000,0.000000,1647415465.321982,0.000000
182.000000,28699.058735,19897.724080,15663.856645,15905.166078,-11048.579043,11157.677908,18108.355177,11355.200273,0.072000,0.966000,0.198000,192.000000,0.000000,0.000000,0.000000,0.000000,0.000000,0.000000,0.000000,0.000000,0.000000,1647415465.321999,0.000000
183.000000,28701.293910,19891.175019,15667.902311,15904.473174,-11047.372049,11160.136600,18106.008244,11363.157494,0.072000,0.966000,0.198000,192.000000,0.000000,0.000000,0.000000,0.000000,0.000000,0.000000,0.000000,0.000000,0.000000,1647415465.329379,0.000000
184.000000,28701.450372,19884.044812,15669.757506,15908.317674,-11046.030944,11167.289158,18115.060701,11391.611265,0.072000,0.966000,0.198000,192.000000,0.000000,0.000000,0.000000,0.000000,0.000000,0.000000,0.000000,0.000000,0.000000,1647415465.329395,0.000000
185.000000,28701.718593,19884.201274,15668.371697,15908.876468,-11044.309860,11168.630262,18115.843012,11388.973759,0.072000,0.966000,0.198000,192.000000,0.000000,0.000000,0.000000,0.000000,0.000000,0.000000,0.000000,0.000000,0.000000,1647415465.337437,0.000000
186.000000,28695.571863,19879.619167,15657.687564,15900.807488,-11051.574177,11157.566149,18104.018939,11375.115678,0.072000,0.966000,0.198000,192.000000,0.000000,0.000000,0.000000,0.000000,0.000000,0.000000,0.000000,0.000000,0.000000,1647415465.337453,0.000000
187.000000,28702.344442,19887.017594,15667.656442,15908.764709,-11042.924052,11160.851855,18108.958675,11369.259521,0.072000,0.966000,0.198000,192.000000,0.000000,0.000000,0.000000,0.000000,0.000000,0.000000,0.000000,0.000000,0.000000,1647415465.346847,0.000000
188.000000,28701.942110,19888.604568,15671.411535,15910.888125,-11038.543110,11163.042326,18109.964503,11375.518009,0.072000,0.966000,0.198000,192.000000,0.000000,0.000000,0.000000,0.000000,0.000000,0.000000,0.000000,0.000000,0.000000,1647415465.346863,0.000000
189.000000,28699.058735,19880.826161,15666.851779,15904.853154,-11044.533377,11156.359155,18102.923704,11361.682279,0.072000,0.968000,0.192000,192.000000,2.000000,64.000000,30.000000,64.000000,6.000000,0.000000,0.000000,0.000000,0.000000,1647415465.352937,0.000000
190.000000,28701.942110,19883.620129,15665.130695,15908.317674,-11043.885177,11158.460219,18105.427099,11376.479134,0.072000,0.968000,0.192000,192.000000,0.000000,0.000000,0.000000,0.000000,0.000000,0.000000,0.000000,0.000000,0.000000,1647415465.352954,0.000000
191.000000,28702.143276,19888.313995,15668.885788,15913.078596,-11039.325421,11165.165742,18109.852744,11384.682224,0.072000,0.968000,0.192000,192.000000,0.000000,0.000000,0.000000,0.000000,0.000000,0.000000,0.000000,0.000000,0.000000,1647415465.360064,0.000000
192.000000,28698.723459,19889.833914,15665.041288,15913.279761,-11040.554767,11162.997623,18108.623398,11373.886332,0.072000,0.968000,0.192000,192.000000,0.000000,0.000000,0.000000,0.000000,0.000000,0.000000,0.000000,0.000000,0.000000,1647415465.360082,0.000000
193.000000,28700.064564,19893.097269,15667.164703,15915.514936,-11038.900738,11160.896559,18111.260904,11363.582178,0.072000,0.968000,0.192000,192.000000,0.000000,0.000000,0.000000,0.000000,0.000000,0.000000,0.000000,0.000000,0.000000,1647415465.367188,0.000000
194.000000,28698.276424,19891.107963,15668.751677,15916.274895,-11037.336116,11161.522408,18110.545648,11366.309090,0.072000,0.968000,0.192000,192.000000,0.000000,0.000000,0.000000,0.000000,0.000000,0.000000,0.000000,0.000000,0.000000,1647415465.375260,0.000000
195.000000,28695.683622,19888.135181,15664.594253,15911.759843,-11041.180616,11156.962652,18102.901352,11367.001994,0.072000,0.968000,0.192000,192.000000,0.000000,0.000000,0.000000,0.000000,0.000000,0.000000,0.000000,0.000000,0.000000,1647415465.375276,0.000000
196.000000,28696.041250,19888.135181,15671.389183,15914.419700,-11037.649040,11158.326108,18104.264808,11366.510256,0.072000,0.968000,0.192000,192.000000,0.000000,0.000000,0.000000,0.000000,0.000000,0.000000,0.000000,0.000000,0.000000,1647415465.381702,0.000000
197.000000,28686.944090,19877.473399,15664.124866,15904.406119,-11046.589738,11155.263919,18105.270637,11372.209951,0.072000,0.968000,0.192000,192.000000,0.000000,0.000000,0.000000,0.000000,0.000000,0.000000,0.000000,0.000000,0.000000,1647415465.381718,0.000000
198.000000,28687.257014,19874.590024,15660.190959,15899.734604,-11050.635403,11153.744001,18104.398919,11372.679338,0.072000,0.968000,0.192000,192.000000,0.000000,0.000000,0.000000,0.000000,0.000000,0.000000,0.000000,0.000000,0.000000,1647415465.389764,0.000000
199.000000,28686.295889,19871.304318,15656.927604,15901.723910,-11051.842398,11150.637108,18102.409613,11365.660890,0.072000,0.968000,0.192000,192.000000,0.000000,0.000000,0.000000,0.000000,0.000000,0.000000,0.000000,0.000000,0.000000,1647415465.389781,0.000000
200.000000,28691.079162,19879.485056,15658.581633,15907.267142,-11047.752028,11152.469951,18106.455279,11366.622015,0.074000,0.968000,0.194000,192.000000,2.000000,80.000000,30.000000,64.000000,6.000000,16.000000,0.000000,0.000000,0.000000,1647415465.397724,0.000000
201.000000,28691.950881,19881.094382,15661.420305,15906.775404,-11047.059124,11150.324184,18105.427099,11367.717250,0.074000,0.968000,0.194000,192.000000,0.000000,0.000000,0.000000,0.000000,0.000000,0.000000,0.000000,0.000000,0.000000,1647415465.397741,0.000000
202.000000,28686.742924,19880.446181,15660.213311,15902.014482,-11050.881273,11147.284346,18103.750718,11354.440314,0.074000,0.968000,0.194000,192.000000,0.000000,0.000000,0.000000,0.000000,0.000000,0.000000,0.000000,0.000000,0.000000,1647415465.404349,0.000000
203.000000,28688.754581,19886.481152,15659.453351,15902.439165,-11052.043563,11149.005431,18103.594256,11360.855265,0.074000,0.968000,0.194000,192.000000,0.000000,0.000000,0.000000,0.000000,0.000000,0.000000,0.000000,0.000000,0.000000,1647415465.404366,0.000000
204.000000,28695.683622,19892.471420,15664.393087,15905.769575,-11048.936671,11154.481608,18104.890657,11373.215779,0.074000,0.968000,0.194000,192.000000,0.000000,0.000000,0.000000,0.000000,0.000000,0.000000,0.000000,0.000000,0.000000,1647415465.412427,0.000000
205.000000,28700.489247,19891.599702,15669.489285,15914.509107,-11042.924052,11163.668175,18115.127756,11389.219628,0.074000,0.968000,0.194000,192.000000,0.000000,0.000000,0.000000,0.000000,0.000000,0.000000,0.000000,0.000000,0.000000,1647415465.412443,0.000000
206.000000,28697.717631,19883.418963,15663.901349,15912.184526,-11045.315688,11159.801323,18105.874134,11383.050547,0.074000,0.968000,0.194000,192.000000,0.000000,0.000000,0.000000,0.000000,0.000000,0.000000,0.000000,0.000000,0.000000,1647415465.420337,0.000000
207.000000,28696.376526,19879.596815,15660.034497,15904.204953,-11050.747162,11155.219216,18105.069471,11376.099154,0.074000,0.968000,0.194000,192.000000,0.000000,0.000000,0.000000,0.000000,0.000000,0.000000,0.000000,0.000000,0.000000,1647415465.420353,0.000000
208.000000,28695.549511,19879.932091,15659.386296,15905.434299,-11050.411886,11155.420381,18104.220105,11372.187599,0.074000,0.968000,0.194000,192.000000,0.000000,0.000000,0.000000,0.000000,0.000000,0.000000,0.000000,0.000000,0.000000,1647415465.427511,0.000000
209.000000,28691.146218,19876.579330,15658.492226,15904.450822,-11052.311784,11153.833408,18098.363948,11360.721154,0.074000,0.968000,0.194000,192.000000,0.000000,0.000000,0.000000,0.000000,0.000000,0.000000,0.000000,0.000000,0.000000,1647415465.434081,0.000000
210.000000,28687.860511,19871.505484,15646.064657,15899.779308,-11059.956081,11150.011259,18096.285235,11352.540416,0.072000,0.968000,0.194000,192.000000,2.000000,64.000000,30.000000,64.000000,6.000000,16.000000,0.000000,0.000000,0.000000,1647415465.434097,0.000000
211.000000,28694.387221,19880.200312,15657.039363,15905.210782,-11053.965813,11158.862550,18103.102517,11370.265349,0.072000,0.968000,0.194000,192.000000,0.000000,0.000000,0.000000,0.000000,0.000000,0.000000,0.000000,0.000000,0.000000,1647415465.442112,0.000000
212.000000,28690.810942,19877.562806,15658.805151,15901.813317,-11054.926938,11157.029707,18100.777936,11365.504428,0.072000,0.968000,0.194000,192.000000,0.000000,0.000000,0.000000,0.000000,0.000000,0.000000,0.000000,0.000000,0.000000,1647415465.442129,0.000000
213.000000,28690.341555,19876.825199,15660.928567,15906.976570,-11049.249595,11160.538931,18096.955788,11366.577311,0.072000,0.968000,0.194000,192.000000,0.000000,0.000000,0.000000,0.000000,0.000000,0.000000,0.000000,0.000000,0.000000,1647415465.449907,0.000000
214.000000,28692.129694,19879.373298,15661.666174,15909.055282,-11047.394401,11159.980137,18097.291064,11362.263425,0.072000,0.968000,0.194000,192.000000,0.000000,0.000000,0.000000,0.000000,0.000000,0.000000,0.000000,0.000000,0.000000,1647415465.449942,0.000000
215.000000,28691.682660,19881.697879,15662.515540,15906.373072,-11047.774380,11161.053021,18099.705052,11355.602605,0.072000,0.968000,0.194000,192.000000,0.000000,0.000000,0.000000,0.000000,0.000000,0.000000,0.000000,0.000000,0.000000,1647415465.457333,0.000000
216.000000,28691.928529,19883.754240,15664.326032,15909.144689,-11043.929880,11168.116172,18105.717672,11372.545227,0.072000,0.968000,0.194000,192.000000,0.000000,0.000000,0.000000,0.000000,0.000000,0.000000,0.000000,0.000000,0.000000,1647415465.457351,0.000000
217.000000,28697.225892,19886.324690,15663.968404,15912.810375,-11042.946403,11169.971367,18107.617570,11376.032099,0.072000,0.968000,0.194000,192.000000,0.000000,0.000000,0.000000,0.000000,0.000000,0.000000,0.000000,0.000000,0.000000,1647415465.464612,0.000000
218.000000,28697.985852,19885.944710,15667.812904,15914.978494,-11042.231148,11164.115210,18099.034500,11347.377163,0.072000,0.968000,0.194000,192.000000,0.000000,0.000000,0.000000,0.000000,0.000000,0.000000,0.000000,0.000000,0.000000,1647415465.464630,0.000000
219.000000,28696.734154,19886.257635,15668.103477,15916.029026,-11041.292374,11168.786725,18103.527201,11365.057393,0.072000,0.968000,0.194000,192.000000,0.000000,0.000000,0.000000,0.000000,0.000000,0.000000,0.000000,0.000000,0.000000,1647415465.472436,0.000000
220.000000,28695.527160,19884.670661,15662.180264,15907.870639,-11049.383706,11172.273597,18107.885791,11393.198239,0.078000,0.962000,0.198000,192.000000,2.000000,112.000000,30.000000,16.000000,6.000000,48.000000,0.000000,0.000000,0.000000,1647415465.472446,0.000000
221.000000,28696.935320,19882.904873,15659.185130,15906.842459,-11052.110619,11169.770201,18103.393090,11382.312939,0.078000,0.962000,0.198000,192.000000,0.000000,0.000000,0.000000,0.000000,0.000000,0.000000,0.000000,0.000000,0.000000,1647415465.480452,0.000000
222.000000,28691.660308,19876.691088,15662.828465,15911.603381,-11047.394401,11167.400917,18098.431003,11369.460686,0.078000,0.962000,0.198000,192.000000,0.000000,0.000000,0.000000,0.000000,0.000000,0.000000,0.000000,0.000000,0.000000,1647415465.480469,0.000000
223.000000,28689.447485,19872.533664,15664.258976,15906.060148,-11049.741334,11164.606948,18100.107384,11362.911625,0.078000,0.962000,0.198000,192.000000,0.000000,0.000000,0.000000,0.000000,0.000000,0.000000,0.000000,0.000000,0.000000,1647415465.486672,0.000000
224.000000,28683.010183,19866.476341,15656.033535,15897.030043,-11059.106715,11152.022916,18093.915951,11329.115788,0.078000,0.962000,0.198000,192.000000,0.000000,0.000000,0.000000,0.000000,0.000000,0.000000,0.000000,0.000000,0.000000,1647415465.486688,0.000000
225.000000,28684.954785,19872.444257,15657.687564,15904.249657,-11054.256386,11161.365946,18098.140430,11371.897027,0.078000,0.962000,0.198000,192.000000,0.000000,0.000000,0.000000,0.000000,0.000000,0.000000,0.000000,0.000000,0.000000,1647415465.494213,0.000000
226.000000,28693.202578,19880.870864,15661.889692,15909.457613,-11048.400229,11164.651652,18096.575808,11390.247809,0.078000,0.962000,0.198000,192.000000,0.000000,0.000000,0.000000,0.000000,0.000000,0.000000,0.000000,0.000000,0.000000,1647415465.502369,0.000000
227.000000,28691.280328,19880.557940,15657.486398,15906.596590,-11051.618880,11157.879073,18098.073375,11374.378070,0.078000,0.962000,0.198000,192.000000,0.000000,0.000000,0.000000,0.000000,0.000000,0.000000,0.000000,0.000000,0.000000,1647415465.502385,0.000000
228.000000,28691.950881,19880.222664,15661.867340,15907.311846,-11048.064953,11158.281405,18098.229837,11371.807620,0.078000,0.962000,0.198000,192.000000,0.000000,0.000000,0.000000,0.000000,0.000000,0.000000,0.000000,0.000000,0.000000,1647415465.510363,0.000000
229.000000,28691.883825,19885.542379,15660.392125,15908.138860,-11047.684973,11154.839236,18090.764355,11359.581215,0.078000,0.962000,0.198000,192.000000,0.000000,0.000000,0.000000,0.000000,0.000000,0.000000,0.000000,0.000000,0.000000,1647415465.510379,0.000000
230.000000,28687.793456,19875.126466,15658.603985,15909.837593,-11050.166017,11156.068582,18098.632169,11367.717250,0.078000,0.958000,0.198000,192.000000,2.000000,112.000000,29.000000,240.000000,6.000000,48.000000,0.000000,0.000000,0.000000,1647415465.516698,0.000000
231.000000,28685.625337,19869.247957,15659.699221,15909.278799,-11050.657755,11160.024841,18105.091823,11376.613245,0.078000,0.958000,0.198000,192.000000,0.000000,0.000000,0.000000,0.000000,0.000000,0.000000,0.000000,0.000000,0.000000,1647415465.516709,0.000000
232.000000,28690.609776,19870.700821,15656.972308,15907.378901,-11051.529473,11157.968480,18097.335767,11366.063221,0.078000,0.958000,0.198000,192.000000,0.000000,0.000000,0.000000,0.000000,0.000000,0.000000,0.000000,0.000000,0.000000,1647415465.525035,0.000000
233.000000,28690.542721,19872.846588,15662.560244,15907.870639,-11047.886139,11160.963614,18096.441698,11361.034079,0.078000,0.958000,0.198000,192.000000,0.000000,0.000000,0.000000,0.000000,0.000000,0.000000,0.000000,0.000000,0.000000,1647415465.525051,0.000000
234.000000,28695.258939,19881.295548,15666.114171,15915.403177,-11043.013459,11169.144353,18104.488326,11362.822218,0.078000,0.958000,0.198000,192.000000,0.000000,0.000000,0.000000,0.000000,0.000000,0.000000,0.000000,0.000000,0.000000,1647415465.532947,0.000000
235.000000,28698.187017,19883.396612,15666.158875,15915.850212,-11043.639307,11163.265844,18100.196791,11341.476302,0.078000,0.958000,0.198000,192.000000,0.000000,0.000000,0.000000,0.000000,0.000000,0.000000,0.000000,0.000000,0.000000,1647415465.532983,0.000000
236.000000,28699.729288,19883.038984,15670.875093,15918.130090,-11041.739409,11168.429097,18102.968407,11366.644367,0.078000,0.958000,0.198000,192.000000,0.000000,0.000000,0.000000,0.000000,0.000000,0.000000,0.000000,0.000000,0.000000,1647415465.539575,0.000000
237.000000,28696.577692,19883.642481,15667.969366,15915.179660,-11041.784113,11171.535989,18102.990759,11388.169096,0.078000,0.958000,0.198000,192.000000,0.000000,0.000000,0.000000,0.000000,0.000000,0.000000,0.000000,0.000000,0.000000,1647415465.539591,0.000000
238.000000,28696.220064,19885.743545,15670.182189,15914.643218,-11040.331249,11168.294986,18099.280369,11365.884407,0.078000,0.958000,0.198000,192.000000,0.000000,0.000000,0.000000,0.000000,0.000000,0.000000,0.000000,0.000000,0.000000,1647415465.547291,0.000000
239.000000,28694.096648,19878.836856,15666.985889,15911.558677,-11043.348735,11164.763411,18099.503887,11357.077820,0.078000,0.958000,0.198000,192.000000,0.000000,0.000000,0.000000,0.000000,0.000000,0.000000,0.000000,0.000000,0.000000,1647415465.547302,0.000000
240.000000,28689.603947,19871.058449,15662.426133,15914.263238,-11045.874482,11160.874207,18097.156953,11359.581215,0.070000,0.964000,0.204000,192.000000,2.000000,48.000000,30.000000,32.000000,6.000000,96.000000,0.000000,0.000000,0.000000,1647415465.554523,0.000000
241.000000,28697.024727,19881.094382,15668.550511,15918.286552,-11040.621822,11168.876132,18106.835259,11377.552018,0.070000,0.964000,0.204000,192.000000,0.000000,0.000000,0.000000,0.000000,0.000000,0.000000,0.000000,0.000000,0.000000,1647415465.562644,0.000000
242.000000,28692.464971,19877.853379,15669.578692,15914.352645,-11039.615993,11163.869341,18095.033538,11359.357698,0.070000,0.964000,0.204000,192.000000,0.000000,0.000000,0.000000,0.000000,0.000000,0.000000,0.000000,0.000000,0.000000,1647415465.562660,0.000000
243.000000,28688.218139,19869.382068,15667.187055,15913.525631,-11042.342906,11164.450486,18103.393090,11374.288663,0.070000,0.964000,0.204000,192.000000,0.000000,0.000000,0.000000,0.000000,0.000000,0.000000,0.000000,0.000000,0.000000,1647415465.569259,0.000000
244.000000,28696.220064,19873.964175,15674.451372,15922.466328,-11036.933784,11170.172533,18108.109308,11374.445125,0.070000,0.964000,0.204000,192.000000,0.000000,0.000000,0.000000,0.000000,0.000000,0.000000,0.000000,0.000000,0.000000,1647415465.569275,0.000000
245.000000,28699.841046,19881.273196,15674.138448,15922.578087,-11037.202005,11168.607911,18104.555381,11371.070012,0.070000,0.964000,0.204000,192.000000,0.000000,0.000000,0.000000,0.000000,0.000000,0.000000,0.000000,0.000000,0.000000,1647415465.576994,0.000000
246.000000,28705.361927,19892.426716,15671.344479,15920.991113,-11038.945441,11160.516579,18095.882904,11358.575387,0.070000,0.964000,0.204000,192.000000,0.000000,0.000000,0.000000,0.000000,0.000000,0.000000,0.000000,0.000000,0.000000,1647415465.577010,0.000000
247.000000,28705.339575,19889.766859,15672.260901,15919.180622,-11038.453703,11158.840198,18095.368814,11345.298451,0.070000,0.964000,0.204000,192.000000,0.000000,0.000000,0.000000,0.000000,0.000000,0.000000,0.000000,0.000000,0.000000,1647415465.585339,0.000000
248.000000,28693.448447,19874.142989,15668.550511,15915.291418,-11041.158264,11166.328033,18103.169573,11381.195352,0.070000,0.964000,0.204000,192.000000,0.000000,0.000000,0.000000,0.000000,0.000000,0.000000,0.000000,0.000000,0.000000,1647415465.585356,0.000000
249.000000,28683.859549,19866.945728,15657.486398,15903.690863,-11051.752991,11158.929605,18099.861515,11377.775535,0.070000,0.964000,0.204000,192.000000,0.000000,0.000000,0.000000,0.000000,0.000000,0.000000,0.000000,0.000000,0.000000,1647415465.592381,0.000000
250.000000,28687.078200,19866.275175,15669.086953,15905.590761,-11048.511988,11159.756620,18097.916913,11364.163323,0.076000,0.960000,0.200000,192.000000,2.000000,96.000000,30.000000,0.000000,6.000000,64.000000,0.000000,0.000000,0.000000,1647415465.592397,0.000000
251.000000,28687.815808,19865.425809,15666.516503,15903.892029,-11049.964851,11153.989870,18094.318282,11340.246956,0.076000,0.960000,0.200000,192.000000,0.000000,0.000000,0.000000,0.000000,0.000000,0.000000,0.000000,0.000000,0.000000,1647415465.599950,0.000000
252.000000,28690.788590,19864.956422,15664.773067,15903.132069,-11049.406058,11153.878111,18091.054927,11349.500579,0.076000,0.960000,0.200000,192.000000,0.000000,0.000000,0.000000,0.000000,0.000000,0.000000,0.000000,0.000000,0.000000,1647415465.599967,0.000000
253.000000,28693.716668,19871.192559,15669.399878,15910.932828,-11043.304031,11164.562245,18098.922741,11369.483038,0.076000,0.960000,0.200000,192.000000,0.000000,0.000000,0.000000,0.000000,0.000000,0.000000,0.000000,0.000000,0.000000,1647415465.607901,0.000000
254.000000,28693.113171,19873.740658,15668.885788,15908.518840,-11044.645136,11161.388297,18094.161820,11351.311070,0.076000,0.960000,0.200000,192.000000,0.000000,0.000000,0.000000,0.000000,0.000000,0.000000,0.000000,0.000000,0.000000,1647415465.607917,0.000000
255.000000,28692.979061,19879.462705,15670.942148,15910.217572,-11044.153398,11163.712879,18095.726442,11362.799867,0.076000,0.960000,0.200000,192.000000,0.000000,0.000000,0.000000,0.000000,0.000000,0.000000,0.000000,0.000000,0.000000,1647415465.614703,0.000000
0.000000,28694.521331,19874.858245,15669.913968,15908.250619,-11047.148531,11164.562245,18105.270637,11361.928148,0.076000,0.960000,0.200000,192.000000,0.000000,0.000000,0.000000,0.000000,0.000000,0.000000,0.000000,0.000000,0.000000,1647415465.621975,0.000000
1.000000,28690.833293,19868.152722,15664.661308,15907.468308,-11049.830741,11166.506847,18104.845954,11372.768745,0.076000,0.960000,0.200000,192.000000,0.000000,0.000000,0.000000,0.000000,0.000000,0.000000,0.000000,0.000000,0.000000,1647415465.622011,0.000000
2.000000,28685.737096,19865.403457,15660.705049,15902.506221,-11053.407020,11161.991794,18097.760451,11367.426678,0.076000,0.960000,0.200000,192.000000,0.000000,0.000000,0.000000,0.000000,0.000000,0.000000,0.000000,0.000000,0.000000,1647415465.629514,0.000000
3.000000,28689.603947,19867.191597,15664.415439,15905.009616,-11052.065915,11161.812980,18095.368814,11356.720192,0.076000,0.960000,0.200000,192.000000,0.000000,0.000000,0.000000,0.000000,0.000000,0.000000,0.000000,0.000000,0.000000,1647415465.629531,0.000000
4.000000,28689.626299,19868.622109,15665.734192,15908.317674,-11048.757857,11161.388297,18096.061718,11353.523893,0.072000,0.964000,0.198000,192.000000,2.000000,64.000000,30.000000,32.000000,6.000000,48.000000,0.000000,0.000000,0.000000,1647415465.637422,0.000000
5.000000,28689.112209,19875.372335,15667.052945,15907.222439,-11049.048430,11162.438829,18094.988834,11370.511218,0.072000,0.964000,0.198000,192.000000,0.000000,0.000000,0.000000,0.000000,0.000000,0.000000,0.000000,0.000000,0.000000,1647415465.637438,0.000000
6.000000,28686.653517,19875.461742,15665.957709,15908.340026,-11048.310822,11163.444658,18097.849858,11374.825105,0.072000,0.964000,0.198000,192.000000,0.000000,0.000000,0.000000,0.000000,0.000000,0.000000,0.000000,0.000000,0.000000,1647415465.644402,0.000000
7.000000,28684.865378,19865.984603,15666.583558,15910.865773,-11046.254462,11166.439791,18103.482497,11370.533570,0.072000,0.964000,0.198000,192.000000,0.000000,0.000000,0.000000,0.000000,0.000000,0.000000,0.000000,0.000000,0.000000,1647415465.644419,0.000000
8.000000,28683.501921,19862.564786,15663.074334,15906.864811,-11049.786037,11159.466047,18095.614683,11357.614262,0.072000,0.964000,0.198000,192.000000,0.000000,0.000000,0.000000,0.000000,0.000000,0.000000,0.000000,0.000000,0.000000,1647415465.652143,0.000000
9.000000,28683.568976,19867.191597,15662.448485,15906.082500,-11050.657755,11159.086068,18090.250264,11364.476247,0.072000,0.964000,0.198000,192.000000,0.000000,0.000000,0.000000,0.000000,0.000000,0.000000,0.000000,0.000000,0.000000,1647415465.652160,0.000000
10.000000,28682.585500,19868.152722,15657.933433,15902.215648,-11055.575139,11152.872283,18085.824619,11348.114770,0.072000,0.964000,0.198000,192.000000,0.000000,0.000000,0.000000,0.000000,0.000000,0.000000,0.000000,0.000000,0.000000,1647415465.660144,0.000000
11.000000,28683.747790,19872.041925,15660.168607,15906.283665,-11051.507122,11159.153123,18094.832372,11366.711422,0.072000,0.964000,0.198000,192.000000,0.000000,0.000000,0.000000,0.000000,0.000000,0.000000,0.000000,0.000000,0.000000,1647415465.660160,0.000000
12.000000,28682.339630,19870.522007,15658.045192,15902.997959,-11052.982337,11151.061791,18083.231817,11354.440314,0.072000,0.964000,0.198000,192.000000,0.000000,0.000000,0.000000,0.000000,0.000000,0.000000,0.000000,0.000000,0.000000,1647415465.668169,0.000000
13.000000,28683.501921,19870.164379,15655.273575,15897.365319,-11055.396325,11144.803303,18079.275558,11331.082741,0.072000,0.964000,0.198000,192.000000,0.000000,0.000000,0.000000,0.000000,0.000000,0.000000,0.000000,0.000000,0.000000,1647415465.668186,0.000000
14.000000,28689.805113,19875.685260,15663.320203,15908.272971,-11045.807427,11165.590425,18108.466936,11386.112736,0.070000,0.962000,0.196000,192.000000,2.000000,48.000000,30.000000,16.000000,6.000000,32.000000,0.000000,0.000000,0.000000,1647415465.674355,0.000000
15.000000,28686.362944,19869.873806,15657.262880,15909.122337,-11049.763685,11158.124943,18102.253151,11370.958253,0.070000,0.962000,0.196000,192.000000,0.000000,0.000000,0.000000,0.000000,0.000000,0.000000,0.000000,0.000000,0.000000,1647415465.681827,0.000000
16.000000,28688.374601,19871.505484,15658.648689,15909.390558,-11048.109656,11150.637108,18091.546666,11332.714418,0.070000,0.962000,0.196000,192.000000,0.000000,0.000000,0.000000,0.000000,0.000000,0.000000,0.000000,0.000000,0.000000,1647415465.681844,0.000000
17.000000,28687.324069,19867.370411,15658.134599,15904.428471,-11051.104790,11151.151198,18084.997604,11347.935956,0.070000,0.962000,0.196000,192.000000,0.000000,0.000000,0.000000,0.000000,0.000000,0.000000,0.000000,0.000000,0.000000,1647415465.689641,0.000000
18.000000,28688.419305,19873.830065,15663.834293,15910.843421,-11048.221415,11156.225044,18087.053965,11360.810561,0.070000,0.962000,0.196000,192.000000,0.000000,0.000000,0.000000,0.000000,0.000000,0.000000,0.000000,0.000000,0.000000,1647415465.689657,0.000000
19.000000,28681.870244,19872.578367,15660.235662,15906.350721,-11053.876406,11152.760524,18095.681738,11359.894140,0.070000,0.962000,0.196000,192.000000,0.000000,0.000000,0.000000,0.000000,0.000000,0.000000,0.000000,0.000000,0.000000,1647415465.697766,0.000000
20.000000,28678.539834,19867.415114,15657.642860,15900.651026,-11056.044526,11151.128847,18090.049099,11370.220646,0.070000,0.962000,0.196000,192.000000,0.000000,0.000000,0.000000,0.000000,0.000000,0.000000,0.000000,0.000000,0.000000,1647415465.697783,0.000000
21.000000,28684.753619,19869.918510,15660.369773,15900.002825,-11055.753953,11152.581710,18093.625378,11368.454858,0.070000,0.962000,0.196000,192.000000,0.000000,0.000000,0.000000,0.000000,0.000000,0.000000,0.000000,0.000000,0.000000,1647415465.704336,0.000000
22.000000,28684.686564,19863.280042,15658.581633,15901.209819,-11055.932767,11153.207559,18094.094764,11362.106962,0.070000,0.962000,0.196000,192.000000,0.000000,0.000000,0.000000,0.000000,0.000000,0.000000,0.000000,0.000000,0.000000,1647415465.704372,0.000000
23.000000,28684.284232,19861.558957,15658.469875,15902.170944,-11055.418677,11152.916986,18090.742003,11347.287756,0.070000,0.962000,0.196000,192.000000,0.000000,0.000000,0.000000,0.000000,0.000000,0.000000,0.000000,0.000000,0.000000,1647415465.712393,0.000000
24.000000,28674.225947,19857.915623,15648.188072,15897.521782,-11062.168904,11146.546739,18083.097706,11342.728000,0.074000,0.964000,0.196000,192.000000,2.000000,80.000000,30.000000,32.000000,6.000000,32.000000,0.000000,0.000000,0.000000,1647415465.712410,0.000000
25.000000,28683.703087,19870.454952,15655.698258,15909.211744,-11055.306918,11157.499094,18092.284273,11373.059317,0.074000,0.964000,0.196000,192.000000,0.000000,0.000000,0.000000,0.000000,0.000000,0.000000,0.000000,0.000000,0.000000,1647415465.720366,0.000000
26.000000,28686.340593,19875.886425,15658.358116,15910.038759,-11052.937633,11160.918911,18099.347424,11378.513143,0.074000,0.964000,0.196000,192.000000,0.000000,0.000000,0.000000,0.000000,0.000000,0.000000,0.000000,0.000000,0.000000,1647415465.720382,0.000000
27.000000,28677.466950,19865.492864,15650.043267,15901.723910,-11059.956081,11151.128847,18086.048136,11363.001032,0.074000,0.964000,0.196000,192.000000,0.000000,0.000000,0.000000,0.000000,0.000000,0.000000,0.000000,0.000000,0.000000,1647415465.727521,0.000000
28.000000,28684.753619,19878.903911,15657.352287,15908.943523,-11051.149494,11159.756620,18094.385337,11367.918416,0.074000,0.964000,0.196000,192.000000,0.000000,0.000000,0.000000,0.000000,0.000000,0.000000,0.000000,0.000000,0.000000,1647415465.727538,0.000000
29.000000,28688.240491,19883.955405,15661.330898,15909.502317,-11047.975546,11160.784800,18096.709919,11353.009802,0.074000,0.964000,0.196000,192.000000,0.000000,0.000000,0.000000,0.000000,0.000000,0.000000,0.000000,0.000000,0.000000,1647415465.734011,0.000000
30.000000,28686.295889,19873.360678,15661.375601,15912.095119,-11047.640270,11158.616681,18090.585541,11348.517102,0.074000,0.964000,0.196000,192.000000,0.000000,0.000000,0.000000,0.000000,0.000000,0.000000,0.000000,0.000000,0.000000,1647415465.734028,0.000000
31.000000,28690.006279,19872.667774,15663.074334,15915.559639,-11044.734543,11161.656518,18090.831410,11361.056430,0.074000,0.964000,0.196000,192.000000,0.000000,0.000000,0.000000,0.000000,0.000000,0.000000,0.000000,0.000000,0.000000,1647415465.742050,0.000000
32.000000,28690.319203,19879.932091,15667.812904,15921.684017,-11039.861863,11164.562245,18086.830448,11361.436410,0.074000,0.964000,0.196000,192.000000,0.000000,0.000000,0.000000,0.000000,0.000000,0.000000,0.000000,0.000000,0.000000,1647415465.750032,0.000000
33.000000,28685.245357,19873.383030,15664.236625,15921.482852,-11039.839511,11161.656518,18077.845046,11355.982584,0.074000,0.964000,0.196000,192.000000,0.000000,0.000000,0.000000,0.000000,0.000000,0.000000,0.000000,0.000000,0.000000,1647415465.750048,0.000000
34.000000,28679.724476,19861.469550,15657.821674,15914.509107,-11047.148531,11151.687640,18069.574901,11325.159529,0.074000,0.964000,0.196000,192.000000,0.000000,0.000000,0.000000,0.000000,0.000000,0.000000,0.000000,0.000000,0.000000,1647415465.757068,0.000000
35.000000,28682.987831,19865.850492,15661.710878,15917.057206,-11043.706363,11161.008318,18085.399936,11347.265404,0.084000,0.958000,0.200000,192.000000,2.000000,160.000000,29.000000,240.000000,6.000000,64.000000,0.000000,0.000000,0.000000,1647415465.757082,0.000000
36.000000,28689.447485,19873.785362,15665.510674,15921.952238,-11037.850206,11168.898483,18085.735212,11372.567579,0.084000,0.958000,0.200000,192.000000,0.000000,0.000000,0.000000,0.000000,0.000000,0.000000,0.000000,0.000000,0.000000,1647415465.764328,0.000000
37.000000,28685.848854,19875.595853,15663.610776,15919.985285,-11038.051371,11168.071469,18081.533084,11364.900931,0.084000,0.958000,0.200000,192.000000,0.000000,0.000000,0.000000,0.000000,0.000000,0.000000,0.000000,0.000000,0.000000,1647415465.764337,0.000000
38.000000,28684.418343,19875.238225,15663.208445,15919.761767,-11039.347773,11164.539893,18078.672061,11346.885424,0.084000,0.958000,0.200000,192.000000,0.000000,0.000000,0.000000,0.000000,0.000000,0.000000,0.000000,0.000000,0.000000,1647415465.772328,0.000000
39.000000,28687.480532,19869.225606,15667.567035,15924.679151,-11035.995011,11178.040347,18096.866381,11374.758050,0.084000,0.958000,0.200000,192.000000,0.000000,0.000000,0.000000,0.000000,0.000000,0.000000,0.000000,0.000000,0.000000,1647415465.772335,0.000000
40.000000,28681.333802,19865.425809,15662.940224,15920.164099,-11039.280717,11177.615664,18095.949959,11374.981567,0.084000,0.958000,0.200000,192.000000,0.000000,0.000000,0.000000,0.000000,0.000000,0.000000,0.000000,0.000000,0.000000,1647415465.779479,0.000000
41.000000,28678.159854,19858.072085,15659.922738,15915.649046,-11044.220453,11175.760469,18095.502924,11374.042794,0.084000,0.958000,0.200000,192.000000,0.000000,0.000000,0.000000,0.000000,0.000000,0.000000,0.000000,0.000000,0.000000,1647415465.779486,0.000000
42.000000,28681.758485,19856.820387,15660.861511,15917.772462,-11044.600432,11172.899446,18091.479610,11362.978680,0.084000,0.958000,0.200000,192.000000,0.000000,0.000000,0.000000,0.000000,0.000000,0.000000,0.000000,0.000000,0.000000,1647415465.787277,0.000000
43.000000,28686.921738,19861.268385,15661.755581,15921.080520,-11041.046505,11174.978158,18095.234703,11358.888311,0.084000,0.958000,0.200000,192.000000,0.000000,0.000000,0.000000,0.000000,0.000000,0.000000,0.000000,0.000000,0.000000,1647415465.787312,0.000000
44.000000,28678.986869,19859.837873,15661.509712,15918.599477,-11043.147569,11170.843085,18091.256093,11352.853340,0.084000,0.958000,0.200000,192.000000,0.000000,0.000000,0.000000,0.000000,0.000000,0.000000,0.000000,0.000000,0.000000,1647415465.795028,0.000000
45.000000,28675.857625,19860.083742,15659.252186,15918.286552,-11044.309860,11171.178361,18093.200695,11357.614262,0.084000,0.960000,0.180000,192.000000,2.000000,160.000000,30.000000,0.000000,5.000000,160.000000,0.000000,0.000000,0.000000,1647415465.795037,0.000000
46.000000,28682.741962,19864.330574,15661.733229,15920.409968,-11041.426485,11175.648710,18097.514581,11374.780402,0.084000,0.960000,0.180000,192.000000,0.000000,0.000000,0.000000,0.000000,0.000000,0.000000,0.000000,0.000000,0.000000,1647415465.802145,0.000000
47.000000,28685.804151,19872.556016,15665.711840,15922.466328,-11037.112598,11177.235684,18100.755584,11379.586027,0.084000,0.960000,0.180000,192.000000,0.000000,0.000000,0.000000,0.000000,0.000000,0.000000,0.000000,0.000000,0.000000,1647415465.809612,0.000000
48.000000,28675.477645,19868.823274,15663.275500,15918.599477,-11040.845339,11174.397013,18100.286198,11381.016538,0.084000,0.960000,0.180000,192.000000,0.000000,0.000000,0.000000,0.000000,0.000000,0.000000,0.000000,0.000000,0.000000,1647415465.809628,0.000000
49.000000,28670.135578,19864.464684,15660.950918,15912.430395,-11046.030944,11170.954844,18096.642863,11370.511218,0.084000,0.960000,0.180000,192.000000,0.000000,0.000000,0.000000,0.000000,0.000000,0.000000,0.000000,0.000000,0.000000,1647415465.817389,0.000000
50.000000,28668.570956,19866.811617,15657.262880,15911.022235,-11050.009555,11165.098687,18089.199732,11356.116695,0.084000,0.960000,0.180000,192.000000,0.000000,0.000000,0.000000,0.000000,0.000000,0.000000,0.000000,0.000000,0.000000,1647415465.817400,0.000000
51.000000,28671.879014,19874.858245,15657.821674,15916.431357,-11048.333174,11166.082164,18090.227913,11353.345079,0.084000,0.960000,0.180000,192.000000,0.000000,0.000000,0.000000,0.000000,0.000000,0.000000,0.000000,0.000000,0.000000,1647415465.824362,0.000000
52.000000,28673.913023,19867.884501,15656.257052,15913.302113,-11051.127142,11162.863512,18081.153104,11346.483093,0.084000,0.960000,0.180000,192.000000,0.000000,0.000000,0.000000,0.000000,0.000000,0.000000,0.000000,0.000000,0.000000,1647415465.824379,0.000000
53.000000,28661.396046,19849.600774,15648.076314,15903.780270,-11058.994956,11163.891693,18088.037442,11361.347003,0.084000,0.960000,0.180000,192.000000,0.000000,0.000000,0.000000,0.000000,0.000000,0.000000,0.000000,0.000000,0.000000,1647415465.832367,0.000000
54.000000,28667.565127,19846.337419,15660.928567,15914.643218,-11049.517816,11175.291082,18094.139468,11371.539399,0.084000,0.960000,0.180000,192.000000,0.000000,0.000000,0.000000,0.000000,0.000000,0.000000,0.000000,0.000000,0.000000,1647415465.832385,0.000000
55.000000,28661.373694,19841.688256,15650.512654,15906.037796,-11060.000784,11162.148257,18080.996642,11359.581215,0.082000,0.966000,0.186000,192.000000,2.000000,144.000000,30.000000,48.000000,5.000000,208.000000,0.000000,0.000000,0.000000,1647415465.840295,0.000000
56.000000,28657.864470,19841.755312,15650.579709,15902.550924,-11062.414773,11163.265844,18090.294968,11352.629823,0.082000,0.966000,0.186000,192.000000,0.000000,0.000000,0.000000,0.000000,0.000000,0.000000,0.000000,0.000000,0.000000,1647415465.840311,0.000000
57.000000,28658.132691,19840.838890,15651.943165,15897.722947,-11061.096020,11160.293062,18091.233741,11344.091456,0.082000,0.966000,0.186000,192.000000,0.000000,0.000000,0.000000,0.000000,0.000000,0.000000,0.000000,0.000000,0.000000,1647415465.847341,0.000000
58.000000,28665.218194,19848.662001,15654.468912,15901.947427,-11058.659680,11166.685661,18094.921779,11371.941730,0.082000,0.966000,0.186000,192.000000,0.000000,0.000000,0.000000,0.000000,0.000000,0.000000,0.000000,0.000000,0.000000,1647415465.847358,0.000000
59.000000,28663.810034,19847.477358,15650.266784,15898.169982,-11061.632462,11166.484495,18094.921779,11385.375128,0.082000,0.966000,0.186000,192.000000,0.000000,0.000000,0.000000,0.000000,0.000000,0.000000,0.000000,0.000000,0.000000,1647415465.854906,0.000000
60.000000,28663.564165,19849.489015,15650.311488,15898.818183,-11063.018270,11168.920835,18097.156953,11379.362509,0.082000,0.966000,0.186000,192.000000,0.000000,0.000000,0.000000,0.000000,0.000000,0.000000,0.000000,0.000000,0.000000,1647415465.854923,0.000000
61.000000,28663.295944,19850.785416,15649.350363,15897.655892,-11063.867636,11167.624434,18093.088936,11371.271178,0.082000,0.966000,0.186000,192.000000,0.000000,0.000000,0.000000,0.000000,0.000000,0.000000,0.000000,0.000000,0.000000,1647415465.862012,0.000000
62.000000,28659.697313,19851.500672,15647.137540,15895.107793,-11066.505142,11166.506847,18094.832372,11363.939806,0.082000,0.966000,0.186000,192.000000,0.000000,0.000000,0.000000,0.000000,0.000000,0.000000,0.000000,0.000000,0.000000,1647415465.869948,0.000000
63.000000,28651.918906,19845.622163,15641.951936,15891.173886,-11069.612035,11159.019012,18087.433945,11344.583195,0.082000,0.966000,0.186000,192.000000,0.000000,0.000000,0.000000,0.000000,0.000000,0.000000,0.000000,0.000000,0.000000,1647415465.869965,0.000000
64.000000,28658.892650,19849.824291,15645.841139,15893.967854,-11067.220398,11163.556416,18090.294968,11360.452933,0.082000,0.966000,0.186000,192.000000,0.000000,0.000000,0.000000,0.000000,0.000000,0.000000,0.000000,0.000000,0.000000,1647415465.877180,0.000000
65.000000,28662.379523,19857.937975,15649.082142,15898.237037,-11062.392421,11169.747850,18101.940227,11369.147762,0.076000,0.966000,0.184000,192.000000,2.000000,96.000000,30.000000,48.000000,5.000000,192.000000,0.000000,0.000000,0.000000,1647415465.877216,0.000000
66.000000,28656.836290,19849.801940,15644.969421,15894.906628,-11066.594549,11160.896559,18091.971349,11349.925262,0.076000,0.966000,0.184000,192.000000,0.000000,0.000000,0.000000,0.000000,0.000000,0.000000,0.000000,0.000000,0.000000,1647415465.884713,0.000000
67.000000,28658.803243,19847.633820,15648.545700,15899.801660,-11064.247616,11161.455352,18086.338709,11353.702707,0.076000,0.966000,0.184000,192.000000,0.000000,0.000000,0.000000,0.000000,0.000000,0.000000,0.000000,0.000000,0.000000,1647415465.884729,0.000000
68.000000,28661.977191,19852.774722,15651.227909,15904.093194,-11061.453648,11164.808114,18092.753660,11355.490846,0.076000,0.966000,0.184000,192.000000,0.000000,0.000000,0.000000,0.000000,0.000000,0.000000,0.000000,0.000000,0.000000,1647415465.892684,0.000000
69.000000,28669.487377,19863.302393,15656.189997,15909.636427,-11057.184465,11171.647748,18099.883866,11373.036965,0.076000,0.966000,0.184000,192.000000,0.000000,0.000000,0.000000,0.000000,0.000000,0.000000,0.000000,0.000000,0.000000,1647415465.892700,0.000000
70.000000,28670.202633,19869.270309,15659.274537,15911.983360,-11054.435200,11175.492248,18103.594256,11380.815373,0.076000,0.966000,0.184000,192.000000,0.000000,0.000000,0.000000,0.000000,0.000000,0.000000,0.000000,0.000000,0.000000,1647415465.900583,0.000000
71.000000,28663.385351,19864.196463,15654.781837,15905.702520,-11059.218473,11172.765335,18105.605913,11374.802753,0.076000,0.966000,0.184000,192.000000,0.000000,0.000000,0.000000,0.000000,0.000000,0.000000,0.000000,0.000000,0.000000,1647415465.900600,0.000000
72.000000,28666.179319,19871.505484,15654.133636,15906.462479,-11061.028965,11168.071469,18097.715747,11357.658965,0.076000,0.966000,0.184000,192.000000,0.000000,0.000000,0.000000,0.000000,0.000000,0.000000,0.000000,0.000000,0.000000,1647415465.907219,0.000000
73.000000,28667.363962,19878.725097,15654.848892,15911.513974,-11057.832665,11173.368832,18103.571904,11369.281872,0.076000,0.966000,0.184000,192.000000,0.000000,0.000000,0.000000,0.000000,0.000000,0.000000,0.000000,0.000000,0.000000,1647415465.907235,0.000000
74.000000,28669.040342,19874.031231,15654.021878,15913.525631,-11055.552787,11176.475725,18111.886753,11378.759012,0.076000,0.966000,0.184000,192.000000,0.000000,0.000000,0.000000,0.000000,0.000000,0.000000,0.000000,0.000000,0.000000,1647415465.915198,0.000000
75.000000,28677.109322,19882.279024,15663.767238,15917.817166,-11047.819084,11174.061736,18106.120003,11373.036965,0.066000,0.974000,0.186000,192.000000,2.000000,16.000000,30.000000,112.000000,5.000000,208.000000,0.000000,0.000000,0.000000,1647415465.915215,0.000000
76.000000,28669.532081,19882.413135,15659.363944,15913.011541,-11050.568348,11169.144353,18102.141392,11379.340157,0.066000,0.974000,0.186000,192.000000,0.000000,0.000000,0.000000,0.000000,0.000000,0.000000,0.000000,0.000000,0.000000,1647415465.922248,0.000000
77.000000,28671.186110,19874.165341,15660.146256,15913.570334,-11049.339002,11166.618605,18107.952846,11374.601588,0.066000,0.974000,0.186000,192.000000,0.000000,0.000000,0.000000,0.000000,0.000000,0.000000,0.000000,0.000000,0.000000,1647415465.930228,0.000000
78.000000,28672.683677,19867.817446,15663.789590,15914.710273,-11047.193235,11166.529198,18107.774032,11384.324596,0.066000,0.974000,0.186000,192.000000,0.000000,0.000000,0.000000,0.000000,0.000000,0.000000,0.000000,0.000000,0.000000,1647415465.930245,0.000000
79.000000,28668.436845,19867.415114,15664.862474,15914.531459,-11048.735505,11161.768277,18104.711843,11374.154553,0.066000,0.974000,0.186000,192.000000,0.000000,0.000000,0.000000,0.000000,0.000000,0.000000,0.000000,0.000000,0.000000,1647415465.936754,0.000000
80.000000,28672.393104,19875.841722,15664.951881,15915.581991,-11049.897796,11157.052059,18101.113212,11360.832913,0.066000,0.974000,0.186000,192.000000,0.000000,0.000000,0.000000,0.000000,0.000000,0.000000,0.000000,0.000000,0.000000,1647415465.936771,0.000000
81.000000,28676.975212,19883.731888,15665.778895,15917.504241,-11047.953194,11159.957786,18105.605913,11377.462611,0.066000,0.974000,0.186000,192.000000,0.000000,0.000000,0.000000,0.000000,0.000000,0.000000,0.000000,0.000000,0.000000,1647415465.944796,0.000000
82.000000,28674.293002,19876.981661,15664.460142,15915.179660,-11049.316651,11159.734268,18110.880925,11387.900876,0.066000,0.974000,0.186000,192.000000,0.000000,0.000000,0.000000,0.000000,0.000000,0.000000,0.000000,0.000000,0.000000,1647415465.944813,0.000000
83.000000,28672.191938,19874.902949,15662.493189,15914.196183,-11051.797694,11154.794533,18106.254113,11375.428602,0.066000,0.974000,0.186000,192.000000,0.000000,0.000000,0.000000,0.000000,0.000000,0.000000,0.000000,0.000000,0.000000,1647415465.952553,0.000000
84.000000,28676.148197,19880.155609,15659.319241,15915.738453,-11052.200026,11149.921852,18097.156953,11364.252730,0.066000,0.974000,0.186000,192.000000,0.000000,0.000000,0.000000,0.000000,0.000000,0.000000,0.000000,0.000000,0.000000,1647415465.952563,0.000000
85.000000,28674.985906,19875.238225,15659.006317,15912.184526,-11054.435200,11145.540910,18095.771145,11356.474323,0.060000,0.970000,0.190000,192.000000,1.000000,224.000000,30.000000,80.000000,5.000000,240.000000,0.000000,0.000000,0.000000,1647415465.959467,0.000000
86.000000,28672.549566,19872.108981,15658.156950,15909.144689,-11054.993994,11145.473855,18097.671044,11360.475285,0.060000,0.970000,0.190000,192.000000,0.000000,0.000000,0.000000,0.000000,0.000000,0.000000,0.000000,0.000000,0.000000,1647415465.959503,0.000000
87.000000,28672.840139,19871.840760,15656.748790,15911.312808,-11052.781171,11150.413591,18110.590352,11392.460631,0.060000,0.970000,0.190000,192.000000,0.000000,0.000000,0.000000,0.000000,0.000000,0.000000,0.000000,0.000000,0.000000,1647415465.967499,0.000000
88.000000,28677.824578,19879.820333,15665.197750,15916.185488,-11045.516854,11156.850893,18117.161765,11409.358550,0.060000,0.970000,0.190000,192.000000,0.000000,0.000000,0.000000,0.000000,0.000000,0.000000,0.000000,0.000000,0.000000,1647415465.967517,0.000000
89.000000,28679.992697,19881.899045,15666.807075,15911.402215,-11048.042601,11151.039440,18114.054872,11388.146745,0.060000,0.970000,0.190000,192.000000,0.000000,0.000000,0.000000,0.000000,0.000000,0.000000,0.000000,0.000000,0.000000,1647415465.975304,0.000000
90.000000,28678.696296,19873.070106,15661.219139,15906.708349,-11054.144627,11144.311564,18106.499983,11373.416945,0.060000,0.970000,0.190000,192.000000,0.000000,0.000000,0.000000,0.000000,0.000000,0.000000,0.000000,0.000000,0.000000,1647415465.975320,0.000000
91.000000,28671.543738,19858.250899,15652.859587,15902.215648,-11061.185427,11139.416532,18109.003378,11379.630730,0.060000,0.970000,0.190000,192.000000,0.000000,0.000000,0.000000,0.000000,0.000000,0.000000,0.000000,0.000000,0.000000,1647415465.982637,0.000000
92.000000,28675.790569,19860.061390,15656.860549,15910.038759,-11059.665508,11141.539948,18112.020864,11377.350852,0.060000,0.970000,0.190000,192.000000,0.000000,0.000000,0.000000,0.000000,0.000000,0.000000,0.000000,0.000000,0.000000,1647415465.982653,0.000000
93.000000,28677.198729,19861.827178,15658.358116,15914.374997,-11056.804485,11136.399047,18101.247323,11365.638538,0.060000,0.970000,0.190000,192.000000,0.000000,0.000000,0.000000,0.000000,0.000000,0.000000,0.000000,0.000000,0.000000,1647415465.989166,0.000000
94.000000,28678.741000,19873.919472,15657.844026,15918.152442,-11051.775342,11135.795550,18096.106421,11369.617149,0.060000,0.970000,0.190000,192.000000,0.000000,0.000000,0.000000,0.000000,0.000000,0.000000,0.000000,0.000000,0.000000,1647415465.997125,0.000000
95.000000,28681.713782,19880.379126,15655.005354,15915.447881,-11052.602357,11133.806245,18112.669064,11358.821256,0.054000,0.962000,0.192000,192.000000,1.000000,176.000000,30.000000,16.000000,6.000000,0.000000,0.000000,0.000000,0.000000,1647415465.997143,0.000000
96.000000,28678.405723,19873.338327,15652.703125,15909.323503,-11056.379802,11135.549681,18118.681683,11361.704631,0.054000,0.962000,0.192000,192.000000,0.000000,0.000000,0.000000,0.000000,0.000000,0.000000,0.000000,0.000000,0.000000,1647415466.004813,0.000000
97.000000,28668.280383,19860.955460,15652.054924,15905.680168,-11059.665508,11140.020030,18119.776919,11382.223532,0.054000,0.962000,0.192000,192.000000,0.000000,0.000000,0.000000,0.000000,0.000000,0.000000,0.000000,0.000000,0.000000,1647415466.004820,0.000000
98.000000,28659.920831,19850.763065,15649.752694,15901.478040,-11061.520703,11135.884957,18115.373625,11367.672547,0.054000,0.962000,0.192000,192.000000,0.000000,0.000000,0.000000,0.000000,0.000000,0.000000,0.000000,0.000000,0.000000,1647415466.011825,0.000000
99.000000,28653.550584,19842.828195,15647.629279,15900.002825,-11063.398250,11133.918003,18121.475651,11364.923282,0.054000,0.962000,0.192000,192.000000,0.000000,0.000000,0.000000,0.000000,0.000000,0.000000,0.000000,0.000000,0.000000,1647415466.011831,0.000000
100.000000,28657.350380,19848.997277,15648.992735,15903.489697,-11063.778229,11131.906346,18117.184117,11375.540361,0.054000,0.962000,0.192000,192.000000,0.000000,0.000000,0.000000,0.000000,0.000000,0.000000,0.000000,0.000000,0.000000,1647415466.019338,0.000000
101.000000,28662.714799,19856.351001,15652.054924,15906.529535,-11062.079497,11131.906346,18114.367797,11378.423736,0.054000,0.962000,0.192000,192.000000,0.000000,0.000000,0.000000,0.000000,0.000000,0.000000,0.000000,0.000000,0.000000,1647415466.019342,0.000000
102.000000,28654.444653,19846.605640,15641.594308,15896.314787,-11069.343814,11124.440864,18109.226895,11358.888311,0.054000,0.962000,0.192000,192.000000,0.000000,0.000000,0.000000,0.000000,0.000000,0.000000,0.000000,0.000000,0.000000,1647415466.027370,0.000000
103.000000,28657.350380,19853.467626,15644.187110,15900.136936,-11064.962872,11127.324239,18112.400843,11353.255672,0.054000,0.962000,0.192000,192.000000,0.000000,0.000000,0.000000,0.000000,0.000000,0.000000,0.000000,0.000000,0.000000,1647415466.027374,0.000000
104.000000,28664.793511,19862.117751,15659.431000,15913.100948,-11053.407020,11143.216329,18132.159785,11377.797887,0.054000,0.962000,0.192000,192.000000,0.000000,0.000000,0.000000,0.000000,0.000000,0.000000,0.000000,0.000000,0.000000,1647415466.035379,0.000000
105.000000,28663.094778,19858.094437,15657.329936,15911.603381,-11055.418677,11141.294079,18120.916858,11382.827030,0.062000,0.966000,0.206000,192.000000,1.000000,240.000000,30.000000,48.000000,6.000000,112.000000,0.000000,0.000000,0.000000,1647415466.035384,0.000000
106.000000,28661.016066,19856.485111,15654.401857,15909.949352,-11058.682031,11136.600213,18113.093747,11368.052526,0.062000,0.966000,0.206000,192.000000,0.000000,0.000000,0.000000,0.000000,0.000000,0.000000,0.000000,0.000000,0.000000,1647415466.041953,0.000000
107.000000,28657.305677,19854.562861,15647.763389,15903.221476,-11063.644119,11133.247451,18110.009207,11369.885370,0.062000,0.966000,0.206000,192.000000,0.000000,0.000000,0.000000,0.000000,0.000000,0.000000,0.000000,0.000000,0.000000,1647415466.041963,0.000000
108.000000,28664.391180,19858.340306,15647.897500,15904.115546,-11062.258311,11138.455407,18116.871192,11384.056376,0.062000,0.966000,0.206000,192.000000,0.000000,0.000000,0.000000,0.000000,0.000000,0.000000,0.000000,0.000000,0.000000,1647415466.049031,0.000000
109.000000,28669.889709,19857.602699,15654.245395,15908.652950,-11056.089229,11144.199806,18128.002361,11379.764841,0.062000,0.966000,0.206000,192.000000,0.000000,0.000000,0.000000,0.000000,0.000000,0.000000,0.000000,0.000000,0.000000,1647415466.056984,0.000000
110.000000,28672.281345,19856.552167,15659.386296,15913.615038,-11051.998860,11145.339745,18123.688474,11372.455820,0.062000,0.966000,0.206000,192.000000,0.000000,0.000000,0.000000,0.000000,0.000000,0.000000,0.000000,0.000000,0.000000,1647415466.056988,0.000000
111.000000,28673.577747,19860.486074,15657.508750,15913.525631,-11053.652889,11139.863567,18113.898410,11352.719230,0.062000,0.966000,0.206000,192.000000,0.000000,0.000000,0.000000,0.000000,0.000000,0.000000,0.000000,0.000000,0.000000,1647415466.064060,0.000000
112.000000,28673.398933,19862.743600,15656.257052,15914.844384,-11052.311784,11141.227024,18109.919800,11354.529721,0.062000,0.966000,0.206000,192.000000,0.000000,0.000000,0.000000,0.000000,0.000000,0.000000,0.000000,0.000000,0.000000,1647415466.064064,0.000000
113.000000,28674.337706,19863.995297,15662.426133,15918.666532,-11046.746200,11149.921852,18120.581582,11370.801791,0.062000,0.966000,0.206000,192.000000,0.000000,0.000000,0.000000,0.000000,0.000000,0.000000,0.000000,0.000000,0.000000,1647415466.071603,0.000000
114.000000,28675.142369,19864.911719,15659.654517,15916.409006,-11049.853092,11152.469951,18130.371646,11377.797887,0.062000,0.966000,0.206000,192.000000,0.000000,0.000000,0.000000,0.000000,0.000000,0.000000,0.000000,0.000000,0.000000,1647415466.071608,0.000000
115.000000,28670.493206,19861.603661,15658.983965,15914.419700,-11053.205854,11150.525349,18125.767186,11374.199256,0.062000,0.964000,0.206000,192.000000,1.000000,240.000000,30.000000,32.000000,6.000000,112.000000,0.000000,0.000000,0.000000,1647415466.079712,0.000000
116.000000,28671.722552,19861.737771,15662.403782,15914.397349,-11053.138799,11152.604062,18123.330846,11381.418870,0.062000,0.964000,0.206000,192.000000,0.000000,0.000000,0.000000,0.000000,0.000000,0.000000,0.000000,0.000000,0.000000,1647415466.079720,0.000000
117.000000,28670.806130,19859.502597,15658.134599,15913.145651,-11056.268043,11152.715820,18126.728311,11375.450954,0.062000,0.964000,0.206000,192.000000,0.000000,0.000000,0.000000,0.000000,0.000000,0.000000,0.000000,0.000000,0.000000,1647415466.087825,0.000000
118.000000,28675.298831,19860.821350,15656.771142,15913.413872,-11055.329270,11155.889768,18129.544631,11381.284759,0.062000,0.964000,0.206000,192.000000,0.000000,0.000000,0.000000,0.000000,0.000000,0.000000,0.000000,0.000000,0.000000,1647415466.087836,0.000000
119.000000,28673.018953,19856.730980,15654.848892,15906.820107,-11058.614976,11149.608928,18122.280314,11366.309090,0.062000,0.964000,0.206000,192.000000,0.000000,0.000000,0.000000,0.000000,0.000000,0.000000,0.000000,0.000000,0.000000,1647415466.094485,0.000000
120.000000,28666.648706,19853.333515,15651.898462,15902.930904,-11062.034793,11144.266861,18113.563134,11359.670622,0.062000,0.964000,0.206000,192.000000,0.000000,0.000000,0.000000,0.000000,0.000000,0.000000,0.000000,0.000000,0.000000,1647415466.094501,0.000000
121.000000,28672.236642,19855.814559,15656.257052,15911.156346,-11056.737430,11150.368887,18119.799271,11365.213855,0.062000,0.964000,0.206000,192.000000,0.000000,0.000000,0.000000,0.000000,0.000000,0.000000,0.000000,0.000000,0.000000,1647415466.102704,0.000000
122.000000,28665.441712,19848.751408,15647.785741,15906.708349,-11063.889988,11144.691544,18110.635055,11356.451971,0.062000,0.964000,0.206000,192.000000,0.000000,0.000000,0.000000,0.000000,0.000000,0.000000,0.000000,0.000000,0.000000,1647415466.102721,0.000000
123.000000,28669.152101,19853.624088,15651.585537,15908.720006,-11062.191255,11143.417495,18106.723500,11345.097285,0.062000,0.964000,0.206000,192.000000,0.000000,0.000000,0.000000,0.000000,0.000000,0.000000,0.000000,0.000000,0.000000,1647415466.109737,0.000000
124.000000,28666.805168,19851.768893,15651.250261,15908.027102,-11063.577064,11144.669192,18107.461108,11359.804733,0.062000,0.964000,0.206000,192.000000,0.000000,0.000000,0.000000,0.000000,0.000000,0.000000,0.000000,0.000000,0.000000,1647415466.117704,0.000000
125.000000,28673.465988,19857.602699,15654.848892,15911.603381,-11058.056183,11152.246434,18122.973218,11383.475230,0.064000,0.954000,0.210000,192.000000,2.000000,0.000000,29.000000,208.000000,6.000000,144.000000,0.000000,0.000000,0.000000,1647415466.117721,0.000000
126.000000,28676.014087,19863.190635,15656.167645,15913.123299,-11056.223340,11148.960727,18121.006265,11367.672547,0.064000,0.954000,0.210000,192.000000,0.000000,0.000000,0.000000,0.000000,0.000000,0.000000,0.000000,0.000000,0.000000,1647415466.124337,0.000000
127.000000,28664.122959,19854.585213,15648.053962,15903.959084,-11064.694651,11135.952012,18105.941189,11331.552128,0.064000,0.954000,0.210000,192.000000,0.000000,0.000000,0.000000,0.000000,0.000000,0.000000,0.000000,0.000000,0.000000,1647415466.124353,0.000000
128.000000,28662.670095,19854.741675,15650.870282,15909.144689,-11063.197084,11146.792608,18109.986855,11366.979643,0.064000,0.954000,0.210000,192.000000,0.000000,0.000000,0.000000,0.000000,0.000000,0.000000,0.000000,0.000000,0.000000,1647415466.132378,0.000000
129.000000,28669.666191,19860.329611,15659.945090,15917.526593,-11056.044526,11163.176437,18126.527146,11401.021350,0.064000,0.954000,0.210000,192.000000,0.000000,0.000000,0.000000,0.000000,0.000000,0.000000,0.000000,0.000000,0.000000,1647415466.132413,0.000000
130.000000,28671.007296,19863.414152,15658.469875,15915.336122,-11056.335098,11161.388297,18124.761358,11380.323634,0.064000,0.954000,0.210000,192.000000,0.000000,0.000000,0.000000,0.000000,0.000000,0.000000,0.000000,0.000000,0.000000,1647415466.140378,0.000000
131.000000,28670.426151,19870.656117,15653.776008,15913.525631,-11058.279700,11156.403858,18118.480518,11364.588006,0.064000,0.954000,0.210000,192.000000,0.000000,0.000000,0.000000,0.000000,0.000000,0.000000,0.000000,0.000000,0.000000,1647415466.140394,0.000000
132.000000,28668.749770,19865.045829,15652.859587,15916.766634,-11060.023136,11155.845065,18114.054872,11357.949538,0.064000,0.954000,0.210000,192.000000,0.000000,0.000000,0.000000,0.000000,0.000000,0.000000,0.000000,0.000000,0.000000,1647415466.147283,0.000000
133.000000,28669.107398,19855.792207,15661.375601,15922.354570,-11054.748124,11162.528236,18118.614628,11367.225512,0.064000,0.954000,0.210000,192.000000,0.000000,0.000000,0.000000,0.000000,0.000000,0.000000,0.000000,0.000000,0.000000,1647415466.147299,0.000000
134.000000,28664.771159,19852.126521,15657.799322,15919.672360,-11056.200988,11157.499094,18119.061663,11350.193483,0.064000,0.954000,0.210000,192.000000,0.000000,0.000000,0.000000,0.000000,0.000000,0.000000,0.000000,0.000000,0.000000,1647415466.154734,0.000000
135.000000,28662.133653,19851.545376,15654.401857,15917.101910,-11058.771438,11159.041364,18117.497041,11370.399460,0.064000,0.954000,0.210000,192.000000,0.000000,0.000000,0.000000,0.000000,0.000000,0.000000,0.000000,0.000000,0.000000,1647415466.154751,0.000000
136.000000,28659.049113,19850.941879,15652.323145,15912.944485,-11062.057145,11157.454390,18118.882849,11368.946596,0.062000,0.962000,0.210000,192.000000,1.000000,240.000000,30.000000,16.000000,6.000000,144.000000,0.000000,0.000000,0.000000,1647415466.162960,0.000000
137.000000,28658.669133,19853.288812,15655.362982,15914.956142,-11059.956081,11161.991794,18130.818681,11366.934939,0.062000,0.962000,0.210000,192.000000,0.000000,0.000000,0.000000,0.000000,0.000000,0.000000,0.000000,0.000000,0.000000,1647415466.162976,0.000000
138.000000,28654.399950,19851.120693,15652.010221,15912.273933,-11063.353546,11161.097725,18129.008189,11380.815373,0.062000,0.962000,0.210000,192.000000,0.000000,0.000000,0.000000,0.000000,0.000000,0.000000,0.000000,0.000000,0.000000,1647415466.169998,0.000000
139.000000,28657.283325,19852.908832,15653.552491,15913.749148,-11062.951215,11164.294024,18131.422178,11394.896972,0.062000,0.962000,0.210000,192.000000,0.000000,0.000000,0.000000,0.000000,0.000000,0.000000,0.000000,0.000000,0.000000,1647415466.177122,0.000000
140.000000,28654.288191,19846.717399,15647.696334,15911.379863,-11066.438087,11157.677908,18126.102463,11377.172038,0.062000,0.962000,0.210000,192.000000,0.000000,0.000000,0.000000,0.000000,0.000000,0.000000,0.000000,0.000000,0.000000,1647415466.177139,0.000000
141.000000,28652.812976,19851.612431,15645.237642,15909.412910,-11068.114468,11152.805227,18121.140375,11359.804733,0.062000,0.962000,0.210000,192.000000,0.000000,0.000000,0.000000,0.000000,0.000000,0.000000,0.000000,0.000000,0.000000,1647415466.184715,0.000000
142.000000,28651.918906,19849.958402,15648.433941,15911.715139,-11066.013404,11153.252262,18117.251172,11355.289680,0.062000,0.962000,0.210000,192.000000,0.000000,0.000000,0.000000,0.000000,0.000000,0.000000,0.000000,0.000000,0.000000,1647415466.184731,0.000000
143.000000,28657.305677,19848.997277,15655.921776,15919.471195,-11058.212645,11166.395088,18131.533936,11388.280855,0.062000,0.962000,0.210000,192.000000,0.000000,0.000000,0.000000,0.000000,0.000000,0.000000,0.000000,0.000000,0.000000,1647415466.192705,0.000000
144.000000,28659.294982,19851.344210,15658.201654,15920.275857,-11056.491561,11168.227931,18138.552384,11387.006806,0.062000,0.962000,0.210000,192.000000,0.000000,0.000000,0.000000,0.000000,0.000000,0.000000,0.000000,0.000000,0.000000,1647415466.192721,0.000000
145.000000,28658.467967,19855.188710,15653.351325,15914.352645,-11059.240825,11158.147294,18122.883811,11363.582178,0.062000,0.962000,0.210000,192.000000,0.000000,0.000000,0.000000,0.000000,0.000000,0.000000,0.000000,0.000000,0.000000,1647415466.199751,0.000000
146.000000,28655.852813,19855.322821,15652.501959,15911.983360,-11061.297186,11159.600158,18121.430948,11370.175942,0.060000,0.968000,0.208000,192.000000,1.000000,224.000000,30.000000,64.000000,6.000000,128.000000,0.000000,0.000000,0.000000,1647415466.199767,0.000000
147.000000,28652.947086,19853.244108,15651.317316,15911.491622,-11064.158209,11162.885864,18129.522279,11378.222570,0.060000,0.968000,0.208000,192.000000,0.000000,0.000000,0.000000,0.000000,0.000000,0.000000,0.000000,0.000000,0.000000,1647415466.207277,0.000000
148.000000,28653.170604,19843.386989,15651.429075,15911.536325,-11065.968700,11162.014146,18126.750663,11367.672547,0.060000,0.968000,0.208000,192.000000,0.000000,0.000000,0.000000,0.000000,0.000000,0.000000,0.000000,0.000000,0.000000,1647415466.207294,0.000000
149.000000,28651.583630,19834.893326,15647.763389,15904.741395,-11071.534285,11150.301832,18109.025730,11344.270270,0.060000,0.968000,0.208000,192.000000,0.000000,0.000000,0.000000,0.000000,0.000000,0.000000,0.000000,0.000000,0.000000,1647415466.215178,0.000000
150.000000,28663.005371,19842.470568,15653.217215,15909.144689,-11066.527494,11156.381506,18111.685587,11371.986434,0.060000,0.968000,0.208000,192.000000,0.000000,0.000000,0.000000,0.000000,0.000000,0.000000,0.000000,0.000000,0.000000,1647415466.215213,0.000000
151.000000,28665.620526,19849.220794,15653.686601,15913.860907,-11060.581930,11166.775068,18135.914878,11382.268236,0.060000,0.968000,0.208000,192.000000,0.000000,0.000000,0.000000,0.000000,0.000000,0.000000,0.000000,0.000000,0.000000,1647415466.222961,0.000000
152.000000,28654.355246,19846.426826,15653.887767,15916.923096,-11057.519741,11170.306643,18132.718579,11385.620998,0.060000,0.968000,0.208000,192.000000,0.000000,0.000000,0.000000,0.000000,0.000000,0.000000,0.000000,0.000000,0.000000,1647415466.222972,0.000000
153.000000,28655.025799,19849.824291,15659.833331,15921.147576,-11053.831703,11173.234722,18132.875041,11394.002902,0.060000,0.968000,0.208000,192.000000,0.000000,0.000000,0.000000,0.000000,0.000000,0.000000,0.000000,0.000000,0.000000,1647415466.229149,0.000000
154.000000,28661.887784,19858.764989,15658.246357,15922.891012,-11052.714116,11168.697318,18125.856593,11377.507314,0.060000,0.968000,0.208000,192.000000,0.000000,0.000000,0.000000,0.000000,0.000000,0.000000,0.000000,0.000000,0.000000,1647415466.229160,0.000000
155.000000,28660.345514,19859.636707,15655.653555,15923.941544,-11052.244729,11167.333861,18121.073320,11367.024346,0.060000,0.968000,0.208000,192.000000,0.000000,0.000000,0.000000,0.000000,0.000000,0.000000,0.000000,0.000000,0.000000,1647415466.236520,0.000000
156.000000,28655.070502,19851.768893,15650.266784,15915.425529,-11060.716040,11160.024841,18117.787614,11356.586082,0.066000,0.968000,0.208000,192.000000,2.000000,16.000000,30.000000,64.000000,6.000000,128.000000,0.000000,0.000000,0.000000,1647415466.244796,0.000000
157.000000,28647.135633,19845.242184,15643.002468,15910.284628,-11066.393383,11158.862550,18120.670989,11366.622015,0.066000,0.968000,0.208000,192.000000,0.000000,0.000000,0.000000,0.000000,0.000000,0.000000,0.000000,0.000000,0.000000,1647415466.244807,0.000000
158.000000,28651.494223,19849.667829,15645.148235,15912.184526,-11062.817104,11163.422306,18121.408596,11380.815373,0.066000,0.968000,0.208000,192.000000,0.000000,0.000000,0.000000,0.000000,0.000000,0.000000,0.000000,0.000000,0.000000,1647415466.252837,0.000000
159.000000,28654.377598,19857.066257,15646.869319,15911.849250,-11061.543055,11159.868379,18123.710826,11363.001032,0.066000,0.968000,0.208000,192.000000,0.000000,0.000000,0.000000,0.000000,0.000000,0.000000,0.000000,0.000000,0.000000,1647415466.252854,0.000000
160.000000,28659.518499,19863.391800,15651.429075,15916.856041,-11056.648023,11163.154085,18123.688474,11363.358660,0.066000,0.968000,0.208000,192.000000,0.000000,0.000000,0.000000,0.000000,0.000000,0.000000,0.000000,0.000000,0.000000,1647415466.259541,0.000000
161.000000,28666.983982,19863.458856,15651.943165,15923.226288,-11052.892930,11168.563207,18127.465919,11389.353739,0.066000,0.968000,0.208000,192.000000,0.000000,0.000000,0.000000,0.000000,0.000000,0.000000,0.000000,0.000000,0.000000,1647415466.259558,0.000000
162.000000,28661.708970,19859.346135,15652.099628,15919.158270,-11057.609148,11169.457277,18132.316248,11391.410099,0.066000,0.968000,0.208000,192.000000,0.000000,0.000000,0.000000,0.000000,0.000000,0.000000,0.000000,0.000000,0.000000,1647415466.267529,0.000000
