%OpenBCI Raw EEG Data
%Number of channels = 8
%Sample Rate = 256 Hz
%Board = OpenBCI_GUI$BoardCytonSerial
%Channels = Fp1, Fp2, F3, F4, Fz, Pz, O1, O2
%Data recorded at AIMS Lab (http://aimsl.uiu.ac.bd) by Rana Depto (mail@ranadepto.com)
%Brainwaves were obtained via the Ultracortex Mark IV Headset using the OpenBCI Cyton Board
%Recording Application = ConcentrateToday (https://concentrate.today)
%Data type = RAW data with noise
%Day No = 9
%Subject ID = 9
%Session ID = 7
%Record starting timestamp (UTC+6) = 2022-03-30T13:55:31.888478
%Record ending timestamp (UTC+6)   = 2022-03-30T13:56:07.750470
%Recorded durations = ~35 seconds
Sample Index, EXG Channel 0, EXG Channel 1, EXG Channel 2, EXG Channel 3, EXG Channel 4, EXG Channel 5, EXG Channel 6, EXG Channel 7, Accel Channel 0, Accel Channel 1, Accel Channel 2, Other, Other, Other, Other, Other, Other, Other, Analog Channel 0, Analog Channel 1, Analog Channel 2, Timestamp, Timestamp (Formatted)
219.000000,-20117.173507,-3199.763977,28290.357088,38894.918727,-21675.581834,70142.925697,25329.935590,-5334.690849,-0.128000,0.972000,-0.114000,192.000000,0.000000,0.000000,0.000000,0.000000,0.000000,0.000000,0.000000,0.000000,0.000000,1648626931.892506,0.000000
220.000000,-20097.794544,-3190.420948,28301.465905,38904.194701,-21676.431200,70157.230813,25305.371023,-5326.174835,-0.128000,0.972000,-0.114000,192.000000,0.000000,0.000000,0.000000,0.000000,0.000000,0.000000,0.000000,0.000000,0.000000,1648626931.892515,0.000000
221.000000,-20096.475792,-3186.889373,28315.972187,38907.256890,-21670.753857,70158.236642,25301.101840,-5322.218576,-0.128000,0.972000,-0.114000,192.000000,0.000000,0.000000,0.000000,0.000000,0.000000,0.000000,0.000000,0.000000,0.000000,1648626931.898682,0.000000
222.000000,-20119.118109,-3196.880602,28316.910960,38899.545538,-21672.385534,70144.959705,25323.319474,-5331.718067,-0.128000,0.972000,-0.114000,192.000000,0.000000,0.000000,0.000000,0.000000,0.000000,0.000000,0.000000,0.000000,0.000000,1648626931.898687,0.000000
223.000000,-20123.007312,-3196.612382,28305.735088,38899.813759,-21674.128970,70143.797415,25327.409843,-5341.262262,-0.134000,0.966000,-0.112000,192.000000,251.000000,208.000000,30.000000,48.000000,252.000000,128.000000,0.000000,0.000000,0.000000,1648626931.905698,0.000000
224.000000,-20123.364940,-3195.807719,28304.595149,38903.725315,-21677.280566,70145.920830,25319.810250,-5339.921157,-0.134000,0.966000,-0.112000,192.000000,0.000000,0.000000,0.000000,0.000000,0.000000,0.000000,0.000000,0.000000,0.000000,1648626931.913717,0.000000
225.000000,-20111.339702,-3191.136204,28314.988710,38916.912844,-21671.290299,70153.654534,25297.525561,-5335.316698,-0.134000,0.966000,-0.112000,192.000000,0.000000,0.000000,0.000000,0.000000,0.000000,0.000000,0.000000,0.000000,0.000000,1648626931.913721,0.000000
226.000000,-20111.205591,-3197.975838,28316.598036,38913.962414,-21665.948232,70147.843081,25294.262206,-5337.194245,-0.134000,0.966000,-0.112000,192.000000,0.000000,0.000000,0.000000,0.000000,0.000000,0.000000,0.000000,0.000000,0.000000,1648626931.920642,0.000000
227.000000,-20119.945123,-3200.300419,28313.379385,38911.011983,-21665.814121,70142.568069,25304.901636,-5328.454712,-0.134000,0.966000,-0.112000,192.000000,0.000000,0.000000,0.000000,0.000000,0.000000,0.000000,0.000000,0.000000,0.000000,1648626931.920646,0.000000
228.000000,-20118.179335,-3194.779538,28314.206399,38905.468751,-21664.920052,70140.981095,25315.876343,-5329.885224,-0.134000,0.966000,-0.112000,192.000000,0.000000,0.000000,0.000000,0.000000,0.000000,0.000000,0.000000,0.000000,0.000000,1648626931.928296,0.000000
229.000000,-20117.709949,-3195.584201,28305.220998,38900.640774,-21675.291261,70137.538926,25305.974520,-5332.701544,-0.134000,0.966000,-0.112000,192.000000,0.000000,0.000000,0.000000,0.000000,0.000000,0.000000,0.000000,0.000000,0.000000,1648626931.928300,0.000000
230.000000,-20105.863524,-3189.281009,28302.292919,38910.989632,-21676.230034,70148.670095,25292.228197,-5324.632564,-0.134000,0.966000,-0.112000,192.000000,0.000000,0.000000,0.000000,0.000000,0.000000,0.000000,0.000000,0.000000,0.000000,1648626931.936306,0.000000
231.000000,-20107.897533,-3200.032198,28298.291957,38902.339506,-21678.867540,70143.685656,25304.074622,-5329.415837,-0.134000,0.966000,-0.112000,192.000000,0.000000,0.000000,0.000000,0.000000,0.000000,0.000000,0.000000,0.000000,0.000000,1648626931.936311,0.000000
232.000000,-20102.041376,-3193.326675,28310.943045,38908.419181,-21672.318479,70153.609831,25313.708224,-5325.057247,-0.134000,0.966000,-0.112000,192.000000,0.000000,0.000000,0.000000,0.000000,0.000000,0.000000,0.000000,0.000000,0.000000,1648626931.944233,0.000000
233.000000,-20106.869353,-3187.582277,28319.839039,38913.895358,-21669.144531,70155.420322,25326.314607,-5326.890090,-0.130000,0.970000,-0.108000,192.000000,251.000000,240.000000,30.000000,80.000000,252.000000,160.000000,0.000000,0.000000,0.000000,1648626931.944238,0.000000
234.000000,-20114.603056,-3178.999207,28321.671882,38919.036260,-21672.832569,70164.539834,25317.664482,-5321.212747,-0.130000,0.970000,-0.108000,192.000000,0.000000,0.000000,0.000000,0.000000,0.000000,0.000000,0.000000,0.000000,0.000000,1648626931.950981,0.000000
235.000000,-20117.061748,-3176.518163,28298.895454,38911.816646,-21678.934595,70163.109322,25309.953130,-5325.213709,-0.130000,0.970000,-0.108000,192.000000,0.000000,0.000000,0.000000,0.000000,0.000000,0.000000,0.000000,0.000000,0.000000,1648626931.950986,0.000000
236.000000,-20128.707007,-3194.533669,28292.078172,38899.344373,-21685.818933,70151.911098,25315.608122,-5339.094143,-0.130000,0.970000,-0.108000,192.000000,0.000000,0.000000,0.000000,0.000000,0.000000,0.000000,0.000000,0.000000,0.000000,1648626931.958985,0.000000
237.000000,-20121.353283,-3196.388864,28300.080097,38906.832207,-21679.225168,70154.548604,25319.922009,-5335.383753,-0.130000,0.970000,-0.108000,192.000000,0.000000,0.000000,0.000000,0.000000,0.000000,0.000000,0.000000,0.000000,0.000000,1648626931.958989,0.000000
238.000000,-20120.123937,-3191.516184,28300.571835,38902.875948,-21677.168808,70147.708970,25326.962808,-5343.072753,-0.130000,0.970000,-0.108000,192.000000,0.000000,0.000000,0.000000,0.000000,0.000000,0.000000,0.000000,0.000000,0.000000,1648626931.967397,0.000000
239.000000,-20118.000521,-3195.271277,28293.374573,38894.628155,-21685.438953,70147.038418,25312.903561,-5344.458561,-0.130000,0.970000,-0.108000,192.000000,0.000000,0.000000,0.000000,0.000000,0.000000,0.000000,0.000000,0.000000,0.000000,1648626931.967401,0.000000
240.000000,-20108.009292,-3197.752320,28296.123838,38897.690344,-21687.607072,70156.068522,25285.165046,-5335.942547,-0.130000,0.970000,-0.108000,192.000000,0.000000,0.000000,0.000000,0.000000,0.000000,0.000000,0.000000,0.000000,0.000000,1648626931.974051,0.000000
241.000000,-20116.435899,-3200.658047,28299.633062,38893.510567,-21679.426334,70149.921793,25289.367174,-5335.137884,-0.130000,0.970000,-0.108000,192.000000,0.000000,0.000000,0.000000,0.000000,0.000000,0.000000,0.000000,0.000000,0.000000,1648626931.980569,0.000000
242.000000,-20118.268742,-3207.475329,28295.095658,38890.180157,-21678.219340,70145.674961,25298.844313,-5335.003774,-0.130000,0.970000,-0.108000,192.000000,0.000000,0.000000,0.000000,0.000000,0.000000,0.000000,0.000000,0.000000,0.000000,1648626931.980572,0.000000
243.000000,-20117.642894,-3215.119626,28295.766210,38889.219032,-21683.427296,70146.814900,25302.644110,-5337.529521,-0.130000,0.970000,-0.108000,192.000000,0.000000,0.000000,0.000000,0.000000,0.000000,0.000000,0.000000,0.000000,0.000000,1648626931.988526,0.000000
244.000000,-20133.758501,-3214.538481,28287.004326,38885.642753,-21699.475849,70142.433958,25295.893883,-5341.888111,-0.132000,0.974000,-0.116000,192.000000,251.000000,224.000000,30.000000,112.000000,252.000000,96.000000,0.000000,0.000000,0.000000,1648626931.988529,0.000000
245.000000,-20147.326010,-3207.475329,28281.349335,38887.073265,-21705.846096,70144.222098,25295.268034,-5335.115532,-0.132000,0.974000,-0.116000,192.000000,0.000000,0.000000,0.000000,0.000000,0.000000,0.000000,0.000000,0.000000,0.000000,1648626931.996696,0.000000
246.000000,-20140.620487,-3217.108931,28288.613652,38896.416294,-21692.770325,70154.258031,25300.520694,-5316.787102,-0.132000,0.974000,-0.116000,192.000000,0.000000,0.000000,0.000000,0.000000,0.000000,0.000000,0.000000,0.000000,0.000000,1648626931.996699,0.000000
247.000000,-20143.973248,-3232.084600,28281.706963,38892.057704,-21695.653700,70142.702179,25323.699453,-5327.717105,-0.132000,0.974000,-0.116000,192.000000,0.000000,0.000000,0.000000,0.000000,0.000000,0.000000,0.000000,0.000000,0.000000,1648626932.003775,0.000000
248.000000,-20139.726417,-3218.003001,28288.881873,38890.560137,-21695.027851,70141.361075,25337.915163,-5334.623794,-0.132000,0.974000,-0.116000,192.000000,0.000000,0.000000,0.000000,0.000000,0.000000,0.000000,0.000000,0.000000,0.000000,1648626932.003779,0.000000
249.000000,-20131.456272,-3205.016637,28288.636004,38899.120855,-21692.524456,70147.060769,25326.336959,-5332.813303,-0.132000,0.974000,-0.116000,192.000000,0.000000,0.000000,0.000000,0.000000,0.000000,0.000000,0.000000,0.000000,0.000000,1648626932.011149,0.000000
250.000000,-20123.901382,-3204.100216,28287.317251,38895.254003,-21692.725622,70148.625392,25304.588712,-5326.376000,-0.132000,0.974000,-0.116000,192.000000,0.000000,0.000000,0.000000,0.000000,0.000000,0.000000,0.000000,0.000000,0.000000,1648626932.011153,0.000000
251.000000,-20122.493222,-3211.878623,28287.540768,38890.426027,-21687.897645,70143.864470,25311.026014,-5323.134997,-0.132000,0.974000,-0.116000,192.000000,0.000000,0.000000,0.000000,0.000000,0.000000,0.000000,0.000000,0.000000,0.000000,1648626932.019309,0.000000
252.000000,-20122.582629,-3216.684248,28298.560178,38895.701038,-21675.470075,70148.245412,25330.427328,-5321.704486,-0.132000,0.974000,-0.116000,192.000000,0.000000,0.000000,0.000000,0.000000,0.000000,0.000000,0.000000,0.000000,0.000000,1648626932.019314,0.000000
253.000000,-20122.873202,-3205.329562,28310.764231,38906.273413,-21672.407886,70158.795435,25331.969599,-5324.699619,-0.132000,0.974000,-0.116000,192.000000,0.000000,0.000000,0.000000,0.000000,0.000000,0.000000,0.000000,0.000000,0.000000,1648626932.027243,0.000000
254.000000,-20113.954856,-3192.142033,28314.653434,38910.475541,-21673.793694,70161.499996,25319.631436,-5320.497491,-0.132000,0.974000,-0.104000,192.000000,251.000000,224.000000,30.000000,112.000000,252.000000,192.000000,0.000000,0.000000,0.000000,1648626932.027247,0.000000
255.000000,-20113.507821,-3184.609495,28302.829361,38907.480408,-21677.861712,70158.303697,25309.483744,-5312.540270,-0.132000,0.974000,-0.104000,192.000000,0.000000,0.000000,0.000000,0.000000,0.000000,0.000000,0.000000,0.000000,0.000000,1648626932.033285,0.000000
0.000000,-20100.722623,-3182.799003,28320.174315,38919.930329,-21659.645040,70168.719610,25310.064889,-5303.264296,-0.132000,0.974000,-0.104000,192.000000,0.000000,0.000000,0.000000,0.000000,0.000000,0.000000,0.000000,0.000000,0.000000,1648626932.040803,0.000000
1.000000,-20120.705083,-3213.756170,28308.439649,38904.239405,-21664.852996,70147.150176,25326.113442,-5319.066980,-0.132000,0.974000,-0.104000,192.000000,0.000000,0.000000,0.000000,0.000000,0.000000,0.000000,0.000000,0.000000,0.000000,1648626932.040807,0.000000
2.000000,-20137.491243,-3222.875681,28297.934329,38896.326887,-21676.587662,70136.600153,25331.209639,-5331.360439,-0.132000,0.974000,-0.104000,192.000000,0.000000,0.000000,0.000000,0.000000,0.000000,0.000000,0.000000,0.000000,0.000000,1648626932.048986,0.000000
3.000000,-20137.759464,-3216.505434,28294.000422,38903.390038,-21681.907377,70139.461176,25315.317549,-5332.858006,-0.132000,0.974000,-0.104000,192.000000,0.000000,0.000000,0.000000,0.000000,0.000000,0.000000,0.000000,0.000000,0.000000,1648626932.048989,0.000000
4.000000,-20116.771175,-3208.637620,28308.327890,38908.285070,-21673.681936,70148.178357,25303.292311,-5329.147617,-0.132000,0.974000,-0.104000,192.000000,0.000000,0.000000,0.000000,0.000000,0.000000,0.000000,0.000000,0.000000,0.000000,1648626932.055848,0.000000
5.000000,-20120.906248,-3219.120588,28301.152980,38888.503777,-21678.778133,70142.478662,25311.517753,-5325.370172,-0.132000,0.974000,-0.104000,192.000000,0.000000,0.000000,0.000000,0.000000,0.000000,0.000000,0.000000,0.000000,0.000000,1648626932.055852,0.000000
6.000000,-20118.291094,-3222.920385,28303.388155,38888.414370,-21678.532264,70144.713836,25331.030825,-5320.966878,-0.132000,0.974000,-0.104000,192.000000,0.000000,0.000000,0.000000,0.000000,0.000000,0.000000,0.000000,0.000000,0.000000,1648626932.063383,0.000000
7.000000,-20129.332856,-3225.513187,28310.294844,38890.537785,-21681.885026,70143.149214,25336.216430,-5328.991154,-0.132000,0.974000,-0.104000,192.000000,0.000000,0.000000,0.000000,0.000000,0.000000,0.000000,0.000000,0.000000,0.000000,1648626932.063388,0.000000
8.000000,-20135.747807,-3219.344106,28300.705946,38900.171387,-21683.896683,70146.770197,25322.358349,-5327.672401,-0.126000,0.976000,-0.104000,192.000000,252.000000,16.000000,30.000000,128.000000,252.000000,192.000000,0.000000,0.000000,0.000000,1648626932.071527,0.000000
9.000000,-20127.321199,-3196.768844,28306.360937,38909.827341,-21680.387459,70152.022857,25300.967729,-5322.263279,-0.126000,0.976000,-0.104000,192.000000,0.000000,0.000000,0.000000,0.000000,0.000000,0.000000,0.000000,0.000000,0.000000,1648626932.071531,0.000000
10.000000,-20124.594286,-3195.695960,28299.297786,38900.394905,-21679.560444,70143.283325,25310.824849,-5326.733628,-0.126000,0.976000,-0.104000,192.000000,0.000000,0.000000,0.000000,0.000000,0.000000,0.000000,0.000000,0.000000,0.000000,1648626932.079432,0.000000
11.000000,-20118.715777,-3210.403408,28303.142286,38900.707829,-21674.508950,70149.139482,25322.246590,-5314.820148,-0.126000,0.976000,-0.104000,192.000000,0.000000,0.000000,0.000000,0.000000,0.000000,0.000000,0.000000,0.000000,0.000000,1648626932.079436,0.000000
12.000000,-20120.883896,-3225.401428,28294.648623,38891.163634,-21684.880159,70138.567107,25323.699453,-5322.084465,-0.126000,0.976000,-0.104000,192.000000,0.000000,0.000000,0.000000,0.000000,0.000000,0.000000,0.000000,0.000000,0.000000,1648626932.086027,0.000000
13.000000,-20107.785774,-3214.203204,28289.105390,38904.194701,-21690.512799,70143.506842,25301.414764,-5323.179701,-0.126000,0.976000,-0.104000,192.000000,0.000000,0.000000,0.000000,0.000000,0.000000,0.000000,0.000000,0.000000,0.000000,1648626932.086030,0.000000
14.000000,-20114.647760,-3210.515167,28296.548521,38908.732105,-21685.126029,70151.017028,25289.791857,-5320.899823,-0.126000,0.976000,-0.104000,192.000000,0.000000,0.000000,0.000000,0.000000,0.000000,0.000000,0.000000,0.000000,0.000000,1648626932.093083,0.000000
15.000000,-20135.792510,-3215.007867,28291.206454,38891.253041,-21683.807276,70143.998580,25307.829715,-5325.146654,-0.126000,0.976000,-0.104000,192.000000,0.000000,0.000000,0.000000,0.000000,0.000000,0.000000,0.000000,0.000000,0.000000,1648626932.101108,0.000000
16.000000,-20142.654496,-3216.840710,28303.388155,38891.856538,-21684.768401,70143.819766,25319.340863,-5318.731704,-0.126000,0.976000,-0.104000,192.000000,0.000000,0.000000,0.000000,0.000000,0.000000,0.000000,0.000000,0.000000,0.000000,1648626932.101112,0.000000
17.000000,-20143.146234,-3207.631792,28299.834228,38888.816701,-21688.590549,70143.864470,25318.960883,-5317.122378,-0.126000,0.976000,-0.104000,192.000000,0.000000,0.000000,0.000000,0.000000,0.000000,0.000000,0.000000,0.000000,0.000000,1648626932.109130,0.000000
18.000000,-20147.415417,-3215.633716,28302.851713,38884.793387,-21691.719793,70138.924734,25310.735442,-5318.932869,-0.126000,0.968000,-0.110000,192.000000,252.000000,16.000000,30.000000,64.000000,252.000000,144.000000,0.000000,0.000000,0.000000,1648626932.109134,0.000000
19.000000,-20142.430978,-3220.685210,28291.362916,38892.549442,-21688.322328,70138.969438,25302.755869,-5320.072808,-0.126000,0.968000,-0.110000,192.000000,0.000000,0.000000,0.000000,0.000000,0.000000,0.000000,0.000000,0.000000,0.000000,1648626932.115736,0.000000
20.000000,-20139.502900,-3229.737667,28288.859521,38894.471692,-21684.746049,70137.404816,25311.473049,-5320.922175,-0.126000,0.968000,-0.110000,192.000000,0.000000,0.000000,0.000000,0.000000,0.000000,0.000000,0.000000,0.000000,0.000000,1648626932.115740,0.000000
21.000000,-20135.546641,-3232.665745,28287.160788,38898.919690,-21681.996784,70137.605982,25314.691700,-5317.457654,-0.126000,0.968000,-0.110000,192.000000,0.000000,0.000000,0.000000,0.000000,0.000000,0.000000,0.000000,0.000000,0.000000,1648626932.123834,0.000000
22.000000,-20144.196766,-3233.649222,28285.439704,38894.762265,-21686.556540,70136.130766,25317.463317,-5320.341029,-0.126000,0.968000,-0.110000,192.000000,0.000000,0.000000,0.000000,0.000000,0.000000,0.000000,0.000000,0.000000,0.000000,1648626932.123838,0.000000
23.000000,-20142.073350,-3234.699754,28289.463018,38897.891509,-21689.596378,70142.232793,25303.091145,-5317.994096,-0.126000,0.968000,-0.110000,192.000000,0.000000,0.000000,0.000000,0.000000,0.000000,0.000000,0.000000,0.000000,0.000000,1648626932.131745,0.000000
24.000000,-20128.707007,-3222.830978,28299.677765,38908.150960,-21677.302918,70156.292040,25288.964842,-5308.494605,-0.126000,0.968000,-0.110000,192.000000,0.000000,0.000000,0.000000,0.000000,0.000000,0.000000,0.000000,0.000000,0.000000,1648626932.131749,0.000000
25.000000,-20133.356170,-3226.273146,28291.564082,38898.942041,-21674.419543,70146.390217,25305.393375,-5311.869718,-0.126000,0.968000,-0.110000,192.000000,0.000000,0.000000,0.000000,0.000000,0.000000,0.000000,0.000000,0.000000,0.000000,1648626932.138812,0.000000
26.000000,-20129.556373,-3226.519016,28287.563120,38896.639812,-21674.844226,70145.965534,25319.698491,-5317.032971,-0.126000,0.968000,-0.110000,192.000000,0.000000,0.000000,0.000000,0.000000,0.000000,0.000000,0.000000,0.000000,0.000000,1648626932.138816,0.000000
27.000000,-20132.104472,-3207.765902,28288.971280,38895.477521,-21679.649851,70150.972325,25319.810250,-5314.909555,-0.126000,0.968000,-0.110000,192.000000,0.000000,0.000000,0.000000,0.000000,0.000000,0.000000,0.000000,0.000000,0.000000,1648626932.146384,0.000000
28.000000,-20134.674923,-3188.163422,28295.095658,38898.718524,-21680.946252,70158.013124,25297.704375,-5310.349799,-0.128000,0.968000,-0.110000,192.000000,252.000000,0.000000,30.000000,64.000000,252.000000,144.000000,0.000000,0.000000,0.000000,1648626932.146388,0.000000
29.000000,-20128.528193,-3211.744513,28295.073306,38898.405599,-21675.380668,70154.995639,25292.228197,-5305.275953,-0.128000,0.968000,-0.110000,192.000000,0.000000,0.000000,0.000000,0.000000,0.000000,0.000000,0.000000,0.000000,0.000000,1648626932.153585,0.000000
30.000000,-20129.846946,-3220.864024,28310.719527,38904.731143,-21671.513816,70154.839177,25306.957997,-5301.990247,-0.128000,0.968000,-0.110000,192.000000,0.000000,0.000000,0.000000,0.000000,0.000000,0.000000,0.000000,0.000000,0.000000,1648626932.161344,0.000000
31.000000,-20133.266763,-3222.160425,28307.858504,38904.462922,-21671.714982,70152.380485,25314.289369,-5305.924154,-0.128000,0.968000,-0.110000,192.000000,0.000000,0.000000,0.000000,0.000000,0.000000,0.000000,0.000000,0.000000,0.000000,1648626932.161348,0.000000
32.000000,-20121.576801,-3221.199300,28293.553387,38899.165559,-21676.833531,70148.625392,25312.188305,-5316.831805,-0.128000,0.968000,-0.110000,192.000000,0.000000,0.000000,0.000000,0.000000,0.000000,0.000000,0.000000,0.000000,0.000000,1648626932.168023,0.000000
33.000000,-20130.405740,-3213.867928,28286.423181,38898.204434,-21683.561407,70147.217232,25299.201941,-5314.820148,-0.128000,0.968000,-0.110000,192.000000,0.000000,0.000000,0.000000,0.000000,0.000000,0.000000,0.000000,0.000000,0.000000,1648626932.168028,0.000000
34.000000,-20143.637972,-3208.324696,28290.960585,38901.288974,-21682.399116,70145.205575,25293.077563,-5310.148634,-0.128000,0.968000,-0.110000,192.000000,0.000000,0.000000,0.000000,0.000000,0.000000,0.000000,0.000000,0.000000,0.000000,1648626932.175957,0.000000
35.000000,-20144.196766,-3213.823225,28296.436762,38899.992573,-21680.074534,70139.461176,25307.829715,-5314.820148,-0.128000,0.968000,-0.110000,192.000000,0.000000,0.000000,0.000000,0.000000,0.000000,0.000000,0.000000,0.000000,0.000000,1648626932.175961,0.000000
36.000000,-20132.082120,-3211.520995,28301.398850,38899.031448,-21675.134799,70143.663304,25319.989064,-5310.975648,-0.128000,0.968000,-0.110000,192.000000,0.000000,0.000000,0.000000,0.000000,0.000000,0.000000,0.000000,0.000000,0.000000,1648626932.184016,0.000000
37.000000,-20128.662304,-3224.060324,28299.186027,38888.436721,-21682.086191,70140.243487,25320.346692,-5314.618983,-0.128000,0.968000,-0.110000,192.000000,0.000000,0.000000,0.000000,0.000000,0.000000,0.000000,0.000000,0.000000,0.000000,1648626932.184020,0.000000
38.000000,-20142.050998,-3227.346030,28307.076193,38902.630079,-21692.591511,70147.105473,25296.363270,-5313.210823,-0.130000,0.968000,-0.106000,192.000000,251.000000,240.000000,30.000000,64.000000,252.000000,176.000000,0.000000,0.000000,0.000000,1648626932.191117,0.000000
39.000000,-20134.585516,-3218.740609,28302.538789,38920.243254,-21680.342755,70157.007296,25277.677211,-5301.833785,-0.130000,0.968000,-0.106000,192.000000,0.000000,0.000000,0.000000,0.000000,0.000000,0.000000,0.000000,0.000000,0.000000,1648626932.191121,0.000000
40.000000,-20128.997580,-3223.076847,28301.309443,38904.015887,-21673.413715,70153.252203,25289.568340,-5307.891108,-0.130000,0.968000,-0.106000,192.000000,0.000000,0.000000,0.000000,0.000000,0.000000,0.000000,0.000000,0.000000,0.000000,1648626932.198561,0.000000
41.000000,-20123.431995,-3217.555966,28307.344414,38902.898300,-21666.283508,70163.109322,25309.394337,-5300.872660,-0.130000,0.968000,-0.106000,192.000000,0.000000,0.000000,0.000000,0.000000,0.000000,0.000000,0.000000,0.000000,0.000000,1648626932.198565,0.000000
42.000000,-20126.114205,-3211.655106,28292.592262,38907.793332,-21667.244633,70170.597156,25300.565398,-5291.037892,-0.130000,0.968000,-0.106000,192.000000,0.000000,0.000000,0.000000,0.000000,0.000000,0.000000,0.000000,0.000000,0.000000,1648626932.206661,0.000000
43.000000,-20132.484452,-3218.047704,28278.823588,38898.159730,-21678.085229,70161.187072,25300.855970,-5302.169061,-0.130000,0.968000,-0.106000,192.000000,0.000000,0.000000,0.000000,0.000000,0.000000,0.000000,0.000000,0.000000,0.000000,1648626932.206665,0.000000
44.000000,-20123.744920,-3198.109948,28293.486332,38903.613556,-21672.027906,70172.184130,25299.671328,-5294.815337,-0.130000,0.968000,-0.106000,192.000000,0.000000,0.000000,0.000000,0.000000,0.000000,0.000000,0.000000,0.000000,0.000000,1648626932.213583,0.000000
45.000000,-20131.791548,-3215.387847,28300.974167,38895.231652,-21672.966680,70161.544700,25306.488610,-5299.777424,-0.130000,0.968000,-0.106000,192.000000,0.000000,0.000000,0.000000,0.000000,0.000000,0.000000,0.000000,0.000000,0.000000,1648626932.213586,0.000000
46.000000,-20131.500975,-3221.691039,28299.364841,38897.600937,-21671.938499,70153.922755,25313.931741,-5304.448939,-0.130000,0.968000,-0.106000,192.000000,0.000000,0.000000,0.000000,0.000000,0.000000,0.000000,0.000000,0.000000,0.000000,1648626932.220866,0.000000
47.000000,-20141.291039,-3212.996210,28303.879893,38903.501797,-21670.999726,70157.834310,25313.194133,-5300.850308,-0.130000,0.968000,-0.106000,192.000000,0.000000,0.000000,0.000000,0.000000,0.000000,0.000000,0.000000,0.000000,0.000000,1648626932.228333,0.000000
48.000000,-20140.978115,-3218.852367,28307.836152,38912.286033,-21673.860749,70163.154025,25296.005642,-5293.876564,-0.130000,0.970000,-0.108000,192.000000,251.000000,240.000000,30.000000,80.000000,252.000000,160.000000,0.000000,0.000000,0.000000,1648626932.228336,0.000000
49.000000,-20139.972286,-3227.346030,28304.148114,38909.827341,-21673.458418,70157.946069,25298.263168,-5301.252639,-0.130000,0.970000,-0.108000,192.000000,0.000000,0.000000,0.000000,0.000000,0.000000,0.000000,0.000000,0.000000,0.000000,1648626932.236304,0.000000
50.000000,-20161.027629,-3239.348917,28286.579643,38892.147111,-21679.873369,70140.019970,25317.128040,-5317.412951,-0.130000,0.970000,-0.108000,192.000000,0.000000,0.000000,0.000000,0.000000,0.000000,0.000000,0.000000,0.000000,0.000000,1648626932.236309,0.000000
51.000000,-20146.342533,-3235.772638,28286.736105,38889.084922,-21681.281529,70142.411607,25313.931741,-5308.673419,-0.130000,0.970000,-0.108000,192.000000,0.000000,0.000000,0.000000,0.000000,0.000000,0.000000,0.000000,0.000000,0.000000,1648626932.244204,0.000000
52.000000,-20131.858603,-3226.384905,28282.645736,38894.069361,-21681.013308,70148.759502,25300.632453,-5310.372151,-0.130000,0.970000,-0.108000,192.000000,0.000000,0.000000,0.000000,0.000000,0.000000,0.000000,0.000000,0.000000,0.000000,1648626932.244208,0.000000
53.000000,-20140.531080,-3209.866966,28280.164692,38894.516396,-21686.131857,70149.653572,25302.331186,-5322.531500,-0.130000,0.970000,-0.108000,192.000000,0.000000,0.000000,0.000000,0.000000,0.000000,0.000000,0.000000,0.000000,0.000000,1648626932.250984,0.000000
54.000000,-20136.999504,-3204.144919,28300.661242,38896.192777,-21677.794656,70161.321182,25299.470162,-5308.181680,-0.130000,0.970000,-0.108000,192.000000,0.000000,0.000000,0.000000,0.000000,0.000000,0.000000,0.000000,0.000000,0.000000,1648626932.250988,0.000000
55.000000,-20148.890632,-3227.010754,28296.392059,38893.778788,-21666.797598,70164.629241,25307.695604,-5300.425625,-0.130000,0.970000,-0.108000,192.000000,0.000000,0.000000,0.000000,0.000000,0.000000,0.000000,0.000000,0.000000,0.000000,1648626932.258991,0.000000
56.000000,-20152.377504,-3233.828036,28298.291957,38895.522224,-21666.596433,70162.304659,25313.998796,-5298.056340,-0.130000,0.970000,-0.108000,192.000000,0.000000,0.000000,0.000000,0.000000,0.000000,0.000000,0.000000,0.000000,0.000000,1648626932.258995,0.000000
57.000000,-20161.206443,-3242.969900,28292.793428,38892.303573,-21676.475904,70159.063656,25314.535238,-5305.119491,-0.130000,0.970000,-0.108000,192.000000,0.000000,0.000000,0.000000,0.000000,0.000000,0.000000,0.000000,0.000000,0.000000,1648626932.267241,0.000000
58.000000,-20153.405685,-3251.083583,28287.227844,38890.090750,-21684.500180,70162.416418,25300.096011,-5310.930945,-0.128000,0.972000,-0.106000,192.000000,252.000000,0.000000,30.000000,96.000000,252.000000,176.000000,0.000000,0.000000,0.000000,1648626932.267245,0.000000
59.000000,-20142.676847,-3244.847446,28293.799257,38896.081018,-21675.626537,70170.172473,25295.312738,-5305.320657,-0.128000,0.972000,-0.106000,192.000000,0.000000,0.000000,0.000000,0.000000,0.000000,0.000000,0.000000,0.000000,0.000000,1648626932.273627,0.000000
60.000000,-20143.414455,-3237.896054,28300.795353,38900.640774,-21665.277680,70172.206482,25304.521657,-5291.239058,-0.128000,0.972000,-0.106000,192.000000,0.000000,0.000000,0.000000,0.000000,0.000000,0.000000,0.000000,0.000000,0.000000,1648626932.273631,0.000000
61.000000,-20150.969344,-3246.523827,28286.847864,38894.874024,-21672.921976,70157.633145,25318.737366,-5302.325523,-0.128000,0.972000,-0.106000,192.000000,0.000000,0.000000,0.000000,0.000000,0.000000,0.000000,0.000000,0.000000,0.000000,1648626932.282045,0.000000
62.000000,-20137.603001,-3232.084600,28291.653489,38907.592166,-21674.643061,70162.975211,25311.696567,-5300.313866,-0.128000,0.972000,-0.106000,192.000000,0.000000,0.000000,0.000000,0.000000,0.000000,0.000000,0.000000,0.000000,0.000000,1648626932.288473,0.000000
63.000000,-20126.382426,-3211.096312,28295.185065,38906.318117,-21674.128970,70165.947994,25297.592616,-5299.039817,-0.128000,0.972000,-0.106000,192.000000,0.000000,0.000000,0.000000,0.000000,0.000000,0.000000,0.000000,0.000000,0.000000,1648626932.288478,0.000000
64.000000,-20142.252164,-3231.592862,28285.909091,38891.342448,-21679.538093,70152.715761,25304.678119,-5312.696733,-0.128000,0.972000,-0.106000,192.000000,0.000000,0.000000,0.000000,0.000000,0.000000,0.000000,0.000000,0.000000,0.000000,1648626932.296567,0.000000
65.000000,-20143.749731,-3243.483990,28291.698193,38896.528053,-21672.743162,70157.811959,25306.510962,-5313.255526,-0.128000,0.972000,-0.106000,192.000000,0.000000,0.000000,0.000000,0.000000,0.000000,0.000000,0.000000,0.000000,0.000000,1648626932.296572,0.000000
66.000000,-20146.834272,-3238.588958,28310.943045,38905.625213,-21663.243671,70164.271613,25316.166915,-5286.276971,-0.128000,0.972000,-0.106000,192.000000,0.000000,0.000000,0.000000,0.000000,0.000000,0.000000,0.000000,0.000000,0.000000,1648626932.303329,0.000000
67.000000,-20143.302696,-3232.084600,28310.004271,38900.685477,-21674.285433,70163.332839,25309.796668,-5302.370227,-0.128000,0.972000,-0.106000,192.000000,0.000000,0.000000,0.000000,0.000000,0.000000,0.000000,0.000000,0.000000,0.000000,1648626932.303333,0.000000
68.000000,-20136.239545,-3208.011771,28306.807972,38908.486236,-21669.591566,70179.627261,25291.579997,-5281.270180,-0.132000,0.974000,-0.102000,192.000000,251.000000,224.000000,30.000000,112.000000,252.000000,208.000000,0.000000,0.000000,0.000000,1648626932.311215,0.000000
69.000000,-20147.527176,-3214.180853,28306.830324,38903.412390,-21662.953098,70182.443581,25294.150447,-5271.636578,-0.132000,0.974000,-0.102000,192.000000,0.000000,0.000000,0.000000,0.000000,0.000000,0.000000,0.000000,0.000000,0.000000,1648626932.311218,0.000000
70.000000,-20146.543699,-3225.177911,28307.880856,38902.652431,-21657.991011,70178.420267,25311.651863,-5281.292532,-0.132000,0.974000,-0.102000,192.000000,0.000000,0.000000,0.000000,0.000000,0.000000,0.000000,0.000000,0.000000,0.000000,1648626932.319184,0.000000
71.000000,-20150.119978,-3247.954339,28293.463980,38891.945945,-21670.038601,70164.472778,25332.237820,-5293.273067,-0.132000,0.974000,-0.102000,192.000000,0.000000,0.000000,0.000000,0.000000,0.000000,0.000000,0.000000,0.000000,0.000000,1648626932.319188,0.000000
72.000000,-20143.861490,-3247.082621,28294.201588,38898.629117,-21673.234901,70170.306584,25322.000721,-5299.397445,-0.132000,0.974000,-0.102000,192.000000,0.000000,0.000000,0.000000,0.000000,0.000000,0.000000,0.000000,0.000000,0.000000,1648626932.326339,0.000000
73.000000,-20143.123882,-3228.977708,28299.253082,38913.962414,-21668.429276,70178.688488,25302.487648,-5294.547116,-0.132000,0.974000,-0.102000,192.000000,0.000000,0.000000,0.000000,0.000000,0.000000,0.000000,0.000000,0.000000,0.000000,1648626932.326343,0.000000
74.000000,-20139.525251,-3231.838731,28307.322062,38915.504684,-21659.153302,70172.653517,25311.227180,-5294.904744,-0.132000,0.974000,-0.102000,192.000000,0.000000,0.000000,0.000000,0.000000,0.000000,0.000000,0.000000,0.000000,0.000000,1648626932.333808,0.000000
75.000000,-20149.427074,-3244.959205,28302.292919,38907.547463,-21662.595470,70165.568014,25310.981311,-5287.998055,-0.132000,0.974000,-0.102000,192.000000,0.000000,0.000000,0.000000,0.000000,0.000000,0.000000,0.000000,0.000000,0.000000,1648626932.333812,0.000000
76.000000,-20159.641821,-3250.882417,28288.345431,38893.108236,-21673.212549,70153.229851,25312.881209,-5302.839613,-0.132000,0.974000,-0.102000,192.000000,0.000000,0.000000,0.000000,0.000000,0.000000,0.000000,0.000000,0.000000,0.000000,1648626932.340771,0.000000
77.000000,-20151.818711,-3238.343088,28288.881873,38893.935251,-21675.604186,70160.807092,25311.070718,-5300.403273,-0.132000,0.974000,-0.102000,192.000000,0.000000,0.000000,0.000000,0.000000,0.000000,0.000000,0.000000,0.000000,0.000000,1648626932.349028,0.000000
78.000000,-20161.184092,-3233.872740,28284.769152,38895.745742,-21678.152284,70163.846930,25293.099915,-5299.062168,-0.132000,0.980000,-0.106000,192.000000,251.000000,224.000000,30.000000,160.000000,252.000000,176.000000,0.000000,0.000000,0.000000,1648626932.349032,0.000000
79.000000,-20171.264728,-3246.479123,28284.545634,38890.850710,-21680.946252,70152.156967,25298.196113,-5299.509203,-0.132000,0.980000,-0.106000,192.000000,0.000000,0.000000,0.000000,0.000000,0.000000,0.000000,0.000000,0.000000,0.000000,1648626932.356023,0.000000
80.000000,-20148.220080,-3239.706545,28287.563120,38897.690344,-21672.832569,70159.868319,25302.197075,-5294.882392,-0.132000,0.980000,-0.106000,192.000000,0.000000,0.000000,0.000000,0.000000,0.000000,0.000000,0.000000,0.000000,0.000000,1648626932.356026,0.000000
81.000000,-20132.819728,-3224.328545,28301.354146,38906.452227,-21664.785941,70168.764313,25303.247607,-5284.891163,-0.132000,0.980000,-0.106000,192.000000,0.000000,0.000000,0.000000,0.000000,0.000000,0.000000,0.000000,0.000000,0.000000,1648626932.363560,0.000000
82.000000,-20125.443652,-3221.691039,28304.081059,38907.458056,-21669.524511,70169.077238,25301.303005,-5279.191468,-0.132000,0.980000,-0.106000,192.000000,0.000000,0.000000,0.000000,0.000000,0.000000,0.000000,0.000000,0.000000,0.000000,1648626932.363564,0.000000
83.000000,-20137.290077,-3222.853330,28302.807010,38909.268547,-21673.011383,70172.027668,25284.092162,-5277.157459,-0.132000,0.980000,-0.106000,192.000000,0.000000,0.000000,0.000000,0.000000,0.000000,0.000000,0.000000,0.000000,0.000000,1648626932.371435,0.000000
84.000000,-20149.248260,-3239.617138,28298.716640,38900.551367,-21672.743162,70163.623412,25288.003717,-5281.359587,-0.132000,0.980000,-0.106000,192.000000,0.000000,0.000000,0.000000,0.000000,0.000000,0.000000,0.000000,0.000000,0.000000,1648626932.371438,0.000000
85.000000,-20139.324086,-3234.833865,28301.175332,38903.300631,-21665.545901,70164.115150,25299.626625,-5281.091366,-0.132000,0.980000,-0.106000,192.000000,0.000000,0.000000,0.000000,0.000000,0.000000,0.000000,0.000000,0.000000,0.000000,1648626932.381450,0.000000
86.000000,-20148.465949,-3232.933966,28293.016945,38888.034390,-21673.637232,70148.558336,25311.473049,-5294.144785,-0.132000,0.980000,-0.106000,192.000000,0.000000,0.000000,0.000000,0.000000,0.000000,0.000000,0.000000,0.000000,0.000000,1648626932.381466,0.000000
87.000000,-20148.465949,-3228.061286,28286.132608,38886.425064,-21689.439915,70143.216269,25307.516790,-5298.950410,-0.132000,0.980000,-0.106000,192.000000,0.000000,0.000000,0.000000,0.000000,0.000000,0.000000,0.000000,0.000000,0.000000,1648626932.387258,0.000000
88.000000,-20142.587440,-3225.043800,28277.951870,38895.164596,-21690.892779,70149.608868,25285.857950,-5293.362474,-0.132000,0.980000,-0.106000,192.000000,0.000000,0.000000,0.000000,0.000000,0.000000,0.000000,0.000000,0.000000,0.000000,1648626932.387273,0.000000
89.000000,-20144.934373,-3231.928138,28283.942137,38901.758361,-21682.510875,70157.968421,25288.383697,-5289.696788,-0.132000,0.972000,-0.100000,192.000000,251.000000,224.000000,30.000000,96.000000,252.000000,224.000000,0.000000,0.000000,0.000000,1648626932.394449,0.000000
90.000000,-20163.888653,-3249.295443,28286.445533,38893.711733,-21679.448686,70157.566089,25307.449735,-5284.801756,-0.132000,0.972000,-0.100000,192.000000,0.000000,0.000000,0.000000,0.000000,0.000000,0.000000,0.000000,0.000000,0.000000,1648626932.394464,0.000000
91.000000,-20163.754542,-3246.300309,28292.681669,38903.457094,-21680.275700,70167.758485,25306.265093,-5278.297398,-0.132000,0.972000,-0.100000,192.000000,0.000000,0.000000,0.000000,0.000000,0.000000,0.000000,0.000000,0.000000,0.000000,1648626932.401650,0.000000
92.000000,-20145.381408,-3225.513187,28295.945024,38903.166521,-21682.354412,70173.055848,25282.460485,-5278.386805,-0.132000,0.972000,-0.100000,192.000000,0.000000,0.000000,0.000000,0.000000,0.000000,0.000000,0.000000,0.000000,0.000000,1648626932.408696,0.000000
93.000000,-20145.962554,-3229.625908,28289.373611,38888.950811,-21691.339814,70163.221081,25275.710258,-5284.198258,-0.132000,0.972000,-0.100000,192.000000,0.000000,0.000000,0.000000,0.000000,0.000000,0.000000,0.000000,0.000000,0.000000,1648626932.408711,0.000000
94.000000,-20157.965441,-3242.545216,28284.076248,38897.556233,-21684.790753,70164.942165,25290.842389,-5281.270180,-0.132000,0.972000,-0.100000,192.000000,0.000000,0.000000,0.000000,0.000000,0.000000,0.000000,0.000000,0.000000,0.000000,1648626932.416195,0.000000
95.000000,-20169.029554,-3257.207961,28280.388210,38890.560137,-21688.143514,70157.499034,25303.672290,-5286.947523,-0.132000,0.972000,-0.100000,192.000000,0.000000,0.000000,0.000000,0.000000,0.000000,0.000000,0.000000,0.000000,0.000000,1648626932.416212,0.000000
96.000000,-20166.548510,-3256.291539,28274.800274,38887.676762,-21692.412697,70160.516520,25306.399203,-5283.639465,-0.132000,0.972000,-0.100000,192.000000,0.000000,0.000000,0.000000,0.000000,0.000000,0.000000,0.000000,0.000000,0.000000,1648626932.424135,0.000000
97.000000,-20157.384295,-3239.013641,28278.220091,38894.650506,-21694.178485,70168.138464,25292.854046,-5271.010729,-0.132000,0.972000,-0.100000,192.000000,0.000000,0.000000,0.000000,0.000000,0.000000,0.000000,0.000000,0.000000,0.000000,1648626932.424151,0.000000
98.000000,-20146.677810,-3222.786274,28285.283242,38896.908033,-21695.094907,70167.691430,25283.309851,-5279.638503,-0.132000,0.972000,-0.100000,192.000000,0.000000,0.000000,0.000000,0.000000,0.000000,0.000000,0.000000,0.000000,0.000000,1648626932.432248,0.000000
99.000000,-20131.679789,-3220.975783,28291.564082,38900.171387,-21691.742145,70168.071409,25274.995002,-5277.068052,-0.136000,0.972000,-0.100000,192.000000,251.000000,192.000000,30.000000,96.000000,252.000000,224.000000,0.000000,0.000000,0.000000,1648626932.432264,0.000000
100.000000,-20143.861490,-3234.342126,28278.354201,38889.487253,-21695.139610,70154.325086,25284.270976,-5275.391671,-0.136000,0.972000,-0.100000,192.000000,0.000000,0.000000,0.000000,0.000000,0.000000,0.000000,0.000000,0.000000,0.000000,1648626932.438687,0.000000
101.000000,-20146.007257,-3223.725048,28269.569966,38883.273468,-21699.788773,70148.960668,25293.949281,-5280.398462,-0.136000,0.972000,-0.100000,192.000000,0.000000,0.000000,0.000000,0.000000,0.000000,0.000000,0.000000,0.000000,0.000000,1648626932.438704,0.000000
102.000000,-20135.390179,-3226.407257,28285.640870,38886.022733,-21696.078383,70153.542775,25280.717049,-5285.785232,-0.136000,0.972000,-0.100000,192.000000,0.000000,0.000000,0.000000,0.000000,0.000000,0.000000,0.000000,0.000000,0.000000,1648626932.446686,0.000000
103.000000,-20119.878068,-3227.748362,28285.327945,38899.053800,-21689.685785,70165.635069,25266.188415,-5277.403328,-0.136000,0.972000,-0.100000,192.000000,0.000000,0.000000,0.000000,0.000000,0.000000,0.000000,0.000000,0.000000,0.000000,1648626932.446702,0.000000
104.000000,-20135.546641,-3227.860120,28289.172445,38902.115989,-21676.766476,70162.416418,25274.749133,-5277.626846,-0.136000,0.972000,-0.100000,192.000000,0.000000,0.000000,0.000000,0.000000,0.000000,0.000000,0.000000,0.000000,0.000000,1648626932.454891,0.000000
105.000000,-20163.821598,-3237.001984,28287.004326,38893.376457,-21681.125066,70143.596249,25296.385622,-5297.676360,-0.136000,0.972000,-0.100000,192.000000,0.000000,0.000000,0.000000,0.000000,0.000000,0.000000,0.000000,0.000000,0.000000,1648626932.454906,0.000000
106.000000,-20163.598080,-3221.780446,28284.389172,38901.914823,-21686.713003,70147.306639,25286.819075,-5286.724006,-0.136000,0.972000,-0.100000,192.000000,0.000000,0.000000,0.000000,0.000000,0.000000,0.000000,0.000000,0.000000,0.000000,1648626932.461925,0.000000
107.000000,-20146.409589,-3214.650239,28287.540768,38917.538693,-21682.667337,70160.650630,25268.937679,-5273.581180,-0.136000,0.972000,-0.100000,192.000000,0.000000,0.000000,0.000000,0.000000,0.000000,0.000000,0.000000,0.000000,0.000000,1648626932.461942,0.000000
108.000000,-20138.899402,-3220.193472,28286.669050,38905.625213,-21681.773267,70159.108360,25266.858967,-5280.465517,-0.136000,0.972000,-0.100000,192.000000,0.000000,0.000000,0.000000,0.000000,0.000000,0.000000,0.000000,0.000000,0.000000,1648626932.468051,0.000000
109.000000,-20138.944106,-3240.421801,28290.290033,38892.683553,-21678.554616,70156.023819,25273.788008,-5281.739567,-0.134000,0.974000,-0.098000,192.000000,251.000000,208.000000,30.000000,112.000000,252.000000,240.000000,0.000000,0.000000,0.000000,1648626932.475999,0.000000
110.000000,-20142.699199,-3251.932949,28298.895454,38892.549442,-21676.989994,70150.972325,25292.407011,-5282.276008,-0.134000,0.974000,-0.098000,192.000000,0.000000,0.000000,0.000000,0.000000,0.000000,0.000000,0.000000,0.000000,0.000000,1648626932.476005,0.000000
111.000000,-20145.448464,-3249.541312,28292.547559,38890.314268,-21680.208645,70151.821691,25292.429363,-5282.544229,-0.134000,0.974000,-0.098000,192.000000,0.000000,0.000000,0.000000,0.000000,0.000000,0.000000,0.000000,0.000000,0.000000,1648626932.484105,0.000000
112.000000,-20166.213234,-3256.179781,28277.504835,38875.584468,-21696.011328,70140.221136,25287.042592,-5305.231250,-0.134000,0.974000,-0.098000,192.000000,0.000000,0.000000,0.000000,0.000000,0.000000,0.000000,0.000000,0.000000,0.000000,1648626932.484109,0.000000
113.000000,-20140.709894,-3227.480141,28295.743858,38899.545538,-21681.795619,70163.086970,25268.960031,-5285.025273,-0.134000,0.974000,-0.098000,192.000000,0.000000,0.000000,0.000000,0.000000,0.000000,0.000000,0.000000,0.000000,0.000000,1648626932.491223,0.000000
114.000000,-20136.150138,-3221.199300,28302.985824,38902.697134,-21671.469113,70166.886767,25276.090238,-5276.039872,-0.134000,0.974000,-0.098000,192.000000,0.000000,0.000000,0.000000,0.000000,0.000000,0.000000,0.000000,0.000000,0.000000,1648626932.491230,0.000000
115.000000,-20136.664228,-3217.332449,28303.790486,38890.560137,-21673.056087,70164.986868,25296.430325,-5275.592837,-0.134000,0.974000,-0.098000,192.000000,0.000000,0.000000,0.000000,0.000000,0.000000,0.000000,0.000000,0.000000,0.000000,1648626932.499001,0.000000
116.000000,-20141.805129,-3228.530673,28298.180198,38890.157806,-21679.336927,70159.354229,25301.906502,-5276.039872,-0.134000,0.974000,-0.098000,192.000000,0.000000,0.000000,0.000000,0.000000,0.000000,0.000000,0.000000,0.000000,0.000000,1648626932.499017,0.000000
117.000000,-20147.840100,-3228.374210,28286.669050,38901.825416,-21682.086191,70159.376581,25293.569302,-5281.918380,-0.134000,0.974000,-0.098000,192.000000,0.000000,0.000000,0.000000,0.000000,0.000000,0.000000,0.000000,0.000000,0.000000,1648626932.507079,0.000000
118.000000,-20154.031533,-3235.794990,28287.205492,38899.389076,-21681.437991,70152.246374,25283.376906,-5297.162270,-0.134000,0.974000,-0.098000,192.000000,0.000000,0.000000,0.000000,0.000000,0.000000,0.000000,0.000000,0.000000,0.000000,1648626932.507095,0.000000
119.000000,-20153.048057,-3250.748307,28286.646698,38900.618422,-21679.515741,70152.134615,25288.786028,-5292.356645,-0.132000,0.974000,-0.098000,192.000000,251.000000,224.000000,30.000000,112.000000,252.000000,240.000000,0.000000,0.000000,0.000000,1648626932.514201,0.000000
120.000000,-20127.343551,-3239.147751,28297.353184,38905.222881,-21668.406924,70153.945107,25300.520694,-5292.714273,-0.132000,0.974000,-0.098000,192.000000,0.000000,0.000000,0.000000,0.000000,0.000000,0.000000,0.000000,0.000000,0.000000,1648626932.514217,0.000000
121.000000,-20125.890687,-3223.210957,28297.397887,38901.266623,-21672.564348,70154.816825,25289.858912,-5293.809509,-0.132000,0.974000,-0.098000,192.000000,0.000000,0.000000,0.000000,0.000000,0.000000,0.000000,0.000000,0.000000,0.000000,1648626932.521714,0.000000
122.000000,-20131.925658,-3211.476292,28295.341527,38900.663126,-21676.744125,70154.481549,25275.419685,-5285.449956,-0.132000,0.974000,-0.098000,192.000000,0.000000,0.000000,0.000000,0.000000,0.000000,0.000000,0.000000,0.000000,0.000000,1648626932.521731,0.000000
123.000000,-20128.997580,-3202.356780,28297.822571,38902.428913,-21673.793694,70155.934412,25273.922118,-5276.933941,-0.132000,0.974000,-0.098000,192.000000,0.000000,0.000000,0.000000,0.000000,0.000000,0.000000,0.000000,0.000000,0.000000,1648626932.530034,0.000000
124.000000,-20129.981056,-3213.711466,28299.253082,38895.544576,-21676.408848,70152.201671,25283.019278,-5281.627808,-0.132000,0.974000,-0.098000,192.000000,0.000000,0.000000,0.000000,0.000000,0.000000,0.000000,0.000000,0.000000,0.000000,1648626932.537973,0.000000
125.000000,-20142.878013,-3240.555911,28291.407620,38897.131550,-21675.403020,70151.374656,25297.324395,-5282.320712,-0.132000,0.974000,-0.098000,192.000000,0.000000,0.000000,0.000000,0.000000,0.000000,0.000000,0.000000,0.000000,0.000000,1648626932.537989,0.000000
126.000000,-20160.804112,-3256.939740,28283.383344,38898.584413,-21687.763535,70146.591383,25300.118363,-5289.316808,-0.132000,0.974000,-0.098000,192.000000,0.000000,0.000000,0.000000,0.000000,0.000000,0.000000,0.000000,0.000000,0.000000,1648626932.544263,0.000000
127.000000,-20154.657382,-3242.656975,28290.088867,38901.624251,-21689.998709,70160.516520,25287.891959,-5285.561715,-0.132000,0.974000,-0.098000,192.000000,0.000000,0.000000,0.000000,0.000000,0.000000,0.000000,0.000000,0.000000,0.000000,1648626932.544279,0.000000
128.000000,-20148.980039,-3235.012679,28301.912940,38909.670879,-21679.225168,70173.547587,25279.085371,-5274.765822,-0.132000,0.974000,-0.098000,192.000000,0.000000,0.000000,0.000000,0.000000,0.000000,0.000000,0.000000,0.000000,0.000000,1648626932.551256,0.000000
129.000000,-20145.113187,-3248.803705,28304.706908,38906.698097,-21675.179502,70168.540796,25295.022165,-5273.402366,-0.136000,0.972000,-0.100000,192.000000,251.000000,192.000000,30.000000,96.000000,252.000000,224.000000,0.000000,0.000000,0.000000,1648626932.551272,0.000000
130.000000,-20126.114205,-3239.639490,28304.304576,38914.185931,-21666.976412,70170.843026,25303.471125,-5270.161363,-0.136000,0.972000,-0.100000,192.000000,0.000000,0.000000,0.000000,0.000000,0.000000,0.000000,0.000000,0.000000,0.000000,1648626932.559435,0.000000
131.000000,-20127.477661,-3232.688097,28305.668033,38911.101390,-21665.858825,70172.698220,25297.883188,-5267.859133,-0.136000,0.972000,-0.100000,192.000000,0.000000,0.000000,0.000000,0.000000,0.000000,0.000000,0.000000,0.000000,0.000000,1648626932.559451,0.000000
132.000000,-20132.149176,-3234.498588,28293.531036,38900.216091,-21675.537130,70164.361020,25290.060078,-5275.056395,-0.136000,0.972000,-0.100000,192.000000,0.000000,0.000000,0.000000,0.000000,0.000000,0.000000,0.000000,0.000000,0.000000,1648626932.567316,0.000000
133.000000,-20126.941219,-3219.321754,28300.281262,38905.468751,-21669.211587,70171.781799,25284.226273,-5274.721119,-0.136000,0.972000,-0.100000,192.000000,0.000000,0.000000,0.000000,0.000000,0.000000,0.000000,0.000000,0.000000,0.000000,1648626932.567332,0.000000
134.000000,-20133.646743,-3222.987440,28301.287091,38902.048934,-21664.741238,70164.875110,25302.510000,-5278.386805,-0.136000,0.972000,-0.100000,192.000000,0.000000,0.000000,0.000000,0.000000,0.000000,0.000000,0.000000,0.000000,0.000000,1648626932.573754,0.000000
135.000000,-20141.648667,-3220.573452,28295.453286,38886.179195,-21671.513816,70158.504863,25313.082375,-5283.438299,-0.136000,0.972000,-0.100000,192.000000,0.000000,0.000000,0.000000,0.000000,0.000000,0.000000,0.000000,0.000000,0.000000,1648626932.573765,0.000000
136.000000,-20147.124844,-3223.814455,28301.354146,38884.256945,-21682.332061,70156.157929,25289.590691,-5293.943619,-0.136000,0.972000,-0.100000,192.000000,0.000000,0.000000,0.000000,0.000000,0.000000,0.000000,0.000000,0.000000,0.000000,1648626932.581744,0.000000
137.000000,-20141.022818,-3232.218710,28295.945024,38900.730181,-21681.505046,70164.763351,25264.310868,-5293.317770,-0.136000,0.972000,-0.100000,192.000000,0.000000,0.000000,0.000000,0.000000,0.000000,0.000000,0.000000,0.000000,0.000000,1648626932.581762,0.000000
138.000000,-20121.062710,-3229.312984,28300.236559,38915.616443,-21668.518683,70175.782761,25267.663630,-5274.385843,-0.136000,0.972000,-0.100000,192.000000,0.000000,0.000000,0.000000,0.000000,0.000000,0.000000,0.000000,0.000000,0.000000,1648626932.588753,0.000000
139.000000,-20130.271629,-3223.009792,28306.182123,38912.464847,-21661.790807,70173.100552,25282.281671,-5277.604494,-0.136000,0.972000,-0.102000,192.000000,251.000000,192.000000,30.000000,96.000000,252.000000,208.000000,0.000000,0.000000,0.000000,1648626932.596628,0.000000
140.000000,-20145.493167,-3230.296460,28293.687498,38899.769056,-21671.782037,70162.438770,25298.330223,-5281.717215,-0.136000,0.972000,-0.102000,192.000000,0.000000,0.000000,0.000000,0.000000,0.000000,0.000000,0.000000,0.000000,0.000000,1648626932.596636,0.000000
141.000000,-20148.510653,-3231.346992,28286.110256,38898.249137,-21682.019136,70160.069485,25287.377869,-5281.583104,-0.136000,0.972000,-0.102000,192.000000,0.000000,0.000000,0.000000,0.000000,0.000000,0.000000,0.000000,0.000000,0.000000,1648626932.603357,0.000000
142.000000,-20140.016990,-3229.983536,28272.565099,38907.413352,-21684.589587,70165.992697,25273.966822,-5278.520915,-0.136000,0.972000,-0.102000,192.000000,0.000000,0.000000,0.000000,0.000000,0.000000,0.000000,0.000000,0.000000,0.000000,1648626932.603365,0.000000
143.000000,-20143.101530,-3240.220635,28267.714771,38900.283146,-21689.842247,70152.916926,25282.728706,-5283.550058,-0.136000,0.972000,-0.102000,192.000000,0.000000,0.000000,0.000000,0.000000,0.000000,0.000000,0.000000,0.000000,0.000000,1648626932.611554,0.000000
144.000000,-20138.944106,-3246.166199,28278.845939,38883.407579,-21687.919997,70151.240546,25288.182531,-5283.214782,-0.136000,0.972000,-0.102000,192.000000,0.000000,0.000000,0.000000,0.000000,0.000000,0.000000,0.000000,0.000000,0.000000,1648626932.611570,0.000000
145.000000,-20143.369751,-3253.631682,28271.715733,38867.359026,-21694.089078,70144.736188,25289.568340,-5287.193392,-0.136000,0.972000,-0.102000,192.000000,0.000000,0.000000,0.000000,0.000000,0.000000,0.000000,0.000000,0.000000,0.000000,1648626932.619558,0.000000
146.000000,-20156.222004,-3249.206036,28273.816797,38878.400788,-21695.474886,70146.904307,25281.320546,-5291.820203,-0.136000,0.972000,-0.102000,192.000000,0.000000,0.000000,0.000000,0.000000,0.000000,0.000000,0.000000,0.000000,0.000000,1648626932.619574,0.000000
147.000000,-20162.033458,-3241.807609,28280.812893,38893.734085,-21696.123087,70154.816825,25262.723894,-5280.465517,-0.136000,0.972000,-0.102000,192.000000,0.000000,0.000000,0.000000,0.000000,0.000000,0.000000,0.000000,0.000000,0.000000,1648626932.626633,0.000000
148.000000,-20160.446484,-3245.942682,28271.089884,38892.616498,-21688.612901,70159.041304,25264.959069,-5266.830953,-0.136000,0.972000,-0.102000,192.000000,0.000000,0.000000,0.000000,0.000000,0.000000,0.000000,0.000000,0.000000,0.000000,1648626932.626650,0.000000
149.000000,-20161.787589,-3243.685155,28272.922727,38884.256945,-21686.601244,70152.805168,25286.148523,-5279.772613,-0.134000,0.976000,-0.100000,192.000000,251.000000,208.000000,30.000000,128.000000,252.000000,224.000000,0.000000,0.000000,0.000000,1648626932.634059,0.000000
150.000000,-20159.954746,-3229.469446,28279.762361,38889.263736,-21683.807276,70154.034514,25288.607215,-5285.852288,-0.134000,0.976000,-0.100000,192.000000,0.000000,0.000000,0.000000,0.000000,0.000000,0.000000,0.000000,0.000000,0.000000,1648626932.634076,0.000000
151.000000,-20160.915871,-3232.352821,28279.270623,38896.684515,-21684.410773,70161.589403,25271.128150,-5283.281837,-0.134000,0.976000,-0.100000,192.000000,0.000000,0.000000,0.000000,0.000000,0.000000,0.000000,0.000000,0.000000,0.000000,1648626932.642233,0.000000
152.000000,-20157.563109,-3252.894074,28270.017000,38889.487253,-21694.044375,70156.582613,25262.813301,-5279.973779,-0.134000,0.976000,-0.100000,192.000000,0.000000,0.000000,0.000000,0.000000,0.000000,0.000000,0.000000,0.000000,0.000000,1648626932.642249,0.000000
153.000000,-20121.733263,-3239.684193,28274.934384,38903.591204,-21686.936520,70165.903290,25261.606307,-5273.134145,-0.134000,0.976000,-0.100000,192.000000,0.000000,0.000000,0.000000,0.000000,0.000000,0.000000,0.000000,0.000000,0.000000,1648626932.648992,0.000000
154.000000,-20122.157946,-3244.422763,28280.835245,38898.584413,-21677.705250,70160.181243,25276.581976,-5268.105002,-0.134000,0.976000,-0.100000,192.000000,0.000000,0.000000,0.000000,0.000000,0.000000,0.000000,0.000000,0.000000,0.000000,1648626932.655818,0.000000
155.000000,-20142.542737,-3266.662749,28264.965506,38873.058721,-21694.402003,70144.691485,25292.295252,-5289.741491,-0.134000,0.976000,-0.100000,192.000000,0.000000,0.000000,0.000000,0.000000,0.000000,0.000000,0.000000,0.000000,0.000000,1648626932.655835,0.000000
156.000000,-20137.267725,-3249.138981,28284.031544,38885.687457,-21689.439915,70161.567052,25281.097028,-5278.275046,-0.134000,0.976000,-0.100000,192.000000,0.000000,0.000000,0.000000,0.000000,0.000000,0.000000,0.000000,0.000000,0.000000,1648626932.663973,0.000000
157.000000,-20148.287135,-3250.882417,28281.192873,38888.123797,-21688.747011,70163.310488,25273.251566,-5276.084575,-0.134000,0.976000,-0.100000,192.000000,0.000000,0.000000,0.000000,0.000000,0.000000,0.000000,0.000000,0.000000,0.000000,1648626932.663990,0.000000
158.000000,-20153.785664,-3250.770658,28285.976146,38892.728256,-21682.220302,70166.752656,25282.751057,-5275.056395,-0.134000,0.976000,-0.100000,192.000000,0.000000,0.000000,0.000000,0.000000,0.000000,0.000000,0.000000,0.000000,0.000000,1648626932.671887,0.000000
159.000000,-20152.019876,-3239.572434,28291.117047,38893.734085,-21676.967642,70168.183168,25283.980403,-5277.939770,-0.134000,0.976000,-0.102000,192.000000,251.000000,208.000000,30.000000,128.000000,252.000000,208.000000,0.000000,0.000000,0.000000,1648626932.671903,0.000000
160.000000,-20157.160778,-3231.995193,28280.499969,38893.108236,-21673.212549,70166.216214,25288.316642,-5286.276971,-0.134000,0.976000,-0.102000,192.000000,0.000000,0.000000,0.000000,0.000000,0.000000,0.000000,0.000000,0.000000,0.000000,1648626932.678929,0.000000
161.000000,-20157.943089,-3239.415972,28283.964489,38890.671896,-21676.610014,70169.993659,25286.193226,-5286.142860,-0.134000,0.976000,-0.102000,192.000000,0.000000,0.000000,0.000000,0.000000,0.000000,0.000000,0.000000,0.000000,0.000000,1648626932.678940,0.000000
162.000000,-20151.304621,-3245.786219,28273.861500,38894.918727,-21687.025927,70172.742924,25268.602403,-5281.538401,-0.134000,0.976000,-0.102000,192.000000,0.000000,0.000000,0.000000,0.000000,0.000000,0.000000,0.000000,0.000000,0.000000,1648626932.686453,0.000000
163.000000,-20136.172490,-3253.452868,28274.330887,38895.343410,-21682.063840,70171.021840,25266.814264,-5283.259485,-0.134000,0.976000,-0.102000,192.000000,0.000000,0.000000,0.000000,0.000000,0.000000,0.000000,0.000000,0.000000,0.000000,1648626932.686464,0.000000
164.000000,-20139.860527,-3264.293464,28271.469864,38884.793387,-21684.678994,70158.504863,25284.360383,-5293.653046,-0.134000,0.976000,-0.102000,192.000000,0.000000,0.000000,0.000000,0.000000,0.000000,0.000000,0.000000,0.000000,0.000000,1648626932.694349,0.000000
165.000000,-20148.153025,-3256.872685,28275.761399,38886.514471,-21686.958872,70161.924680,25284.986232,-5283.706520,-0.134000,0.976000,-0.102000,192.000000,0.000000,0.000000,0.000000,0.000000,0.000000,0.000000,0.000000,0.000000,0.000000,1648626932.694365,0.000000
166.000000,-20155.015010,-3246.345013,28284.344469,38891.923594,-21685.438953,70168.518444,25269.250604,-5271.927151,-0.134000,0.976000,-0.102000,192.000000,0.000000,0.000000,0.000000,0.000000,0.000000,0.000000,0.000000,0.000000,0.000000,1648626932.702471,0.000000
167.000000,-20147.683638,-3235.884397,28271.246346,38897.019791,-21685.975395,70169.747790,25253.738493,-5282.968912,-0.134000,0.976000,-0.102000,192.000000,0.000000,0.000000,0.000000,0.000000,0.000000,0.000000,0.000000,0.000000,0.000000,1648626932.702486,0.000000
168.000000,-20136.708932,-3228.575376,28276.722524,38896.170425,-21677.861712,70168.630203,25253.626734,-5286.992226,-0.134000,0.976000,-0.102000,192.000000,0.000000,0.000000,0.000000,0.000000,0.000000,0.000000,0.000000,0.000000,0.000000,1648626932.708666,0.000000
169.000000,-20141.067522,-3234.967975,28270.665201,38890.157806,-21680.186293,70158.124883,25269.407066,-5287.729834,-0.130000,0.974000,-0.104000,192.000000,251.000000,240.000000,30.000000,112.000000,252.000000,192.000000,0.000000,0.000000,0.000000,1648626932.708682,0.000000
170.000000,-20143.548565,-3246.277958,28259.846957,38880.166576,-21689.775192,70146.300810,25282.482837,-5288.780366,-0.130000,0.974000,-0.104000,192.000000,0.000000,0.000000,0.000000,0.000000,0.000000,0.000000,0.000000,0.000000,0.000000,1648626932.716283,0.000000
171.000000,-20146.923679,-3248.624891,28259.936364,38884.614573,-21698.157096,70149.586517,25279.666517,-5293.027197,-0.130000,0.974000,-0.104000,192.000000,0.000000,0.000000,0.000000,0.000000,0.000000,0.000000,0.000000,0.000000,0.000000,1648626932.724129,0.000000
172.000000,-20142.028647,-3245.741516,28272.922727,38892.415332,-21691.742145,70162.461121,25260.555775,-5286.299322,-0.130000,0.974000,-0.104000,192.000000,0.000000,0.000000,0.000000,0.000000,0.000000,0.000000,0.000000,0.000000,0.000000,1648626932.724146,0.000000
173.000000,-20130.361036,-3257.699699,28273.414466,38898.204434,-21684.544883,70162.081142,25261.047514,-5278.722081,-0.130000,0.974000,-0.104000,192.000000,0.000000,0.000000,0.000000,0.000000,0.000000,0.000000,0.000000,0.000000,0.000000,1648626932.731990,0.000000
174.000000,-20146.119016,-3263.041766,28280.723486,38893.108236,-21678.979299,70161.634107,25276.000831,-5277.895066,-0.130000,0.974000,-0.104000,192.000000,0.000000,0.000000,0.000000,0.000000,0.000000,0.000000,0.000000,0.000000,0.000000,1648626932.732005,0.000000
175.000000,-20159.351249,-3265.366347,28274.107370,38876.635000,-21688.098811,70155.442674,25279.398296,-5275.771651,-0.130000,0.974000,-0.104000,192.000000,0.000000,0.000000,0.000000,0.000000,0.000000,0.000000,0.000000,0.000000,0.000000,1648626932.738825,0.000000
176.000000,-20148.488301,-3251.418859,28267.692419,38886.402713,-21692.189180,70159.376581,25267.060133,-5270.362529,-0.130000,0.974000,-0.104000,192.000000,0.000000,0.000000,0.000000,0.000000,0.000000,0.000000,0.000000,0.000000,0.000000,1648626932.738841,0.000000
177.000000,-20150.902289,-3241.718202,28263.602050,38896.304535,-21690.378689,70154.995639,25255.705447,-5280.018482,-0.130000,0.974000,-0.104000,192.000000,0.000000,0.000000,0.000000,0.000000,0.000000,0.000000,0.000000,0.000000,0.000000,1648626932.746661,0.000000
178.000000,-20150.902289,-3248.513132,28266.753646,38890.403675,-21684.835456,70151.508767,25263.841482,-5279.392633,-0.130000,0.974000,-0.104000,192.000000,0.000000,0.000000,0.000000,0.000000,0.000000,0.000000,0.000000,0.000000,0.000000,1648626932.746678,0.000000
179.000000,-20153.137464,-3258.102031,28266.932460,38880.457149,-21681.728564,70146.054941,25274.883243,-5281.963084,-0.134000,0.974000,-0.118000,192.000000,251.000000,208.000000,30.000000,112.000000,252.000000,80.000000,0.000000,0.000000,0.000000,1648626932.754657,0.000000
180.000000,-20154.590327,-3244.780391,28269.055875,38888.436721,-21678.353450,70152.782816,25267.373057,-5284.779404,-0.134000,0.974000,-0.118000,192.000000,0.000000,0.000000,0.000000,0.000000,0.000000,0.000000,0.000000,0.000000,0.000000,1648626932.754672,0.000000
181.000000,-20155.886728,-3242.724030,28274.643812,38887.408541,-21683.986090,70157.677848,25255.347819,-5276.576314,-0.134000,0.974000,-0.118000,192.000000,0.000000,0.000000,0.000000,0.000000,0.000000,0.000000,0.000000,0.000000,0.000000,1648626932.761442,0.000000
182.000000,-20154.702086,-3259.107859,28281.505797,38882.848785,-21685.908340,70155.085046,25249.871641,-5273.044738,-0.134000,0.974000,-0.118000,192.000000,0.000000,0.000000,0.000000,0.000000,0.000000,0.000000,0.000000,0.000000,0.000000,1648626932.761458,0.000000
183.000000,-20151.483435,-3273.301217,28276.946041,38881.060646,-21683.896683,70154.973287,25255.548984,-5280.018482,-0.134000,0.974000,-0.118000,192.000000,0.000000,0.000000,0.000000,0.000000,0.000000,0.000000,0.000000,0.000000,0.000000,1648626932.769469,0.000000
184.000000,-20155.529100,-3265.388699,28274.487349,38878.110215,-21686.958872,70152.469892,25274.413857,-5280.264351,-0.134000,0.974000,-0.118000,192.000000,0.000000,0.000000,0.000000,0.000000,0.000000,0.000000,0.000000,0.000000,0.000000,1648626932.769486,0.000000
185.000000,-20160.513539,-3263.265283,28265.010210,38870.823547,-21696.748936,70156.135578,25274.257395,-5284.153555,-0.134000,0.974000,-0.118000,192.000000,0.000000,0.000000,0.000000,0.000000,0.000000,0.000000,0.000000,0.000000,0.000000,1648626932.776461,0.000000
186.000000,-20171.421191,-3275.514039,28266.060742,38865.615590,-21696.279549,70171.200653,25266.456636,-5279.839668,-0.134000,0.974000,-0.118000,192.000000,0.000000,0.000000,0.000000,0.000000,0.000000,0.000000,0.000000,0.000000,0.000000,1648626932.784799,0.000000
187.000000,-20170.862397,-3278.755042,28266.083093,38868.767186,-21696.547770,70181.191883,25257.560641,-5281.918380,-0.134000,0.974000,-0.118000,192.000000,0.000000,0.000000,0.000000,0.000000,0.000000,0.000000,0.000000,0.000000,0.000000,1648626932.784815,0.000000
188.000000,-20153.808016,-3263.645263,28259.891660,38872.343465,-21696.637177,70180.364869,25254.856080,-5281.806622,-0.134000,0.974000,-0.118000,192.000000,0.000000,0.000000,0.000000,0.000000,0.000000,0.000000,0.000000,0.000000,0.000000,1648626932.791035,0.000000
189.000000,-20150.522310,-3267.802688,28250.392169,38871.538803,-21694.200837,70176.945052,25278.101895,-5272.150668,-0.134000,0.974000,-0.118000,192.000000,0.000000,0.000000,0.000000,0.000000,0.000000,0.000000,0.000000,0.000000,0.000000,1648626932.791051,0.000000
190.000000,-20175.332746,-3287.919258,28237.808137,38865.414425,-21705.644930,70168.429037,25282.125209,-5279.727910,-0.136000,0.972000,-0.108000,192.000000,251.000000,192.000000,30.000000,96.000000,252.000000,160.000000,0.000000,0.000000,0.000000,1648626932.799122,0.000000
191.000000,-20174.036345,-3277.883324,28248.894602,38868.521317,-21706.561352,70176.922700,25264.132054,-5281.292532,-0.136000,0.972000,-0.108000,192.000000,0.000000,0.000000,0.000000,0.000000,0.000000,0.000000,0.000000,0.000000,0.000000,1648626932.799139,0.000000
192.000000,-20157.965441,-3269.188496,28255.331904,38867.984875,-21700.392270,70176.073334,25251.525670,-5280.733738,-0.136000,0.972000,-0.108000,192.000000,0.000000,0.000000,0.000000,0.000000,0.000000,0.000000,0.000000,0.000000,0.000000,1648626932.806947,0.000000
193.000000,-20147.616583,-3267.802688,28253.990800,38867.739006,-21695.340776,70166.551491,25255.012543,-5285.606418,-0.136000,0.972000,-0.108000,192.000000,0.000000,0.000000,0.000000,0.000000,0.000000,0.000000,0.000000,0.000000,0.000000,1648626932.806965,0.000000
194.000000,-20148.577708,-3263.645263,28275.426123,38882.334695,-21676.297090,70174.262842,25272.737476,-5275.704596,-0.136000,0.972000,-0.108000,192.000000,0.000000,0.000000,0.000000,0.000000,0.000000,0.000000,0.000000,0.000000,0.000000,1648626932.813882,0.000000
195.000000,-20153.115112,-3260.583074,28275.157902,38885.016904,-21673.458418,70174.396953,25267.507168,-5276.665721,-0.136000,0.972000,-0.108000,192.000000,0.000000,0.000000,0.000000,0.000000,0.000000,0.000000,0.000000,0.000000,0.000000,1648626932.813892,0.000000
196.000000,-20157.786627,-3264.941664,28273.637983,38875.673875,-21684.120200,70166.059752,25253.470272,-5291.127299,-0.136000,0.972000,-0.108000,192.000000,0.000000,0.000000,0.000000,0.000000,0.000000,0.000000,0.000000,0.000000,0.000000,1648626932.821546,0.000000
197.000000,-20151.863414,-3259.577246,28291.832303,38881.552384,-21677.101752,70171.692392,25242.361455,-5286.947523,-0.136000,0.972000,-0.108000,192.000000,0.000000,0.000000,0.000000,0.000000,0.000000,0.000000,0.000000,0.000000,0.000000,1648626932.821558,0.000000
198.000000,-20150.164682,-3257.185609,28275.113198,38887.497948,-21671.893796,70169.926604,25242.853194,-5283.371244,-0.136000,0.972000,-0.108000,192.000000,0.000000,0.000000,0.000000,0.000000,0.000000,0.000000,0.000000,0.000000,0.000000,1648626932.829762,0.000000
199.000000,-20144.979077,-3256.045670,28271.961602,38891.118931,-21671.491465,70165.120979,25264.824958,-5287.573372,-0.136000,0.972000,-0.108000,192.000000,0.000000,0.000000,0.000000,0.000000,0.000000,0.000000,0.000000,0.000000,0.000000,1648626932.829778,0.000000
200.000000,-20135.323123,-3235.549120,28271.760437,38895.276355,-21674.307784,70174.374601,25262.187453,-5282.521878,-0.130000,0.972000,-0.108000,192.000000,251.000000,240.000000,30.000000,96.000000,252.000000,160.000000,0.000000,0.000000,0.000000,1648626932.837977,0.000000
201.000000,-20135.345475,-3237.851350,28263.177367,38891.051875,-21679.672203,70170.641860,25244.037836,-5282.119546,-0.130000,0.972000,-0.108000,192.000000,0.000000,0.000000,0.000000,0.000000,0.000000,0.000000,0.000000,0.000000,0.000000,1648626932.844407,0.000000
202.000000,-20133.914963,-3247.775525,28265.166672,38893.018829,-21675.715944,70170.194825,25242.920249,-5277.112755,-0.130000,0.972000,-0.108000,192.000000,0.000000,0.000000,0.000000,0.000000,0.000000,0.000000,0.000000,0.000000,0.000000,1648626932.844423,0.000000
203.000000,-20123.811975,-3256.626815,28272.967431,38900.707829,-21668.138703,70174.575767,25256.755979,-5276.106927,-0.130000,0.972000,-0.108000,192.000000,0.000000,0.000000,0.000000,0.000000,0.000000,0.000000,0.000000,0.000000,0.000000,1648626932.851272,0.000000
204.000000,-20137.759464,-3260.761888,28270.285221,38891.945945,-21664.607127,70167.445560,25273.117456,-5279.727910,-0.130000,0.972000,-0.108000,192.000000,0.000000,0.000000,0.000000,0.000000,0.000000,0.000000,0.000000,0.000000,0.000000,1648626932.851288,0.000000
205.000000,-20147.147196,-3263.466449,28262.953849,38883.228765,-21674.754819,70156.470854,25273.296270,-5289.652084,-0.130000,0.972000,-0.108000,192.000000,0.000000,0.000000,0.000000,0.000000,0.000000,0.000000,0.000000,0.000000,0.000000,1648626932.859410,0.000000
206.000000,-20161.988755,-3265.589865,28269.681724,38879.272506,-21685.595415,70154.056865,25243.456691,-5295.016503,-0.130000,0.972000,-0.108000,192.000000,0.000000,0.000000,0.000000,0.000000,0.000000,0.000000,0.000000,0.000000,0.000000,1648626932.859426,0.000000
207.000000,-20168.895444,-3262.952359,28266.127797,38880.792425,-21681.862674,70154.503900,25243.970781,-5290.188526,-0.130000,0.972000,-0.108000,192.000000,0.000000,0.000000,0.000000,0.000000,0.000000,0.000000,0.000000,0.000000,0.000000,1648626932.868623,0.000000
208.000000,-20160.714705,-3266.975673,28276.856634,38873.349294,-21676.542959,70157.409627,25260.958107,-5283.862982,-0.130000,0.972000,-0.108000,192.000000,0.000000,0.000000,0.000000,0.000000,0.000000,0.000000,0.000000,0.000000,0.000000,1648626932.868640,0.000000
209.000000,-20131.411568,-3250.547141,28289.239501,38889.442550,-21659.890909,70174.553415,25266.568394,-5273.759994,-0.130000,0.972000,-0.108000,192.000000,0.000000,0.000000,0.000000,0.000000,0.000000,0.000000,0.000000,0.000000,0.000000,1648626932.874769,0.000000
210.000000,-20140.464025,-3255.553932,28273.816797,38882.111178,-21668.496331,70167.467912,25256.331296,-5278.185639,-0.126000,0.972000,-0.110000,192.000000,252.000000,16.000000,30.000000,96.000000,252.000000,144.000000,0.000000,0.000000,0.000000,1648626932.874785,0.000000
211.000000,-20155.059714,-3271.915409,28264.429064,38881.865309,-21677.951119,70165.009220,25254.297287,-5283.103023,-0.126000,0.972000,-0.110000,192.000000,0.000000,0.000000,0.000000,0.000000,0.000000,0.000000,0.000000,0.000000,0.000000,1648626932.881828,0.000000
212.000000,-20161.362906,-3286.019359,28265.859576,38880.345390,-21679.292223,70162.416418,25253.134996,-5283.527706,-0.126000,0.972000,-0.110000,192.000000,0.000000,0.000000,0.000000,0.000000,0.000000,0.000000,0.000000,0.000000,0.000000,1648626932.881844,0.000000
213.000000,-20175.332746,-3280.453775,28257.365913,38870.085939,-21684.276662,70159.801264,25272.111627,-5290.143822,-0.126000,0.972000,-0.110000,192.000000,0.000000,0.000000,0.000000,0.000000,0.000000,0.000000,0.000000,0.000000,0.000000,1648626932.889823,0.000000
214.000000,-20169.945976,-3268.160316,28257.969410,38862.195773,-21684.008441,70166.886767,25280.113552,-5286.008750,-0.126000,0.972000,-0.110000,192.000000,0.000000,0.000000,0.000000,0.000000,0.000000,0.000000,0.000000,0.000000,0.000000,1648626932.889839,0.000000
215.000000,-20160.133560,-3280.632589,28244.088977,38846.974235,-21698.850000,70162.706991,25271.083447,-5293.809509,-0.126000,0.972000,-0.110000,192.000000,0.000000,0.000000,0.000000,0.000000,0.000000,0.000000,0.000000,0.000000,0.000000,1648626932.896046,0.000000
216.000000,-20162.525196,-3277.302179,28244.536012,38853.500945,-21703.588570,70172.385296,25261.896880,-5286.679302,-0.126000,0.972000,-0.110000,192.000000,0.000000,0.000000,0.000000,0.000000,0.000000,0.000000,0.000000,0.000000,0.000000,1648626932.903331,0.000000
217.000000,-20171.510598,-3283.650074,28266.217204,38874.176308,-21691.563331,70185.595177,25251.436263,-5271.658930,-0.126000,0.972000,-0.110000,192.000000,0.000000,0.000000,0.000000,0.000000,0.000000,0.000000,0.000000,0.000000,0.000000,1648626932.903340,0.000000
218.000000,-20179.356060,-3290.132080,28265.077265,38869.013055,-21686.914168,70181.281290,25254.409046,-5275.525782,-0.126000,0.972000,-0.110000,192.000000,0.000000,0.000000,0.000000,0.000000,0.000000,0.000000,0.000000,0.000000,0.000000,1648626932.911217,0.000000
219.000000,-20162.882824,-3285.482917,28268.452378,38872.522279,-21669.613918,70190.467857,25269.183549,-5268.216761,-0.126000,0.972000,-0.110000,192.000000,0.000000,0.000000,0.000000,0.000000,0.000000,0.000000,0.000000,0.000000,0.000000,1648626932.911225,0.000000
220.000000,-20165.632089,-3294.535374,28263.177367,38879.428968,-21668.295165,70189.529084,25264.243813,-5275.212857,-0.128000,0.968000,-0.106000,192.000000,252.000000,0.000000,30.000000,64.000000,252.000000,176.000000,0.000000,0.000000,0.000000,1648626932.919563,0.000000
221.000000,-20185.011051,-3296.301162,28258.192928,38872.365817,-21679.493389,70179.314337,25245.624810,-5287.886296,-0.128000,0.968000,-0.106000,192.000000,0.000000,0.000000,0.000000,0.000000,0.000000,0.000000,0.000000,0.000000,0.000000,1648626932.919574,0.000000
222.000000,-20169.029554,-3276.341054,28278.063628,38888.928460,-21667.937537,70189.417325,25240.618019,-5280.398462,-0.128000,0.968000,-0.106000,192.000000,0.000000,0.000000,0.000000,0.000000,0.000000,0.000000,0.000000,0.000000,0.000000,1648626932.926082,0.000000
223.000000,-20161.027629,-3273.681196,28287.876044,38892.616498,-21653.587717,70188.746773,25257.471234,-5275.235209,-0.128000,0.968000,-0.106000,192.000000,0.000000,0.000000,0.000000,0.000000,0.000000,0.000000,0.000000,0.000000,0.000000,1648626932.926097,0.000000
224.000000,-20160.513539,-3281.079624,28281.505797,38886.760341,-21652.179557,70182.085953,25270.390543,-5280.532572,-0.128000,0.968000,-0.106000,192.000000,0.000000,0.000000,0.000000,0.000000,0.000000,0.000000,0.000000,0.000000,0.000000,1648626932.934707,0.000000
225.000000,-20168.828388,-3278.553877,28271.514567,38882.558213,-21660.248537,70179.247281,25264.109703,-5284.265314,-0.128000,0.968000,-0.106000,192.000000,0.000000,0.000000,0.000000,0.000000,0.000000,0.000000,0.000000,0.000000,0.000000,1648626932.934723,0.000000
226.000000,-20164.089818,-3266.953321,28265.434893,38887.877928,-21666.261156,70184.723459,25254.073769,-5286.835764,-0.128000,0.968000,-0.106000,192.000000,0.000000,0.000000,0.000000,0.000000,0.000000,0.000000,0.000000,0.000000,0.000000,1648626932.941997,0.000000
227.000000,-20137.155966,-3265.522810,28277.348373,38893.957602,-21660.047371,70186.824523,25243.948429,-5281.583104,-0.128000,0.968000,-0.106000,192.000000,0.000000,0.000000,0.000000,0.000000,0.000000,0.000000,0.000000,0.000000,0.000000,1648626932.942013,0.000000
228.000000,-20153.048057,-3264.494629,28268.832358,38882.222936,-21661.455531,70173.480531,25258.678229,-5285.047625,-0.128000,0.968000,-0.106000,192.000000,0.000000,0.000000,0.000000,0.000000,0.000000,0.000000,0.000000,0.000000,0.000000,1648626932.949377,0.000000
229.000000,-20167.330821,-3271.937760,28275.426123,38873.773977,-21666.149398,70164.562185,25274.011525,-5288.713311,-0.128000,0.968000,-0.106000,192.000000,0.000000,0.000000,0.000000,0.000000,0.000000,0.000000,0.000000,0.000000,0.000000,1648626932.949393,0.000000
230.000000,-20170.638880,-3282.465432,28263.087960,38861.614628,-21681.996784,70151.285249,25277.096066,-5299.978590,-0.128000,0.970000,-0.104000,192.000000,252.000000,0.000000,30.000000,80.000000,252.000000,192.000000,0.000000,0.000000,0.000000,1648626932.955927,0.000000
231.000000,-20160.066504,-3269.702586,28260.517509,38873.170480,-21688.143514,70160.337706,25247.658819,-5297.095215,-0.128000,0.970000,-0.104000,192.000000,0.000000,0.000000,0.000000,0.000000,0.000000,0.000000,0.000000,0.000000,0.000000,1648626932.955943,0.000000
232.000000,-20168.247243,-3280.766699,28255.823643,38875.360951,-21682.332061,70159.130711,25239.209859,-5292.088424,-0.128000,0.970000,-0.104000,192.000000,0.000000,0.000000,0.000000,0.000000,0.000000,0.000000,0.000000,0.000000,0.000000,1648626932.963907,0.000000
233.000000,-20165.989717,-3281.996045,28264.093788,38878.557250,-21673.413715,70164.495130,25255.705447,-5274.564657,-0.128000,0.970000,-0.104000,192.000000,0.000000,0.000000,0.000000,0.000000,0.000000,0.000000,0.000000,0.000000,0.000000,1648626932.971814,0.000000
234.000000,-20153.495092,-3269.926103,28279.583547,38893.264698,-21662.684877,70178.464970,25265.048476,-5267.836781,-0.128000,0.970000,-0.104000,192.000000,0.000000,0.000000,0.000000,0.000000,0.000000,0.000000,0.000000,0.000000,0.000000,1648626932.971830,0.000000
235.000000,-20154.500920,-3245.696812,28278.533015,38896.192777,-21665.121217,70182.264767,25253.582031,-5267.881485,-0.128000,0.970000,-0.104000,192.000000,0.000000,0.000000,0.000000,0.000000,0.000000,0.000000,0.000000,0.000000,0.000000,1648626932.979056,0.000000
236.000000,-20164.939185,-3264.181705,28260.986896,38881.999419,-21676.766476,70173.636994,25246.295362,-5276.285741,-0.128000,0.970000,-0.104000,192.000000,0.000000,0.000000,0.000000,0.000000,0.000000,0.000000,0.000000,0.000000,0.000000,1648626932.979072,0.000000
237.000000,-20146.275478,-3275.536391,28267.670067,38879.428968,-21671.625575,70176.185092,25250.966877,-5274.497601,-0.128000,0.970000,-0.104000,192.000000,0.000000,0.000000,0.000000,0.000000,0.000000,0.000000,0.000000,0.000000,0.000000,1648626932.986421,0.000000
238.000000,-20145.381408,-3267.065080,28284.702097,38886.469768,-21662.506063,70185.841046,25245.133072,-5267.948540,-0.128000,0.970000,-0.104000,192.000000,0.000000,0.000000,0.000000,0.000000,0.000000,0.000000,0.000000,0.000000,0.000000,1648626932.986437,0.000000
239.000000,-20171.532949,-3279.984388,28276.923689,38876.836166,-21665.255328,70177.190921,25263.908537,-5271.524819,-0.128000,0.970000,-0.104000,192.000000,0.000000,0.000000,0.000000,0.000000,0.000000,0.000000,0.000000,0.000000,0.000000,1648626932.994411,0.000000
240.000000,-20178.417287,-3286.712263,28270.955774,38869.035407,-21680.163941,70166.842063,25253.582031,-5281.292532,-0.134000,0.974000,-0.098000,192.000000,251.000000,208.000000,30.000000,112.000000,252.000000,240.000000,0.000000,0.000000,0.000000,1648626932.994423,0.000000
241.000000,-20161.251147,-3278.218601,28276.856634,38878.981933,-21683.114372,70174.039325,25243.322580,-5278.990302,-0.134000,0.974000,-0.098000,192.000000,0.000000,0.000000,0.000000,0.000000,0.000000,0.000000,0.000000,0.000000,0.000000,1648626933.002293,0.000000
242.000000,-20146.342533,-3269.300254,28277.549538,38887.296782,-21670.396229,70184.701107,25253.582031,-5268.283816,-0.134000,0.974000,-0.098000,192.000000,0.000000,0.000000,0.000000,0.000000,0.000000,0.000000,0.000000,0.000000,0.000000,1648626933.002304,0.000000
243.000000,-20155.640859,-3279.783223,28267.513605,38876.031503,-21673.503122,70170.686563,25264.869662,-5272.530648,-0.134000,0.974000,-0.098000,192.000000,0.000000,0.000000,0.000000,0.000000,0.000000,0.000000,0.000000,0.000000,0.000000,1648626933.010504,0.000000
244.000000,-20149.807054,-3272.898885,28259.131701,38872.946962,-21681.661508,70162.617584,25276.112589,-5278.587971,-0.134000,0.974000,-0.098000,192.000000,0.000000,0.000000,0.000000,0.000000,0.000000,0.000000,0.000000,0.000000,0.000000,1648626933.010521,0.000000
245.000000,-20127.030626,-3256.716222,28254.571945,38871.382340,-21683.628462,70167.780837,25261.673362,-5271.457764,-0.134000,0.974000,-0.098000,192.000000,0.000000,0.000000,0.000000,0.000000,0.000000,0.000000,0.000000,0.000000,0.000000,1648626933.018217,0.000000
246.000000,-20148.063618,-3262.393565,28247.329980,38867.873116,-21688.657604,70161.656459,25249.514013,-5283.594761,-0.134000,0.974000,-0.098000,192.000000,0.000000,0.000000,0.000000,0.000000,0.000000,0.000000,0.000000,0.000000,0.000000,1648626933.018228,0.000000
247.000000,-20172.583481,-3277.972731,28260.361047,38872.723445,-21681.952081,70159.845967,25251.458615,-5288.310979,-0.134000,0.974000,-0.098000,192.000000,0.000000,0.000000,0.000000,0.000000,0.000000,0.000000,0.000000,0.000000,0.000000,1648626933.025350,0.000000
248.000000,-20170.929452,-3283.046577,28280.947003,38878.311381,-21675.313613,70164.718648,25256.130130,-5287.483965,-0.134000,0.974000,-0.098000,192.000000,0.000000,0.000000,0.000000,0.000000,0.000000,0.000000,0.000000,0.000000,0.000000,1648626933.033456,0.000000
249.000000,-20159.887691,-3278.129194,28280.052934,38876.769111,-21674.061915,70167.691430,25253.067941,-5290.344988,-0.134000,0.974000,-0.098000,192.000000,0.000000,0.000000,0.000000,0.000000,0.000000,0.000000,0.000000,0.000000,0.000000,1648626933.033470,0.000000
250.000000,-20160.513539,-3275.625798,28268.385323,38878.333733,-21681.885026,70169.591328,25240.506260,-5293.787157,-0.136000,0.972000,-0.096000,192.000000,251.000000,192.000000,30.000000,96.000000,253.000000,0.000000,0.000000,0.000000,0.000000,1648626933.039355,0.000000
251.000000,-20158.993621,-3273.234162,28277.147207,38883.385227,-21681.639157,70173.368773,25241.042702,-5285.941694,-0.136000,0.972000,-0.096000,192.000000,0.000000,0.000000,0.000000,0.000000,0.000000,0.000000,0.000000,0.000000,0.000000,1648626933.039367,0.000000
252.000000,-20152.936298,-3259.197266,28277.326021,38889.308439,-21684.343718,70172.921738,25244.015484,-5288.065110,-0.136000,0.972000,-0.096000,192.000000,0.000000,0.000000,0.000000,0.000000,0.000000,0.000000,0.000000,0.000000,0.000000,1648626933.046835,0.000000
253.000000,-20143.861490,-3248.714298,28268.854710,38886.581527,-21682.734392,70166.775008,25255.437226,-5296.357607,-0.136000,0.972000,-0.096000,192.000000,0.000000,0.000000,0.000000,0.000000,0.000000,0.000000,0.000000,0.000000,0.000000,1648626933.046851,0.000000
254.000000,-20155.104417,-3248.088449,28272.207471,38880.255983,-21679.247520,70172.832331,25260.667534,-5295.932924,-0.136000,0.972000,-0.096000,192.000000,0.000000,0.000000,0.000000,0.000000,0.000000,0.000000,0.000000,0.000000,0.000000,1648626933.054837,0.000000
255.000000,-20155.931432,-3258.146734,28285.104428,38894.114064,-21669.703325,70191.473686,25249.245793,-5278.364453,-0.136000,0.972000,-0.096000,192.000000,0.000000,0.000000,0.000000,0.000000,0.000000,0.000000,0.000000,0.000000,0.000000,1648626933.054854,0.000000
0.000000,-20139.458196,-3253.072888,28284.947966,38895.768094,-21667.691668,70194.535875,25247.100025,-5267.948540,-0.136000,0.972000,-0.096000,192.000000,0.000000,0.000000,0.000000,0.000000,0.000000,0.000000,0.000000,0.000000,0.000000,1648626933.061415,0.000000
1.000000,-20130.048112,-3259.912522,28276.051971,38899.143207,-21669.368049,70188.769125,25259.773464,-5273.245904,-0.136000,0.972000,-0.096000,192.000000,0.000000,0.000000,0.000000,0.000000,0.000000,0.000000,0.000000,0.000000,0.000000,1648626933.061431,0.000000
2.000000,-20129.712836,-3257.185609,28279.248271,38901.579547,-21663.109560,70190.736078,25268.289479,-5270.451936,-0.136000,0.972000,-0.096000,192.000000,0.000000,0.000000,0.000000,0.000000,0.000000,0.000000,0.000000,0.000000,0.000000,1648626933.069296,0.000000
3.000000,-20136.396007,-3267.288597,28275.046143,38877.327904,-21671.290299,70179.202578,25280.851159,-5275.235209,-0.136000,0.972000,-0.096000,192.000000,0.000000,0.000000,0.000000,0.000000,0.000000,0.000000,0.000000,0.000000,0.000000,1648626933.069313,0.000000
4.000000,-20133.311466,-3260.136039,28284.299765,38893.465864,-21672.139665,70190.333747,25261.181624,-5273.089441,-0.134000,0.974000,-0.100000,192.000000,251.000000,208.000000,30.000000,112.000000,252.000000,224.000000,0.000000,0.000000,0.000000,1648626933.077268,0.000000
5.000000,-20143.816786,-3253.765792,28295.989727,38891.923594,-21665.389438,70188.456200,25244.239002,-5268.172058,-0.134000,0.974000,-0.100000,192.000000,0.000000,0.000000,0.000000,0.000000,0.000000,0.000000,0.000000,0.000000,0.000000,1648626933.077283,0.000000
6.000000,-20153.897423,-3266.059252,28282.153998,38868.923648,-21676.386497,70166.082104,25256.331296,-5285.561715,-0.134000,0.974000,-0.100000,192.000000,0.000000,0.000000,0.000000,0.000000,0.000000,0.000000,0.000000,0.000000,0.000000,1648626933.084399,0.000000
7.000000,-20142.252164,-3259.130211,28279.672954,38877.126739,-21671.804389,70169.457217,25270.390543,-5279.258523,-0.134000,0.974000,-0.100000,192.000000,0.000000,0.000000,0.000000,0.000000,0.000000,0.000000,0.000000,0.000000,0.000000,1648626933.092292,0.000000
8.000000,-20137.178318,-3265.209885,28279.717658,38882.714675,-21674.151322,70169.568976,25275.419685,-5284.712349,-0.134000,0.974000,-0.100000,192.000000,0.000000,0.000000,0.000000,0.000000,0.000000,0.000000,0.000000,0.000000,0.000000,1648626933.092308,0.000000
9.000000,-20144.152062,-3261.477144,28287.496065,38894.404637,-21678.487561,70175.268671,25253.872604,-5283.706520,-0.134000,0.974000,-0.100000,192.000000,0.000000,0.000000,0.000000,0.000000,0.000000,0.000000,0.000000,0.000000,0.000000,1648626933.101080,0.000000
10.000000,-20150.812882,-3273.837659,28272.341582,38893.443512,-21681.169770,70171.178302,25242.473214,-5281.493697,-0.134000,0.974000,-0.100000,192.000000,0.000000,0.000000,0.000000,0.000000,0.000000,0.000000,0.000000,0.000000,0.000000,1648626933.101096,0.000000
11.000000,-20144.710856,-3276.184592,28284.702097,38892.549442,-21679.403982,70167.959651,25251.369208,-5286.031101,-0.134000,0.974000,-0.100000,192.000000,0.000000,0.000000,0.000000,0.000000,0.000000,0.000000,0.000000,0.000000,0.000000,1648626933.108263,0.000000
12.000000,-20141.581612,-3265.612217,28296.950853,38898.226785,-21667.535206,70175.313374,25261.941583,-5266.339215,-0.134000,0.974000,-0.100000,192.000000,0.000000,0.000000,0.000000,0.000000,0.000000,0.000000,0.000000,0.000000,0.000000,1648626933.108282,0.000000
13.000000,-20152.645725,-3267.825039,28274.219128,38889.017867,-21676.185331,70165.322145,25269.921156,-5275.034043,-0.134000,0.974000,-0.100000,192.000000,0.000000,0.000000,0.000000,0.000000,0.000000,0.000000,0.000000,0.000000,0.000000,1648626933.114517,0.000000
14.000000,-20150.634068,-3267.042728,28265.166672,38881.306515,-21687.830590,70160.851796,25262.187453,-5284.935866,-0.134000,0.968000,-0.096000,192.000000,251.000000,208.000000,30.000000,64.000000,253.000000,0.000000,0.000000,0.000000,0.000000,1648626933.114528,0.000000
15.000000,-20139.435844,-3260.895999,28272.498044,38892.415332,-21682.890854,70168.585499,25242.294400,-5269.647273,-0.134000,0.968000,-0.096000,192.000000,0.000000,0.000000,0.000000,0.000000,0.000000,0.000000,0.000000,0.000000,0.000000,1648626933.121810,0.000000
16.000000,-20142.967420,-3263.041766,28269.391152,38884.547518,-21680.789790,70159.913023,25251.838595,-5274.117622,-0.134000,0.968000,-0.096000,192.000000,0.000000,0.000000,0.000000,0.000000,0.000000,0.000000,0.000000,0.000000,0.000000,1648626933.121826,0.000000
17.000000,-20137.535946,-3258.750231,28266.530128,38881.150053,-21676.073572,70162.751694,25260.332258,-5269.446107,-0.134000,0.968000,-0.096000,192.000000,0.000000,0.000000,0.000000,0.000000,0.000000,0.000000,0.000000,0.000000,0.000000,1648626933.129756,0.000000
18.000000,-20144.666153,-3264.338167,28257.701189,38873.841032,-21680.432162,70160.382409,25268.043610,-5265.266331,-0.134000,0.968000,-0.096000,192.000000,0.000000,0.000000,0.000000,0.000000,0.000000,0.000000,0.000000,0.000000,0.000000,1648626933.129772,0.000000
19.000000,-20150.119978,-3283.091281,28251.062721,38864.386244,-21692.859732,70155.487377,25257.582993,-5280.465517,-0.134000,0.968000,-0.096000,192.000000,0.000000,0.000000,0.000000,0.000000,0.000000,0.000000,0.000000,0.000000,0.000000,1648626933.136672,0.000000
20.000000,-20130.070463,-3272.451850,28267.044218,38875.584468,-21684.567235,70161.768217,25252.196223,-5279.347930,-0.134000,0.968000,-0.096000,192.000000,0.000000,0.000000,0.000000,0.000000,0.000000,0.000000,0.000000,0.000000,0.000000,1648626933.136689,0.000000
21.000000,-20137.044208,-3283.404205,28271.961602,38879.026637,-21682.309709,70161.120017,25268.937679,-5285.069976,-0.134000,0.968000,-0.096000,192.000000,0.000000,0.000000,0.000000,0.000000,0.000000,0.000000,0.000000,0.000000,0.000000,1648626933.143442,0.000000
22.000000,-20139.033513,-3277.302179,28270.218166,38875.852689,-21673.972508,70168.384334,25271.061095,-5282.387767,-0.134000,0.968000,-0.096000,192.000000,0.000000,0.000000,0.000000,0.000000,0.000000,0.000000,0.000000,0.000000,0.000000,1648626933.151419,0.000000
23.000000,-20162.413438,-3278.196249,28269.726428,38862.709864,-21679.739258,70156.940240,25273.072752,-5293.764805,-0.134000,0.968000,-0.096000,192.000000,0.000000,0.000000,0.000000,0.000000,0.000000,0.000000,0.000000,0.000000,0.000000,1648626933.151434,0.000000
24.000000,-20164.156874,-3267.467411,28276.476655,38883.295820,-21675.134799,70165.880938,25251.726836,-5288.534497,-0.134000,0.968000,-0.096000,192.000000,0.000000,0.000000,0.000000,0.000000,0.000000,0.000000,0.000000,0.000000,0.000000,1648626933.159467,0.000000
25.000000,-20164.268632,-3274.619970,28287.294899,38894.605803,-21668.518683,70167.356153,25242.316752,-5284.332369,-0.130000,0.970000,-0.106000,192.000000,251.000000,240.000000,30.000000,80.000000,252.000000,176.000000,0.000000,0.000000,0.000000,1648626933.159484,0.000000
26.000000,-20156.289060,-3270.507249,28293.531036,38897.623288,-21657.700438,70169.837197,25254.185528,-5279.213819,-0.130000,0.970000,-0.106000,192.000000,0.000000,0.000000,0.000000,0.000000,0.000000,0.000000,0.000000,0.000000,0.000000,1648626933.166417,0.000000
27.000000,-20145.940202,-3256.626815,28293.441629,38895.298707,-21652.894813,70171.602985,25267.596575,-5273.335311,-0.130000,0.970000,-0.106000,192.000000,0.000000,0.000000,0.000000,0.000000,0.000000,0.000000,0.000000,0.000000,0.000000,1648626933.166432,0.000000
28.000000,-20141.089873,-3262.371214,28281.639908,38887.542652,-21660.002668,70168.764313,25262.589784,-5279.079709,-0.130000,0.970000,-0.106000,192.000000,0.000000,0.000000,0.000000,0.000000,0.000000,0.000000,0.000000,0.000000,0.000000,1648626933.175288,0.000000
29.000000,-20138.362961,-3270.529600,28269.100579,38881.686495,-21672.810217,70159.868319,25255.057246,-5288.243924,-0.130000,0.970000,-0.106000,192.000000,0.000000,0.000000,0.000000,0.000000,0.000000,0.000000,0.000000,0.000000,0.000000,1648626933.175303,0.000000
30.000000,-20145.247298,-3281.303141,28266.574832,38876.232669,-21682.555578,70152.604002,25249.066979,-5290.926134,-0.130000,0.970000,-0.106000,192.000000,0.000000,0.000000,0.000000,0.000000,0.000000,0.000000,0.000000,0.000000,0.000000,1648626933.183231,0.000000
31.000000,-20158.837159,-3282.376025,28278.555367,38875.204489,-21680.722735,70151.508767,25259.415836,-5288.445090,-0.130000,0.970000,-0.106000,192.000000,0.000000,0.000000,0.000000,0.000000,0.000000,0.000000,0.000000,0.000000,0.000000,1648626933.183245,0.000000
32.000000,-20162.212272,-3277.369234,28269.212338,38874.958619,-21678.644023,70150.659400,25281.454656,-5284.667645,-0.130000,0.970000,-0.106000,192.000000,0.000000,0.000000,0.000000,0.000000,0.000000,0.000000,0.000000,0.000000,0.000000,1648626933.189855,0.000000
33.000000,-20153.137464,-3268.249723,28270.732256,38883.161710,-21684.030793,70161.120017,25274.503264,-5279.169116,-0.130000,0.970000,-0.106000,192.000000,0.000000,0.000000,0.000000,0.000000,0.000000,0.000000,0.000000,0.000000,0.000000,1648626933.189866,0.000000
34.000000,-20161.809941,-3285.192345,28260.741026,38876.366779,-21694.893741,70160.069485,25264.042647,-5285.315846,-0.130000,0.970000,-0.106000,192.000000,0.000000,0.000000,0.000000,0.000000,0.000000,0.000000,0.000000,0.000000,0.000000,1648626933.196477,0.000000
35.000000,-20157.898385,-3280.252609,28266.440721,38884.256945,-21689.194046,70165.523310,25256.107778,-5276.196334,-0.128000,0.970000,-0.098000,192.000000,252.000000,0.000000,30.000000,80.000000,252.000000,240.000000,0.000000,0.000000,0.000000,1648626933.196493,0.000000
36.000000,-20166.213234,-3291.048502,28264.809044,38873.237535,-21687.227093,70155.174453,25269.742342,-5267.434450,-0.128000,0.970000,-0.098000,192.000000,0.000000,0.000000,0.000000,0.000000,0.000000,0.000000,0.000000,0.000000,0.000000,1648626933.203623,0.000000
37.000000,-20155.752618,-3294.289505,28260.182233,38871.427044,-21686.534189,70153.229851,25276.514921,-5270.250770,-0.128000,0.970000,-0.098000,192.000000,0.000000,0.000000,0.000000,0.000000,0.000000,0.000000,0.000000,0.000000,0.000000,1648626933.203640,0.000000
38.000000,-20151.706952,-3282.711301,28271.671030,38880.412445,-21681.281529,70158.884842,25269.518825,-5267.613264,-0.128000,0.970000,-0.098000,192.000000,0.000000,0.000000,0.000000,0.000000,0.000000,0.000000,0.000000,0.000000,0.000000,1648626933.211497,0.000000
39.000000,-20147.616583,-3274.441156,28275.448474,38887.743817,-21680.789790,70163.377543,25252.173871,-5267.054470,-0.128000,0.970000,-0.098000,192.000000,0.000000,0.000000,0.000000,0.000000,0.000000,0.000000,0.000000,0.000000,0.000000,1648626933.219614,0.000000
40.000000,-20146.946030,-3276.475164,28272.855672,38882.491157,-21677.727601,70158.974249,25245.021313,-5261.354776,-0.128000,0.970000,-0.098000,192.000000,0.000000,0.000000,0.000000,0.000000,0.000000,0.000000,0.000000,0.000000,0.000000,1648626933.219625,0.000000
41.000000,-20150.924641,-3278.799746,28273.570928,38875.696227,-21676.230034,70148.491281,25254.431397,-5271.390709,-0.128000,0.970000,-0.098000,192.000000,0.000000,0.000000,0.000000,0.000000,0.000000,0.000000,0.000000,0.000000,0.000000,1648626933.226218,0.000000
42.000000,-20153.360981,-3270.194324,28283.204530,38867.403730,-21679.605148,70141.316371,25276.805493,-5279.571447,-0.128000,0.970000,-0.098000,192.000000,0.000000,0.000000,0.000000,0.000000,0.000000,0.000000,0.000000,0.000000,0.000000,1648626933.226229,0.000000
43.000000,-20139.435844,-3254.905731,28292.860483,38870.421215,-21680.879197,70150.413531,25269.384714,-5272.620055,-0.128000,0.970000,-0.098000,192.000000,0.000000,0.000000,0.000000,0.000000,0.000000,0.000000,0.000000,0.000000,0.000000,1648626933.234081,0.000000
44.000000,-20123.387292,-3274.843487,28268.295916,38876.791463,-21691.965662,70145.160871,25256.063075,-5272.955331,-0.128000,0.970000,-0.098000,192.000000,0.000000,0.000000,0.000000,0.000000,0.000000,0.000000,0.000000,0.000000,0.000000,1648626933.234091,0.000000
45.000000,-20146.119016,-3277.950380,28265.971335,38878.356085,-21687.875293,70143.976229,25246.608287,-5275.034043,-0.134000,0.976000,-0.104000,192.000000,251.000000,208.000000,30.000000,128.000000,252.000000,192.000000,0.000000,0.000000,0.000000,1648626933.242127,0.000000
46.000000,-20178.260824,-3287.382816,28264.786692,38868.275448,-21684.254311,70137.337761,25255.325467,-5281.583104,-0.134000,0.976000,-0.104000,192.000000,0.000000,0.000000,0.000000,0.000000,0.000000,0.000000,0.000000,0.000000,0.000000,1648626933.242136,0.000000
47.000000,-20162.994583,-3272.653016,28270.776960,38871.337637,-21677.705250,70145.205575,25258.454711,-5276.598665,-0.134000,0.976000,-0.104000,192.000000,0.000000,0.000000,0.000000,0.000000,0.000000,0.000000,0.000000,0.000000,0.000000,1648626933.250198,0.000000
48.000000,-20146.454292,-3268.070909,28267.535957,38873.036369,-21679.739258,70149.161833,25251.592726,-5274.318787,-0.134000,0.976000,-0.104000,192.000000,0.000000,0.000000,0.000000,0.000000,0.000000,0.000000,0.000000,0.000000,0.000000,1648626933.250215,0.000000
49.000000,-20151.081103,-3276.251647,28270.061704,38885.218070,-21680.745087,70154.280383,25245.021313,-5276.442203,-0.134000,0.976000,-0.104000,192.000000,0.000000,0.000000,0.000000,0.000000,0.000000,0.000000,0.000000,0.000000,0.000000,1648626933.257393,0.000000
50.000000,-20149.360019,-3276.184592,28283.986841,38894.359934,-21671.402058,70162.751694,25242.763787,-5267.903837,-0.134000,0.976000,-0.104000,192.000000,0.000000,0.000000,0.000000,0.000000,0.000000,0.000000,0.000000,0.000000,0.000000,1648626933.257406,0.000000
51.000000,-20141.201632,-3261.566551,28299.051916,38895.656335,-21656.962831,70168.786665,25262.410970,-5257.510276,-0.134000,0.976000,-0.104000,192.000000,0.000000,0.000000,0.000000,0.000000,0.000000,0.000000,0.000000,0.000000,0.000000,1648626933.264101,0.000000
52.000000,-20135.233716,-3258.861990,28290.893530,38889.643716,-21661.254366,70169.032534,25271.508130,-5257.957310,-0.134000,0.976000,-0.104000,192.000000,0.000000,0.000000,0.000000,0.000000,0.000000,0.000000,0.000000,0.000000,0.000000,1648626933.264118,0.000000
53.000000,-20141.067522,-3270.909580,28280.768190,38882.602916,-21677.660546,70156.917889,25272.089275,-5271.971854,-0.134000,0.976000,-0.104000,192.000000,0.000000,0.000000,0.000000,0.000000,0.000000,0.000000,0.000000,0.000000,0.000000,1648626933.271377,0.000000
54.000000,-20142.140405,-3275.178763,28268.295916,38878.490195,-21688.255273,70155.912060,25252.822072,-5283.773575,-0.134000,0.976000,-0.104000,192.000000,0.000000,0.000000,0.000000,0.000000,0.000000,0.000000,0.000000,0.000000,0.000000,1648626933.279316,0.000000
55.000000,-20141.335743,-3290.243839,28265.010210,38870.577678,-21688.188218,70155.375618,25245.311886,-5281.672511,-0.136000,0.974000,-0.106000,192.000000,251.000000,192.000000,30.000000,112.000000,252.000000,176.000000,0.000000,0.000000,0.000000,1648626933.279332,0.000000
56.000000,-20141.335743,-3287.986313,28271.782788,38872.991666,-21679.761610,70162.014086,25253.582031,-5272.061261,-0.136000,0.974000,-0.106000,192.000000,0.000000,0.000000,0.000000,0.000000,0.000000,0.000000,0.000000,0.000000,0.000000,1648626933.287427,0.000000
57.000000,-20162.078161,-3292.724883,28269.637021,38871.538803,-21676.319441,70162.394066,25268.758865,-5276.263389,-0.136000,0.974000,-0.106000,192.000000,0.000000,0.000000,0.000000,0.000000,0.000000,0.000000,0.000000,0.000000,0.000000,1648626933.287443,0.000000
58.000000,-20162.882824,-3293.015455,28261.322172,38869.974180,-21686.780058,70162.975211,25269.831749,-5280.599628,-0.136000,0.974000,-0.106000,192.000000,0.000000,0.000000,0.000000,0.000000,0.000000,0.000000,0.000000,0.000000,0.000000,1648626933.293700,0.000000
59.000000,-20157.831330,-3288.142775,28260.606916,38866.733178,-21693.843209,70157.163758,25252.397389,-5275.838706,-0.136000,0.974000,-0.106000,192.000000,0.000000,0.000000,0.000000,0.000000,0.000000,0.000000,0.000000,0.000000,0.000000,1648626933.293716,0.000000
60.000000,-20160.804112,-3283.672426,28267.737123,38865.682646,-21690.333985,70153.788645,25244.686037,-5279.571447,-0.136000,0.974000,-0.106000,192.000000,0.000000,0.000000,0.000000,0.000000,0.000000,0.000000,0.000000,0.000000,0.000000,1648626933.301819,0.000000
61.000000,-20160.178263,-3286.086415,28279.158864,38874.422178,-21675.313613,70161.768217,25255.414874,-5270.340177,-0.136000,0.974000,-0.106000,192.000000,0.000000,0.000000,0.000000,0.000000,0.000000,0.000000,0.000000,0.000000,0.000000,1648626933.301831,0.000000
62.000000,-20170.929452,-3308.013476,28262.730332,38861.212297,-21688.031755,70145.652610,25263.886185,-5282.633636,-0.136000,0.974000,-0.106000,192.000000,0.000000,0.000000,0.000000,0.000000,0.000000,0.000000,0.000000,0.000000,0.000000,1648626933.309731,0.000000
63.000000,-20139.234679,-3295.720016,28266.328963,38873.706922,-21689.417564,70154.794473,25247.278839,-5282.074843,-0.136000,0.974000,-0.106000,192.000000,0.000000,0.000000,0.000000,0.000000,0.000000,0.000000,0.000000,0.000000,0.000000,1648626933.309746,0.000000
64.000000,-20137.647705,-3277.995083,28282.533977,38884.122835,-21680.901549,70167.736133,25235.991208,-5268.105002,-0.136000,0.974000,-0.106000,192.000000,0.000000,0.000000,0.000000,0.000000,0.000000,0.000000,0.000000,0.000000,0.000000,1648626933.316933,0.000000
65.000000,-20166.727324,-3300.682104,28277.326021,38870.421215,-21685.506008,70156.336743,25240.796833,-5276.732776,-0.140000,0.972000,-0.108000,192.000000,251.000000,160.000000,30.000000,96.000000,252.000000,160.000000,0.000000,0.000000,0.000000,1648626933.316949,0.000000
66.000000,-20161.117036,-3301.531470,28272.743913,38868.968352,-21679.940424,70160.181243,25260.667534,-5278.744433,-0.140000,0.972000,-0.108000,192.000000,0.000000,0.000000,0.000000,0.000000,0.000000,0.000000,0.000000,0.000000,0.000000,1648626933.324719,0.000000
67.000000,-20145.224946,-3285.192345,28273.392114,38872.052893,-21675.067744,70165.612717,25269.407066,-5272.731814,-0.140000,0.972000,-0.108000,192.000000,0.000000,0.000000,0.000000,0.000000,0.000000,0.000000,0.000000,0.000000,0.000000,1648626933.324727,0.000000
68.000000,-20153.293926,-3274.239990,28262.551518,38864.296837,-21681.415639,70164.830406,25261.583955,-5275.279912,-0.140000,0.972000,-0.108000,192.000000,0.000000,0.000000,0.000000,0.000000,0.000000,0.000000,0.000000,0.000000,0.000000,1648626933.331617,0.000000
69.000000,-20137.267725,-3270.239028,28265.077265,38865.302666,-21684.924863,70165.769180,25242.674380,-5277.425680,-0.140000,0.972000,-0.108000,192.000000,0.000000,0.000000,0.000000,0.000000,0.000000,0.000000,0.000000,0.000000,0.000000,1648626933.340971,0.000000
70.000000,-20136.172490,-3282.152508,28261.433931,38872.187003,-21681.236825,70162.952860,25239.880412,-5281.806622,-0.140000,0.972000,-0.108000,192.000000,0.000000,0.000000,0.000000,0.000000,0.000000,0.000000,0.000000,0.000000,0.000000,1648626933.340987,0.000000
71.000000,-20151.930470,-3281.571362,28264.272602,38868.364855,-21669.725677,70163.534005,25262.455674,-5279.280875,-0.140000,0.972000,-0.108000,192.000000,0.000000,0.000000,0.000000,0.000000,0.000000,0.000000,0.000000,0.000000,0.000000,1648626933.347161,0.000000
72.000000,-20157.898385,-3280.967865,28270.620498,38870.957657,-21672.117313,70160.471816,25262.969764,-5286.634599,-0.140000,0.972000,-0.108000,192.000000,0.000000,0.000000,0.000000,0.000000,0.000000,0.000000,0.000000,0.000000,0.000000,1648626933.347177,0.000000
73.000000,-20145.269650,-3281.884287,28276.990745,38881.954715,-21667.758723,70166.752656,25249.178737,-5279.169116,-0.140000,0.972000,-0.108000,192.000000,0.000000,0.000000,0.000000,0.000000,0.000000,0.000000,0.000000,0.000000,0.000000,1648626933.354024,0.000000
74.000000,-20149.449426,-3279.135022,28274.934384,38883.720503,-21666.819950,70166.305621,25233.532516,-5277.828011,-0.140000,0.972000,-0.108000,192.000000,0.000000,0.000000,0.000000,0.000000,0.000000,0.000000,0.000000,0.000000,0.000000,1648626933.354040,0.000000
75.000000,-20156.937260,-3281.146679,28268.854710,38879.317210,-21669.166883,70160.851796,25238.114624,-5283.438299,-0.144000,0.972000,-0.110000,192.000000,251.000000,128.000000,30.000000,96.000000,252.000000,144.000000,0.000000,0.000000,0.000000,1648626933.362042,0.000000
76.000000,-20154.590327,-3279.291484,28288.658355,38876.545593,-21665.791770,70162.483473,25248.932868,-5282.030139,-0.144000,0.972000,-0.110000,192.000000,0.000000,0.000000,0.000000,0.000000,0.000000,0.000000,0.000000,0.000000,0.000000,1648626933.362058,0.000000
77.000000,-20152.891595,-3265.165182,28282.891605,38871.784672,-21667.512854,70158.795435,25268.110665,-5281.180773,-0.144000,0.972000,-0.110000,192.000000,0.000000,0.000000,0.000000,0.000000,0.000000,0.000000,0.000000,0.000000,0.000000,1648626933.369174,0.000000
78.000000,-20132.015065,-3255.308062,28276.476655,38870.868250,-21669.099828,70162.617584,25262.522729,-5280.242000,-0.144000,0.972000,-0.110000,192.000000,0.000000,0.000000,0.000000,0.000000,0.000000,0.000000,0.000000,0.000000,0.000000,1648626933.369190,0.000000
79.000000,-20133.445577,-3279.716167,28282.310460,38881.708846,-21665.925880,70176.810941,25242.830842,-5279.414985,-0.144000,0.972000,-0.110000,192.000000,0.000000,0.000000,0.000000,0.000000,0.000000,0.000000,0.000000,0.000000,0.000000,1648626933.376874,0.000000
80.000000,-20148.600060,-3275.335226,28295.609748,38898.472655,-21650.212604,70195.675814,25236.818223,-5270.027252,-0.144000,0.972000,-0.110000,192.000000,0.000000,0.000000,0.000000,0.000000,0.000000,0.000000,0.000000,0.000000,0.000000,1648626933.376890,0.000000
81.000000,-20144.844967,-3267.757984,28292.480504,38892.951774,-21643.395322,70189.931415,25252.464444,-5269.960197,-0.144000,0.972000,-0.110000,192.000000,0.000000,0.000000,0.000000,0.000000,0.000000,0.000000,0.000000,0.000000,0.000000,1648626933.384793,0.000000
82.000000,-20147.057789,-3287.874554,28282.064591,38879.138396,-21654.951174,70177.190921,25261.852176,-5285.606418,-0.144000,0.972000,-0.110000,192.000000,0.000000,0.000000,0.000000,0.000000,0.000000,0.000000,0.000000,0.000000,0.000000,1648626933.384809,0.000000
83.000000,-20144.330876,-3291.272019,28280.544672,38875.137433,-21662.640174,70179.761372,25249.804586,-5290.747320,-0.144000,0.972000,-0.110000,192.000000,0.000000,0.000000,0.000000,0.000000,0.000000,0.000000,0.000000,0.000000,0.000000,1648626933.391726,0.000000
84.000000,-20154.545624,-3298.357522,28271.961602,38873.416349,-21665.255328,70178.979061,25242.540269,-5292.647218,-0.144000,0.972000,-0.110000,192.000000,0.000000,0.000000,0.000000,0.000000,0.000000,0.000000,0.000000,0.000000,0.000000,1648626933.399110,0.000000
85.000000,-20166.213234,-3295.027112,28273.302707,38874.668047,-21660.337944,70172.966441,25255.772502,-5286.008750,-0.144000,0.978000,-0.110000,192.000000,251.000000,128.000000,30.000000,144.000000,252.000000,144.000000,0.000000,0.000000,0.000000,1648626933.399126,0.000000
86.000000,-20166.615566,-3298.737502,28271.246346,38873.997494,-21660.427351,70165.344496,25268.736514,-5283.818279,-0.144000,0.978000,-0.110000,192.000000,0.000000,0.000000,0.000000,0.000000,0.000000,0.000000,0.000000,0.000000,0.000000,1648626933.407629,0.000000
87.000000,-20161.027629,-3296.457624,28283.919785,38881.395922,-21656.091113,70172.005316,25264.534386,-5277.738604,-0.144000,0.978000,-0.110000,192.000000,0.000000,0.000000,0.000000,0.000000,0.000000,0.000000,0.000000,0.000000,0.000000,1648626933.407639,0.000000
88.000000,-20154.456217,-3288.478051,28286.825512,38884.346352,-21656.381685,70175.335726,25251.525670,-5279.079709,-0.144000,0.978000,-0.110000,192.000000,0.000000,0.000000,0.000000,0.000000,0.000000,0.000000,0.000000,0.000000,0.000000,1648626933.415777,0.000000
89.000000,-20142.766254,-3277.637455,28289.463018,38892.772960,-21653.587717,70185.304604,25226.268199,-5271.547171,-0.144000,0.978000,-0.110000,192.000000,0.000000,0.000000,0.000000,0.000000,0.000000,0.000000,0.000000,0.000000,0.000000,1648626933.415793,0.000000
90.000000,-20142.542737,-3284.991179,28293.620443,38889.554309,-21650.816101,70182.220063,25229.889182,-5269.647273,-0.144000,0.978000,-0.110000,192.000000,0.000000,0.000000,0.000000,0.000000,0.000000,0.000000,0.000000,0.000000,0.000000,1648626933.423769,0.000000
91.000000,-20141.894536,-3299.966848,28295.766210,38871.091768,-21659.019191,70166.886767,25261.740418,-5278.856191,-0.144000,0.978000,-0.110000,192.000000,0.000000,0.000000,0.000000,0.000000,0.000000,0.000000,0.000000,0.000000,0.000000,1648626933.423780,0.000000
92.000000,-20136.172490,-3287.963961,28290.222977,38876.255021,-21664.718886,70173.815808,25259.862871,-5282.432471,-0.144000,0.978000,-0.110000,192.000000,0.000000,0.000000,0.000000,0.000000,0.000000,0.000000,0.000000,0.000000,0.000000,1648626933.430175,0.000000
93.000000,-20144.062655,-3283.158336,28283.539806,38879.898355,-21668.093999,70175.291023,25241.243868,-5279.169116,-0.144000,0.978000,-0.110000,192.000000,0.000000,0.000000,0.000000,0.000000,0.000000,0.000000,0.000000,0.000000,0.000000,1648626933.430191,0.000000
94.000000,-20153.450388,-3295.362389,28275.537881,38872.790500,-21676.967642,70168.004354,25216.478135,-5285.159383,-0.144000,0.978000,-0.110000,192.000000,0.000000,0.000000,0.000000,0.000000,0.000000,0.000000,0.000000,0.000000,0.000000,1648626933.436836,0.000000
95.000000,-20151.997525,-3307.186461,28270.441684,38866.420253,-21675.939462,70160.851796,25232.079653,-5289.853250,-0.132000,0.976000,-0.102000,192.000000,251.000000,224.000000,30.000000,128.000000,252.000000,208.000000,0.000000,0.000000,0.000000,1648626933.436846,0.000000
96.000000,-20135.881917,-3297.910487,28284.433876,38877.663181,-21661.902566,70175.939223,25253.202051,-5280.420814,-0.132000,0.976000,-0.102000,192.000000,0.000000,0.000000,0.000000,0.000000,0.000000,0.000000,0.000000,0.000000,0.000000,1648626933.444914,0.000000
97.000000,-20151.125807,-3293.596601,28282.690440,38878.445492,-21658.795674,70177.056811,25250.497490,-5276.039872,-0.132000,0.976000,-0.102000,192.000000,0.000000,0.000000,0.000000,0.000000,0.000000,0.000000,0.000000,0.000000,0.000000,1648626933.444928,0.000000
98.000000,-20161.742885,-3293.373083,28280.075285,38874.221012,-21669.412752,70172.765276,25242.003827,-5283.483003,-0.132000,0.976000,-0.102000,192.000000,0.000000,0.000000,0.000000,0.000000,0.000000,0.000000,0.000000,0.000000,0.000000,1648626933.451210,0.000000
99.000000,-20151.684600,-3291.830813,28279.918823,38874.735102,-21674.508950,70171.871206,25233.331350,-5293.340122,-0.132000,0.976000,-0.102000,192.000000,0.000000,0.000000,0.000000,0.000000,0.000000,0.000000,0.000000,0.000000,0.000000,1648626933.451226,0.000000
100.000000,-20150.701124,-3288.478051,28278.220091,38871.337637,-21673.033735,70171.647688,25237.354664,-5295.217668,-0.132000,0.976000,-0.102000,192.000000,0.000000,0.000000,0.000000,0.000000,0.000000,0.000000,0.000000,0.000000,0.000000,1648626933.458620,0.000000
101.000000,-20179.892502,-3307.968772,28265.099617,38850.394052,-21682.801447,70150.301772,25253.090293,-5299.017465,-0.132000,0.976000,-0.102000,192.000000,0.000000,0.000000,0.000000,0.000000,0.000000,0.000000,0.000000,0.000000,0.000000,1648626933.466440,0.000000
102.000000,-20185.681604,-3321.893909,28263.512643,38843.263846,-21696.078383,70139.192955,25250.765711,-5310.752131,-0.132000,0.976000,-0.102000,192.000000,0.000000,0.000000,0.000000,0.000000,0.000000,0.000000,0.000000,0.000000,0.000000,1648626933.466449,0.000000
103.000000,-20152.936298,-3301.218546,28269.569966,38856.406672,-21696.771288,70146.479624,25232.370225,-5309.075750,-0.132000,0.976000,-0.102000,192.000000,0.000000,0.000000,0.000000,0.000000,0.000000,0.000000,0.000000,0.000000,0.000000,1648626933.474410,0.000000
104.000000,-20140.687542,-3296.859955,28259.735198,38858.015997,-21693.619692,70148.692447,25224.480060,-5295.999979,-0.132000,0.976000,-0.102000,192.000000,0.000000,0.000000,0.000000,0.000000,0.000000,0.000000,0.000000,0.000000,0.000000,1648626933.474417,0.000000
105.000000,-20172.158798,-3318.116464,28254.683704,38851.913971,-21691.809200,70141.741054,25238.494603,-5288.065110,-0.130000,0.976000,-0.106000,192.000000,251.000000,240.000000,30.000000,128.000000,252.000000,176.000000,0.000000,0.000000,0.000000,1648626933.481620,0.000000
106.000000,-20182.485304,-3318.205871,28254.750759,38853.970331,-21692.010366,70139.125900,25244.864851,-5295.955276,-0.130000,0.976000,-0.106000,192.000000,0.000000,0.000000,0.000000,0.000000,0.000000,0.000000,0.000000,0.000000,0.000000,1648626933.481626,0.000000
107.000000,-20175.198635,-3304.593659,28256.494195,38860.497041,-21691.876255,70142.121034,25237.041740,-5294.256543,-0.130000,0.976000,-0.106000,192.000000,0.000000,0.000000,0.000000,0.000000,0.000000,0.000000,0.000000,0.000000,0.000000,1648626933.490449,0.000000
108.000000,-20166.503807,-3299.810386,28254.303724,38859.312398,-21695.787811,70144.624429,25237.712292,-5295.441186,-0.130000,0.976000,-0.106000,192.000000,0.000000,0.000000,0.000000,0.000000,0.000000,0.000000,0.000000,0.000000,0.000000,1648626933.490457,0.000000
109.000000,-20170.862397,-3318.787017,28246.078282,38846.415442,-21703.968549,70139.774101,25231.632618,-5297.743416,-0.130000,0.976000,-0.106000,192.000000,0.000000,0.000000,0.000000,0.000000,0.000000,0.000000,0.000000,0.000000,0.000000,1648626933.497716,0.000000
110.000000,-20192.811810,-3336.422543,28249.095768,38829.986910,-21705.153192,70137.471871,25244.350761,-5302.102006,-0.130000,0.976000,-0.106000,192.000000,0.000000,0.000000,0.000000,0.000000,0.000000,0.000000,0.000000,0.000000,0.000000,1648626933.497728,0.000000
111.000000,-20198.936188,-3334.746162,28251.845032,38835.552494,-21696.413660,70143.350380,25256.532461,-5298.615134,-0.130000,0.976000,-0.106000,192.000000,0.000000,0.000000,0.000000,0.000000,0.000000,0.000000,0.000000,0.000000,0.000000,1648626933.505587,0.000000
112.000000,-20173.924586,-3322.787979,28251.554460,38849.298817,-21693.686747,70149.228889,25254.431397,-5294.301247,-0.130000,0.976000,-0.106000,192.000000,0.000000,0.000000,0.000000,0.000000,0.000000,0.000000,0.000000,0.000000,0.000000,1648626933.505595,0.000000
113.000000,-20147.102493,-3302.224374,28255.309553,38867.068454,-21688.031755,70161.030610,25236.170022,-5284.801756,-0.130000,0.976000,-0.106000,192.000000,0.000000,0.000000,0.000000,0.000000,0.000000,0.000000,0.000000,0.000000,0.000000,1648626933.512029,0.000000
114.000000,-20148.935336,-3304.638362,28263.803215,38864.296837,-21682.399116,70157.342572,25230.827955,-5287.506317,-0.130000,0.976000,-0.106000,192.000000,0.000000,0.000000,0.000000,0.000000,0.000000,0.000000,0.000000,0.000000,0.000000,1648626933.512041,0.000000
115.000000,-20158.524234,-3302.112615,28272.185120,38869.147166,-21675.045392,70154.705066,25233.979551,-5286.209915,-0.130000,0.976000,-0.106000,192.000000,0.000000,0.000000,0.000000,0.000000,0.000000,0.000000,0.000000,0.000000,0.000000,1648626933.518723,0.000000
116.000000,-20165.341516,-3299.072778,28262.372704,38867.984875,-21674.419543,70148.066598,25243.456691,-5289.495622,-0.136000,0.972000,-0.108000,192.000000,251.000000,192.000000,30.000000,96.000000,252.000000,160.000000,0.000000,0.000000,0.000000,1648626933.526838,0.000000
117.000000,-20176.338574,-3302.872575,28257.723541,38862.106366,-21685.416601,70143.372732,25241.981476,-5303.443110,-0.136000,0.972000,-0.108000,192.000000,0.000000,0.000000,0.000000,0.000000,0.000000,0.000000,0.000000,0.000000,0.000000,1648626933.526857,0.000000
118.000000,-20176.159760,-3306.962944,28260.562213,38874.735102,-21687.540017,70148.424226,25221.551981,-5299.956238,-0.136000,0.972000,-0.108000,192.000000,0.000000,0.000000,0.000000,0.000000,0.000000,0.000000,0.000000,0.000000,0.000000,1648626933.533982,0.000000
119.000000,-20188.028537,-3316.931822,28250.459224,38866.934343,-21685.930691,70144.065636,25221.015539,-5293.429529,-0.136000,0.972000,-0.108000,192.000000,0.000000,0.000000,0.000000,0.000000,0.000000,0.000000,0.000000,0.000000,0.000000,1648626933.533991,0.000000
120.000000,-20176.405630,-3300.391531,28277.728352,38871.784672,-21668.183406,70159.018953,25228.257504,-5284.555886,-0.136000,0.972000,-0.108000,192.000000,0.000000,0.000000,0.000000,0.000000,0.000000,0.000000,0.000000,0.000000,0.000000,1648626933.541380,0.000000
121.000000,-20167.710801,-3308.952249,28272.565099,38863.872154,-21666.864653,70153.296906,25245.423644,-5292.870735,-0.136000,0.972000,-0.108000,192.000000,0.000000,0.000000,0.000000,0.000000,0.000000,0.000000,0.000000,0.000000,0.000000,1648626933.541389,0.000000
122.000000,-20160.133560,-3314.786054,28260.048122,38855.333788,-21679.113409,70147.820729,25237.444071,-5294.725930,-0.136000,0.972000,-0.108000,192.000000,0.000000,0.000000,0.000000,0.000000,0.000000,0.000000,0.000000,0.000000,0.000000,1648626933.549285,0.000000
123.000000,-20158.077199,-3309.376932,28256.740064,38854.640884,-21687.204741,70147.597211,25238.047569,-5296.558773,-0.136000,0.972000,-0.108000,192.000000,0.000000,0.000000,0.000000,0.000000,0.000000,0.000000,0.000000,0.000000,0.000000,1648626933.549291,0.000000
124.000000,-20156.713743,-3298.893964,28258.863480,38862.508698,-21685.975395,70154.705066,25230.112699,-5293.921267,-0.136000,0.972000,-0.108000,192.000000,0.000000,0.000000,0.000000,0.000000,0.000000,0.000000,0.000000,0.000000,0.000000,1648626933.557362,0.000000
125.000000,-20168.671926,-3293.306028,28262.238593,38862.039311,-21678.822837,70161.075313,25233.353702,-5272.374186,-0.136000,0.972000,-0.108000,192.000000,0.000000,0.000000,0.000000,0.000000,0.000000,0.000000,0.000000,0.000000,0.000000,1648626933.557368,0.000000
126.000000,-20185.212217,-3316.350677,28267.982992,38849.477631,-21682.063840,70153.788645,25249.737531,-5280.867848,-0.136000,0.972000,-0.104000,192.000000,251.000000,192.000000,30.000000,96.000000,252.000000,192.000000,0.000000,0.000000,0.000000,1648626933.563858,0.000000
127.000000,-20177.478513,-3326.923052,28264.697285,38854.283256,-21686.824761,70150.726456,25248.307019,-5283.326540,-0.136000,0.972000,-0.104000,192.000000,0.000000,0.000000,0.000000,0.000000,0.000000,0.000000,0.000000,0.000000,0.000000,1648626933.563864,0.000000
128.000000,-20175.980947,-3330.991069,28253.588468,38855.266733,-21690.758668,70146.792549,25245.490699,-5291.730796,-0.136000,0.972000,-0.104000,192.000000,0.000000,0.000000,0.000000,0.000000,0.000000,0.000000,0.000000,0.000000,0.000000,1648626933.573414,0.000000
129.000000,-20181.993566,-3332.734505,28239.484518,38848.851782,-21691.362165,70144.423264,25238.651066,-5297.117567,-0.136000,0.972000,-0.104000,192.000000,0.000000,0.000000,0.000000,0.000000,0.000000,0.000000,0.000000,0.000000,0.000000,1648626933.573428,0.000000
130.000000,-20180.026612,-3331.169883,28242.949038,38847.577733,-21686.914168,70145.205575,25255.750150,-5292.758977,-0.136000,0.972000,-0.104000,192.000000,0.000000,0.000000,0.000000,0.000000,0.000000,0.000000,0.000000,0.000000,0.000000,1648626933.579533,0.000000
131.000000,-20175.042173,-3312.841453,28260.785730,38866.219087,-21677.034697,70156.403799,25269.071790,-5282.655988,-0.136000,0.972000,-0.104000,192.000000,0.000000,0.000000,0.000000,0.000000,0.000000,0.000000,0.000000,0.000000,0.000000,1648626933.586257,0.000000
132.000000,-20160.893519,-3298.826909,28276.990745,38889.688419,-21666.596433,70174.151084,25250.363380,-5266.719194,-0.136000,0.972000,-0.104000,192.000000,0.000000,0.000000,0.000000,0.000000,0.000000,0.000000,0.000000,0.000000,0.000000,1648626933.586266,0.000000
133.000000,-20160.066504,-3300.883269,28272.162768,38881.619439,-21674.084267,70165.389200,25238.628714,-5269.356700,-0.136000,0.972000,-0.104000,192.000000,0.000000,0.000000,0.000000,0.000000,0.000000,0.000000,0.000000,0.000000,0.000000,1648626933.593627,0.000000
134.000000,-20164.156874,-3302.313781,28260.718675,38867.247268,-21681.616805,70147.686618,25244.775444,-5287.416910,-0.136000,0.972000,-0.104000,192.000000,0.000000,0.000000,0.000000,0.000000,0.000000,0.000000,0.000000,0.000000,0.000000,1648626933.593635,0.000000
135.000000,-20171.912929,-3292.613124,28263.646753,38872.611686,-21671.938499,70148.804206,25252.173871,-5283.974741,-0.136000,0.972000,-0.104000,192.000000,0.000000,0.000000,0.000000,0.000000,0.000000,0.000000,0.000000,0.000000,0.000000,1648626933.601595,0.000000
136.000000,-20166.526159,-3287.382816,28269.234689,38881.105349,-21662.729581,70150.569993,25268.624755,-5283.147726,-0.136000,0.968000,-0.102000,192.000000,251.000000,192.000000,30.000000,64.000000,252.000000,208.000000,0.000000,0.000000,0.000000,1648626933.601601,0.000000
137.000000,-20167.509635,-3302.023208,28269.435855,38886.290954,-21668.608090,70152.469892,25262.299211,-5284.444128,-0.136000,0.968000,-0.102000,192.000000,0.000000,0.000000,0.000000,0.000000,0.000000,0.000000,0.000000,0.000000,0.000000,1648626933.609801,0.000000
138.000000,-20176.159760,-3310.002781,28273.593280,38891.320096,-21675.023040,70154.168624,25240.461557,-5285.561715,-0.136000,0.968000,-0.102000,192.000000,0.000000,0.000000,0.000000,0.000000,0.000000,0.000000,0.000000,0.000000,0.000000,1648626933.609813,0.000000
139.000000,-20166.101475,-3309.309877,28271.223995,38887.252079,-21666.484674,70155.040342,25244.127243,-5284.488831,-0.136000,0.968000,-0.102000,192.000000,0.000000,0.000000,0.000000,0.000000,0.000000,0.000000,0.000000,0.000000,0.000000,1648626933.616349,0.000000
140.000000,-20158.859510,-3309.064008,28260.048122,38867.537840,-21671.714982,70145.786720,25255.526633,-5294.547116,-0.136000,0.968000,-0.102000,192.000000,0.000000,0.000000,0.000000,0.000000,0.000000,0.000000,0.000000,0.000000,0.000000,1648626933.616359,0.000000
141.000000,-20163.933356,-3295.183575,28269.167634,38869.214221,-21668.786903,70154.638011,25254.677266,-5297.072863,-0.136000,0.968000,-0.102000,192.000000,0.000000,0.000000,0.000000,0.000000,0.000000,0.000000,0.000000,0.000000,0.000000,1648626933.624280,0.000000
142.000000,-20167.353173,-3303.073740,28276.297841,38876.009151,-21666.059991,70165.143331,25249.893993,-5281.873677,-0.136000,0.968000,-0.102000,192.000000,0.000000,0.000000,0.000000,0.000000,0.000000,0.000000,0.000000,0.000000,0.000000,1648626933.624291,0.000000
143.000000,-20171.823522,-3320.686915,28268.832358,38876.635000,-21672.474941,70160.918851,25241.199165,-5280.778442,-0.136000,0.968000,-0.102000,192.000000,0.000000,0.000000,0.000000,0.000000,0.000000,0.000000,0.000000,0.000000,0.000000,1648626933.632421,0.000000
144.000000,-20170.013031,-3310.718037,28265.591355,38879.607782,-21666.998764,70159.734209,25243.836670,-5285.315846,-0.136000,0.968000,-0.102000,192.000000,0.000000,0.000000,0.000000,0.000000,0.000000,0.000000,0.000000,0.000000,0.000000,1648626933.632431,0.000000
145.000000,-20163.821598,-3292.836641,28272.296878,38882.513509,-21656.493444,70164.673944,25260.913403,-5280.778442,-0.136000,0.968000,-0.102000,192.000000,0.000000,0.000000,0.000000,0.000000,0.000000,0.000000,0.000000,0.000000,0.000000,1648626933.639345,0.000000
146.000000,-20160.692353,-3294.781243,28285.506759,38889.062570,-21652.403075,70168.764313,25270.748171,-5266.093345,-0.138000,0.974000,-0.102000,192.000000,251.000000,176.000000,30.000000,112.000000,252.000000,208.000000,0.000000,0.000000,0.000000,1648626933.645870,0.000000
147.000000,-20162.882824,-3303.900755,28280.119989,38893.689381,-21659.801502,70166.238566,25258.767636,-5273.134145,-0.138000,0.974000,-0.102000,192.000000,0.000000,0.000000,0.000000,0.000000,0.000000,0.000000,0.000000,0.000000,0.000000,1648626933.645879,0.000000
148.000000,-20158.457179,-3304.034865,28281.259928,38891.901242,-21658.818025,70166.059752,25238.941638,-5278.722081,-0.138000,0.974000,-0.102000,192.000000,0.000000,0.000000,0.000000,0.000000,0.000000,0.000000,0.000000,0.000000,0.000000,1648626933.653833,0.000000
149.000000,-20150.611717,-3299.653923,28280.611727,38879.361913,-21658.527453,70161.857624,25249.536365,-5281.247828,-0.138000,0.974000,-0.102000,192.000000,0.000000,0.000000,0.000000,0.000000,0.000000,0.000000,0.000000,0.000000,0.000000,1648626933.653839,0.000000
150.000000,-20163.218100,-3293.775415,28264.362009,38871.739968,-21659.488578,70159.130711,25267.440113,-5282.276008,-0.138000,0.974000,-0.102000,192.000000,0.000000,0.000000,0.000000,0.000000,0.000000,0.000000,0.000000,0.000000,0.000000,1648626933.662001,0.000000
151.000000,-20171.152970,-3313.489653,28264.093788,38862.396939,-21669.390401,70150.301772,25280.985270,-5291.194354,-0.138000,0.974000,-0.102000,192.000000,0.000000,0.000000,0.000000,0.000000,0.000000,0.000000,0.000000,0.000000,0.000000,1648626933.662016,0.000000
152.000000,-20166.235586,-3323.391476,28266.865404,38861.704035,-21681.102715,70153.833348,25266.277822,-5289.428567,-0.138000,0.974000,-0.102000,192.000000,0.000000,0.000000,0.000000,0.000000,0.000000,0.000000,0.000000,0.000000,0.000000,1648626933.669037,0.000000
153.000000,-20159.015972,-3308.035828,28281.639908,38871.874079,-21677.146456,70167.602023,25248.195261,-5274.542305,-0.138000,0.974000,-0.102000,192.000000,0.000000,0.000000,0.000000,0.000000,0.000000,0.000000,0.000000,0.000000,0.000000,1648626933.669044,0.000000
154.000000,-20145.671981,-3288.478051,28292.681669,38870.018884,-21667.959889,70176.185092,25249.581069,-5267.412098,-0.138000,0.974000,-0.102000,192.000000,0.000000,0.000000,0.000000,0.000000,0.000000,0.000000,0.000000,0.000000,0.000000,1648626933.676567,0.000000
