%OpenBCI Raw EEG Data
%Number of channels = 8
%Sample Rate = 256 Hz
%Board = OpenBCI_GUI$BoardCytonSerial
%Channels = Fp1, Fp2, F3, F4, Fz, Pz, O1, O2
%Data recorded at AIMS Lab (http://aimsl.uiu.ac.bd) by Rana Depto (mail@ranadepto.com)
%Brainwaves were obtained via the Ultracortex Mark IV Headset using the OpenBCI Cyton Board
%Recording Application = ConcentrateToday (https://concentrate.today)
%Data type = RAW data with noise
%Day No = 9
%Subject ID = 8
%Session ID = 7
%Record starting timestamp (UTC+6) = 2022-03-29T11:52:23.857150
%Record ending timestamp (UTC+6)   = 2022-03-29T11:52:49.773990
%Recorded durations = ~25 seconds
Sample Index, EXG Channel 0, EXG Channel 1, EXG Channel 2, EXG Channel 3, EXG Channel 4, EXG Channel 5, EXG Channel 6, EXG Channel 7, Accel Channel 0, Accel Channel 1, Accel Channel 2, Other, Other, Other, Other, Other, Other, Other, Analog Channel 0, Analog Channel 1, Analog Channel 2, Timestamp, Timestamp (Formatted)
217.000000,-34515.317919,-16503.008187,7960.305567,14897.057700,861.413880,28710.234607,3419.347515,16747.893899,-0.134000,0.972000,0.018000,192.000000,0.000000,0.000000,0.000000,0.000000,0.000000,0.000000,0.000000,0.000000,0.000000,1648533143.856881,0.000000
218.000000,-34519.341233,-16502.561152,7956.706936,14891.939150,854.797763,28707.172418,3418.833425,16751.581937,-0.134000,0.972000,0.018000,192.000000,0.000000,0.000000,0.000000,0.000000,0.000000,0.000000,0.000000,0.000000,0.000000,1648533143.856898,0.000000
219.000000,-34524.973872,-16504.237533,7951.096648,14888.340519,851.042670,28703.842009,3416.285326,16752.051324,-0.134000,0.972000,0.018000,192.000000,0.000000,0.000000,0.000000,0.000000,0.000000,0.000000,0.000000,0.000000,0.000000,1648533143.863892,0.000000
220.000000,-34527.209047,-16505.779803,7950.247282,14892.341482,852.227313,28700.444543,3413.267841,16749.212652,-0.134000,0.972000,0.018000,192.000000,0.000000,0.000000,0.000000,0.000000,0.000000,0.000000,0.000000,0.000000,0.000000,1648533143.863900,0.000000
221.000000,-34521.844628,-16508.864344,7951.722497,14891.536819,854.462487,28698.790514,3411.792625,16745.770484,-0.134000,0.972000,0.018000,192.000000,0.000000,0.000000,0.000000,0.000000,0.000000,0.000000,0.000000,0.000000,0.000000,1648533143.871065,0.000000
222.000000,-34520.168247,-16509.154917,7954.516465,14893.324958,858.262284,28703.618491,3414.296021,16747.670382,-0.134000,0.970000,0.022000,192.000000,251.000000,208.000000,30.000000,80.000000,0.000000,176.000000,0.000000,0.000000,0.000000,1648533143.871071,0.000000
223.000000,-34525.778535,-16510.943056,7951.454276,14889.368700,856.384737,28701.495075,3416.464140,16747.312754,-0.134000,0.970000,0.022000,192.000000,0.000000,0.000000,0.000000,0.000000,0.000000,0.000000,0.000000,0.000000,0.000000,1648533143.877502,0.000000
224.000000,-34524.213913,-16507.590295,7952.773029,14885.792421,854.171914,28699.036384,3416.441788,16744.094103,-0.134000,0.970000,0.022000,192.000000,0.000000,0.000000,0.000000,0.000000,0.000000,0.000000,0.000000,0.000000,0.000000,1648533143.885447,0.000000
225.000000,-34521.196427,-16505.578638,7953.287119,14886.038290,853.389603,28699.483418,3415.994753,16742.037742,-0.134000,0.970000,0.022000,192.000000,0.000000,0.000000,0.000000,0.000000,0.000000,0.000000,0.000000,0.000000,0.000000,1648533143.885451,0.000000
226.000000,-34521.956387,-16504.371644,7955.052907,14891.648578,856.161220,28701.852703,3415.771236,16744.496434,-0.134000,0.970000,0.022000,192.000000,0.000000,0.000000,0.000000,0.000000,0.000000,0.000000,0.000000,0.000000,0.000000,1648533143.893473,0.000000
227.000000,-34524.102154,-16503.835202,7953.063602,14889.994549,851.847333,28695.996546,3411.591460,16742.708295,-0.134000,0.970000,0.022000,192.000000,0.000000,0.000000,0.000000,0.000000,0.000000,0.000000,0.000000,0.000000,0.000000,1648533143.893477,0.000000
228.000000,-34513.350965,-16499.096632,7959.210331,14893.995511,857.971711,28697.002375,3413.513710,16740.853100,-0.134000,0.970000,0.022000,192.000000,0.000000,0.000000,0.000000,0.000000,0.000000,0.000000,0.000000,0.000000,0.000000,1648533143.900108,0.000000
229.000000,-34516.659023,-16498.649597,7960.372622,14891.201543,857.032938,28702.523256,3417.604079,16742.484777,-0.134000,0.970000,0.022000,192.000000,0.000000,0.000000,0.000000,0.000000,0.000000,0.000000,0.000000,0.000000,0.000000,1648533143.900113,0.000000
230.000000,-34520.727041,-16498.806059,7957.623357,14891.872095,854.350728,28698.119962,3415.748884,16739.869623,-0.134000,0.970000,0.022000,192.000000,0.000000,0.000000,0.000000,0.000000,0.000000,0.000000,0.000000,0.000000,0.000000,1648533143.908131,0.000000
231.000000,-34516.100230,-16497.464955,7958.360965,14890.374528,855.021281,28696.465933,3417.157044,16739.467292,-0.134000,0.970000,0.022000,192.000000,0.000000,0.000000,0.000000,0.000000,0.000000,0.000000,0.000000,0.000000,0.000000,1648533143.908136,0.000000
232.000000,-34525.487962,-16500.147164,7952.907139,14884.205447,849.880379,28694.901311,3417.872300,16743.200033,-0.132000,0.976000,0.026000,192.000000,251.000000,224.000000,30.000000,128.000000,0.000000,208.000000,0.000000,0.000000,0.000000,1648533143.916146,0.000000
233.000000,-34525.085631,-16500.191867,7952.907139,14885.680662,851.556760,28693.917834,3419.548681,16746.172815,-0.132000,0.976000,0.026000,192.000000,0.000000,0.000000,0.000000,0.000000,0.000000,0.000000,0.000000,0.000000,0.000000,1648533143.916151,0.000000
234.000000,-34523.811582,-16496.079146,7956.639881,14890.821563,856.094164,28697.762334,3421.470931,16748.564452,-0.132000,0.976000,0.026000,192.000000,0.000000,0.000000,0.000000,0.000000,0.000000,0.000000,0.000000,0.000000,0.000000,1648533143.923305,0.000000
235.000000,-34522.582236,-16495.788574,7958.830352,14895.157802,859.625740,28700.489247,3422.521463,16751.648992,-0.132000,0.976000,0.026000,192.000000,0.000000,0.000000,0.000000,0.000000,0.000000,0.000000,0.000000,0.000000,0.000000,1648533143.923317,0.000000
236.000000,-34525.532666,-16494.738042,7955.857570,14890.732156,854.954225,28698.701107,3421.023896,16752.498359,-0.132000,0.976000,0.026000,192.000000,0.000000,0.000000,0.000000,0.000000,0.000000,0.000000,0.000000,0.000000,0.000000,1648533143.930732,0.000000
237.000000,-34525.599721,-16497.777879,7953.376526,14887.155877,852.473182,28696.912968,3413.312544,16744.518786,-0.132000,0.976000,0.026000,192.000000,0.000000,0.000000,0.000000,0.000000,0.000000,0.000000,0.000000,0.000000,0.000000,1648533143.930737,0.000000
238.000000,-34533.601646,-16498.202562,7950.202578,14880.673871,848.002833,28696.823561,3410.026838,16739.400237,-0.132000,0.976000,0.026000,192.000000,0.000000,0.000000,0.000000,0.000000,0.000000,0.000000,0.000000,0.000000,0.000000,1648533143.937792,0.000000
239.000000,-34528.617207,-16493.665158,7952.191884,14882.841990,854.037804,28698.030555,3407.814015,16737.835614,-0.132000,0.976000,0.026000,192.000000,0.000000,0.000000,0.000000,0.000000,0.000000,0.000000,0.000000,0.000000,0.000000,1648533143.945778,0.000000
240.000000,-34526.493791,-16489.306568,7954.717631,14884.272502,856.161220,28702.255035,3408.417512,16742.484777,-0.132000,0.976000,0.026000,192.000000,0.000000,0.000000,0.000000,0.000000,0.000000,0.000000,0.000000,0.000000,0.000000,1648533143.945782,0.000000
241.000000,-34523.073974,-16487.652539,7954.628224,14889.748679,857.412917,28700.980985,3407.456387,16744.094103,-0.132000,0.976000,0.026000,192.000000,0.000000,0.000000,0.000000,0.000000,0.000000,0.000000,0.000000,0.000000,0.000000,1648533143.952888,0.000000
242.000000,-34523.632768,-16488.747774,7955.857570,14887.133525,857.591731,28697.762334,3405.511785,16743.043571,-0.132000,0.976000,0.026000,192.000000,0.000000,0.000000,0.000000,0.000000,0.000000,0.000000,0.000000,0.000000,0.000000,1648533143.952892,0.000000
243.000000,-34519.497695,-16486.512600,7966.631111,14897.303569,865.906580,28705.496038,3405.556489,16749.346763,-0.130000,0.976000,0.016000,192.000000,251.000000,240.000000,30.000000,128.000000,0.000000,128.000000,0.000000,0.000000,0.000000,1648533143.960389,0.000000
244.000000,-34524.929169,-16486.356138,7962.786610,14889.592217,859.491630,28708.133544,3406.897593,16751.313716,-0.130000,0.976000,0.016000,192.000000,0.000000,0.000000,0.000000,0.000000,0.000000,0.000000,0.000000,0.000000,0.000000,1648533143.960393,0.000000
245.000000,-34529.734794,-16490.781783,7954.628224,14879.533932,852.070850,28702.836180,3404.729474,16745.815187,-0.130000,0.976000,0.016000,192.000000,0.000000,0.000000,0.000000,0.000000,0.000000,0.000000,0.000000,0.000000,0.000000,1648533143.968409,0.000000
246.000000,-34530.405346,-16496.168553,7952.035421,14874.169513,849.656862,28703.372622,3407.501090,16748.452693,-0.130000,0.976000,0.016000,192.000000,0.000000,0.000000,0.000000,0.000000,0.000000,0.000000,0.000000,0.000000,0.000000,1648533143.968412,0.000000
247.000000,-34523.453954,-16494.939207,7957.444544,14881.299720,853.858990,28706.166590,3415.815939,16755.091161,-0.130000,0.976000,0.016000,192.000000,0.000000,0.000000,0.000000,0.000000,0.000000,0.000000,0.000000,0.000000,0.000000,1648533143.976408,0.000000
248.000000,-34524.280968,-16494.358062,7959.076221,14881.925569,853.747231,28706.703032,3420.822730,16760.947318,-0.130000,0.976000,0.016000,192.000000,0.000000,0.000000,0.000000,0.000000,0.000000,0.000000,0.000000,0.000000,0.000000,1648533143.976411,0.000000
249.000000,-34523.141029,-16493.396937,7958.629186,14881.970272,855.289502,28707.418288,3423.460236,16763.093086,-0.130000,0.976000,0.016000,192.000000,0.000000,0.000000,0.000000,0.000000,0.000000,0.000000,0.000000,0.000000,0.000000,1648533143.983053,0.000000
250.000000,-34530.070070,-16494.514524,7953.778857,14875.018880,846.974653,28703.462029,3420.353344,16760.053248,-0.130000,0.976000,0.016000,192.000000,0.000000,0.000000,0.000000,0.000000,0.000000,0.000000,0.000000,0.000000,0.000000,1648533143.983056,0.000000
251.000000,-34522.403422,-16494.514524,7953.756506,14875.935301,848.673385,28701.629186,3415.145387,16756.186397,-0.130000,0.976000,0.016000,192.000000,0.000000,0.000000,0.000000,0.000000,0.000000,0.000000,0.000000,0.000000,0.000000,1648533143.991049,0.000000
252.000000,-34524.079803,-16493.285178,7955.634052,14877.522275,851.713222,28702.791477,3416.799416,16757.147522,-0.130000,0.976000,0.016000,192.000000,0.000000,0.000000,0.000000,0.000000,0.000000,0.000000,0.000000,0.000000,0.000000,1648533143.991053,0.000000
253.000000,-34530.584160,-16492.100536,7957.131619,14876.717612,849.902731,28698.254072,3412.239660,16749.413818,-0.130000,0.974000,0.022000,192.000000,251.000000,240.000000,30.000000,112.000000,0.000000,176.000000,0.000000,0.000000,0.000000,1648533143.998083,0.000000
254.000000,-34528.170172,-16489.977120,7954.494113,14877.119944,849.075717,28697.360003,3409.959782,16746.575147,-0.130000,0.974000,0.022000,192.000000,0.000000,0.000000,0.000000,0.000000,0.000000,0.000000,0.000000,0.000000,0.000000,1648533144.006061,0.000000
255.000000,-34522.917512,-16487.563132,7953.756506,14877.231702,849.321586,28695.258939,3405.645896,16744.138806,-0.130000,0.974000,0.022000,192.000000,0.000000,0.000000,0.000000,0.000000,0.000000,0.000000,0.000000,0.000000,0.000000,1648533144.006067,0.000000
0.000000,-34516.703727,-16481.997547,7954.628224,14881.098554,851.400298,28694.968366,3401.086140,16740.361362,-0.130000,0.974000,0.022000,192.000000,0.000000,0.000000,0.000000,0.000000,0.000000,0.000000,0.000000,0.000000,0.000000,1648533144.012635,0.000000
1.000000,-34517.508390,-16485.596178,7955.790514,14879.086897,850.752097,28694.968366,3397.867489,16737.857966,-0.130000,0.974000,0.022000,192.000000,0.000000,0.000000,0.000000,0.000000,0.000000,0.000000,0.000000,0.000000,0.000000,1648533144.012646,0.000000
2.000000,-34522.291663,-16486.892579,7958.986814,14878.505752,851.802629,28700.288081,3402.181375,16737.902670,-0.130000,0.974000,0.022000,192.000000,0.000000,0.000000,0.000000,0.000000,0.000000,0.000000,0.000000,0.000000,0.000000,1648533144.020711,0.000000
3.000000,-34513.485076,-16476.051983,7965.804096,14888.184057,861.279769,28709.407593,3409.088064,16743.021219,-0.130000,0.974000,0.022000,192.000000,0.000000,0.000000,0.000000,0.000000,0.000000,0.000000,0.000000,0.000000,0.000000,1648533144.020715,0.000000
4.000000,-34515.139105,-16473.660347,7965.401765,14885.993586,858.195228,28712.313320,3412.485529,16748.340934,-0.130000,0.974000,0.022000,192.000000,0.000000,0.000000,0.000000,0.000000,0.000000,0.000000,0.000000,0.000000,0.000000,1648533144.028686,0.000000
5.000000,-34516.480209,-16477.080164,7962.317224,14883.043156,855.043632,28707.910026,3411.278535,16754.599423,-0.130000,0.974000,0.022000,192.000000,0.000000,0.000000,0.000000,0.000000,0.000000,0.000000,0.000000,0.000000,0.000000,1648533144.028690,0.000000
6.000000,-34510.534645,-16478.465972,7964.015956,14884.272502,857.412917,28710.435773,3416.240623,16759.136827,-0.130000,0.974000,0.022000,192.000000,0.000000,0.000000,0.000000,0.000000,0.000000,0.000000,0.000000,0.000000,0.000000,1648533144.035885,0.000000
7.000000,-34508.098305,-16474.912044,7967.703994,14890.352176,861.793859,28715.509619,3422.186187,16765.887054,-0.134000,0.970000,0.016000,192.000000,251.000000,208.000000,30.000000,80.000000,0.000000,128.000000,0.000000,0.000000,0.000000,1648533144.035889,0.000000
8.000000,-34514.647366,-16469.257053,7965.848799,14892.430889,859.245760,28712.872113,3420.800378,16767.742249,-0.134000,0.970000,0.016000,192.000000,0.000000,0.000000,0.000000,0.000000,0.000000,0.000000,0.000000,0.000000,0.000000,1648533144.043340,0.000000
9.000000,-34511.361660,-16468.407687,7964.507695,14894.196677,860.050423,28711.240436,3419.571032,16769.172760,-0.134000,0.970000,0.016000,192.000000,0.000000,0.000000,0.000000,0.000000,0.000000,0.000000,0.000000,0.000000,0.000000,1648533144.043344,0.000000
10.000000,-34506.556035,-16471.939262,7967.771049,14897.594142,863.581999,28713.185038,3417.380562,16768.368097,-0.134000,0.970000,0.016000,192.000000,0.000000,0.000000,0.000000,0.000000,0.000000,0.000000,0.000000,0.000000,0.000000,1648533144.051424,0.000000
11.000000,-34510.758163,-16477.281329,7963.233645,14892.162668,858.038766,28712.693299,3414.161910,16765.305908,-0.134000,0.970000,0.016000,192.000000,0.000000,0.000000,0.000000,0.000000,0.000000,0.000000,0.000000,0.000000,0.000000,1648533144.051428,0.000000
12.000000,-34509.282948,-16474.330899,7963.457163,14891.894447,858.999891,28713.386203,3412.262012,16764.635356,-0.134000,0.970000,0.016000,192.000000,0.000000,0.000000,0.000000,0.000000,0.000000,0.000000,0.000000,0.000000,0.000000,1648533144.058543,0.000000
13.000000,-34503.672660,-16465.457256,7969.715651,14898.622322,865.258380,28716.694262,3411.971439,16766.065868,-0.134000,0.970000,0.016000,192.000000,0.000000,0.000000,0.000000,0.000000,0.000000,0.000000,0.000000,0.000000,0.000000,1648533144.058547,0.000000
14.000000,-34514.803829,-16469.458219,7964.060660,14889.681624,859.603388,28713.497962,3409.289230,16766.110571,-0.134000,0.970000,0.016000,192.000000,0.000000,0.000000,0.000000,0.000000,0.000000,0.000000,0.000000,0.000000,0.000000,1648533144.065022,0.000000
15.000000,-34506.868959,-16467.670079,7966.117020,14892.252075,864.431365,28714.816715,3409.646858,16763.897748,-0.134000,0.970000,0.016000,192.000000,0.000000,0.000000,0.000000,0.000000,0.000000,0.000000,0.000000,0.000000,0.000000,1648533144.072999,0.000000
16.000000,-34497.861206,-16462.864454,7974.945959,14899.091709,868.074699,28718.415346,3409.780968,16762.690754,-0.134000,0.970000,0.016000,192.000000,0.000000,0.000000,0.000000,0.000000,0.000000,0.000000,0.000000,0.000000,0.000000,1648533144.073003,0.000000
17.000000,-34501.795113,-16459.891672,7976.108250,14898.197639,866.219505,28717.253055,3407.657553,16763.316603,-0.132000,0.976000,0.012000,192.000000,251.000000,224.000000,30.000000,128.000000,0.000000,96.000000,0.000000,0.000000,0.000000,1648533144.080980,0.000000
18.000000,-34495.536625,-16459.243472,7976.845858,14896.789479,868.387624,28714.593198,3407.031704,16762.199016,-0.132000,0.976000,0.012000,192.000000,0.000000,0.000000,0.000000,0.000000,0.000000,0.000000,0.000000,0.000000,0.000000,1648533144.080984,0.000000
19.000000,-34493.860244,-16462.775047,7977.292893,14898.890543,869.929894,28712.290968,3407.635201,16760.746152,-0.132000,0.976000,0.012000,192.000000,0.000000,0.000000,0.000000,0.000000,0.000000,0.000000,0.000000,0.000000,0.000000,1648533144.088140,0.000000
20.000000,-34500.722230,-16466.217216,7973.090765,14893.302607,865.973635,28713.855590,3409.870375,16759.360344,-0.132000,0.976000,0.012000,192.000000,0.000000,0.000000,0.000000,0.000000,0.000000,0.000000,0.000000,0.000000,0.000000,1648533144.088144,0.000000
21.000000,-34508.835913,-16475.269672,7962.227817,14879.891560,856.340034,28705.496038,3408.663381,16754.755885,-0.132000,0.976000,0.012000,192.000000,0.000000,0.000000,0.000000,0.000000,0.000000,0.000000,0.000000,0.000000,0.000000,1648533144.095626,0.000000
22.000000,-34513.730945,-16478.890655,7958.897407,14873.364851,851.065022,28698.321128,3407.724608,16755.113513,-0.132000,0.976000,0.012000,192.000000,0.000000,0.000000,0.000000,0.000000,0.000000,0.000000,0.000000,0.000000,0.000000,1648533144.095637,0.000000
23.000000,-34513.149799,-16473.950919,7959.433849,14878.706918,854.529542,28698.008203,3410.384466,16757.527501,-0.132000,0.976000,0.012000,192.000000,0.000000,0.000000,0.000000,0.000000,0.000000,0.000000,0.000000,0.000000,0.000000,1648533144.103570,0.000000
24.000000,-34509.975852,-16474.666175,7958.875055,14878.393993,854.015452,28699.371660,3407.568146,16757.348687,-0.132000,0.976000,0.012000,192.000000,0.000000,0.000000,0.000000,0.000000,0.000000,0.000000,0.000000,0.000000,0.000000,1648533144.103574,0.000000
25.000000,-34507.450105,-16480.321167,7959.478552,14878.215179,855.222446,28700.891578,3404.796529,16760.455580,-0.132000,0.976000,0.012000,192.000000,0.000000,0.000000,0.000000,0.000000,0.000000,0.000000,0.000000,0.000000,0.000000,1648533144.111634,0.000000
26.000000,-34506.064296,-16476.409611,7963.323052,14884.898351,860.050423,28705.786610,3411.300887,16765.864702,-0.132000,0.976000,0.012000,192.000000,0.000000,0.000000,0.000000,0.000000,0.000000,0.000000,0.000000,0.000000,0.000000,1648533144.111638,0.000000
27.000000,-34508.165360,-16473.593291,7960.886712,14881.478534,857.278807,28704.087878,3413.133730,16766.848179,-0.130000,0.972000,0.014000,192.000000,251.000000,240.000000,30.000000,96.000000,0.000000,112.000000,0.000000,0.000000,0.000000,1648533144.118165,0.000000
28.000000,-34503.471494,-16473.526236,7964.239474,14881.947921,860.720975,28708.267654,3415.637125,16769.038650,-0.130000,0.972000,0.014000,192.000000,0.000000,0.000000,0.000000,0.000000,0.000000,0.000000,0.000000,0.000000,0.000000,1648533144.118169,0.000000
29.000000,-34502.890349,-16475.672004,7963.188942,14883.423136,859.961016,28710.435773,3414.363076,16768.837484,-0.130000,0.972000,0.014000,192.000000,0.000000,0.000000,0.000000,0.000000,0.000000,0.000000,0.000000,0.000000,0.000000,1648533144.125314,0.000000
30.000000,-34502.912701,-16478.130696,7964.172419,14886.775897,860.497458,28710.324014,3415.547718,16767.250510,-0.130000,0.972000,0.014000,192.000000,0.000000,0.000000,0.000000,0.000000,0.000000,0.000000,0.000000,0.000000,0.000000,1648533144.133214,0.000000
31.000000,-34501.839817,-16471.402821,7970.833238,14888.184057,863.693757,28715.375509,3419.660439,16772.212597,-0.130000,0.972000,0.014000,192.000000,0.000000,0.000000,0.000000,0.000000,0.000000,0.000000,0.000000,0.000000,0.000000,1648533144.133217,0.000000
32.000000,-34513.328613,-16470.329937,7961.825485,14876.069412,851.623815,28705.160761,3414.497186,16766.736420,-0.130000,0.972000,0.014000,192.000000,0.000000,0.000000,0.000000,0.000000,0.000000,0.000000,0.000000,0.000000,0.000000,1648533144.141245,0.000000
33.000000,-34508.590044,-16467.625376,7964.060660,14880.718575,853.255493,28699.595177,3411.367942,16763.651879,-0.130000,0.972000,0.014000,192.000000,0.000000,0.000000,0.000000,0.000000,0.000000,0.000000,0.000000,0.000000,0.000000,1648533144.141249,0.000000
34.000000,-34510.914625,-16473.190960,7960.529084,14876.874075,850.886208,28696.801209,3406.830538,16762.646051,-0.130000,0.972000,0.014000,192.000000,0.000000,0.000000,0.000000,0.000000,0.000000,0.000000,0.000000,0.000000,0.000000,1648533144.147762,0.000000
35.000000,-34508.902968,-16474.688527,7959.389145,14877.008185,852.808458,28697.270596,3408.171643,16765.127094,-0.130000,0.972000,0.014000,192.000000,0.000000,0.000000,0.000000,0.000000,0.000000,0.000000,0.000000,0.000000,0.000000,1648533144.147767,0.000000
36.000000,-34503.404439,-16473.615643,7960.797305,14875.711784,853.300196,28696.600043,3410.630335,16762.713106,-0.130000,0.972000,0.014000,192.000000,0.000000,0.000000,0.000000,0.000000,0.000000,0.000000,0.000000,0.000000,0.000000,1648533144.155901,0.000000
37.000000,-34504.410267,-16470.240530,7957.332785,14877.611682,850.997967,28694.119000,3411.993791,16764.881225,-0.132000,0.980000,0.018000,192.000000,251.000000,224.000000,30.000000,160.000000,0.000000,144.000000,0.000000,0.000000,0.000000,1648533144.155905,0.000000
38.000000,-34500.878692,-16470.218178,7961.043174,14879.131601,853.076679,28693.046116,3412.530233,16768.613967,-0.132000,0.980000,0.018000,192.000000,0.000000,0.000000,0.000000,0.000000,0.000000,0.000000,0.000000,0.000000,0.000000,1648533144.163940,0.000000
39.000000,-34502.420962,-16469.860550,7960.976119,14876.091764,852.048499,28698.075259,3414.921870,16774.336013,-0.132000,0.980000,0.018000,192.000000,0.000000,0.000000,0.000000,0.000000,0.000000,0.000000,0.000000,0.000000,0.000000,1648533144.163945,0.000000
40.000000,-34505.594910,-16469.637033,7958.852703,14876.784668,851.623815,28697.203540,3414.653649,16779.901597,-0.132000,0.980000,0.018000,192.000000,0.000000,0.000000,0.000000,0.000000,0.000000,0.000000,0.000000,0.000000,0.000000,1648533144.170943,0.000000
41.000000,-34510.221721,-16471.313414,7959.389145,14881.679700,852.786106,28697.158837,3412.731399,16783.500228,-0.132000,0.980000,0.018000,192.000000,0.000000,0.000000,0.000000,0.000000,0.000000,0.000000,0.000000,0.000000,0.000000,1648533144.170974,0.000000
42.000000,-34510.825218,-16474.956748,7956.528122,14878.349290,848.651033,28692.442619,3405.802358,16779.208693,-0.132000,0.980000,0.018000,192.000000,0.000000,0.000000,0.000000,0.000000,0.000000,0.000000,0.000000,0.000000,0.000000,1648533144.178490,0.000000
43.000000,-34513.999166,-16474.219140,7952.281291,14877.164647,847.868722,28687.257014,3400.661457,16775.006565,-0.132000,0.980000,0.018000,192.000000,0.000000,0.000000,0.000000,0.000000,0.000000,0.000000,0.000000,0.000000,0.000000,1648533144.178499,0.000000
44.000000,-34511.674584,-16471.313414,7955.298776,14877.678737,851.690871,28688.531064,3399.320352,16777.353499,-0.132000,0.980000,0.018000,192.000000,0.000000,0.000000,0.000000,0.000000,0.000000,0.000000,0.000000,0.000000,0.000000,1648533144.185571,0.000000
45.000000,-34512.143971,-16468.430039,7957.176323,14876.628205,853.724879,28692.621433,3402.293134,16778.694603,-0.132000,0.980000,0.018000,192.000000,0.000000,0.000000,0.000000,0.000000,0.000000,0.000000,0.000000,0.000000,0.000000,1648533144.193507,0.000000
46.000000,-34511.272253,-16465.233739,7956.438715,14880.539761,854.663653,28694.387221,3402.449596,16775.408897,-0.132000,0.980000,0.018000,192.000000,0.000000,0.000000,0.000000,0.000000,0.000000,0.000000,0.000000,0.000000,0.000000,1648533144.193511,0.000000
47.000000,-34511.451067,-16465.993698,7954.360003,14881.545589,855.021281,28691.168569,3403.701294,16774.447772,-0.138000,0.974000,0.022000,192.000000,251.000000,176.000000,30.000000,112.000000,0.000000,176.000000,0.000000,0.000000,0.000000,1648533144.200695,0.000000
48.000000,-34513.753297,-16468.251225,7950.493151,14873.811886,849.187475,28685.737096,3405.489433,16772.324356,-0.138000,0.974000,0.022000,192.000000,0.000000,0.000000,0.000000,0.000000,0.000000,0.000000,0.000000,0.000000,0.000000,1648533144.200699,0.000000
49.000000,-34514.490904,-16473.034498,7947.185093,14871.129676,845.611196,28680.909119,3404.818881,16764.613004,-0.138000,0.974000,0.022000,192.000000,0.000000,0.000000,0.000000,0.000000,0.000000,0.000000,0.000000,0.000000,0.000000,1648533144.208177,0.000000
50.000000,-34511.696936,-16476.297853,7951.610738,14872.068450,848.449868,28681.780837,3405.668247,16764.791818,-0.138000,0.974000,0.022000,192.000000,0.000000,0.000000,0.000000,0.000000,0.000000,0.000000,0.000000,0.000000,0.000000,1648533144.208182,0.000000
51.000000,-34520.324709,-16475.604948,7946.514540,14868.335708,842.839580,28678.495130,3404.684771,16766.602310,-0.138000,0.974000,0.022000,192.000000,0.000000,0.000000,0.000000,0.000000,0.000000,0.000000,0.000000,0.000000,0.000000,1648533144.216161,0.000000
52.000000,-34519.788268,-16476.811943,7944.435828,14867.173417,841.498475,28675.030610,3403.902460,16767.183455,-0.138000,0.974000,0.022000,192.000000,0.000000,0.000000,0.000000,0.000000,0.000000,0.000000,0.000000,0.000000,0.000000,1648533144.216165,0.000000
53.000000,-34524.549189,-16478.421268,7939.697258,14861.004336,836.156408,28672.840139,3404.215384,16770.089182,-0.138000,0.974000,0.022000,192.000000,0.000000,0.000000,0.000000,0.000000,0.000000,0.000000,0.000000,0.000000,0.000000,1648533144.224182,0.000000
54.000000,-34523.521009,-16477.929530,7943.385296,14864.200635,838.771562,28674.807093,3406.584669,16771.609100,-0.138000,0.974000,0.022000,192.000000,0.000000,0.000000,0.000000,0.000000,0.000000,0.000000,0.000000,0.000000,0.000000,1648533144.224186,0.000000
55.000000,-34519.408288,-16480.388222,7946.559244,14865.005298,840.559702,28678.629241,3408.663381,16771.430286,-0.138000,0.974000,0.022000,192.000000,0.000000,0.000000,0.000000,0.000000,0.000000,0.000000,0.000000,0.000000,0.000000,1648533144.230761,0.000000
56.000000,-34518.558922,-16480.477629,7949.040288,14868.134542,843.644243,28676.170549,3406.584669,16771.765563,-0.138000,0.974000,0.022000,192.000000,0.000000,0.000000,0.000000,0.000000,0.000000,0.000000,0.000000,0.000000,0.000000,1648533144.230765,0.000000
57.000000,-34518.067183,-16475.895521,7950.493151,14870.637938,846.080583,28674.941203,3405.981172,16771.765563,-0.140000,0.974000,0.016000,192.000000,251.000000,160.000000,30.000000,112.000000,0.000000,128.000000,0.000000,0.000000,0.000000,1648533144.238740,0.000000
58.000000,-34513.060393,-16469.569977,7951.946014,14871.710822,849.142772,28673.443636,3406.070579,16770.335051,-0.140000,0.974000,0.016000,192.000000,0.000000,0.000000,0.000000,0.000000,0.000000,0.000000,0.000000,0.000000,0.000000,1648533144.238744,0.000000
59.000000,-34508.590044,-16466.731306,7951.297814,14875.555322,850.662690,28676.639936,3406.003524,16772.100839,-0.140000,0.974000,0.016000,192.000000,0.000000,0.000000,0.000000,0.000000,0.000000,0.000000,0.000000,0.000000,0.000000,1648533144.245763,0.000000
60.000000,-34514.937939,-16471.916911,7949.062639,14870.637938,847.354632,28676.550529,3403.745997,16769.910368,-0.140000,0.974000,0.016000,192.000000,0.000000,0.000000,0.000000,0.000000,0.000000,0.000000,0.000000,0.000000,0.000000,1648533144.252867,0.000000
61.000000,-34525.309148,-16470.128771,7945.799285,14866.659327,844.404202,28674.181244,3403.745997,16766.982289,-0.140000,0.974000,0.016000,192.000000,0.000000,0.000000,0.000000,0.000000,0.000000,0.000000,0.000000,0.000000,0.000000,1648533144.252871,0.000000
62.000000,-34517.463686,-16465.904291,7949.152046,14873.208388,848.360461,28674.583575,3405.131806,16771.050307,-0.140000,0.974000,0.016000,192.000000,0.000000,0.000000,0.000000,0.000000,0.000000,0.000000,0.000000,0.000000,0.000000,1648533144.260489,0.000000
63.000000,-34515.876712,-16465.926643,7954.896445,14877.611682,851.266188,28680.953822,3408.618678,16772.167894,-0.140000,0.974000,0.016000,192.000000,0.000000,0.000000,0.000000,0.000000,0.000000,0.000000,0.000000,0.000000,0.000000,1648533144.260493,0.000000
64.000000,-34523.051622,-16466.328975,7948.526197,14871.330842,842.727821,28679.389200,3409.199823,16771.765563,-0.140000,0.974000,0.016000,192.000000,0.000000,0.000000,0.000000,0.000000,0.000000,0.000000,0.000000,0.000000,0.000000,1648533144.268455,0.000000
65.000000,-34516.703727,-16463.579710,7948.079163,14873.409554,842.392545,28675.477645,3404.125977,16768.569263,-0.140000,0.974000,0.016000,192.000000,0.000000,0.000000,0.000000,0.000000,0.000000,0.000000,0.000000,0.000000,0.000000,1648533144.268466,0.000000
66.000000,-34500.968099,-16452.292079,7959.433849,14885.390089,854.797763,28686.474703,3407.165814,16770.200940,-0.140000,0.974000,0.016000,192.000000,0.000000,0.000000,0.000000,0.000000,0.000000,0.000000,0.000000,0.000000,0.000000,1648533144.276399,0.000000
67.000000,-34509.417058,-16456.494207,7959.545608,14881.880865,854.641301,28689.536892,3410.943259,16772.391411,-0.140000,0.974000,0.008000,192.000000,251.000000,160.000000,30.000000,112.000000,0.000000,64.000000,0.000000,0.000000,0.000000,1648533144.276403,0.000000
68.000000,-34510.601701,-16457.053001,7961.512561,14883.423136,857.144696,28694.253110,3413.446654,16773.978385,-0.140000,0.974000,0.008000,192.000000,0.000000,0.000000,0.000000,0.000000,0.000000,0.000000,0.000000,0.000000,0.000000,1648533144.283017,0.000000
69.000000,-34516.279044,-16461.053963,7952.393049,14871.800229,845.342975,28685.357116,3406.964649,16769.016298,-0.140000,0.974000,0.008000,192.000000,0.000000,0.000000,0.000000,0.000000,0.000000,0.000000,0.000000,0.000000,0.000000,1648533144.283021,0.000000
70.000000,-34517.463686,-16474.040326,7951.074296,14865.854665,841.476124,28681.870244,3397.711026,16764.836522,-0.140000,0.974000,0.008000,192.000000,0.000000,0.000000,0.000000,0.000000,0.000000,0.000000,0.000000,0.000000,0.000000,1648533144.291039,0.000000
71.000000,-34514.803829,-16472.095725,7950.873131,14864.871188,841.744344,28681.602023,3396.772253,16766.289385,-0.140000,0.974000,0.008000,192.000000,0.000000,0.000000,0.000000,0.000000,0.000000,0.000000,0.000000,0.000000,0.000000,1648533144.291043,0.000000
72.000000,-34514.133276,-16471.648690,7952.370698,14863.775952,841.945510,28681.825540,3399.879146,16772.056135,-0.140000,0.974000,0.008000,192.000000,0.000000,0.000000,0.000000,0.000000,0.000000,0.000000,0.000000,0.000000,0.000000,1648533144.299039,0.000000
73.000000,-34514.043869,-16470.598158,7952.817732,14866.994604,844.024222,28680.193863,3398.873317,16771.542045,-0.140000,0.974000,0.008000,192.000000,0.000000,0.000000,0.000000,0.000000,0.000000,0.000000,0.000000,0.000000,0.000000,1648533144.299043,0.000000
74.000000,-34513.887407,-16466.865416,7950.694317,14865.921720,843.823057,28676.416418,3398.314523,16767.429324,-0.140000,0.974000,0.008000,192.000000,0.000000,0.000000,0.000000,0.000000,0.000000,0.000000,0.000000,0.000000,0.000000,1648533144.306142,0.000000
75.000000,-34516.748430,-16473.369774,7947.699183,14861.764295,841.699641,28669.777950,3398.605096,16763.830693,-0.140000,0.974000,0.008000,192.000000,0.000000,0.000000,0.000000,0.000000,0.000000,0.000000,0.000000,0.000000,0.000000,1648533144.306145,0.000000
76.000000,-34515.541436,-16476.588425,7948.570901,14862.479551,842.057269,28671.096703,3400.348532,16760.589690,-0.140000,0.974000,0.008000,192.000000,0.000000,0.000000,0.000000,0.000000,0.000000,0.000000,0.000000,0.000000,0.000000,1648533144.312841,0.000000
77.000000,-34517.955425,-16473.950919,7944.748753,14859.417362,836.916368,28669.554433,3400.281477,16758.667440,-0.138000,0.982000,0.012000,192.000000,251.000000,176.000000,30.000000,176.000000,0.000000,96.000000,0.000000,0.000000,0.000000,1648533144.320664,0.000000
78.000000,-34520.525875,-16471.983966,7940.524273,14859.886749,834.122400,28669.487377,3401.689637,16760.142655,-0.138000,0.982000,0.012000,192.000000,0.000000,0.000000,0.000000,0.000000,0.000000,0.000000,0.000000,0.000000,0.000000,1648533144.320669,0.000000
79.000000,-34516.256692,-16471.089896,7944.324070,14865.050002,839.889150,28673.287174,3405.489433,16761.260243,-0.138000,0.982000,0.012000,192.000000,0.000000,0.000000,0.000000,0.000000,0.000000,0.000000,0.000000,0.000000,0.000000,1648533144.328665,0.000000
80.000000,-34519.944730,-16470.553454,7945.374602,14863.217159,837.899844,28678.137502,3408.529271,16759.427400,-0.138000,0.982000,0.012000,192.000000,0.000000,0.000000,0.000000,0.000000,0.000000,0.000000,0.000000,0.000000,0.000000,1648533144.328669,0.000000
81.000000,-34514.088573,-16472.162780,7946.626299,14861.853702,840.403240,28677.690468,3408.708085,16756.052286,-0.138000,0.982000,0.012000,192.000000,0.000000,0.000000,0.000000,0.000000,0.000000,0.000000,0.000000,0.000000,0.000000,1648533144.335837,0.000000
82.000000,-34512.881579,-16471.089896,7950.828427,14863.820656,841.587882,28680.931471,3412.127902,16759.852083,-0.138000,0.982000,0.012000,192.000000,0.000000,0.000000,0.000000,0.000000,0.000000,0.000000,0.000000,0.000000,0.000000,1648533144.335841,0.000000
83.000000,-34515.966119,-16467.290100,7951.007241,14866.167589,839.978557,28675.589404,3408.171643,16764.300080,-0.138000,0.982000,0.012000,192.000000,0.000000,0.000000,0.000000,0.000000,0.000000,0.000000,0.000000,0.000000,0.000000,1648533144.343318,0.000000
84.000000,-34517.821314,-16470.195826,7949.912006,14863.038345,837.430458,28671.230813,3401.332009,16764.635356,-0.138000,0.982000,0.012000,192.000000,0.000000,0.000000,0.000000,0.000000,0.000000,0.000000,0.000000,0.000000,0.000000,1648533144.343321,0.000000
85.000000,-34518.491866,-16472.810980,7945.978099,14864.468856,836.581091,28667.207499,3399.029779,16762.221368,-0.138000,0.982000,0.012000,192.000000,0.000000,0.000000,0.000000,0.000000,0.000000,0.000000,0.000000,0.000000,0.000000,1648533144.351674,0.000000
86.000000,-34519.743564,-16470.888730,7947.676831,14866.905197,838.235121,28665.575822,3399.387407,16759.583862,-0.138000,0.982000,0.012000,192.000000,0.000000,0.000000,0.000000,0.000000,0.000000,0.000000,0.000000,0.000000,0.000000,1648533144.351690,0.000000
87.000000,-34517.374279,-16468.988832,7949.710840,14864.938243,842.772525,28666.134616,3398.627448,16758.689792,-0.136000,0.978000,0.014000,192.000000,251.000000,192.000000,30.000000,144.000000,0.000000,112.000000,0.000000,0.000000,0.000000,1648533144.359685,0.000000
88.000000,-34512.166323,-16460.182245,7954.002375,14867.285176,847.041708,28669.867357,3398.873317,16761.595519,-0.136000,0.978000,0.014000,192.000000,0.000000,0.000000,0.000000,0.000000,0.000000,0.000000,0.000000,0.000000,0.000000,1648533144.359697,0.000000
89.000000,-34515.161456,-16460.115190,7950.046116,14864.513560,842.616062,28668.660363,3396.638143,16759.628565,-0.136000,0.978000,0.014000,192.000000,0.000000,0.000000,0.000000,0.000000,0.000000,0.000000,0.000000,0.000000,0.000000,1648533144.366383,0.000000
90.000000,-34523.856285,-16466.664251,7938.914947,14857.338650,832.557777,28665.732284,3394.738244,16752.699524,-0.136000,0.978000,0.014000,192.000000,0.000000,0.000000,0.000000,0.000000,0.000000,0.000000,0.000000,0.000000,0.000000,1648533144.366399,0.000000
91.000000,-34519.631805,-16465.747829,7940.747790,14856.668098,832.244853,28662.379523,3393.575954,16746.642202,-0.136000,0.978000,0.014000,192.000000,0.000000,0.000000,0.000000,0.000000,0.000000,0.000000,0.000000,0.000000,0.000000,1648533144.373438,0.000000
92.000000,-34520.168247,-16462.976213,7941.977136,14860.534949,834.524731,28666.693409,3397.599268,16750.062019,-0.136000,0.978000,0.014000,192.000000,0.000000,0.000000,0.000000,0.000000,0.000000,0.000000,0.000000,0.000000,0.000000,1648533144.381411,0.000000
93.000000,-34518.670680,-16461.970384,7942.938261,14865.429981,837.273996,28671.387276,3400.661457,16751.559586,-0.136000,0.978000,0.014000,192.000000,0.000000,0.000000,0.000000,0.000000,0.000000,0.000000,0.000000,0.000000,0.000000,1648533144.381428,0.000000
94.000000,-34516.279044,-16460.808094,7945.866340,14868.268653,840.336185,28678.718648,3401.577878,16754.442961,-0.136000,0.978000,0.014000,192.000000,0.000000,0.000000,0.000000,0.000000,0.000000,0.000000,0.000000,0.000000,0.000000,1648533144.389424,0.000000
95.000000,-34516.569616,-16457.544739,7952.258939,14872.046098,845.946472,28681.937299,3401.667285,16757.326336,-0.136000,0.978000,0.014000,192.000000,0.000000,0.000000,0.000000,0.000000,0.000000,0.000000,0.000000,0.000000,0.000000,1648533144.389441,0.000000
96.000000,-34520.123544,-16455.734248,7951.811904,14867.151066,841.945510,28678.651593,3400.080311,16756.342859,-0.136000,0.978000,0.014000,192.000000,0.000000,0.000000,0.000000,0.000000,0.000000,0.000000,0.000000,0.000000,0.000000,1648533144.395981,0.000000
97.000000,-34522.358718,-16454.907233,7952.594215,14864.602967,839.732687,28676.237604,3401.555526,16756.924004,-0.136000,0.978000,0.014000,192.000000,0.000000,0.000000,0.000000,0.000000,0.000000,0.000000,0.000000,0.000000,0.000000,1648533144.395997,0.000000
98.000000,-34526.940826,-16458.684678,7947.073334,14858.031554,834.949414,28667.408665,3397.018122,16755.046458,-0.140000,0.972000,0.012000,192.000000,251.000000,160.000000,30.000000,96.000000,0.000000,96.000000,0.000000,0.000000,0.000000,1648533144.404051,0.000000
99.000000,-34515.675547,-16454.303736,7951.946014,14864.580615,840.783219,28671.499034,3396.213460,16755.314679,-0.140000,0.972000,0.012000,192.000000,0.000000,0.000000,0.000000,0.000000,0.000000,0.000000,0.000000,0.000000,0.000000,1648533144.404067,0.000000
100.000000,-34512.568654,-16454.147274,7953.488285,14868.179246,841.967862,28674.181244,3398.180413,16754.487664,-0.140000,0.972000,0.012000,192.000000,0.000000,0.000000,0.000000,0.000000,0.000000,0.000000,0.000000,0.000000,0.000000,1648533144.412101,0.000000
101.000000,-34514.826180,-16451.822692,7953.778857,14872.828409,843.532484,28678.428075,3402.226079,16752.654821,-0.140000,0.972000,0.012000,192.000000,0.000000,0.000000,0.000000,0.000000,0.000000,0.000000,0.000000,0.000000,0.000000,1648533144.412117,0.000000
102.000000,-34521.576407,-16451.241547,7949.710840,14865.429981,836.446981,28676.751694,3402.024913,16751.693696,-0.140000,0.972000,0.012000,192.000000,0.000000,0.000000,0.000000,0.000000,0.000000,0.000000,0.000000,0.000000,0.000000,1648533144.419286,0.000000
103.000000,-34520.570579,-16454.370791,7950.560206,14868.581577,838.033955,28677.534005,3405.243564,16754.152388,-0.140000,0.972000,0.012000,192.000000,0.000000,0.000000,0.000000,0.000000,0.000000,0.000000,0.000000,0.000000,0.000000,1648533144.419303,0.000000
104.000000,-34522.135201,-16458.796437,7949.822599,14871.241435,838.123362,28679.322145,3405.489433,16754.599423,-0.140000,0.972000,0.012000,192.000000,0.000000,0.000000,0.000000,0.000000,0.000000,0.000000,0.000000,0.000000,0.000000,1648533144.426645,0.000000
105.000000,-34522.068146,-16461.188073,7948.526197,14865.497037,837.363403,28678.986869,3402.024913,16753.481836,-0.140000,0.972000,0.012000,192.000000,0.000000,0.000000,0.000000,0.000000,0.000000,0.000000,0.000000,0.000000,0.000000,1648533144.426662,0.000000
106.000000,-34522.448125,-16456.784780,7949.800247,14868.425115,841.431420,28683.256052,3404.304791,16755.180568,-0.140000,0.972000,0.012000,192.000000,0.000000,0.000000,0.000000,0.000000,0.000000,0.000000,0.000000,0.000000,0.000000,1648533144.433773,0.000000
107.000000,-34516.524913,-16445.899480,7956.438715,14876.717612,848.025185,28689.671003,3408.708085,16759.047420,-0.140000,0.972000,0.012000,192.000000,0.000000,0.000000,0.000000,0.000000,0.000000,0.000000,0.000000,0.000000,0.000000,1648533144.441653,0.000000
108.000000,-34518.491866,-16447.955841,7950.157875,14872.247263,843.018394,28684.708915,3402.404893,16758.198054,-0.142000,0.974000,0.016000,192.000000,251.000000,144.000000,30.000000,112.000000,0.000000,128.000000,0.000000,0.000000,0.000000,1648533144.441669,0.000000
109.000000,-34527.231398,-16455.913062,7941.395991,14866.078182,836.648147,28679.120979,3400.437939,16757.527501,-0.142000,0.974000,0.016000,192.000000,0.000000,0.000000,0.000000,0.000000,0.000000,0.000000,0.000000,0.000000,0.000000,1648533144.448126,0.000000
110.000000,-34525.040928,-16458.796437,7944.882863,14862.367792,835.798780,28677.154026,3398.113358,16755.717010,-0.142000,0.974000,0.016000,192.000000,0.000000,0.000000,0.000000,0.000000,0.000000,0.000000,0.000000,0.000000,0.000000,1648533144.448142,0.000000
111.000000,-34526.359680,-16457.030649,7942.133599,14860.937281,832.580129,28675.164720,3395.945239,16757.572205,-0.142000,0.974000,0.016000,192.000000,0.000000,0.000000,0.000000,0.000000,0.000000,0.000000,0.000000,0.000000,0.000000,1648533144.456327,0.000000
112.000000,-34523.878637,-16455.488378,7941.016011,14865.966423,834.345917,28671.141406,3395.855832,16757.460446,-0.142000,0.974000,0.016000,192.000000,0.000000,0.000000,0.000000,0.000000,0.000000,0.000000,0.000000,0.000000,0.000000,1648533144.456344,0.000000
113.000000,-34522.783401,-16450.973326,7942.312413,14867.240473,835.754077,28674.628279,3398.493337,16759.963841,-0.142000,0.974000,0.016000,192.000000,0.000000,0.000000,0.000000,0.000000,0.000000,0.000000,0.000000,0.000000,0.000000,1648533144.464359,0.000000
114.000000,-34530.159477,-16452.605003,7936.769180,14858.970327,826.433399,28669.755598,3396.727550,16756.722838,-0.142000,0.974000,0.016000,192.000000,0.000000,0.000000,0.000000,0.000000,0.000000,0.000000,0.000000,0.000000,0.000000,1648533144.464375,0.000000
115.000000,-34527.544323,-16453.007335,7937.864415,14859.752638,827.238062,28666.648706,3392.458366,16757.840426,-0.142000,0.974000,0.016000,192.000000,0.000000,0.000000,0.000000,0.000000,0.000000,0.000000,0.000000,0.000000,0.000000,1648533144.471428,0.000000
116.000000,-34529.399518,-16453.499073,7938.870244,14860.758467,825.986365,28665.888746,3390.402006,16757.572205,-0.142000,0.974000,0.016000,192.000000,0.000000,0.000000,0.000000,0.000000,0.000000,0.000000,0.000000,0.000000,0.000000,1648533144.471444,0.000000
117.000000,-34534.383957,-16455.555434,7934.064619,14854.075295,821.113684,28663.318296,3391.609000,16752.610118,-0.142000,0.974000,0.016000,192.000000,0.000000,0.000000,0.000000,0.000000,0.000000,0.000000,0.000000,0.000000,0.000000,1648533144.478929,0.000000
118.000000,-34535.702710,-16460.741038,7933.148197,14851.817769,821.046629,28663.407703,3393.061864,16749.167949,-0.144000,0.970000,0.020000,192.000000,251.000000,128.000000,30.000000,80.000000,0.000000,160.000000,0.000000,0.000000,0.000000,1648533144.478940,0.000000
119.000000,-34539.681320,-16459.779913,7929.929546,14852.644784,817.827978,28660.390217,3389.038550,16746.485740,-0.144000,0.970000,0.020000,192.000000,0.000000,0.000000,0.000000,0.000000,0.000000,0.000000,0.000000,0.000000,0.000000,1648533144.486892,0.000000
120.000000,-34538.943713,-16458.237643,7932.321183,14856.444580,822.410085,28656.903345,3387.697445,16745.323449,-0.144000,0.970000,0.020000,192.000000,0.000000,0.000000,0.000000,0.000000,0.000000,0.000000,0.000000,0.000000,0.000000,1648533144.486908,0.000000
121.000000,-34532.193486,-16456.270690,7937.171511,14863.485380,829.540292,28663.184185,3392.257201,16752.766580,-0.144000,0.970000,0.020000,192.000000,0.000000,0.000000,0.000000,0.000000,0.000000,0.000000,0.000000,0.000000,0.000000,1648533144.493948,0.000000
122.000000,-34525.711480,-16452.001506,7940.211349,14866.458162,831.797818,28670.448502,3396.034646,16757.818074,-0.144000,0.970000,0.020000,192.000000,0.000000,0.000000,0.000000,0.000000,0.000000,0.000000,0.000000,0.000000,0.000000,1648533144.501087,0.000000
123.000000,-34529.623035,-16451.643878,7940.099590,14865.675851,829.875568,28667.855700,3393.643009,16754.912347,-0.144000,0.970000,0.020000,192.000000,0.000000,0.000000,0.000000,0.000000,0.000000,0.000000,0.000000,0.000000,0.000000,1648533144.501104,0.000000
124.000000,-34530.338291,-16453.320259,7939.764314,14864.267691,831.663708,28668.593308,3392.234849,16756.544025,-0.144000,0.970000,0.020000,192.000000,0.000000,0.000000,0.000000,0.000000,0.000000,0.000000,0.000000,0.000000,0.000000,1648533144.508582,0.000000
125.000000,-34527.343157,-16450.772160,7942.915910,14863.865359,835.508208,28674.203595,3391.519593,16758.555682,-0.144000,0.970000,0.020000,192.000000,0.000000,0.000000,0.000000,0.000000,0.000000,0.000000,0.000000,0.000000,0.000000,1648533144.508599,0.000000
126.000000,-34522.179904,-16446.078294,7948.749715,14871.777877,841.654937,28679.098627,3393.978285,16761.148484,-0.144000,0.970000,0.020000,192.000000,0.000000,0.000000,0.000000,0.000000,0.000000,0.000000,0.000000,0.000000,0.000000,1648533144.516542,0.000000
127.000000,-34516.659023,-16444.312506,7950.917834,14874.325976,844.158333,28679.858587,3395.900535,16761.036725,-0.144000,0.970000,0.020000,192.000000,0.000000,0.000000,0.000000,0.000000,0.000000,0.000000,0.000000,0.000000,0.000000,1648533144.516559,0.000000
128.000000,-34520.637634,-16444.536024,7947.006279,14873.990700,841.520827,28679.389200,3395.878183,16758.510978,-0.142000,0.974000,0.018000,192.000000,251.000000,144.000000,30.000000,112.000000,0.000000,144.000000,0.000000,0.000000,0.000000,1648533144.524440,0.000000
129.000000,-34523.208084,-16447.240585,7945.128732,14874.862418,842.370193,28676.461122,3396.660494,16759.382696,-0.142000,0.974000,0.018000,192.000000,0.000000,0.000000,0.000000,0.000000,0.000000,0.000000,0.000000,0.000000,0.000000,1648533144.524474,0.000000
130.000000,-34521.017614,-16444.200748,7947.900349,14876.494095,843.152504,28677.712819,3403.231907,16762.266071,-0.142000,0.974000,0.018000,192.000000,0.000000,0.000000,0.000000,0.000000,0.000000,0.000000,0.000000,0.000000,0.000000,1648533144.531159,0.000000
131.000000,-34518.625977,-16439.506881,7949.330860,14877.164647,841.096144,28677.466950,3407.165814,16765.998812,-0.142000,0.974000,0.018000,192.000000,0.000000,0.000000,0.000000,0.000000,0.000000,0.000000,0.000000,0.000000,0.000000,1648533144.531176,0.000000
132.000000,-34523.811582,-16442.367904,7944.502883,14871.532008,834.122400,28676.684639,3408.283402,16766.289385,-0.142000,0.974000,0.018000,192.000000,0.000000,0.000000,0.000000,0.000000,0.000000,0.000000,0.000000,0.000000,0.000000,1648533144.539250,0.000000
133.000000,-34528.706614,-16446.346515,7941.753619,14869.922682,833.407144,28680.149159,3409.892727,16764.925929,-0.142000,0.974000,0.018000,192.000000,0.000000,0.000000,0.000000,0.000000,0.000000,0.000000,0.000000,0.000000,0.000000,1648533144.539265,0.000000
134.000000,-34532.238189,-16451.710934,7938.937299,14865.295871,829.495588,28680.417380,3409.177471,16761.483760,-0.142000,0.974000,0.018000,192.000000,0.000000,0.000000,0.000000,0.000000,0.000000,0.000000,0.000000,0.000000,0.000000,1648533144.547168,0.000000
135.000000,-34535.590951,-16451.822692,7935.830407,14863.910063,824.757019,28679.322145,3412.060846,16764.657708,-0.142000,0.974000,0.018000,192.000000,0.000000,0.000000,0.000000,0.000000,0.000000,0.000000,0.000000,0.000000,0.000000,1648533144.547184,0.000000
136.000000,-34533.713404,-16450.526291,7931.896500,14866.659327,827.036897,28675.969383,3409.356285,16762.646051,-0.142000,0.974000,0.018000,192.000000,0.000000,0.000000,0.000000,0.000000,0.000000,0.000000,0.000000,0.000000,0.000000,1648533144.554348,0.000000
137.000000,-34525.309148,-16446.435922,7939.317279,14869.743868,835.105876,28681.959651,3408.149291,16764.657708,-0.142000,0.974000,0.018000,192.000000,0.000000,0.000000,0.000000,0.000000,0.000000,0.000000,0.000000,0.000000,0.000000,1648533144.554364,0.000000
138.000000,-34520.682337,-16441.317372,7948.526197,14871.822580,841.721993,28687.324069,3409.155120,16765.283557,-0.136000,0.974000,0.012000,192.000000,251.000000,192.000000,30.000000,112.000000,0.000000,96.000000,0.000000,0.000000,0.000000,1648533144.560963,0.000000
139.000000,-34513.373317,-16432.331971,7957.690413,14878.639862,848.315757,28694.409572,3413.133730,16770.066830,-0.136000,0.974000,0.012000,192.000000,0.000000,0.000000,0.000000,0.000000,0.000000,0.000000,0.000000,0.000000,0.000000,1648533144.568693,0.000000
140.000000,-34516.815486,-16433.337800,7956.304605,14879.556284,847.801667,28691.503846,3411.747922,16768.926891,-0.136000,0.974000,0.012000,192.000000,0.000000,0.000000,0.000000,0.000000,0.000000,0.000000,0.000000,0.000000,0.000000,1648533144.568709,0.000000
141.000000,-34518.335404,-16433.628372,7953.600043,14876.807019,846.527618,28688.486360,3406.361151,16767.809304,-0.136000,0.974000,0.012000,192.000000,0.000000,0.000000,0.000000,0.000000,0.000000,0.000000,0.000000,0.000000,0.000000,1648533144.576905,0.000000
142.000000,-34519.318881,-16432.488433,7952.348346,14878.617511,847.354632,28688.419305,3403.857756,16766.334089,-0.136000,0.974000,0.012000,192.000000,0.000000,0.000000,0.000000,0.000000,0.000000,0.000000,0.000000,0.000000,0.000000,1648533144.576921,0.000000
143.000000,-34527.387861,-16435.952954,7945.687526,14875.622377,840.671461,28680.596194,3399.722683,16760.567339,-0.136000,0.974000,0.012000,192.000000,0.000000,0.000000,0.000000,0.000000,0.000000,0.000000,0.000000,0.000000,0.000000,1648533144.583860,0.000000
144.000000,-34520.727041,-16433.941297,7946.514540,14881.031499,843.398374,28677.422247,3394.850003,16757.572205,-0.136000,0.974000,0.012000,192.000000,0.000000,0.000000,0.000000,0.000000,0.000000,0.000000,0.000000,0.000000,0.000000,1648533144.583878,0.000000
145.000000,-34517.888369,-16429.582707,7950.493151,14887.111174,846.326452,28677.601061,3397.219288,16758.421571,-0.136000,0.974000,0.012000,192.000000,0.000000,0.000000,0.000000,0.000000,0.000000,0.000000,0.000000,0.000000,0.000000,1648533144.591194,0.000000
146.000000,-34524.415079,-16429.426244,7943.966442,14883.356080,840.894978,28673.130712,3398.873317,16758.622737,-0.136000,0.974000,0.012000,192.000000,0.000000,0.000000,0.000000,0.000000,0.000000,0.000000,0.000000,0.000000,0.000000,1648533144.591206,0.000000
147.000000,-34530.070070,-16434.410683,7942.558282,14877.276406,838.503341,28673.421284,3401.421416,16757.616908,-0.136000,0.974000,0.012000,192.000000,0.000000,0.000000,0.000000,0.000000,0.000000,0.000000,0.000000,0.000000,0.000000,1648533144.599338,0.000000
148.000000,-34530.092422,-16438.545756,7943.988793,14866.815790,837.363403,28679.813883,3406.383503,16762.444885,-0.134000,0.980000,0.018000,192.000000,251.000000,208.000000,30.000000,160.000000,0.000000,144.000000,0.000000,0.000000,0.000000,1648533144.599356,0.000000
149.000000,-34533.042852,-16439.082198,7940.636032,14865.877016,832.289557,28678.137502,3408.395160,16763.182493,-0.134000,0.980000,0.018000,192.000000,0.000000,0.000000,0.000000,0.000000,0.000000,0.000000,0.000000,0.000000,0.000000,1648533144.607435,0.000000
150.000000,-34535.769765,-16438.836329,7941.105418,14871.308490,834.681193,28683.166645,3410.183300,16762.757809,-0.134000,0.980000,0.018000,192.000000,0.000000,0.000000,0.000000,0.000000,0.000000,0.000000,0.000000,0.000000,0.000000,1648533144.607471,0.000000
151.000000,-34532.461707,-16436.936431,7944.301718,14869.632109,836.670498,28686.228834,3411.792625,16764.121266,-0.134000,0.980000,0.018000,192.000000,0.000000,0.000000,0.000000,0.000000,0.000000,0.000000,0.000000,0.000000,0.000000,1648533144.614157,0.000000
152.000000,-34524.660948,-16430.208555,7948.257977,14881.277368,846.684080,28690.676831,3414.608945,16765.037687,-0.134000,0.980000,0.018000,192.000000,0.000000,0.000000,0.000000,0.000000,0.000000,0.000000,0.000000,0.000000,0.000000,1648533144.614173,0.000000
153.000000,-34520.972910,-16427.883974,7952.169532,14888.899313,852.227313,28694.968366,3410.630335,16763.271900,-0.134000,0.980000,0.018000,192.000000,0.000000,0.000000,0.000000,0.000000,0.000000,0.000000,0.000000,0.000000,0.000000,1648533144.621161,0.000000
154.000000,-34526.762012,-16430.253259,7946.827465,14883.669005,847.019356,28689.760410,3403.634239,16758.130998,-0.134000,0.980000,0.018000,192.000000,0.000000,0.000000,0.000000,0.000000,0.000000,0.000000,0.000000,0.000000,0.000000,1648533144.629082,0.000000
155.000000,-34524.035099,-16433.427207,7947.006279,14881.523237,847.578150,28686.228834,3400.683808,16755.851120,-0.134000,0.980000,0.018000,192.000000,0.000000,0.000000,0.000000,0.000000,0.000000,0.000000,0.000000,0.000000,0.000000,1648533144.629099,0.000000
156.000000,-34520.838800,-16430.186204,7951.387221,14884.875999,851.132077,28688.195787,3400.348532,16756.387562,-0.134000,0.980000,0.018000,192.000000,0.000000,0.000000,0.000000,0.000000,0.000000,0.000000,0.000000,0.000000,0.000000,1648533144.637197,0.000000
157.000000,-34525.286797,-16428.621582,7951.878959,14882.596121,848.405164,28687.659346,3400.460291,16753.235966,-0.134000,0.980000,0.018000,192.000000,0.000000,0.000000,0.000000,0.000000,0.000000,0.000000,0.000000,0.000000,0.000000,1648533144.637213,0.000000
158.000000,-34531.813506,-16430.499128,7946.425134,14875.778839,839.710336,28682.831369,3397.263992,16748.072713,-0.134000,0.976000,0.020000,192.000000,251.000000,208.000000,30.000000,128.000000,0.000000,160.000000,0.000000,0.000000,0.000000,1648533144.643821,0.000000
159.000000,-34531.232361,-16429.403893,7942.535930,14874.281272,834.591786,28674.225947,3389.999675,16745.636373,-0.134000,0.976000,0.020000,192.000000,0.000000,0.000000,0.000000,0.000000,0.000000,0.000000,0.000000,0.000000,0.000000,1648533144.643837,0.000000
160.000000,-34534.115736,-16434.187166,7935.428075,14865.787609,828.780333,28664.011200,3383.808241,16740.182548,-0.134000,0.976000,0.020000,192.000000,0.000000,0.000000,0.000000,0.000000,0.000000,0.000000,0.000000,0.000000,0.000000,1648533144.651693,0.000000
161.000000,-34537.669663,-16441.406779,7940.993660,14866.055830,835.195283,28670.113226,3389.127957,16742.842405,-0.134000,0.976000,0.020000,192.000000,0.000000,0.000000,0.000000,0.000000,0.000000,0.000000,0.000000,0.000000,0.000000,1648533144.651709,0.000000
162.000000,-34544.531649,-16443.910175,7942.401820,14863.775952,833.407144,28674.270651,3393.732416,16750.397295,-0.134000,0.976000,0.020000,192.000000,0.000000,0.000000,0.000000,0.000000,0.000000,0.000000,0.000000,0.000000,0.000000,1648533144.659826,0.000000
163.000000,-34540.083652,-16441.026800,7941.150122,14868.670984,835.642318,28675.745866,3393.419491,16757.058115,-0.134000,0.976000,0.020000,192.000000,0.000000,0.000000,0.000000,0.000000,0.000000,0.000000,0.000000,0.000000,0.000000,1648533144.659842,0.000000
164.000000,-34535.658006,-16440.713875,7944.279366,14868.402763,837.162237,28682.518444,3397.599268,16759.673269,-0.134000,0.976000,0.020000,192.000000,0.000000,0.000000,0.000000,0.000000,0.000000,0.000000,0.000000,0.000000,0.000000,1648533144.666397,0.000000
165.000000,-34533.825163,-16436.735265,7946.492189,14867.709859,838.615100,28689.581596,3403.366018,16763.651879,-0.134000,0.976000,0.020000,192.000000,0.000000,0.000000,0.000000,0.000000,0.000000,0.000000,0.000000,0.000000,0.000000,1648533144.666414,0.000000
166.000000,-34541.290646,-16437.741093,7939.518444,14866.793438,831.596652,28686.988793,3404.975343,16763.763638,-0.134000,0.976000,0.020000,192.000000,0.000000,0.000000,0.000000,0.000000,0.000000,0.000000,0.000000,0.000000,0.000000,1648533144.674269,0.000000
167.000000,-34541.491811,-16441.853814,7934.846930,14866.972252,827.707449,28683.054886,3404.640067,16760.008545,-0.134000,0.976000,0.020000,192.000000,0.000000,0.000000,0.000000,0.000000,0.000000,0.000000,0.000000,0.000000,0.000000,1648533144.674286,0.000000
168.000000,-34533.646349,-16437.115245,7937.685601,14873.118981,834.189455,28683.568976,3406.271745,16763.495417,-0.136000,0.974000,0.016000,192.000000,251.000000,192.000000,30.000000,112.000000,0.000000,128.000000,0.000000,0.000000,0.000000,1648533144.681542,0.000000
169.000000,-34526.896122,-16431.572012,7942.759447,14878.729269,841.073792,28687.011145,3407.501090,16767.295214,-0.136000,0.974000,0.016000,192.000000,0.000000,0.000000,0.000000,0.000000,0.000000,0.000000,0.000000,0.000000,0.000000,1648533144.689060,0.000000
170.000000,-34533.646349,-16432.153157,7939.205520,14866.301699,833.943586,28682.116113,3402.762521,16760.924966,-0.136000,0.974000,0.016000,192.000000,0.000000,0.000000,0.000000,0.000000,0.000000,0.000000,0.000000,0.000000,0.000000,1648533144.689069,0.000000
171.000000,-34527.410212,-16429.761521,7946.872168,14876.404688,842.124324,28680.707953,3399.409759,16758.175702,-0.136000,0.974000,0.016000,192.000000,0.000000,0.000000,0.000000,0.000000,0.000000,0.000000,0.000000,0.000000,0.000000,1648533144.695892,0.000000
172.000000,-34521.956387,-16421.759596,7956.170494,14886.798249,851.579112,28687.525235,3404.148329,16763.540121,-0.136000,0.974000,0.016000,192.000000,0.000000,0.000000,0.000000,0.000000,0.000000,0.000000,0.000000,0.000000,0.000000,1648533144.695903,0.000000
173.000000,-34517.284872,-16416.216363,7962.786610,14889.882790,855.423612,28691.682660,3406.450558,16769.463333,-0.136000,0.974000,0.016000,192.000000,0.000000,0.000000,0.000000,0.000000,0.000000,0.000000,0.000000,0.000000,0.000000,1648533144.704139,0.000000
174.000000,-34507.494808,-16406.985093,7971.548494,14902.578581,861.190362,28699.773991,3408.842195,16776.794705,-0.136000,0.974000,0.016000,192.000000,0.000000,0.000000,0.000000,0.000000,0.000000,0.000000,0.000000,0.000000,0.000000,1648533144.704155,0.000000
175.000000,-34517.329576,-16407.767404,7964.239474,14894.956636,852.361423,28698.075259,3410.496224,16779.186342,-0.136000,0.974000,0.016000,192.000000,0.000000,0.000000,0.000000,0.000000,0.000000,0.000000,0.000000,0.000000,0.000000,1648533144.711955,0.000000
176.000000,-34521.017614,-16413.824727,7959.076221,14891.246246,847.309929,28692.107343,3412.105550,16776.951167,-0.136000,0.974000,0.016000,192.000000,0.000000,0.000000,0.000000,0.000000,0.000000,0.000000,0.000000,0.000000,0.000000,1648533144.711971,0.000000
177.000000,-34518.335404,-16418.473890,7960.216160,14889.100479,849.545103,28692.777895,3413.446654,16775.475952,-0.136000,0.974000,0.016000,192.000000,0.000000,0.000000,0.000000,0.000000,0.000000,0.000000,0.000000,0.000000,0.000000,1648533144.720014,0.000000
178.000000,-34513.619186,-16414.204706,7962.339576,14889.145182,852.517885,28701.517427,3417.067637,16775.297138,-0.140000,0.982000,0.012000,192.000000,251.000000,160.000000,30.000000,176.000000,0.000000,96.000000,0.000000,0.000000,0.000000,1648533144.720032,0.000000
179.000000,-34518.938901,-16417.959800,7959.523256,14883.132563,848.896903,28702.187979,3417.000582,16773.039612,-0.140000,0.982000,0.012000,192.000000,0.000000,0.000000,0.000000,0.000000,0.000000,0.000000,0.000000,0.000000,0.000000,1648533144.726773,0.000000
180.000000,-34522.045794,-16421.446672,7959.411497,14882.059679,847.712260,28701.003337,3416.799416,16774.783048,-0.140000,0.982000,0.012000,192.000000,0.000000,0.000000,0.000000,0.000000,0.000000,0.000000,0.000000,0.000000,0.000000,1648533144.726789,0.000000
181.000000,-34524.303320,-16423.212459,7959.657366,14883.110211,848.315757,28706.077183,3420.286288,16780.326281,-0.140000,0.982000,0.012000,192.000000,0.000000,0.000000,0.000000,0.000000,0.000000,0.000000,0.000000,0.000000,0.000000,1648533144.734470,0.000000
182.000000,-34523.900989,-16422.698369,7962.339576,14886.619435,850.707394,28705.540741,3422.163835,16779.543970,-0.140000,0.982000,0.012000,192.000000,0.000000,0.000000,0.000000,0.000000,0.000000,0.000000,0.000000,0.000000,0.000000,1648533144.734486,0.000000
183.000000,-34524.415079,-16419.367959,7961.065526,14888.519333,848.248702,28702.947939,3421.694448,16773.330185,-0.140000,0.982000,0.012000,192.000000,0.000000,0.000000,0.000000,0.000000,0.000000,0.000000,0.000000,0.000000,0.000000,1648533144.741608,0.000000
184.000000,-34523.655119,-16422.810128,7960.529084,14886.798249,847.935778,28699.036384,3421.113303,16768.256339,-0.140000,0.982000,0.012000,192.000000,0.000000,0.000000,0.000000,0.000000,0.000000,0.000000,0.000000,0.000000,0.000000,1648533144.748734,0.000000
185.000000,-34524.929169,-16423.748901,7960.372622,14882.529066,845.946472,28692.442619,3415.771236,16764.747115,-0.140000,0.982000,0.012000,192.000000,0.000000,0.000000,0.000000,0.000000,0.000000,0.000000,0.000000,0.000000,0.000000,1648533144.748750,0.000000
186.000000,-34523.163381,-16418.719759,7960.506733,14884.808944,847.041708,28688.933395,3412.552585,16765.931757,-0.140000,0.982000,0.012000,192.000000,0.000000,0.000000,0.000000,0.000000,0.000000,0.000000,0.000000,0.000000,0.000000,1648533144.756362,0.000000
187.000000,-34527.834896,-16414.584686,7955.723459,14884.875999,842.705469,28685.267709,3412.731399,16767.541083,-0.140000,0.982000,0.012000,192.000000,0.000000,0.000000,0.000000,0.000000,0.000000,0.000000,0.000000,0.000000,0.000000,1648533144.756379,0.000000
188.000000,-34521.978739,-16411.991884,7958.897407,14887.737022,847.444039,28687.055848,3411.636163,16765.283557,-0.136000,0.982000,0.014000,192.000000,251.000000,192.000000,30.000000,176.000000,0.000000,112.000000,0.000000,0.000000,0.000000,1648533144.764173,0.000000
189.000000,-34525.823239,-16413.176526,7955.052907,14885.323034,843.197208,28689.246319,3408.819843,16761.014373,-0.136000,0.982000,0.014000,192.000000,0.000000,0.000000,0.000000,0.000000,0.000000,0.000000,0.000000,0.000000,0.000000,1648533144.764190,0.000000
190.000000,-34523.610416,-16411.701311,7955.812866,14880.673871,842.236083,28686.430000,3409.445692,16761.081429,-0.136000,0.982000,0.014000,192.000000,0.000000,0.000000,0.000000,0.000000,0.000000,0.000000,0.000000,0.000000,0.000000,1648533144.772311,0.000000
191.000000,-34531.925265,-16411.790718,7952.594215,14871.934339,838.011603,28683.591328,3406.159986,16763.450714,-0.136000,0.982000,0.014000,192.000000,0.000000,0.000000,0.000000,0.000000,0.000000,0.000000,0.000000,0.000000,0.000000,1648533144.772327,0.000000
192.000000,-34542.654102,-16418.049207,7941.530101,14861.049039,826.343993,28682.965479,3406.025875,16764.098914,-0.136000,0.982000,0.014000,192.000000,0.000000,0.000000,0.000000,0.000000,0.000000,0.000000,0.000000,0.000000,0.000000,1648533144.778892,0.000000
193.000000,-34538.273160,-16422.094872,7940.345459,14864.625319,829.696754,28683.859549,3406.629372,16764.881225,-0.136000,0.982000,0.014000,192.000000,0.000000,0.000000,0.000000,0.000000,0.000000,0.000000,0.000000,0.000000,0.000000,1648533144.778928,0.000000
194.000000,-34536.574428,-16418.071558,7945.553415,14870.146199,834.904711,28690.632128,3408.283402,16769.418629,-0.136000,0.982000,0.014000,192.000000,0.000000,0.000000,0.000000,0.000000,0.000000,0.000000,0.000000,0.000000,0.000000,1648533144.786763,0.000000
195.000000,-34540.463631,-16420.172622,7944.279366,14870.615586,833.854179,28688.821636,3406.875242,16768.233987,-0.136000,0.982000,0.014000,192.000000,0.000000,0.000000,0.000000,0.000000,0.000000,0.000000,0.000000,0.000000,0.000000,1648533144.786779,0.000000
196.000000,-34535.635654,-16417.915096,7951.186055,14874.124810,839.710336,28689.223968,3407.746960,16771.519693,-0.136000,0.982000,0.014000,192.000000,0.000000,0.000000,0.000000,0.000000,0.000000,0.000000,0.000000,0.000000,0.000000,1648533144.794633,0.000000
197.000000,-34536.350910,-16417.825689,7950.806075,14876.650557,840.447943,28688.441657,3406.629372,16771.407935,-0.136000,0.982000,0.014000,192.000000,0.000000,0.000000,0.000000,0.000000,0.000000,0.000000,0.000000,0.000000,0.000000,1648533144.794644,0.000000
198.000000,-34538.608436,-16421.290209,7948.928529,14879.533932,839.643280,28687.525235,3403.142500,16767.898711,-0.136000,0.982000,0.014000,192.000000,0.000000,0.000000,0.000000,0.000000,0.000000,0.000000,0.000000,0.000000,0.000000,1648533144.802006,0.000000
199.000000,-34535.099213,-16418.004503,7953.912968,14885.010110,844.091278,28688.374601,3401.287306,16763.741286,-0.134000,0.974000,0.010000,192.000000,251.000000,208.000000,30.000000,112.000000,0.000000,80.000000,0.000000,0.000000,0.000000,1648533144.802022,0.000000
200.000000,-34535.658006,-16418.250372,7953.041250,14882.953749,841.252606,28688.821636,3400.504994,16760.992022,-0.134000,0.974000,0.010000,192.000000,0.000000,0.000000,0.000000,0.000000,0.000000,0.000000,0.000000,0.000000,0.000000,1648533144.808516,0.000000
201.000000,-34531.411175,-16420.910230,7955.209369,14881.031499,842.101972,28687.391125,3401.220250,16758.153350,-0.134000,0.974000,0.010000,192.000000,0.000000,0.000000,0.000000,0.000000,0.000000,0.000000,0.000000,0.000000,0.000000,1648533144.816388,0.000000
202.000000,-34523.453954,-16415.255238,7961.892541,14889.636921,849.723917,28691.906177,3403.254259,16760.075600,-0.134000,0.974000,0.010000,192.000000,0.000000,0.000000,0.000000,0.000000,0.000000,0.000000,0.000000,0.000000,0.000000,1648533144.816404,0.000000
203.000000,-34520.972910,-16412.081291,7965.111192,14892.721461,855.133039,28697.896445,3405.332971,16764.791818,-0.134000,0.974000,0.010000,192.000000,0.000000,0.000000,0.000000,0.000000,0.000000,0.000000,0.000000,0.000000,0.000000,1648533144.824435,0.000000
204.000000,-34526.426736,-16413.534154,7960.707898,14887.289987,849.232179,28696.532988,3405.198861,16764.769466,-0.134000,0.974000,0.010000,192.000000,0.000000,0.000000,0.000000,0.000000,0.000000,0.000000,0.000000,0.000000,0.000000,1648533144.824451,0.000000
205.000000,-34527.454916,-16409.510840,7962.428983,14887.669967,848.829847,28695.795381,3405.109454,16766.624661,-0.134000,0.974000,0.010000,192.000000,0.000000,0.000000,0.000000,0.000000,0.000000,0.000000,0.000000,0.000000,0.000000,1648533144.831252,0.000000
206.000000,-34527.477268,-16406.873334,7960.685546,14888.049947,851.735574,28696.130657,3407.121111,16771.162065,-0.134000,0.974000,0.010000,192.000000,0.000000,0.000000,0.000000,0.000000,0.000000,0.000000,0.000000,0.000000,0.000000,1648533144.831269,0.000000
207.000000,-34521.799925,-16409.153212,7962.428983,14885.703014,854.708356,28693.627261,3409.713913,16773.039612,-0.134000,0.974000,0.010000,192.000000,0.000000,0.000000,0.000000,0.000000,0.000000,0.000000,0.000000,0.000000,0.000000,1648533144.839079,0.000000
208.000000,-34525.107983,-16409.957875,7959.187980,14882.484362,852.294368,28692.464971,3410.719742,16773.665461,-0.134000,0.974000,0.010000,192.000000,0.000000,0.000000,0.000000,0.000000,0.000000,0.000000,0.000000,0.000000,0.000000,1648533144.839095,0.000000
209.000000,-34524.035099,-16408.840288,7959.992642,14892.229723,854.797763,28692.442619,3407.143463,16773.039612,-0.134000,0.974000,0.016000,192.000000,251.000000,208.000000,30.000000,112.000000,0.000000,128.000000,0.000000,0.000000,0.000000,1648533144.847185,0.000000
210.000000,-34521.151724,-16402.179468,7962.630148,14895.984816,859.044595,28694.476628,3405.198861,16772.190246,-0.134000,0.974000,0.016000,192.000000,0.000000,0.000000,0.000000,0.000000,0.000000,0.000000,0.000000,0.000000,0.000000,1648533144.847202,0.000000
211.000000,-34525.934997,-16400.860715,7957.958634,14889.815735,854.082507,28691.280328,3402.449596,16771.050307,-0.134000,0.974000,0.016000,192.000000,0.000000,0.000000,0.000000,0.000000,0.000000,0.000000,0.000000,0.000000,0.000000,1648533144.854099,0.000000
212.000000,-34524.683300,-16399.899590,7958.696241,14885.390089,849.522752,28687.860511,3399.901497,16768.569263,-0.134000,0.974000,0.016000,192.000000,0.000000,0.000000,0.000000,0.000000,0.000000,0.000000,0.000000,0.000000,0.000000,1648533144.854113,0.000000
213.000000,-34529.220704,-16401.441860,7956.371660,14884.607778,847.108763,28684.954785,3397.599268,16763.674231,-0.134000,0.974000,0.016000,192.000000,0.000000,0.000000,0.000000,0.000000,0.000000,0.000000,0.000000,0.000000,0.000000,1648533144.861765,0.000000
214.000000,-34531.455878,-16407.298017,7956.215198,14881.456182,844.873589,28684.865378,3393.732416,16759.561510,-0.134000,0.974000,0.016000,192.000000,0.000000,0.000000,0.000000,0.000000,0.000000,0.000000,0.000000,0.000000,0.000000,1648533144.861801,0.000000
215.000000,-34533.802811,-16407.499183,7954.583520,14878.729269,843.688946,28680.998526,3391.273724,16757.192225,-0.134000,0.974000,0.016000,192.000000,0.000000,0.000000,0.000000,0.000000,0.000000,0.000000,0.000000,0.000000,0.000000,1648533144.868928,0.000000
216.000000,-34532.685224,-16405.778099,7958.360965,14877.321109,845.499438,28681.043229,3389.619695,16754.755885,-0.134000,0.974000,0.016000,192.000000,0.000000,0.000000,0.000000,0.000000,0.000000,0.000000,0.000000,0.000000,0.000000,1648533144.876569,0.000000
217.000000,-34532.953445,-16411.902477,7957.019860,14873.387202,842.884283,28682.339630,3388.971494,16752.341897,-0.134000,0.974000,0.016000,192.000000,0.000000,0.000000,0.000000,0.000000,0.000000,0.000000,0.000000,0.000000,0.000000,1648533144.876581,0.000000
218.000000,-34533.311073,-16413.332988,7955.030555,14873.811886,840.894978,28680.193863,3387.608038,16749.257356,-0.134000,0.974000,0.016000,192.000000,0.000000,0.000000,0.000000,0.000000,0.000000,0.000000,0.000000,0.000000,0.000000,1648533144.883596,0.000000
219.000000,-34538.429622,-16411.723663,7953.912968,14867.799266,837.721030,28676.751694,3385.417567,16745.926946,-0.138000,0.978000,0.020000,192.000000,251.000000,176.000000,30.000000,144.000000,0.000000,160.000000,0.000000,0.000000,0.000000,1648533144.883607,0.000000
220.000000,-34535.188620,-16409.220267,7954.091782,14870.704993,838.816266,28678.048095,3385.015236,16746.575147,-0.138000,0.978000,0.020000,192.000000,0.000000,0.000000,0.000000,0.000000,0.000000,0.000000,0.000000,0.000000,0.000000,1648533144.891408,0.000000
221.000000,-34521.241131,-16403.252352,7960.618491,14878.952787,845.320624,28683.121941,3390.603172,16750.039667,-0.138000,0.978000,0.020000,192.000000,0.000000,0.000000,0.000000,0.000000,0.000000,0.000000,0.000000,0.000000,0.000000,1648533144.891426,0.000000
222.000000,-34530.025367,-16402.402985,7952.437753,14874.325976,836.670498,28681.087933,3398.850965,16748.720914,-0.138000,0.978000,0.020000,192.000000,0.000000,0.000000,0.000000,0.000000,0.000000,0.000000,0.000000,0.000000,0.000000,1648533144.900762,0.000000
223.000000,-34538.899009,-16412.908305,7941.485398,14868.447467,827.171007,28674.740037,3398.403930,16744.943469,-0.138000,0.978000,0.020000,192.000000,0.000000,0.000000,0.000000,0.000000,0.000000,0.000000,0.000000,0.000000,0.000000,1648533144.900773,0.000000
224.000000,-34527.432564,-16410.807241,7951.186055,14873.230740,831.887225,28676.103494,3399.856794,16745.323449,-0.138000,0.978000,0.020000,192.000000,0.000000,0.000000,0.000000,0.000000,0.000000,0.000000,0.000000,0.000000,0.000000,1648533144.907437,0.000000
225.000000,-34525.443259,-16405.889858,7950.940186,14875.734136,832.647184,28678.606889,3399.789739,16749.302059,-0.138000,0.978000,0.020000,192.000000,0.000000,0.000000,0.000000,0.000000,0.000000,0.000000,0.000000,0.000000,0.000000,1648533144.907454,0.000000
226.000000,-34531.411175,-16407.409776,7949.375564,14870.548531,828.623870,28678.606889,3397.576916,16755.672306,-0.138000,0.978000,0.020000,192.000000,0.000000,0.000000,0.000000,0.000000,0.000000,0.000000,0.000000,0.000000,0.000000,1648533144.913656,0.000000
227.000000,-34531.433526,-16410.404910,7949.956709,14867.955729,826.634565,28678.875110,3392.078387,16754.554719,-0.138000,0.978000,0.020000,192.000000,0.000000,0.000000,0.000000,0.000000,0.000000,0.000000,0.000000,0.000000,0.000000,1648533144.913665,0.000000
228.000000,-34540.061300,-16414.249410,7943.720572,14863.820656,820.733705,28674.360058,3389.485584,16753.213615,-0.138000,0.978000,0.020000,192.000000,0.000000,0.000000,0.000000,0.000000,0.000000,0.000000,0.000000,0.000000,0.000000,1648533144.922033,0.000000
229.000000,-34543.212896,-16415.031721,7942.312413,14865.050002,822.320679,28676.259956,3389.709102,16758.510978,-0.136000,0.978000,0.016000,192.000000,251.000000,192.000000,30.000000,144.000000,0.000000,128.000000,0.000000,0.000000,0.000000,1648533144.922050,0.000000
230.000000,-34538.899009,-16408.907343,7943.631165,14871.509656,825.293461,28678.159854,3388.792680,16760.701449,-0.136000,0.978000,0.016000,192.000000,0.000000,0.000000,0.000000,0.000000,0.000000,0.000000,0.000000,0.000000,0.000000,1648533144.929143,0.000000
231.000000,-34527.656082,-16397.731471,7950.828427,14878.662214,833.854179,28676.014087,3386.088119,16758.510978,-0.136000,0.978000,0.016000,192.000000,0.000000,0.000000,0.000000,0.000000,0.000000,0.000000,0.000000,0.000000,0.000000,1648533144.936885,0.000000
232.000000,-34525.823239,-16391.361224,7956.885750,14883.311377,838.190417,28677.936337,3388.502108,16758.220405,-0.136000,0.978000,0.016000,192.000000,0.000000,0.000000,0.000000,0.000000,0.000000,0.000000,0.000000,0.000000,0.000000,1648533144.936902,0.000000
233.000000,-34531.344119,-16401.374805,7956.014032,14881.724403,838.168065,28679.858587,3390.402006,16759.539158,-0.136000,0.978000,0.016000,192.000000,0.000000,0.000000,0.000000,0.000000,0.000000,0.000000,0.000000,0.000000,0.000000,1648533144.943746,0.000000
234.000000,-34537.043814,-16407.946218,7951.655442,14873.208388,832.043687,28677.109322,3387.228058,16757.929833,-0.136000,0.978000,0.016000,192.000000,0.000000,0.000000,0.000000,0.000000,0.000000,0.000000,0.000000,0.000000,0.000000,1648533144.943762,0.000000
235.000000,-34532.126431,-16401.888895,7955.566997,14873.029575,833.183626,28671.834311,3382.556544,16748.787969,-0.136000,0.978000,0.016000,192.000000,0.000000,0.000000,0.000000,0.000000,0.000000,0.000000,0.000000,0.000000,0.000000,1648533144.951784,0.000000
236.000000,-34528.796021,-16400.346625,7960.372622,14872.582540,836.916368,28670.426151,3386.333988,16747.737437,-0.136000,0.978000,0.016000,192.000000,0.000000,0.000000,0.000000,0.000000,0.000000,0.000000,0.000000,0.000000,0.000000,1648533144.951800,0.000000
237.000000,-34529.377166,-16400.525439,7961.311395,14873.253092,837.430458,28672.348401,3394.894707,16747.826844,-0.136000,0.978000,0.016000,192.000000,0.000000,0.000000,0.000000,0.000000,0.000000,0.000000,0.000000,0.000000,0.000000,1648533144.959793,0.000000
238.000000,-34528.550151,-16401.866544,7961.244340,14869.699165,836.022298,28668.705066,3398.381579,16744.608193,-0.136000,0.978000,0.016000,192.000000,0.000000,0.000000,0.000000,0.000000,0.000000,0.000000,0.000000,0.000000,0.000000,1648533144.959810,0.000000
239.000000,-34523.297491,-16400.547791,7964.887674,14871.777877,840.246778,28674.158892,3401.175547,16746.530443,-0.138000,0.978000,0.016000,192.000000,251.000000,176.000000,30.000000,144.000000,0.000000,128.000000,0.000000,0.000000,0.000000,1648533144.967696,0.000000
240.000000,-34532.394651,-16400.950122,7956.304605,14867.016955,835.798780,28673.778912,3397.040474,16746.217519,-0.138000,0.978000,0.016000,192.000000,0.000000,0.000000,0.000000,0.000000,0.000000,0.000000,0.000000,0.000000,0.000000,1648533144.967712,0.000000
241.000000,-34530.382994,-16401.955950,7960.596140,14868.849798,838.391583,28676.483473,3397.040474,16749.972612,-0.138000,0.978000,0.016000,192.000000,0.000000,0.000000,0.000000,0.000000,0.000000,0.000000,0.000000,0.000000,0.000000,1648533144.975495,0.000000
242.000000,-34523.073974,-16398.670244,7967.681642,14873.543665,842.727821,28680.506787,3395.967590,16752.744228,-0.138000,0.978000,0.016000,192.000000,0.000000,0.000000,0.000000,0.000000,0.000000,0.000000,0.000000,0.000000,0.000000,1648533144.975506,0.000000
243.000000,-34522.626939,-16395.585703,7966.362890,14872.850761,840.716164,28680.149159,3393.441843,16752.967745,-0.138000,0.978000,0.016000,192.000000,0.000000,0.000000,0.000000,0.000000,0.000000,0.000000,0.000000,0.000000,0.000000,1648533144.983659,0.000000
244.000000,-34517.933073,-16398.089099,7968.396898,14876.561150,844.314795,28678.830407,3389.172660,16750.307888,-0.138000,0.978000,0.016000,192.000000,0.000000,0.000000,0.000000,0.000000,0.000000,0.000000,0.000000,0.000000,0.000000,1648533144.983669,0.000000
245.000000,-34513.194503,-16391.987072,7970.207390,14882.819639,850.886208,28683.524273,3389.284419,16749.659687,-0.138000,0.978000,0.016000,192.000000,0.000000,0.000000,0.000000,0.000000,0.000000,0.000000,0.000000,0.000000,0.000000,1648533144.990684,0.000000
246.000000,-34520.257654,-16389.684843,7964.954730,14880.807982,846.549970,28682.719610,3391.474890,16749.525577,-0.138000,0.978000,0.016000,192.000000,0.000000,0.000000,0.000000,0.000000,0.000000,0.000000,0.000000,0.000000,0.000000,1648533144.996932,0.000000
247.000000,-34521.151724,-16390.735375,7967.011090,14880.673871,848.695737,28684.686564,3393.911230,16751.045495,-0.138000,0.978000,0.016000,192.000000,0.000000,0.000000,0.000000,0.000000,0.000000,0.000000,0.000000,0.000000,0.000000,1648533144.996949,0.000000
248.000000,-34513.328613,-16386.197971,7975.996491,14888.586389,856.742365,28689.894520,3397.085178,16760.612042,-0.138000,0.978000,0.016000,192.000000,0.000000,0.000000,0.000000,0.000000,0.000000,0.000000,0.000000,0.000000,0.000000,1648533145.003651,0.000000
249.000000,-34514.446201,-16382.129953,7975.325939,14888.742851,855.334205,28690.877997,3397.442805,16765.149446,-0.140000,0.976000,0.014000,192.000000,251.000000,160.000000,30.000000,128.000000,0.000000,112.000000,0.000000,0.000000,0.000000,1648533145.003662,0.000000
250.000000,-34508.590044,-16377.972529,7972.755488,14890.978025,855.468316,28688.441657,3398.918021,16763.271900,-0.140000,0.976000,0.014000,192.000000,0.000000,0.000000,0.000000,0.000000,0.000000,0.000000,0.000000,0.000000,0.000000,1648533145.011929,0.000000
251.000000,-34513.127448,-16381.325290,7971.570846,14881.746755,850.305063,28687.279366,3402.404893,16763.204844,-0.140000,0.976000,0.014000,192.000000,0.000000,0.000000,0.000000,0.000000,0.000000,0.000000,0.000000,0.000000,0.000000,1648533145.011945,0.000000
252.000000,-34526.046756,-16387.784945,7962.719555,14868.022784,838.771562,28675.790569,3395.855832,16757.728667,-0.140000,0.976000,0.014000,192.000000,0.000000,0.000000,0.000000,0.000000,0.000000,0.000000,0.000000,0.000000,0.000000,1648533145.019148,0.000000
253.000000,-34526.873771,-16392.121183,7960.707898,14869.073316,840.179722,28673.622450,3389.127957,16754.621775,-0.140000,0.976000,0.014000,192.000000,0.000000,0.000000,0.000000,0.000000,0.000000,0.000000,0.000000,0.000000,0.000000,1648533145.019165,0.000000
254.000000,-34526.896122,-16395.809221,7958.584483,14865.429981,837.475161,28672.124883,3385.462270,16755.717010,-0.140000,0.976000,0.014000,192.000000,0.000000,0.000000,0.000000,0.000000,0.000000,0.000000,0.000000,0.000000,0.000000,1648533145.026409,0.000000
255.000000,-34526.069108,-16395.496296,7954.069430,14866.502865,834.122400,28667.363962,3380.947218,16759.449751,-0.140000,0.976000,0.014000,192.000000,0.000000,0.000000,0.000000,0.000000,0.000000,0.000000,0.000000,0.000000,0.000000,1648533145.026420,0.000000
0.000000,-34530.181829,-16393.574046,7949.330860,14862.054868,829.719106,28665.508767,3379.203782,16761.997850,-0.140000,0.976000,0.014000,192.000000,0.000000,0.000000,0.000000,0.000000,0.000000,0.000000,0.000000,0.000000,0.000000,1648533145.034608,0.000000
1.000000,-34526.247922,-16391.204761,7949.487323,14861.764295,830.903748,28666.671058,3379.337892,16760.388525,-0.140000,0.976000,0.014000,192.000000,0.000000,0.000000,0.000000,0.000000,0.000000,0.000000,0.000000,0.000000,0.000000,1648533145.034643,0.000000
2.000000,-34522.850457,-16391.472982,7949.889654,14862.323089,830.791990,28669.286212,3380.723701,16759.427400,-0.140000,0.976000,0.014000,192.000000,0.000000,0.000000,0.000000,0.000000,0.000000,0.000000,0.000000,0.000000,0.000000,1648533145.042768,0.000000
3.000000,-34529.511276,-16394.982206,7943.653517,14857.584519,824.511149,28666.380485,3380.768404,16754.867644,-0.140000,0.972000,0.012000,192.000000,251.000000,160.000000,30.000000,96.000000,0.000000,96.000000,0.000000,0.000000,0.000000,1648533145.042784,0.000000
4.000000,-34533.869867,-16394.579875,7942.625337,14851.504845,823.304155,28669.777950,3384.724663,16756.141693,-0.140000,0.972000,0.012000,192.000000,0.000000,0.000000,0.000000,0.000000,0.000000,0.000000,0.000000,0.000000,0.000000,1648533145.049805,0.000000
5.000000,-34544.554000,-16397.530305,7936.791532,14849.001449,817.604460,28666.313430,3385.819898,16753.660649,-0.140000,0.972000,0.012000,192.000000,0.000000,0.000000,0.000000,0.000000,0.000000,0.000000,0.000000,0.000000,0.000000,1648533145.049822,0.000000
6.000000,-34533.735756,-16393.819916,7945.464009,14857.182188,826.701620,28669.554433,3389.463233,16756.946356,-0.140000,0.972000,0.012000,192.000000,0.000000,0.000000,0.000000,0.000000,0.000000,0.000000,0.000000,0.000000,0.000000,1648533145.057516,0.000000
7.000000,-34527.834896,-16393.171715,7950.426096,14857.137484,828.869740,28670.515558,3392.950105,16757.125170,-0.140000,0.972000,0.012000,192.000000,0.000000,0.000000,0.000000,0.000000,0.000000,0.000000,0.000000,0.000000,0.000000,1648533145.065561,0.000000
8.000000,-34528.438393,-16397.396195,7948.906177,14847.749752,826.969841,28668.190976,3393.486547,16753.034801,-0.140000,0.972000,0.012000,192.000000,0.000000,0.000000,0.000000,0.000000,0.000000,0.000000,0.000000,0.000000,0.000000,1648533145.065578,0.000000
9.000000,-34530.450050,-16393.171715,7950.984889,14853.225929,829.115609,28670.783779,3396.392273,16752.386600,-0.140000,0.972000,0.012000,192.000000,0.000000,0.000000,0.000000,0.000000,0.000000,0.000000,0.000000,0.000000,0.000000,1648533145.073757,0.000000
10.000000,-34526.717308,-16387.114392,7954.851741,14862.144275,834.524731,28669.666191,3396.392273,16752.699524,-0.140000,0.972000,0.012000,192.000000,0.000000,0.000000,0.000000,0.000000,0.000000,0.000000,0.000000,0.000000,0.000000,1648533145.073774,0.000000
11.000000,-34528.125468,-16388.835476,7955.969328,14860.333784,833.496551,28667.676886,3394.537079,16751.894862,-0.140000,0.972000,0.012000,192.000000,0.000000,0.000000,0.000000,0.000000,0.000000,0.000000,0.000000,0.000000,0.000000,1648533145.079849,0.000000
12.000000,-34527.253750,-16392.992901,7951.655442,14859.506769,829.316775,28662.491281,3389.753805,16752.990097,-0.140000,0.972000,0.012000,192.000000,0.000000,0.000000,0.000000,0.000000,0.000000,0.000000,0.000000,0.000000,0.000000,1648533145.079865,0.000000
13.000000,-34527.812544,-16394.132840,7951.275462,14860.870226,830.121437,28664.212366,3389.619695,16758.533330,-0.140000,0.976000,0.010000,192.000000,251.000000,160.000000,30.000000,128.000000,0.000000,80.000000,0.000000,0.000000,0.000000,1648533145.086996,0.000000
14.000000,-34529.891256,-16395.630407,7948.727363,14857.070429,829.361478,28663.005371,3388.055073,16756.320507,-0.140000,0.976000,0.010000,192.000000,0.000000,0.000000,0.000000,0.000000,0.000000,0.000000,0.000000,0.000000,0.000000,1648533145.087012,0.000000
15.000000,-34529.108945,-16393.305825,7948.436791,14859.886749,833.004812,28665.531119,3386.870430,16756.834597,-0.140000,0.976000,0.010000,192.000000,0.000000,0.000000,0.000000,0.000000,0.000000,0.000000,0.000000,0.000000,0.000000,1648533145.095000,0.000000
16.000000,-34523.386898,-16389.237808,7952.638918,14866.502865,835.932891,28670.269688,3389.485584,16759.360344,-0.140000,0.976000,0.010000,192.000000,0.000000,0.000000,0.000000,0.000000,0.000000,0.000000,0.000000,0.000000,0.000000,1648533145.095018,0.000000
17.000000,-34521.285834,-16390.377747,7956.952805,14868.760391,838.995080,28676.595232,3390.178489,16760.924966,-0.140000,0.976000,0.010000,192.000000,0.000000,0.000000,0.000000,0.000000,0.000000,0.000000,0.000000,0.000000,0.000000,1648533145.101920,0.000000
18.000000,-34525.309148,-16389.729546,7953.264767,14864.267691,836.335222,28676.081142,3386.982189,16760.187359,-0.140000,0.976000,0.010000,192.000000,0.000000,0.000000,0.000000,0.000000,0.000000,0.000000,0.000000,0.000000,0.000000,1648533145.101937,0.000000
19.000000,-34522.470477,-16387.404965,7954.583520,14865.742906,839.173894,28678.830407,3385.976361,16757.639260,-0.140000,0.976000,0.010000,192.000000,0.000000,0.000000,0.000000,0.000000,0.000000,0.000000,0.000000,0.000000,0.000000,1648533145.109420,0.000000
20.000000,-34522.984567,-16385.594474,7952.974195,14858.992679,834.480027,28674.672982,3384.188221,16756.611080,-0.140000,0.976000,0.010000,192.000000,0.000000,0.000000,0.000000,0.000000,0.000000,0.000000,0.000000,0.000000,0.000000,1648533145.109438,0.000000
21.000000,-34528.796021,-16386.309729,7948.280328,14858.031554,830.456713,28670.046171,3383.741186,16753.839463,-0.140000,0.976000,0.010000,192.000000,0.000000,0.000000,0.000000,0.000000,0.000000,0.000000,0.000000,0.000000,0.000000,1648533145.116598,0.000000
22.000000,-34529.667739,-16387.606131,7949.308509,14861.585481,831.328432,28671.051999,3383.137689,16754.331202,-0.140000,0.976000,0.010000,192.000000,0.000000,0.000000,0.000000,0.000000,0.000000,0.000000,0.000000,0.000000,0.000000,1648533145.124404,0.000000
23.000000,-34524.996224,-16384.879218,7954.628224,14868.223949,833.921234,28672.549566,3386.713968,16755.605251,-0.140000,0.978000,0.012000,192.000000,251.000000,160.000000,30.000000,144.000000,0.000000,96.000000,0.000000,0.000000,0.000000,1648533145.124420,0.000000
24.000000,-34523.141029,-16384.946273,7953.242416,14868.246301,834.032993,28674.963555,3390.089082,16756.611080,-0.140000,0.978000,0.012000,192.000000,0.000000,0.000000,0.000000,0.000000,0.000000,0.000000,0.000000,0.000000,0.000000,1648533145.132518,0.000000
25.000000,-34521.397593,-16378.218398,7957.869227,14871.755525,836.983423,28682.920776,3394.022989,16762.042554,-0.140000,0.978000,0.012000,192.000000,0.000000,0.000000,0.000000,0.000000,0.000000,0.000000,0.000000,0.000000,0.000000,1648533145.132536,0.000000
26.000000,-34526.627901,-16379.358337,7958.360965,14863.597138,833.250682,28680.439732,3393.151271,16760.992022,-0.140000,0.978000,0.012000,192.000000,0.000000,0.000000,0.000000,0.000000,0.000000,0.000000,0.000000,0.000000,0.000000,1648533145.140621,0.000000
27.000000,-34533.579294,-16385.750936,7950.537854,14853.985888,826.366344,28676.148197,3391.787814,16757.616908,-0.140000,0.978000,0.012000,192.000000,0.000000,0.000000,0.000000,0.000000,0.000000,0.000000,0.000000,0.000000,0.000000,1648533145.140637,0.000000
28.000000,-34537.200277,-16391.696500,7946.223968,14849.001449,820.040801,28670.604965,3392.011332,16751.559586,-0.140000,0.978000,0.012000,192.000000,0.000000,0.000000,0.000000,0.000000,0.000000,0.000000,0.000000,0.000000,0.000000,1648533145.148432,0.000000
29.000000,-34529.399518,-16387.226151,7952.460105,14856.981022,828.355650,28672.728380,3392.793643,16752.051324,-0.140000,0.978000,0.012000,192.000000,0.000000,0.000000,0.000000,0.000000,0.000000,0.000000,0.000000,0.000000,0.000000,1648533145.148459,0.000000
30.000000,-34526.605550,-16383.985148,7953.443581,14863.105400,832.222501,28673.175415,3392.681884,16754.912347,-0.140000,0.978000,0.012000,192.000000,0.000000,0.000000,0.000000,0.000000,0.000000,0.000000,0.000000,0.000000,0.000000,1648533145.155683,0.000000
31.000000,-34523.096326,-16381.191180,7955.768163,14866.279348,836.067001,28672.907194,3393.307733,16755.269975,-0.140000,0.978000,0.012000,192.000000,0.000000,0.000000,0.000000,0.000000,0.000000,0.000000,0.000000,0.000000,0.000000,1648533145.155699,0.000000
32.000000,-34523.677471,-16379.291282,7950.493151,14864.044173,833.764772,28671.342572,3392.391311,16756.767542,-0.140000,0.978000,0.012000,192.000000,0.000000,0.000000,0.000000,0.000000,0.000000,0.000000,0.000000,0.000000,0.000000,1648533145.161939,0.000000
33.000000,-34519.497695,-16376.743183,7956.595177,14872.269615,839.956205,28674.293002,3392.905401,16759.360344,-0.144000,0.978000,0.016000,192.000000,251.000000,128.000000,30.000000,144.000000,0.000000,128.000000,0.000000,0.000000,0.000000,1648533145.161956,0.000000
34.000000,-34524.839762,-16373.815104,7956.461067,14871.241435,837.922196,28674.896500,3392.011332,16760.612042,-0.144000,0.978000,0.016000,192.000000,0.000000,0.000000,0.000000,0.000000,0.000000,0.000000,0.000000,0.000000,0.000000,1648533145.169884,0.000000
35.000000,-34522.157552,-16369.612976,7959.590311,14873.476609,839.889150,28679.389200,3394.358265,16765.954109,-0.144000,0.978000,0.016000,192.000000,0.000000,0.000000,0.000000,0.000000,0.000000,0.000000,0.000000,0.000000,0.000000,1648533145.169900,0.000000
36.000000,-34529.846553,-16372.563407,7950.314337,14867.084010,831.216673,28674.941203,3392.257201,16762.310775,-0.144000,0.978000,0.016000,192.000000,0.000000,0.000000,0.000000,0.000000,0.000000,0.000000,0.000000,0.000000,0.000000,1648533145.176899,0.000000
37.000000,-34524.929169,-16377.503142,7951.767200,14866.771086,831.909577,28675.097665,3391.519593,16758.399219,-0.144000,0.978000,0.016000,192.000000,0.000000,0.000000,0.000000,0.000000,0.000000,0.000000,0.000000,0.000000,0.000000,1648533145.183874,0.000000
38.000000,-34523.766878,-16378.441915,7956.841046,14865.027650,833.563606,28677.422247,3396.995771,16761.103780,-0.144000,0.978000,0.016000,192.000000,0.000000,0.000000,0.000000,0.000000,0.000000,0.000000,0.000000,0.000000,0.000000,1648533145.183890,0.000000
39.000000,-34531.210009,-16379.715965,7952.437753,14858.433885,827.930966,28677.511654,3400.549698,16763.450714,-0.144000,0.978000,0.016000,192.000000,0.000000,0.000000,0.000000,0.000000,0.000000,0.000000,0.000000,0.000000,0.000000,1648533145.191209,0.000000
40.000000,-34535.658006,-16381.615863,7945.843988,14848.576766,821.247795,28675.075313,3401.354361,16760.902615,-0.144000,0.978000,0.016000,192.000000,0.000000,0.000000,0.000000,0.000000,0.000000,0.000000,0.000000,0.000000,0.000000,1648533145.191220,0.000000
41.000000,-34535.054509,-16380.855904,7946.626299,14863.999470,828.199187,28682.049058,3405.288268,16757.885129,-0.144000,0.978000,0.016000,192.000000,0.000000,0.000000,0.000000,0.000000,0.000000,0.000000,0.000000,0.000000,0.000000,1648533145.199508,0.000000
42.000000,-34523.431602,-16380.163000,7952.549511,14867.173417,832.736591,28689.447485,3412.083198,16762.534292,-0.144000,0.978000,0.016000,192.000000,0.000000,0.000000,0.000000,0.000000,0.000000,0.000000,0.000000,0.000000,0.000000,1648533145.199524,0.000000
43.000000,-34521.531704,-16379.738317,7953.734154,14866.614624,831.574301,28691.794418,3413.178434,16761.528464,-0.146000,0.982000,0.012000,192.000000,251.000000,112.000000,30.000000,176.000000,0.000000,96.000000,0.000000,0.000000,0.000000,1648533145.207305,0.000000
44.000000,-34524.549189,-16382.465229,7950.314337,14862.859531,830.009679,28687.257014,3410.563279,16756.856949,-0.146000,0.982000,0.012000,192.000000,0.000000,0.000000,0.000000,0.000000,0.000000,0.000000,0.000000,0.000000,0.000000,1648533145.207317,0.000000
45.000000,-34524.817410,-16378.576026,7954.337651,14864.737077,831.842522,28686.854683,3411.725570,16754.577071,-0.146000,0.982000,0.012000,192.000000,0.000000,0.000000,0.000000,0.000000,0.000000,0.000000,0.000000,0.000000,0.000000,1648533145.215415,0.000000
46.000000,-34529.019538,-16384.253369,7949.107343,14862.032516,828.199187,28682.049058,3409.669210,16751.939565,-0.146000,0.982000,0.012000,192.000000,0.000000,0.000000,0.000000,0.000000,0.000000,0.000000,0.000000,0.000000,0.000000,1648533145.215432,0.000000
47.000000,-34536.619131,-16389.841305,7942.155950,14861.294909,825.651088,28679.053924,3404.416550,16750.531405,-0.146000,0.982000,0.012000,192.000000,0.000000,0.000000,0.000000,0.000000,0.000000,0.000000,0.000000,0.000000,0.000000,1648533145.222198,0.000000
48.000000,-34543.548172,-16390.288340,7938.847892,14860.981984,824.399391,28678.092799,3397.487509,16751.872510,-0.146000,0.982000,0.012000,192.000000,0.000000,0.000000,0.000000,0.000000,0.000000,0.000000,0.000000,0.000000,0.000000,1648533145.222210,0.000000
49.000000,-34539.927189,-16386.555599,7941.485398,14868.179246,829.540292,28678.226909,3393.374788,16753.548891,-0.146000,0.982000,0.012000,192.000000,0.000000,0.000000,0.000000,0.000000,0.000000,0.000000,0.000000,0.000000,0.000000,1648533145.231580,0.000000
50.000000,-34528.103117,-16377.681956,7951.342517,14872.604891,837.363403,28681.244395,3394.022989,16755.605251,-0.146000,0.982000,0.012000,192.000000,0.000000,0.000000,0.000000,0.000000,0.000000,0.000000,0.000000,0.000000,0.000000,1648533145.231596,0.000000
51.000000,-34528.214875,-16372.362241,7950.716668,14872.694298,836.894016,28681.713782,3394.715893,16756.231100,-0.146000,0.982000,0.012000,192.000000,0.000000,0.000000,0.000000,0.000000,0.000000,0.000000,0.000000,0.000000,0.000000,1648533145.238564,0.000000
52.000000,-34526.516143,-16371.378764,7956.304605,14874.549493,840.403240,28680.439732,3393.844175,16757.482798,-0.146000,0.982000,0.012000,192.000000,0.000000,0.000000,0.000000,0.000000,0.000000,0.000000,0.000000,0.000000,0.000000,1648533145.244405,0.000000
53.000000,-34531.634692,-16375.938520,7952.817732,14870.235606,836.134057,28676.483473,3388.926791,16754.778237,-0.146000,0.982000,0.012000,192.000000,0.000000,0.000000,0.000000,0.000000,0.000000,0.000000,0.000000,0.000000,0.000000,1648533145.244421,0.000000
54.000000,-34534.451012,-16376.698479,7947.855645,14864.938243,831.663708,28672.616622,3386.401044,16756.432266,-0.140000,0.980000,0.014000,192.000000,251.000000,160.000000,30.000000,160.000000,0.000000,112.000000,0.000000,0.000000,0.000000,1648533145.251626,0.000000
55.000000,-34533.758108,-16372.563407,7946.581596,14866.346403,829.517940,28666.581651,3383.003579,16756.074638,-0.140000,0.980000,0.014000,192.000000,0.000000,0.000000,0.000000,0.000000,0.000000,0.000000,0.000000,0.000000,0.000000,1648533145.251642,0.000000
56.000000,-34527.074936,-16371.758744,7950.806075,14869.945034,834.301214,28667.878052,3383.472965,16755.940527,-0.140000,0.980000,0.014000,192.000000,0.000000,0.000000,0.000000,0.000000,0.000000,0.000000,0.000000,0.000000,0.000000,1648533145.259833,0.000000
57.000000,-34533.713404,-16381.548808,7950.269634,14866.167589,834.189455,28670.493206,3389.038550,16757.058115,-0.140000,0.980000,0.014000,192.000000,0.000000,0.000000,0.000000,0.000000,0.000000,0.000000,0.000000,0.000000,0.000000,1648533145.259851,0.000000
58.000000,-34533.691053,-16383.471058,7953.778857,14871.643766,837.698679,28676.125845,3393.330084,16756.678135,-0.140000,0.980000,0.014000,192.000000,0.000000,0.000000,0.000000,0.000000,0.000000,0.000000,0.000000,0.000000,0.000000,1648533145.266912,0.000000
59.000000,-34532.439355,-16382.197008,7953.488285,14870.973214,837.363403,28677.198729,3394.090044,16758.198054,-0.140000,0.980000,0.014000,192.000000,0.000000,0.000000,0.000000,0.000000,0.000000,0.000000,0.000000,0.000000,0.000000,1648533145.266928,0.000000
60.000000,-34526.985529,-16380.632386,7957.757468,14873.834237,839.598577,28680.417380,3396.436977,16761.997850,-0.140000,0.980000,0.014000,192.000000,0.000000,0.000000,0.000000,0.000000,0.000000,0.000000,0.000000,0.000000,0.000000,1648533145.274155,0.000000
61.000000,-34523.923340,-16376.989052,7957.668061,14870.257958,836.759905,28680.439732,3398.940372,16760.410876,-0.140000,0.980000,0.014000,192.000000,0.000000,0.000000,0.000000,0.000000,0.000000,0.000000,0.000000,0.000000,0.000000,1648533145.274172,0.000000
62.000000,-34526.382032,-16377.436087,7955.142314,14866.547569,834.457676,28678.808055,3401.868451,16759.136827,-0.140000,0.980000,0.014000,192.000000,0.000000,0.000000,0.000000,0.000000,0.000000,0.000000,0.000000,0.000000,0.000000,1648533145.282252,0.000000
63.000000,-34530.181829,-16379.224226,7952.013070,14866.212292,834.055344,28679.880939,3403.120149,16760.723801,-0.140000,0.980000,0.014000,192.000000,0.000000,0.000000,0.000000,0.000000,0.000000,0.000000,0.000000,0.000000,0.000000,1648533145.282268,0.000000
64.000000,-34530.472401,-16371.579930,7954.337651,14868.402763,835.418801,28683.233700,3402.851928,16760.746152,-0.132000,0.976000,0.010000,192.000000,251.000000,224.000000,30.000000,128.000000,0.000000,80.000000,0.000000,0.000000,0.000000,1648533145.290462,0.000000
65.000000,-34531.321768,-16371.334061,7956.259901,14863.373621,832.825998,28673.533043,3398.940372,16758.242757,-0.132000,0.976000,0.010000,192.000000,0.000000,0.000000,0.000000,0.000000,0.000000,0.000000,0.000000,0.000000,0.000000,1648533145.290499,0.000000
66.000000,-34524.862114,-16370.507046,7959.657366,14868.469819,838.168065,28672.907194,3399.320352,16756.454618,-0.132000,0.976000,0.010000,192.000000,0.000000,0.000000,0.000000,0.000000,0.000000,0.000000,0.000000,0.000000,0.000000,1648533145.297480,0.000000
67.000000,-34519.408288,-16365.612014,7961.892541,14872.090801,843.241911,28675.745866,3397.912192,16755.962879,-0.132000,0.976000,0.010000,192.000000,0.000000,0.000000,0.000000,0.000000,0.000000,0.000000,0.000000,0.000000,0.000000,1648533145.297497,0.000000
68.000000,-34521.688166,-16364.270909,7961.825485,14873.610720,841.029089,28675.365886,3396.727550,16753.280670,-0.132000,0.976000,0.010000,192.000000,0.000000,0.000000,0.000000,0.000000,0.000000,0.000000,0.000000,0.000000,0.000000,1648533145.305409,0.000000
69.000000,-34525.800887,-16361.879273,7955.589349,14869.028612,838.168065,28674.047133,3395.811128,16753.101856,-0.132000,0.976000,0.010000,192.000000,0.000000,0.000000,0.000000,0.000000,0.000000,0.000000,0.000000,0.000000,0.000000,1648533145.313397,0.000000
70.000000,-34520.324709,-16360.404058,7958.428020,14878.617511,845.074754,28677.288136,3396.146404,16754.152388,-0.132000,0.976000,0.010000,192.000000,0.000000,0.000000,0.000000,0.000000,0.000000,0.000000,0.000000,0.000000,0.000000,1648533145.313413,0.000000
71.000000,-34524.750355,-16363.443895,7958.137448,14875.398859,845.477086,28680.104456,3395.028817,16754.599423,-0.132000,0.976000,0.010000,192.000000,0.000000,0.000000,0.000000,0.000000,0.000000,0.000000,0.000000,0.000000,0.000000,1648533145.320424,0.000000
72.000000,-34526.471439,-16365.030869,7956.304605,14871.397897,844.650071,28681.914947,3398.962724,16755.649955,-0.132000,0.976000,0.010000,192.000000,0.000000,0.000000,0.000000,0.000000,0.000000,0.000000,0.000000,0.000000,0.000000,1648533145.320441,0.000000
73.000000,-34523.744526,-16360.180540,7958.830352,14879.310415,844.918292,28689.201616,3401.779044,16760.746152,-0.132000,0.976000,0.010000,192.000000,0.000000,0.000000,0.000000,0.000000,0.000000,0.000000,0.000000,0.000000,0.000000,1648533145.326811,0.000000
74.000000,-34523.945692,-16361.074610,7959.724421,14872.381374,841.610234,28689.291023,3399.566221,16762.400182,-0.138000,0.976000,0.012000,192.000000,251.000000,176.000000,30.000000,128.000000,0.000000,96.000000,0.000000,0.000000,0.000000,1648533145.326828,0.000000
75.000000,-34524.862114,-16357.721848,7962.652500,14871.286138,841.051440,28688.978099,3401.868451,16761.930795,-0.138000,0.976000,0.012000,192.000000,0.000000,0.000000,0.000000,0.000000,0.000000,0.000000,0.000000,0.000000,0.000000,1648533145.334675,0.000000
76.000000,-34528.617207,-16363.488598,7961.400802,14871.464952,840.224426,28683.479569,3400.102663,16753.481836,-0.138000,0.976000,0.012000,192.000000,0.000000,0.000000,0.000000,0.000000,0.000000,0.000000,0.000000,0.000000,0.000000,1648533145.334691,0.000000
77.000000,-34527.991358,-16371.401116,7960.394974,14867.553397,838.950376,28681.825540,3398.202765,16751.760751,-0.138000,0.976000,0.012000,192.000000,0.000000,0.000000,0.000000,0.000000,0.000000,0.000000,0.000000,0.000000,0.000000,1648533145.342339,0.000000
78.000000,-34526.985529,-16374.932691,7957.198674,14868.559226,838.503341,28677.489302,3395.431148,16745.792835,-0.138000,0.976000,0.012000,192.000000,0.000000,0.000000,0.000000,0.000000,0.000000,0.000000,0.000000,0.000000,0.000000,1648533145.342350,0.000000
79.000000,-34530.494753,-16370.104715,7955.231721,14867.352231,837.922196,28674.695334,3394.201803,16734.840481,-0.138000,0.976000,0.012000,192.000000,0.000000,0.000000,0.000000,0.000000,0.000000,0.000000,0.000000,0.000000,0.000000,1648533145.349060,0.000000
80.000000,-34533.333425,-16370.127066,7954.494113,14867.240473,838.413935,28669.599136,3392.458366,16730.794815,-0.138000,0.976000,0.012000,192.000000,0.000000,0.000000,0.000000,0.000000,0.000000,0.000000,0.000000,0.000000,0.000000,1648533145.349077,0.000000
81.000000,-34531.344119,-16369.858845,7955.276424,14866.256996,839.285653,28668.973287,3391.899573,16732.359437,-0.138000,0.976000,0.012000,192.000000,0.000000,0.000000,0.000000,0.000000,0.000000,0.000000,0.000000,0.000000,0.000000,1648533145.357332,0.000000
82.000000,-34529.332462,-16369.680031,7954.807038,14863.619490,838.749211,28669.196805,3387.585686,16733.164100,-0.138000,0.976000,0.012000,192.000000,0.000000,0.000000,0.000000,0.000000,0.000000,0.000000,0.000000,0.000000,0.000000,1648533145.357349,0.000000
83.000000,-34525.733832,-16367.064877,7958.316262,14867.106362,842.280786,28671.811959,3388.055073,16736.382751,-0.138000,0.976000,0.012000,192.000000,0.000000,0.000000,0.000000,0.000000,0.000000,0.000000,0.000000,0.000000,0.000000,1648533145.364307,0.000000
84.000000,-34529.243055,-16362.706287,7956.438715,14864.446505,839.822094,28670.984944,3389.507936,16734.393446,-0.142000,0.974000,0.012000,192.000000,251.000000,144.000000,30.000000,112.000000,0.000000,96.000000,0.000000,0.000000,0.000000,1648533145.372271,0.000000
85.000000,-34531.791154,-16365.477904,7952.124828,14859.260900,837.139885,28671.163758,3388.658570,16730.727760,-0.142000,0.974000,0.012000,192.000000,0.000000,0.000000,0.000000,0.000000,0.000000,0.000000,0.000000,0.000000,0.000000,1648533145.372288,0.000000
86.000000,-34535.412137,-16366.036697,7949.822599,14858.076257,832.915405,28672.750732,3391.921925,16733.588783,-0.142000,0.974000,0.012000,192.000000,0.000000,0.000000,0.000000,0.000000,0.000000,0.000000,0.000000,0.000000,0.000000,1648533145.380316,0.000000
87.000000,-34540.173059,-16367.109581,7947.028631,14853.963536,827.975670,28672.951898,3393.486547,16736.226289,-0.142000,0.974000,0.012000,192.000000,0.000000,0.000000,0.000000,0.000000,0.000000,0.000000,0.000000,0.000000,0.000000,1648533145.380331,0.000000
88.000000,-34533.623997,-16373.658642,7949.867302,14856.176359,829.205016,28674.516520,3394.760596,16737.925021,-0.142000,0.974000,0.012000,192.000000,0.000000,0.000000,0.000000,0.000000,0.000000,0.000000,0.000000,0.000000,0.000000,1648533145.388442,0.000000
89.000000,-34531.902913,-16370.909377,7955.611700,14860.691412,833.518902,28677.578709,3399.163890,16742.909460,-0.142000,0.974000,0.012000,192.000000,0.000000,0.000000,0.000000,0.000000,0.000000,0.000000,0.000000,0.000000,0.000000,1648533145.388458,0.000000
90.000000,-34536.261503,-16370.730563,7949.800247,14864.178284,829.875568,28673.801264,3398.649800,16737.969725,-0.142000,0.974000,0.012000,192.000000,0.000000,0.000000,0.000000,0.000000,0.000000,0.000000,0.000000,0.000000,0.000000,1648533145.396375,0.000000
91.000000,-34533.713404,-16369.210645,7948.034459,14862.054868,830.367307,28671.029648,3395.364093,16734.460501,-0.142000,0.974000,0.012000,192.000000,0.000000,0.000000,0.000000,0.000000,0.000000,0.000000,0.000000,0.000000,0.000000,1648533145.396391,0.000000
92.000000,-34534.428660,-16364.472075,7949.196750,14868.961557,835.932891,28673.398933,3391.340779,16733.588783,-0.142000,0.974000,0.012000,192.000000,0.000000,0.000000,0.000000,0.000000,0.000000,0.000000,0.000000,0.000000,0.000000,1648533145.403235,0.000000
93.000000,-34533.132259,-16363.130970,7951.208407,14868.514522,835.239987,28675.030610,3392.503070,16732.940582,-0.142000,0.974000,0.012000,192.000000,0.000000,0.000000,0.000000,0.000000,0.000000,0.000000,0.000000,0.000000,0.000000,1648533145.403252,0.000000
94.000000,-34541.961198,-16362.393363,7947.118038,14861.294909,830.657879,28670.381447,3393.888878,16729.386655,-0.140000,0.976000,0.008000,192.000000,251.000000,160.000000,30.000000,128.000000,0.000000,64.000000,0.000000,0.000000,0.000000,1648533145.409571,0.000000
95.000000,-34533.333425,-16355.821950,7953.488285,14866.860493,838.480990,28671.297869,3392.950105,16727.956143,-0.140000,0.976000,0.008000,192.000000,0.000000,0.000000,0.000000,0.000000,0.000000,0.000000,0.000000,0.000000,0.000000,1648533145.409587,0.000000
96.000000,-34532.037024,-16353.407962,7956.170494,14868.447467,840.827923,28675.142369,3394.537079,16730.213670,-0.140000,0.976000,0.008000,192.000000,0.000000,0.000000,0.000000,0.000000,0.000000,0.000000,0.000000,0.000000,0.000000,1648533145.417357,0.000000
97.000000,-34533.691053,-16352.357430,7951.610738,14868.916854,838.548045,28671.700200,3392.927753,16731.152443,-0.140000,0.976000,0.008000,192.000000,0.000000,0.000000,0.000000,0.000000,0.000000,0.000000,0.000000,0.000000,0.000000,1648533145.417374,0.000000
98.000000,-34534.003977,-16350.949270,7950.426096,14871.397897,840.939682,28670.560261,3393.799471,16732.247678,-0.140000,0.976000,0.008000,192.000000,0.000000,0.000000,0.000000,0.000000,0.000000,0.000000,0.000000,0.000000,0.000000,1648533145.424461,0.000000
99.000000,-34532.685224,-16351.038677,7953.823561,14869.475647,841.610234,28671.767255,3396.436977,16735.131053,-0.140000,0.976000,0.008000,192.000000,0.000000,0.000000,0.000000,0.000000,0.000000,0.000000,0.000000,0.000000,0.000000,1648533145.431640,0.000000
100.000000,-34534.495715,-16351.820988,7951.096648,14861.473723,835.575263,28672.527215,3400.884974,16739.422588,-0.140000,0.976000,0.008000,192.000000,0.000000,0.000000,0.000000,0.000000,0.000000,0.000000,0.000000,0.000000,0.000000,1648533145.431656,0.000000
101.000000,-34543.078785,-16357.610089,7947.207445,14861.160798,828.623870,28666.134616,3396.526384,16735.823957,-0.140000,0.976000,0.008000,192.000000,0.000000,0.000000,0.000000,0.000000,0.000000,0.000000,0.000000,0.000000,0.000000,1648533145.439157,0.000000
102.000000,-34546.543306,-16361.633403,7947.766238,14862.144275,828.668574,28663.564165,3394.961762,16732.806472,-0.140000,0.976000,0.008000,192.000000,0.000000,0.000000,0.000000,0.000000,0.000000,0.000000,0.000000,0.000000,0.000000,1648533145.439169,0.000000
103.000000,-34536.037986,-16360.560520,7953.175360,14870.414420,836.067001,28664.994677,3393.151271,16728.850213,-0.140000,0.976000,0.008000,192.000000,0.000000,0.000000,0.000000,0.000000,0.000000,0.000000,0.000000,0.000000,0.000000,1648533145.447165,0.000000
104.000000,-34534.026329,-16358.325345,7954.807038,14869.363888,837.273996,28669.867357,3393.017160,16726.659742,-0.140000,0.972000,0.014000,192.000000,251.000000,160.000000,30.000000,96.000000,0.000000,112.000000,0.000000,0.000000,0.000000,1648533145.447181,0.000000
105.000000,-34532.841686,-16353.854996,7955.902273,14870.749697,837.139885,28668.794473,3392.637180,16725.720969,-0.140000,0.972000,0.014000,192.000000,0.000000,0.000000,0.000000,0.000000,0.000000,0.000000,0.000000,0.000000,0.000000,1648533145.455285,0.000000
106.000000,-34528.661910,-16350.658697,7959.702070,14878.729269,843.577187,28673.667154,3393.866526,16727.822033,-0.140000,0.972000,0.014000,192.000000,0.000000,0.000000,0.000000,0.000000,0.000000,0.000000,0.000000,0.000000,0.000000,1648533145.455301,0.000000
107.000000,-34520.481172,-16343.841415,7966.273483,14882.082031,850.886208,28678.629241,3395.140576,16731.912402,-0.140000,0.972000,0.014000,192.000000,0.000000,0.000000,0.000000,0.000000,0.000000,0.000000,0.000000,0.000000,0.000000,1648533145.462150,0.000000
108.000000,-34526.002053,-16346.881252,7965.200599,14874.393031,844.806533,28680.372677,3398.716855,16732.605306,-0.140000,0.972000,0.014000,192.000000,0.000000,0.000000,0.000000,0.000000,0.000000,0.000000,0.000000,0.000000,0.000000,1648533145.462167,0.000000
109.000000,-34528.684262,-16349.429351,7958.718593,14868.335708,838.033955,28675.879976,3399.901497,16732.918231,-0.140000,0.972000,0.014000,192.000000,0.000000,0.000000,0.000000,0.000000,0.000000,0.000000,0.000000,0.000000,0.000000,1648533145.471337,0.000000
110.000000,-34521.107021,-16347.238880,7965.468820,14872.202560,844.314795,28675.343534,3399.387407,16733.186452,-0.140000,0.972000,0.014000,192.000000,0.000000,0.000000,0.000000,0.000000,0.000000,0.000000,0.000000,0.000000,0.000000,1648533145.471353,0.000000
111.000000,-34524.549189,-16344.847243,7967.771049,14879.422173,848.092240,28679.880939,3399.163890,16732.828824,-0.140000,0.972000,0.014000,192.000000,0.000000,0.000000,0.000000,0.000000,0.000000,0.000000,0.000000,0.000000,0.000000,1648533145.478409,0.000000
112.000000,-34528.840724,-16348.758799,7961.043174,14875.264749,843.957167,28673.130712,3397.666323,16731.085388,-0.140000,0.972000,0.014000,192.000000,0.000000,0.000000,0.000000,0.000000,0.000000,0.000000,0.000000,0.000000,0.000000,1648533145.478425,0.000000
113.000000,-34526.158515,-16341.785054,7960.819657,14878.349290,845.700603,28673.018953,3397.755730,16732.113568,-0.140000,0.972000,0.014000,192.000000,0.000000,0.000000,0.000000,0.000000,0.000000,0.000000,0.000000,0.000000,0.000000,1648533145.486381,0.000000
114.000000,-34527.991358,-16345.718961,7960.819657,14874.817714,847.824019,28677.869282,3398.269820,16735.175757,-0.142000,0.974000,0.012000,192.000000,251.000000,144.000000,30.000000,112.000000,0.000000,96.000000,0.000000,0.000000,0.000000,1648533145.492422,0.000000
115.000000,-34539.278989,-16355.374915,7956.908102,14868.201598,840.917330,28678.428075,3398.381579,16737.500338,-0.142000,0.974000,0.012000,192.000000,0.000000,0.000000,0.000000,0.000000,0.000000,0.000000,0.000000,0.000000,0.000000,1648533145.492438,0.000000
116.000000,-34543.861096,-16362.639232,7950.202578,14861.630185,834.703545,28673.845968,3397.040474,16738.662629,-0.142000,0.974000,0.012000,192.000000,0.000000,0.000000,0.000000,0.000000,0.000000,0.000000,0.000000,0.000000,0.000000,1648533145.499366,0.000000
117.000000,-34544.486945,-16362.192197,7945.911043,14860.602005,830.590824,28671.074351,3395.185279,16740.003734,-0.142000,0.974000,0.012000,192.000000,0.000000,0.000000,0.000000,0.000000,0.000000,0.000000,0.000000,0.000000,0.000000,1648533145.499383,0.000000
118.000000,-34548.532611,-16364.092095,7937.551491,14847.950917,818.632641,28660.613735,3392.033683,16734.594611,-0.142000,0.974000,0.012000,192.000000,0.000000,0.000000,0.000000,0.000000,0.000000,0.000000,0.000000,0.000000,0.000000,1648533145.507457,0.000000
119.000000,-34536.485021,-16360.784037,7945.195788,14857.852740,826.925138,28664.100607,3399.275649,16736.047475,-0.142000,0.974000,0.012000,192.000000,0.000000,0.000000,0.000000,0.000000,0.000000,0.000000,0.000000,0.000000,0.000000,1648533145.507474,0.000000
120.000000,-34540.508335,-16359.621746,7941.083067,14859.573824,825.271109,28665.397008,3402.360189,16738.841443,-0.142000,0.974000,0.012000,192.000000,0.000000,0.000000,0.000000,0.000000,0.000000,0.000000,0.000000,0.000000,0.000000,1648533145.514187,0.000000
121.000000,-34540.530686,-16362.393363,7943.050020,14856.265766,826.634565,28658.937354,3397.174585,16734.728722,-0.142000,0.974000,0.012000,192.000000,0.000000,0.000000,0.000000,0.000000,0.000000,0.000000,0.000000,0.000000,0.000000,1648533145.514203,0.000000
122.000000,-34534.294550,-16360.649927,7954.739982,14861.607833,835.865836,28664.078255,3396.593439,16737.098007,-0.142000,0.974000,0.012000,192.000000,0.000000,0.000000,0.000000,0.000000,0.000000,0.000000,0.000000,0.000000,0.000000,1648533145.522046,0.000000
123.000000,-34532.573465,-16354.547901,7958.182151,14864.602967,838.816266,28669.330915,3397.867489,16740.808396,-0.142000,0.974000,0.012000,192.000000,0.000000,0.000000,0.000000,0.000000,0.000000,0.000000,0.000000,0.000000,0.000000,1648533145.522057,0.000000
124.000000,-34536.015634,-16352.133912,7955.768163,14860.646708,832.557777,28666.313430,3394.917058,16742.149501,-0.138000,0.974000,0.018000,192.000000,251.000000,176.000000,30.000000,112.000000,0.000000,144.000000,0.000000,0.000000,0.000000,1648533145.530201,0.000000
125.000000,-34532.394651,-16352.670354,7958.428020,14864.647670,836.268167,28664.055903,3388.390349,16739.422588,-0.138000,0.974000,0.018000,192.000000,0.000000,0.000000,0.000000,0.000000,0.000000,0.000000,0.000000,0.000000,0.000000,1648533145.530218,0.000000
126.000000,-34538.295512,-16352.402133,7952.683622,14862.837179,833.295385,28660.166700,3383.852945,16739.981382,-0.138000,0.974000,0.018000,192.000000,0.000000,0.000000,0.000000,0.000000,0.000000,0.000000,0.000000,0.000000,0.000000,1648533145.537304,0.000000
127.000000,-34535.479192,-16347.976488,7951.364869,14865.564092,835.932891,28662.111302,3384.344683,16744.116455,-0.138000,0.974000,0.018000,192.000000,0.000000,0.000000,0.000000,0.000000,0.000000,0.000000,0.000000,0.000000,0.000000,1648533145.537321,0.000000
128.000000,-34536.507372,-16349.049371,7945.016974,14857.606871,830.389658,28660.032589,3386.870430,16743.647068,-0.138000,0.974000,0.018000,192.000000,0.000000,0.000000,0.000000,0.000000,0.000000,0.000000,0.000000,0.000000,0.000000,1648533145.543565,0.000000
129.000000,-34533.892218,-16348.222357,7950.537854,14860.646708,833.809475,28660.501976,3389.239715,16744.429379,-0.138000,0.974000,0.018000,192.000000,0.000000,0.000000,0.000000,0.000000,0.000000,0.000000,0.000000,0.000000,0.000000,1648533145.543585,0.000000
130.000000,-34530.315939,-16342.880290,7955.611700,14871.889636,838.592748,28664.994677,3391.631352,16745.792835,-0.138000,0.974000,0.018000,192.000000,0.000000,0.000000,0.000000,0.000000,0.000000,0.000000,0.000000,0.000000,0.000000,1648533145.551784,0.000000
131.000000,-34535.121564,-16344.735485,7951.297814,14861.697240,832.066039,28665.911098,3394.134747,16749.257356,-0.138000,0.974000,0.018000,192.000000,0.000000,0.000000,0.000000,0.000000,0.000000,0.000000,0.000000,0.000000,0.000000,1648533145.560195,0.000000
132.000000,-34539.971893,-16353.251499,7943.653517,14850.834292,824.242929,28659.697313,3390.513765,16749.972612,-0.138000,0.974000,0.018000,192.000000,0.000000,0.000000,0.000000,0.000000,0.000000,0.000000,0.000000,0.000000,0.000000,1648533145.560206,0.000000
133.000000,-34535.434489,-16347.685915,7948.235625,14857.718630,830.143789,28664.257069,3392.078387,16750.866681,-0.138000,0.974000,0.018000,192.000000,0.000000,0.000000,0.000000,0.000000,0.000000,0.000000,0.000000,0.000000,0.000000,1648533145.566640,0.000000
134.000000,-34538.206105,-16346.613031,7949.464971,14858.433885,830.702583,28666.000505,3395.095872,16750.084370,-0.132000,0.978000,0.018000,192.000000,251.000000,224.000000,30.000000,144.000000,0.000000,144.000000,0.000000,0.000000,0.000000,1648533145.566657,0.000000
135.000000,-34532.014672,-16343.193214,7956.125791,14869.408592,837.765734,28666.805168,3394.626486,16750.486702,-0.132000,0.978000,0.018000,192.000000,0.000000,0.000000,0.000000,0.000000,0.000000,0.000000,0.000000,0.000000,0.000000,1648533145.574193,0.000000
136.000000,-34534.339253,-16344.288450,7956.304605,14862.524255,835.530559,28663.094778,3388.815032,16745.345801,-0.132000,0.978000,0.018000,192.000000,0.000000,0.000000,0.000000,0.000000,0.000000,0.000000,0.000000,0.000000,0.000000,1648533145.574210,0.000000
137.000000,-34536.350910,-16344.690781,7951.029593,14859.618528,833.697716,28659.540851,3385.596381,16743.110626,-0.132000,0.978000,0.018000,192.000000,0.000000,0.000000,0.000000,0.000000,0.000000,0.000000,0.000000,0.000000,0.000000,1648533145.582395,0.000000
138.000000,-34537.870829,-16342.232089,7949.755543,14863.083048,836.514036,28659.026761,3384.232924,16738.237946,-0.132000,0.978000,0.018000,192.000000,0.000000,0.000000,0.000000,0.000000,0.000000,0.000000,0.000000,0.000000,0.000000,1648533145.582412,0.000000
139.000000,-34533.668701,-16337.694685,7955.835218,14861.406667,838.950376,28662.737151,3387.228058,16740.316658,-0.132000,0.978000,0.018000,192.000000,0.000000,0.000000,0.000000,0.000000,0.000000,0.000000,0.000000,0.000000,0.000000,1648533145.590449,0.000000
140.000000,-34530.561808,-16341.673296,7956.639881,14863.395973,839.084487,28661.887784,3386.468099,16739.467292,-0.132000,0.978000,0.018000,192.000000,0.000000,0.000000,0.000000,0.000000,0.000000,0.000000,0.000000,0.000000,0.000000,1648533145.590465,0.000000
141.000000,-34536.663835,-16348.311764,7949.979061,14861.831351,833.787123,28660.412569,3386.937486,16739.489644,-0.132000,0.978000,0.018000,192.000000,0.000000,0.000000,0.000000,0.000000,0.000000,0.000000,0.000000,0.000000,0.000000,1648533145.596885,0.000000
142.000000,-34538.295512,-16354.369087,7948.906177,14856.958670,830.501417,28658.333857,3388.055073,16742.373019,-0.132000,0.978000,0.018000,192.000000,0.000000,0.000000,0.000000,0.000000,0.000000,0.000000,0.000000,0.000000,0.000000,1648533145.596901,0.000000
143.000000,-34538.899009,-16355.419619,7953.220064,14854.432923,831.082562,28661.396046,3393.620657,16745.591670,-0.132000,0.978000,0.018000,192.000000,0.000000,0.000000,0.000000,0.000000,0.000000,0.000000,0.000000,0.000000,0.000000,1648533145.605071,0.000000
144.000000,-34544.822221,-16355.710191,7949.017936,14851.974231,827.349821,28660.256107,3400.326180,16749.078542,-0.136000,0.978000,0.018000,192.000000,251.000000,192.000000,30.000000,144.000000,0.000000,144.000000,0.000000,0.000000,0.000000,1648533145.605088,0.000000
145.000000,-34536.932056,-16348.624688,7954.918796,14859.953804,835.016469,28666.313430,3405.601192,16756.320507,-0.136000,0.978000,0.018000,192.000000,0.000000,0.000000,0.000000,0.000000,0.000000,0.000000,0.000000,0.000000,0.000000,1648533145.612108,0.000000
146.000000,-34532.528762,-16342.723828,7960.283215,14863.753601,839.956205,28672.527215,3408.037532,16759.248586,-0.136000,0.978000,0.018000,192.000000,0.000000,0.000000,0.000000,0.000000,0.000000,0.000000,0.000000,0.000000,0.000000,1648533145.619882,0.000000
147.000000,-34532.774631,-16340.801578,7960.327919,14864.312394,838.592748,28667.095741,3405.668247,16760.053248,-0.136000,0.978000,0.018000,192.000000,0.000000,0.000000,0.000000,0.000000,0.000000,0.000000,0.000000,0.000000,0.000000,1648533145.619898,0.000000
148.000000,-34533.646349,-16341.047447,7960.596140,14861.294909,836.648147,28666.469892,3404.573012,16762.109609,-0.136000,0.978000,0.018000,192.000000,0.000000,0.000000,0.000000,0.000000,0.000000,0.000000,0.000000,0.000000,0.000000,1648533145.626621,0.000000
149.000000,-34535.680358,-16339.661639,7959.366794,14860.557301,837.519865,28663.027723,3400.996733,16758.443923,-0.136000,0.978000,0.018000,192.000000,0.000000,0.000000,0.000000,0.000000,0.000000,0.000000,0.000000,0.000000,0.000000,1648533145.626638,0.000000
150.000000,-34532.931093,-16339.706342,7963.635977,14859.573824,839.129190,28664.458235,3399.119186,16752.744228,-0.136000,0.978000,0.018000,192.000000,0.000000,0.000000,0.000000,0.000000,0.000000,0.000000,0.000000,0.000000,0.000000,1648533145.635956,0.000000
151.000000,-34530.785326,-16339.616935,7965.357061,14860.177321,841.498475,28669.666191,3399.409759,16752.140731,-0.136000,0.978000,0.018000,192.000000,0.000000,0.000000,0.000000,0.000000,0.000000,0.000000,0.000000,0.000000,0.000000,1648533145.635971,0.000000
152.000000,-34530.204181,-16339.214604,7967.122849,14868.313356,844.426554,28674.449465,3400.326180,16751.380772,-0.136000,0.978000,0.018000,192.000000,0.000000,0.000000,0.000000,0.000000,0.000000,0.000000,0.000000,0.000000,0.000000,1648533145.644022,0.000000
153.000000,-34539.927189,-16339.996915,7960.193808,14861.406667,839.218597,28670.448502,3398.761558,16750.978440,-0.136000,0.978000,0.018000,192.000000,0.000000,0.000000,0.000000,0.000000,0.000000,0.000000,0.000000,0.000000,0.000000,1648533145.644038,0.000000
154.000000,-34539.368396,-16341.069799,7961.847837,14858.053906,839.509170,28670.202633,3398.873317,16751.894862,-0.140000,0.970000,0.010000,192.000000,251.000000,160.000000,30.000000,80.000000,0.000000,80.000000,0.000000,0.000000,0.000000,1648533145.650272,0.000000
155.000000,-34539.390747,-16341.516833,7962.272520,14857.249243,838.302176,28671.521386,3405.645896,16757.572205,-0.140000,0.970000,0.010000,192.000000,0.000000,0.000000,0.000000,0.000000,0.000000,0.000000,0.000000,0.000000,0.000000,1648533145.650289,0.000000
156.000000,-34535.523896,-16341.561537,7962.384279,14857.115132,836.335222,28670.403799,3408.842195,16762.824865,-0.140000,0.970000,0.010000,192.000000,0.000000,0.000000,0.000000,0.000000,0.000000,0.000000,0.000000,0.000000,0.000000,1648533145.657268,0.000000
157.000000,-34543.592875,-16347.484749,7955.254073,14850.789589,829.741458,28664.279421,3403.142500,16757.929833,-0.140000,0.970000,0.010000,192.000000,0.000000,0.000000,0.000000,0.000000,0.000000,0.000000,0.000000,0.000000,0.000000,1648533145.657285,0.000000
158.000000,-34540.821259,-16343.304973,7957.131619,14854.365868,833.407144,28666.671058,3401.779044,16756.454618,-0.140000,0.970000,0.010000,192.000000,0.000000,0.000000,0.000000,0.000000,0.000000,0.000000,0.000000,0.000000,0.000000,1648533145.665138,0.000000
159.000000,-34538.519029,-16340.399246,7958.405669,14850.633127,834.189455,28665.128787,3399.365055,16756.141693,-0.140000,0.970000,0.010000,192.000000,0.000000,0.000000,0.000000,0.000000,0.000000,0.000000,0.000000,0.000000,0.000000,1648533145.665166,0.000000
160.000000,-34532.953445,-16336.040656,7960.663195,14861.518426,841.230254,28663.273592,3396.146404,16756.812245,-0.140000,0.970000,0.010000,192.000000,0.000000,0.000000,0.000000,0.000000,0.000000,0.000000,0.000000,0.000000,0.000000,1648533145.672266,0.000000
161.000000,-34530.248884,-16335.325400,7964.172419,14871.330842,847.779315,28667.185148,3396.213460,16759.136827,-0.140000,0.970000,0.010000,192.000000,0.000000,0.000000,0.000000,0.000000,0.000000,0.000000,0.000000,0.000000,0.000000,1648533145.679405,0.000000
