%OpenBCI Raw EEG Data
%Number of channels = 8
%Sample Rate = 256 Hz
%Board = OpenBCI_GUI$BoardCytonSerial
%Channels = Fp1, Fp2, F3, F4, Fz, Pz, O1, O2
%Data recorded at AIMS Lab (http://aimsl.uiu.ac.bd) by Rana Depto (mail@ranadepto.com)
%Brainwaves were obtained via the Ultracortex Mark IV Headset using the OpenBCI Cyton Board
%Recording Application = ConcentrateToday (https://concentrate.today)
%Data type = RAW data with noise
%Day No = 9
%Subject ID = 3
%Session ID = 7
%Record starting timestamp (UTC+6) = 2022-03-21T11:33:37.003161
%Record ending timestamp (UTC+6)   = 2022-03-21T11:33:57.925943
%Recorded durations = ~20 seconds
Sample Index, EXG Channel 0, EXG Channel 1, EXG Channel 2, EXG Channel 3, EXG Channel 4, EXG Channel 5, EXG Channel 6, EXG Channel 7, Accel Channel 0, Accel Channel 1, Accel Channel 2, Other, Other, Other, Other, Other, Other, Other, Analog Channel 0, Analog Channel 1, Analog Channel 2, Timestamp, Timestamp (Formatted)
219.000000,-27135.956542,-38692.501329,-9006.210745,-9720.326629,-27620.832934,25533.917610,-875.607237,-9071.924874,0.272000,0.956000,0.014000,192.000000,0.000000,0.000000,0.000000,0.000000,0.000000,0.000000,0.000000,0.000000,0.000000,1647840817.003667,0.000000
220.000000,-27137.834089,-38692.993068,-9007.954181,-9724.953440,-27617.547228,25534.990494,-864.073737,-9077.356348,0.272000,0.956000,0.014000,192.000000,0.000000,0.000000,0.000000,0.000000,0.000000,0.000000,0.000000,0.000000,0.000000,1647840817.003677,0.000000
221.000000,-27148.808795,-38701.754952,-9019.085350,-9737.917452,-27623.157516,25526.206258,-867.180630,-9098.255229,0.272000,0.956000,0.014000,192.000000,0.000000,0.000000,0.000000,0.000000,0.000000,0.000000,0.000000,0.000000,0.000000,1647840817.011545,0.000000
222.000000,-27141.052740,-38690.959059,-9013.273896,-9730.094341,-27624.945655,25520.350101,-885.352598,-9072.371909,0.272000,0.956000,0.014000,192.000000,0.000000,0.000000,0.000000,0.000000,0.000000,0.000000,0.000000,0.000000,0.000000,1647840817.011551,0.000000
223.000000,-27130.189792,-38679.179690,-9002.433300,-9720.684257,-27621.995225,25520.372453,-893.823909,-9057.910330,0.272000,0.956000,0.012000,192.000000,8.000000,128.000000,29.000000,224.000000,0.000000,96.000000,0.000000,0.000000,0.000000,1647840817.018670,0.000000
224.000000,-27132.894353,-38681.683085,-9003.886164,-9722.785321,-27621.078804,25521.311226,-882.648037,-9065.778144,0.272000,0.956000,0.012000,192.000000,0.000000,0.000000,0.000000,0.000000,0.000000,0.000000,0.000000,0.000000,0.000000,1647840817.018675,0.000000
225.000000,-27140.069263,-38687.427483,-9007.641257,-9726.853338,-27622.777536,25513.488115,-881.977484,-9077.512810,0.272000,0.956000,0.012000,192.000000,0.000000,0.000000,0.000000,0.000000,0.000000,0.000000,0.000000,0.000000,0.000000,1647840817.026218,0.000000
226.000000,-27138.348179,-38688.098036,-9003.014446,-9729.557899,-27625.191525,25505.240322,-885.106729,-9082.072566,0.272000,0.956000,0.012000,192.000000,0.000000,0.000000,0.000000,0.000000,0.000000,0.000000,0.000000,0.000000,0.000000,1647840817.026222,0.000000
227.000000,-27136.045949,-38689.036809,-9004.221440,-9729.915527,-27624.722138,25508.168400,-887.788938,-9078.451583,0.272000,0.956000,0.012000,192.000000,0.000000,0.000000,0.000000,0.000000,0.000000,0.000000,0.000000,0.000000,0.000000,1647840817.033231,0.000000
228.000000,-27134.928362,-38688.746236,-9003.595591,-9727.680353,-27626.890257,25508.235456,-895.433235,-9074.338862,0.272000,0.956000,0.012000,192.000000,0.000000,0.000000,0.000000,0.000000,0.000000,0.000000,0.000000,0.000000,0.000000,1647840817.041211,0.000000
229.000000,-27137.409405,-38689.908527,-9003.103853,-9726.451007,-27625.839725,25510.068299,-892.996894,-9080.060909,0.272000,0.956000,0.012000,192.000000,0.000000,0.000000,0.000000,0.000000,0.000000,0.000000,0.000000,0.000000,0.000000,1647840817.041215,0.000000
230.000000,-27139.018731,-38691.964888,-9002.790928,-9726.562765,-27622.308150,25514.829220,-894.002723,-9096.936476,0.272000,0.956000,0.012000,192.000000,0.000000,0.000000,0.000000,0.000000,0.000000,0.000000,0.000000,0.000000,0.000000,1647840817.048357,0.000000
231.000000,-27133.274333,-38685.527585,-8995.884239,-9718.247916,-27614.887370,25522.965255,-895.276772,-9103.373778,0.272000,0.956000,0.012000,192.000000,0.000000,0.000000,0.000000,0.000000,0.000000,0.000000,0.000000,0.000000,0.000000,1647840817.048361,0.000000
232.000000,-27134.503679,-38685.773454,-8996.845364,-9716.571536,-27620.430603,25523.389938,-890.962886,-9098.970485,0.272000,0.956000,0.012000,192.000000,0.000000,0.000000,0.000000,0.000000,0.000000,0.000000,0.000000,0.000000,0.000000,1647840817.055878,0.000000
233.000000,-27128.021673,-38678.263268,-8988.664626,-9707.496727,-27618.240132,25528.553191,-891.521679,-9090.342711,0.262000,0.954000,0.004000,192.000000,8.000000,48.000000,29.000000,208.000000,0.000000,32.000000,0.000000,0.000000,0.000000,1647840817.055883,0.000000
234.000000,-27132.268504,-38684.074722,-8989.290475,-9712.592925,-27615.021481,25533.023540,-887.766586,-9092.510830,0.262000,0.954000,0.004000,192.000000,0.000000,0.000000,0.000000,0.000000,0.000000,0.000000,0.000000,0.000000,0.000000,1647840817.063757,0.000000
235.000000,-27125.607684,-38679.202042,-8982.316730,-9710.447158,-27608.517123,25535.504584,-887.855993,-9088.979255,0.262000,0.954000,0.004000,192.000000,0.000000,0.000000,0.000000,0.000000,0.000000,0.000000,0.000000,0.000000,0.000000,1647840817.063768,0.000000
236.000000,-27130.256847,-38682.845376,-8987.882315,-9714.716341,-27613.546266,25531.458918,-893.935668,-9089.582752,0.262000,0.954000,0.004000,192.000000,0.000000,0.000000,0.000000,0.000000,0.000000,0.000000,0.000000,0.000000,0.000000,1647840817.070816,0.000000
237.000000,-27132.804946,-38685.259364,-8989.558696,-9716.057446,-27610.461725,25535.504584,-920.109561,-9084.330092,0.262000,0.954000,0.004000,192.000000,0.000000,0.000000,0.000000,0.000000,0.000000,0.000000,0.000000,0.000000,0.000000,1647840817.070821,0.000000
238.000000,-27136.336522,-38686.600469,-8992.576181,-9719.387855,-27617.390766,25528.463784,-927.642098,-9092.622589,0.262000,0.954000,0.004000,192.000000,0.000000,0.000000,0.000000,0.000000,0.000000,0.000000,0.000000,0.000000,0.000000,1647840817.078459,0.000000
239.000000,-27145.321923,-38695.742332,-9003.327370,-9731.100170,-27632.321731,25520.931246,-876.076624,-9095.550668,0.262000,0.954000,0.004000,192.000000,0.000000,0.000000,0.000000,0.000000,0.000000,0.000000,0.000000,0.000000,0.000000,1647840817.078463,0.000000
240.000000,-27143.422025,-38692.478978,-9005.987228,-9731.077818,-27625.571504,25526.385072,-864.654883,-9094.723653,0.262000,0.954000,0.004000,192.000000,0.000000,0.000000,0.000000,0.000000,0.000000,0.000000,0.000000,0.000000,0.000000,1647840817.086485,0.000000
241.000000,-27150.082845,-38698.290431,-9008.691789,-9737.001030,-27626.510278,25525.736871,-879.384682,-9101.071549,0.262000,0.954000,0.004000,192.000000,0.000000,0.000000,0.000000,0.000000,0.000000,0.000000,0.000000,0.000000,0.000000,1647840817.086489,0.000000
242.000000,-27154.732007,-38704.660678,-9011.597516,-9742.946594,-27639.094310,25517.600836,-893.265115,-9114.348485,0.262000,0.954000,0.004000,192.000000,0.000000,0.000000,0.000000,0.000000,0.000000,0.000000,0.000000,0.000000,0.000000,1647840817.093560,0.000000
243.000000,-27151.580411,-38702.269042,-9008.132995,-9741.538434,-27641.351836,25512.996377,-900.663543,-9113.744988,0.268000,0.956000,0.004000,192.000000,8.000000,96.000000,29.000000,224.000000,0.000000,32.000000,0.000000,0.000000,0.000000,1647840817.100563,0.000000
244.000000,-27148.473519,-38701.196158,-9005.160213,-9742.745428,-27639.004903,25509.464801,-901.535261,-9105.363084,0.268000,0.956000,0.004000,192.000000,0.000000,0.000000,0.000000,0.000000,0.000000,0.000000,0.000000,0.000000,0.000000,1647840817.100567,0.000000
245.000000,-27145.768958,-38697.217548,-8998.097062,-9738.900928,-27626.242057,25514.292778,-905.245650,-9112.158014,0.268000,0.956000,0.004000,192.000000,0.000000,0.000000,0.000000,0.000000,0.000000,0.000000,0.000000,0.000000,0.000000,1647840817.108153,0.000000
246.000000,-27152.362722,-38701.397324,-9002.522707,-9744.265347,-27623.559847,25515.075089,-896.550822,-9107.821775,0.268000,0.956000,0.004000,192.000000,0.000000,0.000000,0.000000,0.000000,0.000000,0.000000,0.000000,0.000000,0.000000,1647840817.108157,0.000000
247.000000,-27147.043007,-38695.094132,-9001.271010,-9737.269251,-27627.471403,25513.018729,-892.371046,-9095.237743,0.268000,0.956000,0.004000,192.000000,0.000000,0.000000,0.000000,0.000000,0.000000,0.000000,0.000000,0.000000,0.000000,1647840817.116087,0.000000
248.000000,-27145.612496,-38693.685972,-9002.142728,-9730.742542,-27629.728929,25509.330691,-900.127101,-9102.770281,0.268000,0.956000,0.004000,192.000000,0.000000,0.000000,0.000000,0.000000,0.000000,0.000000,0.000000,0.000000,0.000000,1647840817.116090,0.000000
249.000000,-27147.601801,-38697.217548,-9006.747187,-9734.989373,-27628.343121,25510.113002,-899.881232,-9120.204642,0.268000,0.956000,0.004000,192.000000,0.000000,0.000000,0.000000,0.000000,0.000000,0.000000,0.000000,0.000000,0.000000,1647840817.124074,0.000000
250.000000,-27151.133376,-38702.805484,-9013.922097,-9742.097228,-27631.964103,25507.229627,-903.368104,-9122.886851,0.268000,0.956000,0.004000,192.000000,0.000000,0.000000,0.000000,0.000000,0.000000,0.000000,0.000000,0.000000,0.000000,1647840817.124079,0.000000
251.000000,-27160.521109,-38712.863769,-9021.521690,-9751.484960,-27637.730853,25504.860342,-904.016304,-9105.519546,0.268000,0.956000,0.004000,192.000000,0.000000,0.000000,0.000000,0.000000,0.000000,0.000000,0.000000,0.000000,0.000000,1647840817.130785,0.000000
252.000000,-27153.904993,-38705.264176,-9015.732588,-9745.807617,-27638.513164,25507.319034,-904.664505,-9091.661464,0.268000,0.956000,0.004000,192.000000,0.000000,0.000000,0.000000,0.000000,0.000000,0.000000,0.000000,0.000000,0.000000,1647840817.130788,0.000000
253.000000,-27152.429778,-38705.621803,-9020.180585,-9747.908681,-27642.424720,25510.783554,-909.805406,-9091.437947,0.270000,0.958000,0.002000,192.000000,8.000000,112.000000,29.000000,240.000000,0.000000,16.000000,0.000000,0.000000,0.000000,1647840817.138895,0.000000
254.000000,-27153.122682,-38706.940556,-9024.807397,-9751.596719,-27636.769728,25517.600836,-908.106674,-9094.075453,0.270000,0.958000,0.002000,192.000000,0.000000,0.000000,0.000000,0.000000,0.000000,0.000000,0.000000,0.000000,0.000000,1647840817.138900,0.000000
255.000000,-27156.073112,-38709.578062,-9026.751998,-9755.798847,-27635.361568,25515.388014,-917.516758,-9083.681891,0.270000,0.958000,0.002000,192.000000,0.000000,0.000000,0.000000,0.000000,0.000000,0.000000,0.000000,0.000000,0.000000,1647840817.146740,0.000000
0.000000,-27158.509452,-38714.294280,-9027.131978,-9755.083591,-27642.871755,25507.430793,-904.128063,-9092.779051,0.270000,0.958000,0.002000,192.000000,0.000000,0.000000,0.000000,0.000000,0.000000,0.000000,0.000000,0.000000,0.000000,1647840817.146772,0.000000
1.000000,-27152.742702,-38704.884196,-9018.303039,-9743.840664,-27640.793042,25510.403575,-898.048389,-9109.364046,0.270000,0.958000,0.002000,192.000000,0.000000,0.000000,0.000000,0.000000,0.000000,0.000000,0.000000,0.000000,0.000000,1647840817.153841,0.000000
2.000000,-27153.234440,-38703.364277,-9018.638315,-9739.996164,-27638.177888,25512.281121,-898.294258,-9110.436930,0.270000,0.958000,0.002000,192.000000,0.000000,0.000000,0.000000,0.000000,0.000000,0.000000,0.000000,0.000000,0.000000,1647840817.160460,0.000000
3.000000,-27139.152841,-38690.087341,-9007.328332,-9725.400475,-27629.013673,25510.180057,-904.999781,-9101.920915,0.270000,0.958000,0.002000,192.000000,0.000000,0.000000,0.000000,0.000000,0.000000,0.000000,0.000000,0.000000,0.000000,1647840817.160463,0.000000
4.000000,-27132.559077,-38681.347809,-9005.719007,-9717.130329,-27625.057414,25507.587255,-910.855938,-9110.369874,0.270000,0.958000,0.002000,192.000000,0.000000,0.000000,0.000000,0.000000,0.000000,0.000000,0.000000,0.000000,0.000000,1647840817.168440,0.000000
5.000000,-27140.091615,-38692.434274,-9010.681094,-9721.824196,-27617.949559,25510.850610,-906.765569,-9118.260040,0.270000,0.958000,0.002000,192.000000,0.000000,0.000000,0.000000,0.000000,0.000000,0.000000,0.000000,0.000000,0.000000,1647840817.168444,0.000000
6.000000,-27147.780615,-38702.671373,-9013.385655,-9727.210966,-27621.972873,25511.744679,-889.442967,-9136.744933,0.270000,0.958000,0.002000,192.000000,0.000000,0.000000,0.000000,0.000000,0.000000,0.000000,0.000000,0.000000,0.000000,1647840817.176366,0.000000
7.000000,-27143.757301,-38696.837568,-9010.614039,-9725.512233,-27628.164307,25513.130488,-873.483822,-9144.143360,0.260000,0.968000,0.000000,192.000000,8.000000,32.000000,30.000000,64.000000,0.000000,0.000000,0.000000,0.000000,0.000000,1647840817.176369,0.000000
8.000000,-27144.226687,-38699.452722,-9008.647085,-9729.021457,-27628.454879,25512.616397,-883.273886,-9133.213357,0.260000,0.968000,0.000000,192.000000,0.000000,0.000000,0.000000,0.000000,0.000000,0.000000,0.000000,0.000000,0.000000,1647840817.183002,0.000000
9.000000,-27144.383150,-38699.832702,-9001.762748,-9730.831949,-27618.798926,25517.846706,-884.570287,-9115.711941,0.260000,0.968000,0.000000,192.000000,0.000000,0.000000,0.000000,0.000000,0.000000,0.000000,0.000000,0.000000,0.000000,1647840817.183006,0.000000
10.000000,-27140.829222,-38698.446894,-8999.058187,-9735.861091,-27624.811545,25510.828258,-896.617877,-9104.804290,0.260000,0.968000,0.000000,192.000000,0.000000,0.000000,0.000000,0.000000,0.000000,0.000000,0.000000,0.000000,0.000000,1647840817.191042,0.000000
11.000000,-27152.340371,-38712.036754,-9008.512975,-9751.842588,-27633.975760,25511.677624,-895.813214,-9112.873270,0.260000,0.968000,0.000000,192.000000,0.000000,0.000000,0.000000,0.000000,0.000000,0.000000,0.000000,0.000000,0.000000,1647840817.191046,0.000000
12.000000,-27162.197490,-38722.698536,-9019.688847,-9765.857132,-27649.756092,25503.698051,-904.262174,-9126.329020,0.260000,0.968000,0.000000,192.000000,0.000000,0.000000,0.000000,0.000000,0.000000,0.000000,0.000000,0.000000,0.000000,1647840817.199139,0.000000
13.000000,-27159.917612,-38717.669394,-9019.085350,-9765.611263,-27646.626848,25506.134392,-905.536223,-9118.640020,0.260000,0.968000,0.000000,192.000000,0.000000,0.000000,0.000000,0.000000,0.000000,0.000000,0.000000,0.000000,0.000000,1647840817.199143,0.000000
14.000000,-27153.837938,-38710.203911,-9014.704408,-9756.290586,-27637.663798,25509.062470,-902.049351,-9114.259078,0.260000,0.968000,0.000000,192.000000,0.000000,0.000000,0.000000,0.000000,0.000000,0.000000,0.000000,0.000000,0.000000,1647840817.205964,0.000000
15.000000,-27150.060493,-38707.119370,-9011.999847,-9751.999051,-27634.579257,25510.180057,-905.312706,-9112.560345,0.260000,0.968000,0.000000,192.000000,0.000000,0.000000,0.000000,0.000000,0.000000,0.000000,0.000000,0.000000,0.000000,1647840817.205968,0.000000
16.000000,-27150.351065,-38705.107713,-9020.605269,-9748.780399,-27634.132222,25512.549342,-901.870537,-9110.839261,0.260000,0.968000,0.000000,192.000000,0.000000,0.000000,0.000000,0.000000,0.000000,0.000000,0.000000,0.000000,0.000000,1647840817.212619,0.000000
17.000000,-27160.252888,-38714.093115,-9049.997813,-9755.329461,-27643.899935,25502.826333,-907.279659,-9129.055933,0.268000,0.962000,-0.006000,192.000000,8.000000,96.000000,30.000000,16.000000,255.000000,208.000000,0.000000,0.000000,0.000000,1647840817.212622,0.000000
18.000000,-27154.419083,-38707.722867,-9060.637243,-9745.941728,-27639.206068,25502.200485,-908.911337,-9138.957755,0.268000,0.962000,-0.006000,192.000000,0.000000,0.000000,0.000000,0.000000,0.000000,0.000000,0.000000,0.000000,0.000000,1647840817.220718,0.000000
19.000000,-27151.669818,-38705.800617,-9073.221275,-9738.811521,-27630.019501,25506.268502,-913.985183,-9111.845089,0.268000,0.962000,-0.006000,192.000000,0.000000,0.000000,0.000000,0.000000,0.000000,0.000000,0.000000,0.000000,0.000000,1647840817.228740,0.000000
20.000000,-27142.572658,-38698.335135,-9089.828621,-9731.904832,-27621.369376,25510.895313,-915.661563,-9106.972409,0.268000,0.962000,-0.006000,192.000000,0.000000,0.000000,0.000000,0.000000,0.000000,0.000000,0.000000,0.000000,0.000000,1647840817.228743,0.000000
21.000000,-27148.473519,-38704.057181,-9106.279505,-9740.353792,-27626.733795,25508.146049,-918.030848,-9126.865462,0.268000,0.962000,-0.006000,192.000000,0.000000,0.000000,0.000000,0.000000,0.000000,0.000000,0.000000,0.000000,0.000000,1647840817.235667,0.000000
22.000000,-27151.111025,-38705.890024,-9112.739159,-9745.785266,-27631.315903,25509.218932,-918.813159,-9129.279450,0.268000,0.962000,-0.006000,192.000000,0.000000,0.000000,0.000000,0.000000,0.000000,0.000000,0.000000,0.000000,0.000000,1647840817.235678,0.000000
23.000000,-27157.235403,-38713.534321,-9120.450511,-9756.223530,-27636.769728,25505.307377,-929.698459,-9112.917973,0.268000,0.962000,-0.006000,192.000000,0.000000,0.000000,0.000000,0.000000,0.000000,0.000000,0.000000,0.000000,0.000000,1647840817.243355,0.000000
24.000000,-27148.451167,-38704.548920,-9112.895621,-9749.607414,-27629.617170,25511.834086,-900.574136,-9099.641037,0.268000,0.962000,-0.006000,192.000000,0.000000,0.000000,0.000000,0.000000,0.000000,0.000000,0.000000,0.000000,0.000000,1647840817.243360,0.000000
25.000000,-27151.066321,-38708.795751,-9120.428159,-9754.681260,-27631.539420,25510.984720,-890.918182,-9101.429177,0.268000,0.962000,-0.006000,192.000000,0.000000,0.000000,0.000000,0.000000,0.000000,0.000000,0.000000,0.000000,0.000000,1647840817.251291,0.000000
26.000000,-27153.882641,-38714.964833,-9121.769264,-9759.665699,-27640.033083,25507.341386,-901.267040,-9129.100636,0.268000,0.962000,-0.006000,192.000000,0.000000,0.000000,0.000000,0.000000,0.000000,0.000000,0.000000,0.000000,0.000000,1647840817.251295,0.000000
27.000000,-27160.074074,-38721.938577,-9126.016095,-9766.080650,-27653.824109,25495.114982,-923.283508,-9163.947006,0.272000,0.952000,-0.010000,192.000000,8.000000,128.000000,29.000000,192.000000,255.000000,176.000000,0.000000,0.000000,0.000000,1647840817.259269,0.000000
28.000000,-27160.029371,-38721.603301,-9124.138549,-9764.046641,-27649.532574,25502.111078,-912.040581,-9123.378590,0.272000,0.952000,-0.010000,192.000000,0.000000,0.000000,0.000000,0.000000,0.000000,0.000000,0.000000,0.000000,0.000000,1647840817.259273,0.000000
29.000000,-27164.209147,-38726.543036,-9126.753703,-9764.873655,-27646.828013,25504.592121,-919.483712,-9111.599220,0.272000,0.952000,-0.010000,192.000000,0.000000,0.000000,0.000000,0.000000,0.000000,0.000000,0.000000,0.000000,0.000000,1647840817.265988,0.000000
30.000000,-27156.386036,-38716.104772,-9118.952944,-9753.675431,-27641.776519,25507.810772,-924.289337,-9122.506872,0.272000,0.952000,-0.010000,192.000000,0.000000,0.000000,0.000000,0.000000,0.000000,0.000000,0.000000,0.000000,0.000000,1647840817.265992,0.000000
31.000000,-27151.602763,-38710.248615,-9116.561307,-9747.416943,-27642.380016,25508.995415,-915.616860,-9123.378590,0.272000,0.952000,-0.010000,192.000000,0.000000,0.000000,0.000000,0.000000,0.000000,0.000000,0.000000,0.000000,0.000000,1647840817.273920,0.000000
32.000000,-27151.692170,-38710.852112,-9116.293087,-9746.679335,-27633.215801,25517.980816,-912.197043,-9117.209508,0.272000,0.952000,-0.010000,192.000000,0.000000,0.000000,0.000000,0.000000,0.000000,0.000000,0.000000,0.000000,0.000000,1647840817.273924,0.000000
33.000000,-27147.333580,-38707.678164,-9113.365008,-9742.991298,-27626.309112,25519.120755,-912.085284,-9116.583659,0.272000,0.952000,-0.010000,192.000000,0.000000,0.000000,0.000000,0.000000,0.000000,0.000000,0.000000,0.000000,0.000000,1647840817.281091,0.000000
34.000000,-27139.756339,-38699.117446,-9105.899525,-9733.312992,-27618.016615,25524.038139,-908.509005,-9105.005456,0.272000,0.952000,-0.010000,192.000000,0.000000,0.000000,0.000000,0.000000,0.000000,0.000000,0.000000,0.000000,0.000000,1647840817.288965,0.000000
35.000000,-27143.176155,-38702.090228,-9107.933534,-9736.084609,-27614.507391,25528.530840,-903.926898,-9104.401959,0.272000,0.952000,-0.010000,192.000000,0.000000,0.000000,0.000000,0.000000,0.000000,0.000000,0.000000,0.000000,0.000000,1647840817.288969,0.000000
36.000000,-27141.723292,-38703.096056,-9106.547726,-9736.665754,-27621.414080,25524.775746,-907.234956,-9109.766377,0.272000,0.952000,-0.010000,192.000000,0.000000,0.000000,0.000000,0.000000,0.000000,0.000000,0.000000,0.000000,0.000000,1647840817.295643,0.000000
37.000000,-27137.454109,-38703.833664,-9100.110424,-9737.783341,-27624.811545,25521.132412,-909.313668,-9105.810118,0.280000,0.950000,-0.006000,192.000000,8.000000,192.000000,29.000000,176.000000,255.000000,208.000000,0.000000,0.000000,0.000000,1647840817.295647,0.000000
38.000000,-27142.103272,-38710.673298,-9103.619647,-9745.584100,-27623.693958,25520.305398,-901.825834,-9113.990857,0.280000,0.950000,-0.006000,192.000000,0.000000,0.000000,0.000000,0.000000,0.000000,0.000000,0.000000,0.000000,0.000000,1647840817.303609,0.000000
39.000000,-27146.797138,-38715.814199,-9110.548688,-9752.155513,-27626.107946,25513.421060,-901.177633,-9118.952944,0.280000,0.950000,-0.006000,192.000000,0.000000,0.000000,0.000000,0.000000,0.000000,0.000000,0.000000,0.000000,0.000000,1647840817.303612,0.000000
40.000000,-27149.255830,-38720.642176,-9112.180366,-9756.692917,-27630.354778,25507.564903,-907.234956,-9115.466072,0.280000,0.950000,-0.006000,192.000000,0.000000,0.000000,0.000000,0.000000,0.000000,0.000000,0.000000,0.000000,0.000000,1647840817.311540,0.000000
41.000000,-27137.610571,-38705.174769,-9101.473880,-9740.711420,-27626.264408,25515.253903,-899.970639,-9105.340732,0.280000,0.950000,-0.006000,192.000000,0.000000,0.000000,0.000000,0.000000,0.000000,0.000000,0.000000,0.000000,0.000000,1647840817.311544,0.000000
42.000000,-27143.287914,-38710.762705,-9107.352389,-9746.277004,-27633.819298,25510.023595,-910.878290,-9114.281430,0.280000,0.950000,-0.006000,192.000000,0.000000,0.000000,0.000000,0.000000,0.000000,0.000000,0.000000,0.000000,0.000000,1647840817.318719,0.000000
43.000000,-27144.763129,-38712.908472,-9108.112348,-9745.114713,-27632.232324,25509.911836,-908.576060,-9123.289183,0.280000,0.950000,-0.006000,192.000000,0.000000,0.000000,0.000000,0.000000,0.000000,0.000000,0.000000,0.000000,0.000000,1647840817.318728,0.000000
44.000000,-27143.310266,-38711.075629,-9108.112348,-9741.650193,-27624.431565,25516.840877,-892.929839,-9126.865462,0.280000,0.950000,-0.006000,192.000000,0.000000,0.000000,0.000000,0.000000,0.000000,0.000000,0.000000,0.000000,0.000000,1647840817.326264,0.000000
45.000000,-27145.478385,-38714.048411,-9114.057912,-9743.930071,-27630.019501,25511.968197,-903.837491,-9120.741084,0.280000,0.950000,-0.006000,192.000000,0.000000,0.000000,0.000000,0.000000,0.000000,0.000000,0.000000,0.000000,0.000000,1647840817.326268,0.000000
46.000000,-27139.242248,-38704.884196,-9108.626438,-9736.822216,-27631.807641,25516.930284,-894.270944,-9093.091976,0.280000,0.950000,-0.006000,192.000000,0.000000,0.000000,0.000000,0.000000,0.000000,0.000000,0.000000,0.000000,0.000000,1647840817.334221,0.000000
47.000000,-27147.110062,-38711.679126,-9117.097749,-9746.433466,-27639.541345,25511.454107,-905.759741,-9115.890755,0.280000,0.950000,-0.006000,192.000000,0.000000,0.000000,0.000000,0.000000,0.000000,0.000000,0.000000,0.000000,0.000000,1647840817.334225,0.000000
48.000000,-27141.075091,-38708.393420,-9111.174537,-9743.728905,-27638.289647,25506.335557,-916.645040,-9135.336773,0.286000,0.956000,-0.014000,192.000000,8.000000,240.000000,29.000000,224.000000,255.000000,144.000000,0.000000,0.000000,0.000000,1647840817.341290,0.000000
49.000000,-27141.477423,-38706.918205,-9109.498156,-9741.717248,-27631.137089,25508.883656,-918.634345,-9126.463130,0.286000,0.956000,-0.014000,192.000000,0.000000,0.000000,0.000000,0.000000,0.000000,0.000000,0.000000,0.000000,0.000000,1647840817.347939,0.000000
50.000000,-27143.086748,-38703.945423,-9107.844127,-9738.811521,-27629.505411,25514.851572,-894.986200,-9099.417519,0.286000,0.956000,-0.014000,192.000000,0.000000,0.000000,0.000000,0.000000,0.000000,0.000000,0.000000,0.000000,0.000000,1647840817.347943,0.000000
51.000000,-27145.478385,-38708.549882,-9107.732368,-9743.930071,-27635.607438,25514.829220,-886.514889,-9105.854822,0.286000,0.956000,-0.014000,192.000000,0.000000,0.000000,0.000000,0.000000,0.000000,0.000000,0.000000,0.000000,0.000000,1647840817.355871,0.000000
52.000000,-27136.470632,-38699.363315,-9098.523450,-9737.872748,-27635.339217,25516.460898,-886.939572,-9106.123043,0.286000,0.956000,-0.014000,192.000000,0.000000,0.000000,0.000000,0.000000,0.000000,0.000000,0.000000,0.000000,0.000000,1647840817.355875,0.000000
53.000000,-27146.819490,-38712.908472,-9105.184270,-9750.635594,-27633.886353,25517.958464,-895.544993,-9125.077322,0.286000,0.956000,-0.014000,192.000000,0.000000,0.000000,0.000000,0.000000,0.000000,0.000000,0.000000,0.000000,0.000000,1647840817.363871,0.000000
54.000000,-27144.651371,-38712.752010,-9104.223145,-9753.586024,-27634.512202,25515.253903,-896.126139,-9128.832415,0.286000,0.956000,-0.014000,192.000000,0.000000,0.000000,0.000000,0.000000,0.000000,0.000000,0.000000,0.000000,0.000000,1647840817.363874,0.000000
55.000000,-27140.248077,-38707.812274,-9098.881078,-9749.942690,-27626.756147,25525.491002,-872.545048,-9101.764453,0.286000,0.956000,-0.014000,192.000000,0.000000,0.000000,0.000000,0.000000,0.000000,0.000000,0.000000,0.000000,0.000000,1647840817.370891,0.000000
56.000000,-27151.960391,-38718.451705,-9110.079302,-9757.229359,-27632.902876,25525.535706,-884.547935,-9104.960752,0.286000,0.956000,-0.014000,192.000000,0.000000,0.000000,0.000000,0.000000,0.000000,0.000000,0.000000,0.000000,0.000000,1647840817.370894,0.000000
57.000000,-27150.149900,-38717.468228,-9108.626438,-9756.379993,-27634.512202,25520.640674,-891.700493,-9111.643924,0.286000,0.956000,-0.014000,192.000000,0.000000,0.000000,0.000000,0.000000,0.000000,0.000000,0.000000,0.000000,0.000000,1647840817.378443,0.000000
58.000000,-27145.165461,-38714.204873,-9105.474842,-9752.647251,-27627.560810,25520.528915,-885.620819,-9101.116252,0.284000,0.950000,-0.026000,192.000000,8.000000,224.000000,29.000000,176.000000,255.000000,48.000000,0.000000,0.000000,0.000000,1647840817.378447,0.000000
59.000000,-27145.545440,-38713.377859,-9107.128871,-9752.937824,-27626.912609,25513.376357,-892.996894,-9104.424310,0.284000,0.950000,-0.026000,192.000000,0.000000,0.000000,0.000000,0.000000,0.000000,0.000000,0.000000,0.000000,0.000000,1647840817.386472,0.000000
60.000000,-27136.515336,-38702.403152,-9098.232877,-9743.639498,-27627.739624,25510.224761,-893.488633,-9097.294104,0.284000,0.950000,-0.026000,192.000000,0.000000,0.000000,0.000000,0.000000,0.000000,0.000000,0.000000,0.000000,0.000000,1647840817.386475,0.000000
61.000000,-27138.705807,-38703.788960,-9102.412653,-9746.612280,-27631.718234,25507.475496,-904.552746,-9105.184270,0.284000,0.950000,-0.026000,192.000000,0.000000,0.000000,0.000000,0.000000,0.000000,0.000000,0.000000,0.000000,0.000000,1647840817.394551,0.000000
62.000000,-27142.773824,-38708.438123,-9105.161918,-9749.518007,-27633.215801,25506.559075,-911.258270,-9105.005456,0.284000,0.950000,-0.026000,192.000000,0.000000,0.000000,0.000000,0.000000,0.000000,0.000000,0.000000,0.000000,0.000000,1647840817.394555,0.000000
63.000000,-27149.613458,-38714.942481,-9107.933534,-9754.077763,-27632.880525,25498.333633,-916.689744,-9103.843165,0.284000,0.950000,-0.026000,192.000000,0.000000,0.000000,0.000000,0.000000,0.000000,0.000000,0.000000,0.000000,0.000000,1647840817.400742,0.000000
64.000000,-27144.874888,-38710.382725,-9101.697397,-9752.535492,-27623.805716,25503.832162,-899.210679,-9089.202772,0.284000,0.950000,-0.026000,192.000000,0.000000,0.000000,0.000000,0.000000,0.000000,0.000000,0.000000,0.000000,0.000000,1647840817.408090,0.000000
65.000000,-27145.612496,-38711.299147,-9103.329075,-9754.927129,-27625.437394,25504.972101,-899.389493,-9089.783918,0.284000,0.950000,-0.026000,192.000000,0.000000,0.000000,0.000000,0.000000,0.000000,0.000000,0.000000,0.000000,0.000000,1647840817.408099,0.000000
66.000000,-27141.432719,-38707.544054,-9101.205659,-9754.524798,-27626.510278,25510.336520,-902.563441,-9080.709109,0.284000,0.950000,-0.026000,192.000000,0.000000,0.000000,0.000000,0.000000,0.000000,0.000000,0.000000,0.000000,0.000000,1647840817.416144,0.000000
67.000000,-27141.611533,-38706.426466,-9099.708092,-9754.211873,-27624.275103,25514.940979,-904.664505,-9071.164915,0.284000,0.950000,-0.026000,192.000000,0.000000,0.000000,0.000000,0.000000,0.000000,0.000000,0.000000,0.000000,0.000000,1647840817.416148,0.000000
68.000000,-27136.336522,-38700.346792,-9093.851935,-9744.175940,-27617.569580,25521.422985,-902.719903,-9058.804400,0.282000,0.956000,-0.018000,192.000000,8.000000,208.000000,29.000000,224.000000,255.000000,112.000000,0.000000,0.000000,0.000000,1647840817.424096,0.000000
69.000000,-27138.169365,-38704.548920,-9098.098767,-9747.394591,-27610.059394,25532.911781,-890.471147,-9062.894769,0.282000,0.956000,-0.018000,192.000000,0.000000,0.000000,0.000000,0.000000,0.000000,0.000000,0.000000,0.000000,0.000000,1647840817.424099,0.000000
70.000000,-27145.210164,-38714.160170,-9103.127909,-9757.519931,-27614.954426,25527.726177,-893.868613,-9074.629435,0.282000,0.956000,-0.018000,192.000000,0.000000,0.000000,0.000000,0.000000,0.000000,0.000000,0.000000,0.000000,0.000000,1647840817.430630,0.000000
71.000000,-27153.837938,-38725.268987,-9111.442758,-9769.992205,-27630.846516,25510.247113,-910.878290,-9101.876211,0.282000,0.956000,-0.018000,192.000000,0.000000,0.000000,0.000000,0.000000,0.000000,0.000000,0.000000,0.000000,0.000000,1647840817.430635,0.000000
72.000000,-27147.065359,-38721.536246,-9105.139566,-9768.092307,-27632.053510,25506.760240,-918.589642,-9094.410729,0.282000,0.956000,-0.018000,192.000000,0.000000,0.000000,0.000000,0.000000,0.000000,0.000000,0.000000,0.000000,0.000000,1647840817.438800,0.000000
73.000000,-27132.067338,-38706.560577,-9091.505002,-9753.586024,-27619.871809,25513.622226,-915.058066,-9070.472010,0.282000,0.956000,-0.018000,192.000000,0.000000,0.000000,0.000000,0.000000,0.000000,0.000000,0.000000,0.000000,0.000000,1647840817.438805,0.000000
74.000000,-27124.221876,-38697.284603,-9085.514734,-9743.885367,-27604.449106,25522.317055,-917.248537,-9067.834505,0.282000,0.956000,-0.018000,192.000000,0.000000,0.000000,0.000000,0.000000,0.000000,0.000000,0.000000,0.000000,0.000000,1647840817.446861,0.000000
75.000000,-27124.110117,-38694.490635,-9082.474897,-9741.449027,-27599.464667,25529.491965,-902.429331,-9045.952147,0.282000,0.956000,-0.018000,192.000000,0.000000,0.000000,0.000000,0.000000,0.000000,0.000000,0.000000,0.000000,0.000000,1647840817.446865,0.000000
76.000000,-27137.990551,-38707.454647,-9094.433080,-9757.832856,-27611.467554,25523.859325,-906.720866,-9063.230045,0.282000,0.956000,-0.018000,192.000000,0.000000,0.000000,0.000000,0.000000,0.000000,0.000000,0.000000,0.000000,0.000000,1647840817.453901,0.000000
77.000000,-27140.203373,-38712.126161,-9096.712958,-9761.878522,-27618.687167,25515.812697,-924.088171,-9099.797499,0.282000,0.956000,-0.018000,192.000000,0.000000,0.000000,0.000000,0.000000,0.000000,0.000000,0.000000,0.000000,0.000000,1647840817.453905,0.000000
78.000000,-27136.783557,-38709.063972,-9094.053101,-9758.592815,-27615.133240,25513.957502,-944.070631,-9076.194057,0.266000,0.950000,-0.006000,192.000000,8.000000,80.000000,29.000000,176.000000,255.000000,208.000000,0.000000,0.000000,0.000000,1647840817.460396,0.000000
79.000000,-27133.944885,-38703.677202,-9089.403938,-9751.775533,-27605.253769,25528.687302,-893.935668,-9033.256356,0.266000,0.950000,-0.006000,192.000000,0.000000,0.000000,0.000000,0.000000,0.000000,0.000000,0.000000,0.000000,0.000000,1647840817.460400,0.000000
80.000000,-27135.397748,-38704.906548,-9087.593447,-9750.300318,-27601.588083,25536.085729,-854.328377,-9045.236891,0.266000,0.950000,-0.006000,192.000000,0.000000,0.000000,0.000000,0.000000,0.000000,0.000000,0.000000,0.000000,0.000000,1647840817.468419,0.000000
81.000000,-27137.431757,-38707.499350,-9086.274694,-9752.222568,-27613.501562,25526.027444,-871.248647,-9060.167856,0.266000,0.950000,-0.006000,192.000000,0.000000,0.000000,0.000000,0.000000,0.000000,0.000000,0.000000,0.000000,0.000000,1647840817.476367,0.000000
82.000000,-27140.404539,-38708.415772,-9085.604141,-9752.401382,-27615.759088,25525.535706,-881.977484,-9058.200903,0.266000,0.950000,-0.006000,192.000000,0.000000,0.000000,0.000000,0.000000,0.000000,0.000000,0.000000,0.000000,0.000000,1647840817.476371,0.000000
83.000000,-27143.600839,-38714.070763,-9084.553609,-9760.313900,-27619.581237,25515.924456,-897.534299,-9069.443830,0.266000,0.950000,-0.006000,192.000000,0.000000,0.000000,0.000000,0.000000,0.000000,0.000000,0.000000,0.000000,0.000000,1647840817.483564,0.000000
84.000000,-27134.995417,-38703.878367,-9072.215446,-9751.864940,-27608.964158,25518.606665,-885.710226,-9057.955034,0.266000,0.950000,-0.006000,192.000000,0.000000,0.000000,0.000000,0.000000,0.000000,0.000000,0.000000,0.000000,0.000000,1647840817.483583,0.000000
85.000000,-27136.403577,-38704.235995,-9070.136734,-9753.295452,-27614.909722,25513.577522,-882.536278,-9058.826752,0.266000,0.950000,-0.006000,192.000000,0.000000,0.000000,0.000000,0.000000,0.000000,0.000000,0.000000,0.000000,0.000000,1647840817.491425,0.000000
86.000000,-27134.950714,-38702.023173,-9052.322394,-9752.401382,-27617.323711,25517.891409,-881.083415,-9054.311699,0.266000,0.950000,-0.006000,192.000000,0.000000,0.000000,0.000000,0.000000,0.000000,0.000000,0.000000,0.000000,0.000000,1647840817.491459,0.000000
87.000000,-27145.210164,-38713.757838,-9054.445810,-9766.952368,-27626.711443,25513.644578,-889.621781,-9065.241702,0.266000,0.950000,-0.006000,192.000000,0.000000,0.000000,0.000000,0.000000,0.000000,0.000000,0.000000,0.000000,0.000000,1647840817.499468,0.000000
88.000000,-27138.012902,-38706.828798,-9044.812208,-9761.833818,-27621.458783,25515.276255,-889.018284,-9061.151333,0.268000,0.942000,-0.002000,192.000000,8.000000,96.000000,29.000000,112.000000,255.000000,240.000000,0.000000,0.000000,0.000000,1647840817.499485,0.000000
89.000000,-27142.997342,-38713.713135,-9047.963804,-9767.801734,-27609.701766,25525.803927,-882.580982,-9064.437039,0.268000,0.942000,-0.002000,192.000000,0.000000,0.000000,0.000000,0.000000,0.000000,0.000000,0.000000,0.000000,0.000000,1647840817.506560,0.000000
90.000000,-27145.321923,-38717.244711,-9050.154275,-9772.987339,-27617.346062,25519.187810,-893.868613,-9068.817981,0.268000,0.942000,-0.002000,192.000000,0.000000,0.000000,0.000000,0.000000,0.000000,0.000000,0.000000,0.000000,0.000000,1647840817.506577,0.000000
91.000000,-27145.143109,-38715.635385,-9049.684888,-9771.445068,-27624.811545,25512.839915,-911.034752,-9071.500191,0.268000,0.942000,-0.002000,192.000000,0.000000,0.000000,0.000000,0.000000,0.000000,0.000000,0.000000,0.000000,0.000000,1647840817.513926,0.000000
92.000000,-27149.032313,-38717.088248,-9051.584786,-9773.054394,-27628.052548,25507.520200,-918.008497,-9078.138659,0.268000,0.942000,-0.002000,192.000000,0.000000,0.000000,0.000000,0.000000,0.000000,0.000000,0.000000,0.000000,0.000000,1647840817.513943,0.000000
93.000000,-27136.068301,-38700.793827,-9036.609118,-9757.162304,-27616.563751,25516.751470,-907.324363,-9066.895731,0.268000,0.942000,-0.002000,192.000000,0.000000,0.000000,0.000000,0.000000,0.000000,0.000000,0.000000,0.000000,0.000000,1647840817.522029,0.000000
94.000000,-27134.503679,-38698.290431,-9034.485702,-9753.317804,-27607.913626,25525.491002,-895.276772,-9057.083316,0.268000,0.942000,-0.002000,192.000000,0.000000,0.000000,0.000000,0.000000,0.000000,0.000000,0.000000,0.000000,0.000000,1647840817.522045,0.000000
95.000000,-27148.920554,-38710.852112,-9049.506074,-9768.539342,-27619.067147,25514.136316,-899.456549,-9060.637243,0.268000,0.942000,-0.002000,192.000000,0.000000,0.000000,0.000000,0.000000,0.000000,0.000000,0.000000,0.000000,0.000000,1647840817.529084,0.000000
96.000000,-27149.568754,-38712.260272,-9052.031821,-9770.461592,-27625.884429,25507.989586,-905.379761,-9067.052194,0.268000,0.942000,-0.002000,192.000000,0.000000,0.000000,0.000000,0.000000,0.000000,0.000000,0.000000,0.000000,0.000000,1647840817.536333,0.000000
97.000000,-27143.064397,-38708.438123,-9046.376830,-9763.130219,-27625.213876,25511.901142,-901.758778,-9073.377737,0.268000,0.942000,-0.002000,192.000000,0.000000,0.000000,0.000000,0.000000,0.000000,0.000000,0.000000,0.000000,0.000000,1647840817.536349,0.000000
98.000000,-27146.059531,-38712.707306,-9046.846217,-9770.595702,-27629.795984,25505.977929,-901.691723,-9089.247476,0.278000,0.948000,-0.008000,192.000000,8.000000,176.000000,29.000000,160.000000,255.000000,192.000000,0.000000,0.000000,0.000000,1647840817.543796,0.000000
99.000000,-27145.366626,-38712.327327,-9042.822903,-9772.339138,-27619.961216,25512.370528,-901.803482,-9073.355385,0.278000,0.948000,-0.008000,192.000000,0.000000,0.000000,0.000000,0.000000,0.000000,0.000000,0.000000,0.000000,0.000000,1647840817.543812,0.000000
100.000000,-27145.746606,-38712.081458,-9042.711144,-9770.483943,-27617.502525,25512.079956,-900.462377,-9103.396130,0.278000,0.948000,-0.008000,192.000000,0.000000,0.000000,0.000000,0.000000,0.000000,0.000000,0.000000,0.000000,0.000000,1647840817.551628,0.000000
101.000000,-27146.193641,-38708.885158,-9041.012411,-9765.611263,-27623.269275,25507.766069,-909.134854,-9090.588580,0.278000,0.948000,-0.008000,192.000000,0.000000,0.000000,0.000000,0.000000,0.000000,0.000000,0.000000,0.000000,0.000000,1647840817.551644,0.000000
102.000000,-27147.333580,-38708.840455,-9041.124170,-9763.443144,-27619.402423,25517.109098,-911.973526,-9057.329185,0.278000,0.948000,-0.008000,192.000000,0.000000,0.000000,0.000000,0.000000,0.000000,0.000000,0.000000,0.000000,0.000000,1647840817.559742,0.000000
103.000000,-27146.953600,-38708.505179,-9045.460408,-9763.711365,-27617.815449,25518.964293,-918.813159,-9075.858781,0.278000,0.948000,-0.008000,192.000000,0.000000,0.000000,0.000000,0.000000,0.000000,0.000000,0.000000,0.000000,0.000000,1647840817.559758,0.000000
104.000000,-27135.084824,-38700.302088,-9036.854987,-9757.922263,-27615.379109,25525.088671,-902.563441,-9043.627565,0.278000,0.948000,-0.008000,192.000000,0.000000,0.000000,0.000000,0.000000,0.000000,0.000000,0.000000,0.000000,0.000000,1647840817.566412,0.000000
105.000000,-27136.627094,-38707.231129,-9040.766542,-9769.053432,-27621.771708,25527.904991,-894.315647,-9053.618795,0.278000,0.948000,-0.008000,192.000000,0.000000,0.000000,0.000000,0.000000,0.000000,0.000000,0.000000,0.000000,0.000000,1647840817.566428,0.000000
106.000000,-27145.053702,-38715.881254,-9049.304908,-9779.424641,-27633.819298,25519.880714,-894.941496,-9073.444792,0.278000,0.948000,-0.008000,192.000000,0.000000,0.000000,0.000000,0.000000,0.000000,0.000000,0.000000,0.000000,0.000000,1647840817.574289,0.000000
107.000000,-27144.494908,-38714.562501,-9044.096952,-9774.887237,-27630.377129,25525.759223,-878.915295,-9063.945301,0.278000,0.948000,-0.008000,192.000000,0.000000,0.000000,0.000000,0.000000,0.000000,0.000000,0.000000,0.000000,0.000000,1647840817.574324,0.000000
108.000000,-27151.021618,-38721.670356,-9047.405010,-9778.396461,-27629.527763,25526.697996,-877.037749,-9063.341804,0.272000,0.946000,-0.012000,192.000000,8.000000,128.000000,29.000000,144.000000,255.000000,160.000000,0.000000,0.000000,0.000000,1647840817.582419,0.000000
109.000000,-27158.934135,-38728.733507,-9054.177589,-9784.342025,-27635.518031,25515.879752,-887.855993,-9081.446717,0.272000,0.946000,-0.012000,192.000000,0.000000,0.000000,0.000000,0.000000,0.000000,0.000000,0.000000,0.000000,0.000000,1647840817.582436,0.000000
110.000000,-27150.842804,-38719.882216,-9047.025030,-9775.870714,-27634.176926,25512.459935,-890.649961,-9083.570133,0.272000,0.946000,-0.012000,192.000000,0.000000,0.000000,0.000000,0.000000,0.000000,0.000000,0.000000,0.000000,0.000000,1647840817.589554,0.000000
111.000000,-27143.377321,-38713.176693,-9041.258280,-9771.713289,-27630.421833,25515.097441,-896.170842,-9087.325226,0.272000,0.946000,-0.012000,192.000000,0.000000,0.000000,0.000000,0.000000,0.000000,0.000000,0.000000,0.000000,0.000000,1647840817.596010,0.000000
112.000000,-27143.422025,-38712.506141,-9042.107647,-9773.099097,-27631.315903,25516.997339,-896.573174,-9080.217371,0.272000,0.946000,-0.012000,192.000000,0.000000,0.000000,0.000000,0.000000,0.000000,0.000000,0.000000,0.000000,0.000000,1647840817.596026,0.000000
113.000000,-27146.908897,-38717.624690,-9045.505112,-9778.418813,-27628.968969,25517.712595,-899.009514,-9096.042406,0.272000,0.946000,-0.012000,192.000000,0.000000,0.000000,0.000000,0.000000,0.000000,0.000000,0.000000,0.000000,0.000000,1647840817.603737,0.000000
114.000000,-27147.154766,-38719.055202,-9044.119304,-9779.826972,-27625.660911,25516.103270,-903.055179,-9113.633229,0.272000,0.946000,-0.012000,192.000000,0.000000,0.000000,0.000000,0.000000,0.000000,0.000000,0.000000,0.000000,0.000000,1647840817.603751,0.000000
115.000000,-27150.887507,-38721.312728,-9045.773333,-9778.508220,-27623.179868,25516.282084,-907.503177,-9086.297046,0.272000,0.946000,-0.012000,192.000000,0.000000,0.000000,0.000000,0.000000,0.000000,0.000000,0.000000,0.000000,0.000000,1647840817.612094,0.000000
116.000000,-27143.712597,-38712.863769,-9034.664516,-9770.372185,-27619.223609,25520.797136,-906.810273,-9079.077432,0.272000,0.946000,-0.012000,192.000000,0.000000,0.000000,0.000000,0.000000,0.000000,0.000000,0.000000,0.000000,0.000000,1647840817.612111,0.000000
117.000000,-27147.445339,-38715.590682,-9036.877339,-9776.474211,-27625.102118,25514.784517,-908.978392,-9089.135717,0.272000,0.946000,-0.012000,192.000000,0.000000,0.000000,0.000000,0.000000,0.000000,0.000000,0.000000,0.000000,0.000000,1647840817.619254,0.000000
118.000000,-27138.571696,-38707.499350,-9028.853062,-9769.880446,-27618.620112,25516.460898,-906.385589,-9086.766432,0.270000,0.948000,-0.016000,192.000000,8.000000,112.000000,29.000000,160.000000,255.000000,128.000000,0.000000,0.000000,0.000000,1647840817.619270,0.000000
119.000000,-27129.988626,-38697.619879,-9022.996905,-9759.777458,-27614.619150,25518.561961,-905.066836,-9106.257153,0.270000,0.948000,-0.016000,192.000000,0.000000,0.000000,0.000000,0.000000,0.000000,0.000000,0.000000,0.000000,0.000000,1647840817.626604,0.000000
120.000000,-27138.862269,-38705.755914,-9032.496397,-9768.025251,-27619.067147,25511.588217,-900.350618,-9147.093790,0.270000,0.948000,-0.016000,192.000000,0.000000,0.000000,0.000000,0.000000,0.000000,0.000000,0.000000,0.000000,0.000000,1647840817.626620,0.000000
121.000000,-27152.250964,-38716.596510,-9040.766542,-9776.787135,-27628.276065,25508.213104,-903.055179,-9109.721674,0.270000,0.948000,-0.016000,192.000000,0.000000,0.000000,0.000000,0.000000,0.000000,0.000000,0.000000,0.000000,0.000000,1647840817.634494,0.000000
122.000000,-27158.844728,-38722.542074,-9043.784028,-9780.542228,-27633.618132,25506.939054,-908.732523,-9109.766377,0.270000,0.948000,-0.016000,192.000000,0.000000,0.000000,0.000000,0.000000,0.000000,0.000000,0.000000,0.000000,0.000000,1647840817.634510,0.000000
123.000000,-27157.168347,-38719.591644,-9043.962842,-9779.201124,-27631.986455,25510.403575,-909.760703,-9131.291107,0.270000,0.948000,-0.016000,192.000000,0.000000,0.000000,0.000000,0.000000,0.000000,0.000000,0.000000,0.000000,0.000000,1647840817.641593,0.000000
124.000000,-27147.981781,-38713.131990,-9036.631469,-9773.792001,-27631.651179,25513.264598,-914.007534,-9117.902412,0.270000,0.948000,-0.016000,192.000000,0.000000,0.000000,0.000000,0.000000,0.000000,0.000000,0.000000,0.000000,0.000000,1647840817.641611,0.000000
125.000000,-27149.747568,-38717.065897,-9037.994926,-9775.557789,-27630.488888,25522.160592,-911.571194,-9087.191115,0.270000,0.948000,-0.016000,192.000000,0.000000,0.000000,0.000000,0.000000,0.000000,0.000000,0.000000,0.000000,0.000000,1647840817.648260,0.000000
126.000000,-27146.998304,-38714.741315,-9033.815150,-9773.501429,-27633.640484,25520.663025,-903.435159,-9088.934551,0.270000,0.948000,-0.016000,192.000000,0.000000,0.000000,0.000000,0.000000,0.000000,0.000000,0.000000,0.000000,0.000000,1647840817.656264,0.000000
127.000000,-27144.673722,-38712.304975,-9032.228176,-9771.668586,-27636.210935,25518.852534,-900.663543,-9108.380569,0.270000,0.948000,-0.016000,192.000000,0.000000,0.000000,0.000000,0.000000,0.000000,0.000000,0.000000,0.000000,0.000000,1647840817.656280,0.000000
128.000000,-27140.449243,-38707.476998,-9031.088237,-9768.539342,-27638.960199,25511.074127,-911.258270,-9151.184160,0.270000,0.934000,-0.020000,192.000000,8.000000,112.000000,29.000000,48.000000,255.000000,96.000000,0.000000,0.000000,0.000000,1647840817.664402,0.000000
129.000000,-27142.863231,-38709.600414,-9034.597461,-9773.121449,-27642.089443,25509.800078,-920.534244,-9108.157052,0.270000,0.934000,-0.020000,192.000000,0.000000,0.000000,0.000000,0.000000,0.000000,0.000000,0.000000,0.000000,0.000000,1647840817.664436,0.000000
130.000000,-27148.182946,-38716.216530,-9040.654783,-9779.894028,-27640.748339,25517.176153,-919.818988,-9067.231007,0.270000,0.934000,-0.020000,192.000000,0.000000,0.000000,0.000000,0.000000,0.000000,0.000000,0.000000,0.000000,0.000000,1647840817.671478,0.000000
131.000000,-27144.874888,-38712.975527,-9039.827769,-9776.697728,-27638.513164,25521.400633,-910.699476,-9076.708147,0.270000,0.934000,-0.020000,192.000000,0.000000,0.000000,0.000000,0.000000,0.000000,0.000000,0.000000,0.000000,0.000000,1647840817.671494,0.000000
132.000000,-27153.167385,-38720.128086,-9050.042516,-9785.057281,-27655.165214,25509.308339,-924.825779,-9074.003586,0.270000,0.934000,-0.020000,192.000000,0.000000,0.000000,0.000000,0.000000,0.000000,0.000000,0.000000,0.000000,0.000000,1647840817.678867,0.000000
133.000000,-27148.898202,-38715.814199,-9063.230045,-9777.211818,-27646.850365,25517.936113,-919.930747,-9064.347632,0.270000,0.934000,-0.020000,192.000000,0.000000,0.000000,0.000000,0.000000,0.000000,0.000000,0.000000,0.000000,0.000000,1647840817.678883,0.000000
134.000000,-27152.206260,-38717.490580,-9089.582752,-9773.724946,-27634.445147,25523.591104,-916.712095,-9056.815095,0.270000,0.934000,-0.020000,192.000000,0.000000,0.000000,0.000000,0.000000,0.000000,0.000000,0.000000,0.000000,0.000000,1647840817.686991,0.000000
135.000000,-27153.882641,-38719.837513,-9098.098767,-9774.663719,-27634.579257,25518.718424,-922.143569,-9065.085240,0.270000,0.934000,-0.020000,192.000000,0.000000,0.000000,0.000000,0.000000,0.000000,0.000000,0.000000,0.000000,0.000000,1647840817.687007,0.000000
136.000000,-27149.546403,-38719.524589,-9106.681836,-9774.686071,-27636.143879,25519.143107,-913.448741,-9064.258225,0.270000,0.934000,-0.020000,192.000000,0.000000,0.000000,0.000000,0.000000,0.000000,0.000000,0.000000,0.000000,0.000000,1647840817.694984,0.000000
137.000000,-27147.400635,-38721.245673,-9131.224052,-9774.619016,-27643.452900,25510.560037,-915.795674,-9071.768412,0.270000,0.934000,-0.020000,192.000000,0.000000,0.000000,0.000000,0.000000,0.000000,0.000000,0.000000,0.000000,0.000000,1647840817.695001,0.000000
138.000000,-27140.270429,-38715.635385,-9139.360087,-9769.522818,-27638.624923,25507.699014,-915.214528,-9082.452545,0.282000,0.930000,-0.012000,192.000000,8.000000,208.000000,29.000000,16.000000,255.000000,160.000000,0.000000,0.000000,0.000000,1647840817.701167,0.000000
139.000000,-27140.940981,-38720.128086,-9152.391154,-9773.769650,-27634.422795,25506.156743,-921.852997,-9074.227103,0.282000,0.930000,-0.012000,192.000000,0.000000,0.000000,0.000000,0.000000,0.000000,0.000000,0.000000,0.000000,0.000000,1647840817.701174,0.000000
140.000000,-27130.547420,-38709.712173,-9161.555369,-9762.996109,-27627.583161,25508.324863,-923.328212,-9080.552647,0.282000,0.930000,-0.012000,192.000000,0.000000,0.000000,0.000000,0.000000,0.000000,0.000000,0.000000,0.000000,0.000000,1647840817.708546,0.000000
141.000000,-27134.928362,-38714.920129,-9175.905189,-9770.059260,-27633.707539,25508.101345,-920.981279,-9089.538048,0.282000,0.930000,-0.012000,192.000000,0.000000,0.000000,0.000000,0.000000,0.000000,0.000000,0.000000,0.000000,0.000000,1647840817.708563,0.000000
142.000000,-27136.291818,-38715.836551,-9181.314311,-9772.562656,-27640.256600,25510.627092,-914.365162,-9065.174647,0.282000,0.930000,-0.012000,192.000000,0.000000,0.000000,0.000000,0.000000,0.000000,0.000000,0.000000,0.000000,0.000000,1647840817.716704,0.000000
143.000000,-27133.095519,-38711.813237,-9177.313349,-9768.874618,-27634.892182,25515.969159,-912.018229,-9057.351536,0.282000,0.930000,-0.012000,192.000000,0.000000,0.000000,0.000000,0.000000,0.000000,0.000000,0.000000,0.000000,0.000000,1647840817.724627,0.000000
144.000000,-27143.131452,-38720.619824,-9182.230733,-9777.256522,-27632.142917,25510.828258,-926.658622,-9078.652749,0.282000,0.930000,-0.012000,192.000000,0.000000,0.000000,0.000000,0.000000,0.000000,0.000000,0.000000,0.000000,0.000000,1647840817.724642,0.000000
145.000000,-27148.808795,-38725.984243,-9186.075233,-9781.168077,-27630.824164,25507.788421,-924.378744,-9094.053101,0.282000,0.930000,-0.012000,192.000000,0.000000,0.000000,0.000000,0.000000,0.000000,0.000000,0.000000,0.000000,0.000000,1647840817.731294,0.000000
146.000000,-27146.595972,-38723.033812,-9184.912942,-9780.050490,-27635.629789,25501.820505,-915.013363,-9110.503985,0.282000,0.930000,-0.012000,192.000000,0.000000,0.000000,0.000000,0.000000,0.000000,0.000000,0.000000,0.000000,0.000000,1647840817.731309,0.000000
147.000000,-27137.968199,-38713.914301,-9179.950855,-9772.495600,-27628.901914,25499.406516,-918.544938,-9120.629325,0.282000,0.930000,-0.012000,192.000000,0.000000,0.000000,0.000000,0.000000,0.000000,0.000000,0.000000,0.000000,0.000000,1647840817.739172,0.000000
148.000000,-27140.136318,-38713.981356,-9181.157849,-9772.830876,-27623.157516,25494.824409,-934.660546,-9109.408749,0.282000,0.930000,-0.012000,192.000000,0.000000,0.000000,0.000000,0.000000,0.000000,0.000000,0.000000,0.000000,0.000000,1647840817.739189,0.000000
149.000000,-27133.900182,-38708.393420,-9173.670015,-9768.762859,-27621.011748,25489.884673,-924.021116,-9102.502060,0.292000,0.956000,-0.014000,192.000000,9.000000,32.000000,29.000000,224.000000,255.000000,144.000000,0.000000,0.000000,0.000000,1647840817.747286,0.000000
150.000000,-27129.116908,-38702.783132,-9168.842038,-9763.711365,-27616.340234,25495.427906,-911.414732,-9101.987970,0.292000,0.956000,-0.014000,192.000000,0.000000,0.000000,0.000000,0.000000,0.000000,0.000000,0.000000,0.000000,0.000000,1647840817.747321,0.000000
151.000000,-27127.351120,-38703.073705,-9168.037375,-9761.610301,-27618.731871,25493.282139,-927.843264,-9103.977275,0.292000,0.956000,-0.014000,192.000000,0.000000,0.000000,0.000000,0.000000,0.000000,0.000000,0.000000,0.000000,0.000000,1647840817.753819,0.000000
152.000000,-27137.208240,-38714.406039,-9175.704023,-9771.154496,-27631.092385,25483.939109,-934.392325,-9119.645848,0.292000,0.956000,-0.014000,192.000000,0.000000,0.000000,0.000000,0.000000,0.000000,0.000000,0.000000,0.000000,0.000000,1647840817.753835,0.000000
153.000000,-27134.011940,-38707.789923,-9165.757497,-9764.784248,-27626.242057,25491.605758,-914.767494,-9117.410674,0.292000,0.956000,-0.014000,192.000000,0.000000,0.000000,0.000000,0.000000,0.000000,0.000000,0.000000,0.000000,0.000000,1647840817.761835,0.000000
154.000000,-27132.022635,-38705.040658,-9147.093790,-9763.398440,-27620.095327,25499.093592,-895.410883,-9111.621572,0.292000,0.956000,-0.014000,192.000000,0.000000,0.000000,0.000000,0.000000,0.000000,0.000000,0.000000,0.000000,0.000000,1647840817.761851,0.000000
155.000000,-27148.361760,-38721.357432,-9128.206566,-9780.922208,-27623.783365,25500.948787,-897.176671,-9122.909203,0.292000,0.956000,-0.014000,192.000000,0.000000,0.000000,0.000000,0.000000,0.000000,0.000000,0.000000,0.000000,0.000000,1647840817.769842,0.000000
156.000000,-27153.569717,-38723.503199,-9110.213412,-9787.225400,-27635.540382,25493.483304,-916.823854,-9132.542805,0.292000,0.956000,-0.014000,192.000000,0.000000,0.000000,0.000000,0.000000,0.000000,0.000000,0.000000,0.000000,0.000000,1647840817.769858,0.000000
157.000000,-27143.869060,-38712.886120,-9089.783918,-9781.704519,-27636.345045,25486.755429,-925.943366,-9134.442703,0.292000,0.956000,-0.014000,192.000000,0.000000,0.000000,0.000000,0.000000,0.000000,0.000000,0.000000,0.000000,0.000000,1647840817.776874,0.000000
158.000000,-27141.142147,-38708.192254,-9081.334958,-9779.424641,-27629.840687,25485.526083,-923.372915,-9140.857654,0.292000,0.956000,-0.014000,192.000000,0.000000,0.000000,0.000000,0.000000,0.000000,0.000000,0.000000,0.000000,0.000000,1647840817.783489,0.000000
159.000000,-27137.968199,-38707.454647,-9065.711089,-9775.893065,-27621.928170,25491.561054,-909.872462,-9134.755627,0.256000,0.972000,-0.030000,192.000000,8.000000,0.000000,30.000000,96.000000,255.000000,16.000000,0.000000,0.000000,0.000000,1647840817.783505,0.000000
160.000000,-27144.941943,-38713.579025,-9049.908406,-9774.507257,-27625.727967,25491.583406,-917.673220,-9135.604994,0.256000,0.972000,-0.030000,192.000000,0.000000,0.000000,0.000000,0.000000,0.000000,0.000000,0.000000,0.000000,0.000000,1647840817.791428,0.000000
161.000000,-27157.749493,-38726.006594,-9050.422496,-9785.057281,-27637.887315,25486.263691,-928.647927,-9154.000479,0.256000,0.972000,-0.030000,192.000000,0.000000,0.000000,0.000000,0.000000,0.000000,0.000000,0.000000,0.000000,0.000000,1647840817.791444,0.000000
162.000000,-27152.094502,-38719.524589,-9044.499283,-9785.683130,-27639.764862,25485.190807,-934.705250,-9172.194799,0.256000,0.972000,-0.030000,192.000000,0.000000,0.000000,0.000000,0.000000,0.000000,0.000000,0.000000,0.000000,0.000000,1647840817.799398,0.000000
163.000000,-27155.559022,-38723.592606,-9042.599385,-9787.314807,-27639.362531,25485.928415,-941.835456,-9174.139401,0.256000,0.972000,-0.030000,192.000000,0.000000,0.000000,0.000000,0.000000,0.000000,0.000000,0.000000,0.000000,0.000000,1647840817.799414,0.000000
164.000000,-27144.830185,-38714.048411,-9026.349667,-9775.960121,-27626.912609,25502.401650,-936.605148,-9132.520453,0.256000,0.972000,-0.030000,192.000000,0.000000,0.000000,0.000000,0.000000,0.000000,0.000000,0.000000,0.000000,0.000000,1647840817.806584,0.000000
165.000000,-27145.567792,-38715.367164,-9027.757827,-9779.290531,-27629.371301,25503.228665,-942.058974,-9135.470883,0.256000,0.972000,-0.030000,192.000000,0.000000,0.000000,0.000000,0.000000,0.000000,0.000000,0.000000,0.000000,0.000000,1647840817.806601,0.000000
166.000000,-27161.415179,-38731.214551,-9038.061981,-9793.685054,-27639.518993,25499.160647,-945.389383,-9153.933424,0.256000,0.972000,-0.030000,192.000000,0.000000,0.000000,0.000000,0.000000,0.000000,0.000000,0.000000,0.000000,0.000000,1647840817.814081,0.000000
167.000000,-27150.306362,-38722.698536,-9020.337048,-9782.911513,-27634.199278,25503.809810,-936.828665,-9160.147209,0.256000,0.972000,-0.030000,192.000000,0.000000,0.000000,0.000000,0.000000,0.000000,0.000000,0.000000,0.000000,0.000000,1647840817.814097,0.000000
168.000000,-27137.051777,-38708.505179,-8996.621847,-9767.689975,-27622.554019,25509.017767,-938.795619,-9163.119991,0.256000,0.972000,-0.030000,192.000000,0.000000,0.000000,0.000000,0.000000,0.000000,0.000000,0.000000,0.000000,0.000000,1647840817.822030,0.000000
169.000000,-27132.827298,-38702.201987,-8985.580085,-9761.878522,-27616.183772,25512.124659,-940.248482,-9164.416392,0.222000,0.986000,-0.038000,192.000000,6.000000,240.000000,30.000000,208.000000,254.000000,208.000000,0.000000,0.000000,0.000000,1647840817.822046,0.000000
170.000000,-27134.168402,-38701.822007,-8984.529553,-9763.867827,-27616.295530,25513.711633,-939.332061,-9166.383346,0.222000,0.986000,-0.038000,192.000000,0.000000,0.000000,0.000000,0.000000,0.000000,0.000000,0.000000,0.000000,0.000000,1647840817.830151,0.000000
171.000000,-27134.861307,-38704.146588,-8983.031986,-9763.957234,-27612.808658,25521.557095,-933.989994,-9154.358107,0.222000,0.986000,-0.038000,192.000000,0.000000,0.000000,0.000000,0.000000,0.000000,0.000000,0.000000,0.000000,0.000000,1647840817.830186,0.000000
172.000000,-27142.662065,-38711.857940,-8988.955198,-9770.103964,-27623.492792,25512.594046,-950.485581,-9168.819686,0.222000,0.986000,-0.038000,192.000000,0.000000,0.000000,0.000000,0.000000,0.000000,0.000000,0.000000,0.000000,0.000000,1647840817.836284,0.000000
173.000000,-27144.673722,-38711.969699,-8988.888143,-9769.344004,-27624.498621,25510.358871,-946.305805,-9178.788564,0.222000,0.986000,-0.038000,192.000000,0.000000,0.000000,0.000000,0.000000,0.000000,0.000000,0.000000,0.000000,0.000000,1647840817.843775,0.000000
174.000000,-27146.350103,-38711.522664,-8986.451803,-9767.444106,-27622.665778,25509.665967,-928.692630,-9178.341529,0.222000,0.986000,-0.038000,192.000000,0.000000,0.000000,0.000000,0.000000,0.000000,0.000000,0.000000,0.000000,0.000000,1647840817.843791,0.000000
175.000000,-27151.245135,-38717.177655,-8990.117489,-9771.243903,-27626.644388,25504.525066,-934.571139,-9186.790489,0.222000,0.986000,-0.038000,192.000000,0.000000,0.000000,0.000000,0.000000,0.000000,0.000000,0.000000,0.000000,0.000000,1647840817.851686,0.000000
176.000000,-27149.434644,-38716.417696,-8986.876486,-9768.427583,-27630.846516,25497.417211,-937.879197,-9175.256988,0.222000,0.986000,-0.038000,192.000000,0.000000,0.000000,0.000000,0.000000,0.000000,0.000000,0.000000,0.000000,0.000000,1647840817.851702,0.000000
177.000000,-27140.315132,-38707.879330,-8973.778364,-9761.386783,-27624.833897,25503.943921,-937.186293,-9171.524247,0.222000,0.986000,-0.038000,192.000000,0.000000,0.000000,0.000000,0.000000,0.000000,0.000000,0.000000,0.000000,0.000000,1647840817.859537,0.000000
178.000000,-27144.047874,-38712.796713,-8975.387690,-9769.902798,-27623.001054,25503.295720,-941.030793,-9182.811878,0.222000,0.986000,-0.038000,192.000000,0.000000,0.000000,0.000000,0.000000,0.000000,0.000000,0.000000,0.000000,0.000000,1647840817.859553,0.000000
179.000000,-27143.779653,-38711.790885,-8973.465439,-9771.668586,-27620.095327,25502.178133,-949.144477,-9198.100471,0.198000,0.982000,-0.052000,192.000000,6.000000,48.000000,30.000000,176.000000,254.000000,96.000000,0.000000,0.000000,0.000000,1647840817.866399,0.000000
180.000000,-27146.394807,-38716.037716,-8974.158344,-9774.998996,-27627.605513,25493.706822,-960.543866,-9207.555259,0.198000,0.982000,-0.052000,192.000000,0.000000,0.000000,0.000000,0.000000,0.000000,0.000000,0.000000,0.000000,0.000000,1647840817.866417,0.000000
181.000000,-27147.132414,-38717.848208,-8973.107812,-9780.698690,-27626.957312,25505.106211,-947.803372,-9163.231750,0.198000,0.982000,-0.052000,192.000000,0.000000,0.000000,0.000000,0.000000,0.000000,0.000000,0.000000,0.000000,0.000000,1647840817.874400,0.000000
182.000000,-27153.033275,-38721.379783,-8981.936751,-9786.219571,-27632.947580,25506.983758,-947.915131,-9167.880913,0.198000,0.982000,-0.052000,192.000000,0.000000,0.000000,0.000000,0.000000,0.000000,0.000000,0.000000,0.000000,0.000000,1647840817.874415,0.000000
183.000000,-27152.496833,-38718.362298,-8980.081556,-9781.615112,-27630.757109,25507.654310,-954.575950,-9188.243352,0.198000,0.982000,-0.052000,192.000000,0.000000,0.000000,0.000000,0.000000,0.000000,0.000000,0.000000,0.000000,0.000000,1647840817.882339,0.000000
184.000000,-27150.306362,-38715.858902,-8977.198181,-9776.898894,-27625.415042,25514.158668,-955.470020,-9187.975131,0.198000,0.982000,-0.052000,192.000000,0.000000,0.000000,0.000000,0.000000,0.000000,0.000000,0.000000,0.000000,0.000000,1647840817.882356,0.000000
185.000000,-27150.686342,-38715.680088,-8976.035890,-9771.512124,-27625.906780,25515.455069,-958.643968,-9183.884762,0.198000,0.982000,-0.052000,192.000000,0.000000,0.000000,0.000000,0.000000,0.000000,0.000000,0.000000,0.000000,0.000000,1647840817.889049,0.000000
186.000000,-27152.586240,-38716.954138,-8977.488753,-9770.819219,-27630.064205,25514.270427,-972.077366,-9198.905134,0.198000,0.982000,-0.052000,192.000000,0.000000,0.000000,0.000000,0.000000,0.000000,0.000000,0.000000,0.000000,0.000000,1647840817.889066,0.000000
187.000000,-27159.247060,-38723.078516,-8982.294379,-9774.239036,-27634.579257,25513.242246,-976.503012,-9186.231695,0.198000,0.982000,-0.052000,192.000000,0.000000,0.000000,0.000000,0.000000,0.000000,0.000000,0.000000,0.000000,0.000000,1647840817.896149,0.000000
188.000000,-27158.554156,-38721.424487,-8977.511105,-9766.907664,-27629.684225,25517.936113,-973.753747,-9164.930482,0.198000,0.982000,-0.052000,192.000000,0.000000,0.000000,0.000000,0.000000,0.000000,0.000000,0.000000,0.000000,0.000000,1647840817.903994,0.000000
189.000000,-27148.875850,-38710.047449,-8966.491695,-9755.977661,-27616.742565,25528.463784,-976.748881,-9166.495105,0.186000,0.986000,-0.052000,192.000000,5.000000,208.000000,30.000000,208.000000,254.000000,96.000000,0.000000,0.000000,0.000000,1647840817.904010,0.000000
190.000000,-27148.697036,-38709.667469,-8967.966910,-9755.262405,-27620.743528,25527.279142,-976.413605,-9169.423183,0.186000,0.986000,-0.052000,192.000000,0.000000,0.000000,0.000000,0.000000,0.000000,0.000000,0.000000,0.000000,0.000000,1647840817.912026,0.000000
191.000000,-27150.976914,-38712.863769,-8968.346890,-9760.492714,-27627.493754,25525.982741,-958.822782,-9165.154000,0.186000,0.986000,-0.052000,192.000000,0.000000,0.000000,0.000000,0.000000,0.000000,0.000000,0.000000,0.000000,0.000000,1647840817.912042,0.000000
192.000000,-27146.528917,-38709.980394,-8967.832800,-9761.096211,-27631.494717,25523.859325,-963.114317,-9171.010157,0.186000,0.986000,-0.052000,192.000000,0.000000,0.000000,0.000000,0.000000,0.000000,0.000000,0.000000,0.000000,0.000000,1647840817.918488,0.000000
193.000000,-27148.026484,-38712.126161,-8972.414908,-9763.599606,-27630.600647,25526.094499,-962.488468,-9169.780811,0.186000,0.986000,-0.052000,192.000000,0.000000,0.000000,0.000000,0.000000,0.000000,0.000000,0.000000,0.000000,0.000000,1647840817.918519,0.000000
194.000000,-27148.339408,-38714.584853,-8975.477096,-9764.203103,-27626.219705,25528.888467,-967.249390,-9169.736108,0.186000,0.986000,-0.052000,192.000000,0.000000,0.000000,0.000000,0.000000,0.000000,0.000000,0.000000,0.000000,0.000000,1647840817.926671,0.000000
195.000000,-27157.280106,-38724.330214,-8984.104870,-9775.535438,-27637.216763,25520.752432,-988.103567,-9180.755518,0.186000,0.986000,-0.052000,192.000000,0.000000,0.000000,0.000000,0.000000,0.000000,0.000000,0.000000,0.000000,0.000000,1647840817.926687,0.000000
196.000000,-27160.632868,-38726.766554,-8983.926056,-9779.111717,-27644.078749,25517.064395,-979.922829,-9178.319177,0.186000,0.986000,-0.052000,192.000000,0.000000,0.000000,0.000000,0.000000,0.000000,0.000000,0.000000,0.000000,0.000000,1647840817.934580,0.000000
197.000000,-27153.659124,-38718.071725,-8973.152515,-9766.348871,-27634.333388,25525.155726,-969.708081,-9165.042241,0.186000,0.986000,-0.052000,192.000000,0.000000,0.000000,0.000000,0.000000,0.000000,0.000000,0.000000,0.000000,0.000000,1647840817.934596,0.000000
198.000000,-27157.749493,-38722.363260,-8979.299245,-9766.170057,-27633.215801,25524.172249,-973.351416,-9172.507724,0.186000,0.986000,-0.052000,192.000000,0.000000,0.000000,0.000000,0.000000,0.000000,0.000000,0.000000,0.000000,0.000000,1647840817.941632,0.000000
199.000000,-27147.758263,-38711.924995,-8969.352719,-9755.575330,-27631.919400,25518.204334,-985.354303,-9171.121916,0.182000,0.984000,-0.048000,192.000000,5.000000,176.000000,30.000000,192.000000,254.000000,128.000000,0.000000,0.000000,0.000000,1647840817.941648,0.000000
200.000000,-27144.047874,-38706.985260,-8963.563617,-9750.523835,-27623.604551,25522.361758,-981.934486,-9169.400831,0.182000,0.984000,-0.048000,192.000000,0.000000,0.000000,0.000000,0.000000,0.000000,0.000000,0.000000,0.000000,0.000000,1647840817.949345,0.000000
201.000000,-27160.856385,-38721.133914,-8980.126259,-9764.672490,-27631.159440,25513.778688,-993.356227,-9192.020797,0.182000,0.984000,-0.048000,192.000000,0.000000,0.000000,0.000000,0.000000,0.000000,0.000000,0.000000,0.000000,0.000000,1647840817.949362,0.000000
202.000000,-27163.940926,-38723.637310,-8983.970759,-9766.706498,-27634.288685,25507.006110,-1004.800320,-9201.207364,0.182000,0.984000,-0.048000,192.000000,0.000000,0.000000,0.000000,0.000000,0.000000,0.000000,0.000000,0.000000,0.000000,1647840817.956317,0.000000
203.000000,-27172.099313,-38729.918150,-8992.419719,-9773.993167,-27642.737644,25500.613511,-1019.932451,-9198.346340,0.182000,0.984000,-0.048000,192.000000,0.000000,0.000000,0.000000,0.000000,0.000000,0.000000,0.000000,0.000000,0.000000,1647840817.956333,0.000000
204.000000,-27163.896223,-38719.770458,-8984.551905,-9768.069955,-27641.575353,25503.407479,-1009.427131,-9183.817707,0.182000,0.984000,-0.048000,192.000000,0.000000,0.000000,0.000000,0.000000,0.000000,0.000000,0.000000,0.000000,0.000000,1647840817.964306,0.000000
205.000000,-27159.314115,-38715.791847,-8980.126259,-9764.471324,-27640.189545,25510.470630,-997.334838,-9166.025718,0.182000,0.984000,-0.048000,192.000000,0.000000,0.000000,0.000000,0.000000,0.000000,0.000000,0.000000,0.000000,0.000000,1647840817.971479,0.000000
206.000000,-27165.818473,-38722.162094,-8986.652969,-9768.941673,-27643.877583,25512.214066,-1000.218213,-9181.649587,0.182000,0.984000,-0.048000,192.000000,0.000000,0.000000,0.000000,0.000000,0.000000,0.000000,0.000000,0.000000,0.000000,1647840817.971494,0.000000
207.000000,-27176.524958,-38731.594531,-8995.414853,-9778.575275,-27647.699731,25505.709708,-1021.742943,-9202.839041,0.182000,0.984000,-0.048000,192.000000,0.000000,0.000000,0.000000,0.000000,0.000000,0.000000,0.000000,0.000000,0.000000,1647840817.978997,0.000000
208.000000,-27178.111932,-38733.539132,-8997.851193,-9778.083536,-27649.286705,25501.731098,-1020.625355,-9207.287038,0.182000,0.984000,-0.048000,192.000000,0.000000,0.000000,0.000000,0.000000,0.000000,0.000000,0.000000,0.000000,0.000000,1647840817.979013,0.000000
209.000000,-27166.287859,-38722.184446,-8984.663663,-9762.347908,-27636.568563,25517.198505,-1015.149178,-9184.890590,0.190000,0.972000,-0.038000,192.000000,5.000000,240.000000,30.000000,96.000000,254.000000,208.000000,0.000000,0.000000,0.000000,1647840817.986735,0.000000
210.000000,-27173.038086,-38730.901626,-8990.899800,-9770.685109,-27644.391673,25513.577522,-1029.163722,-9192.959570,0.190000,0.972000,-0.038000,192.000000,0.000000,0.000000,0.000000,0.000000,0.000000,0.000000,0.000000,0.000000,0.000000,1647840817.986751,0.000000
211.000000,-27170.422932,-38730.119315,-8989.089309,-9767.041775,-27646.403330,25518.897238,-1007.817806,-9167.769154,0.190000,0.972000,-0.038000,192.000000,0.000000,0.000000,0.000000,0.000000,0.000000,0.000000,0.000000,0.000000,0.000000,1647840817.994902,0.000000
212.000000,-27168.523034,-38728.442935,-8987.636445,-9761.744411,-27641.374188,25527.904991,-988.885878,-9161.577721,0.190000,0.972000,-0.038000,192.000000,0.000000,0.000000,0.000000,0.000000,0.000000,0.000000,0.000000,0.000000,0.000000,1647840817.994918,0.000000
213.000000,-27176.547310,-38733.472077,-8993.805527,-9766.997071,-27646.336275,25520.014825,-999.033570,-9171.278378,0.190000,0.972000,-0.038000,192.000000,0.000000,0.000000,0.000000,0.000000,0.000000,0.000000,0.000000,0.000000,0.000000,1647840818.001435,0.000000
214.000000,-27174.736819,-38728.375879,-8994.811355,-9757.005841,-27643.207031,25523.769918,-983.633218,-9153.732259,0.190000,0.972000,-0.038000,192.000000,0.000000,0.000000,0.000000,0.000000,0.000000,0.000000,0.000000,0.000000,0.000000,1647840818.001470,0.000000
215.000000,-27184.213958,-38736.981301,-9007.663609,-9760.716231,-27648.526746,25521.445337,-984.080253,-9148.367840,0.190000,0.972000,-0.038000,192.000000,0.000000,0.000000,0.000000,0.000000,0.000000,0.000000,0.000000,0.000000,0.000000,1647840818.009469,0.000000
216.000000,-27189.444266,-38746.570199,-9014.503242,-9767.689975,-27658.585031,25512.459935,-999.681771,-9163.634081,0.190000,0.972000,-0.038000,192.000000,0.000000,0.000000,0.000000,0.000000,0.000000,0.000000,0.000000,0.000000,0.000000,1647840818.009485,0.000000
217.000000,-27181.419990,-38740.579932,-9006.210745,-9761.476190,-27655.969877,25517.489078,-989.556431,-9158.962567,0.190000,0.972000,-0.038000,192.000000,0.000000,0.000000,0.000000,0.000000,0.000000,0.000000,0.000000,0.000000,0.000000,1647840818.017506,0.000000
218.000000,-27176.212034,-38735.126106,-9002.656818,-9756.089420,-27649.800795,25520.618322,-983.744977,-9153.464038,0.190000,0.972000,-0.038000,192.000000,0.000000,0.000000,0.000000,0.000000,0.000000,0.000000,0.000000,0.000000,0.000000,1647840818.017523,0.000000
219.000000,-27166.176101,-38724.710193,-8991.592704,-9746.858149,-27643.944638,25523.009959,-986.784814,-9151.385325,0.188000,0.964000,-0.032000,192.000000,5.000000,224.000000,30.000000,32.000000,255.000000,0.000000,0.000000,0.000000,0.000000,1647840818.023738,0.000000
220.000000,-27163.091560,-38724.509028,-8986.831783,-9745.628803,-27640.725987,25530.184869,-969.104584,-9147.943157,0.188000,0.964000,-0.032000,192.000000,0.000000,0.000000,0.000000,0.000000,0.000000,0.000000,0.000000,0.000000,0.000000,1647840818.031216,0.000000
221.000000,-27169.148883,-38728.733507,-8993.425547,-9748.623937,-27643.318789,25528.933171,-967.137631,-9151.854712,0.188000,0.964000,-0.032000,192.000000,0.000000,0.000000,0.000000,0.000000,0.000000,0.000000,0.000000,0.000000,0.000000,1647840818.031232,0.000000
222.000000,-27180.794141,-38737.875371,-9000.600457,-9756.335289,-27646.112757,25521.110060,-974.469003,-9167.456230,0.188000,0.964000,-0.032000,192.000000,0.000000,0.000000,0.000000,0.000000,0.000000,0.000000,0.000000,0.000000,0.000000,1647840818.039134,0.000000
223.000000,-27178.156636,-38734.656720,-8996.845364,-9753.004879,-27645.710426,25511.677624,-981.509803,-9173.133573,0.188000,0.964000,-0.032000,192.000000,0.000000,0.000000,0.000000,0.000000,0.000000,0.000000,0.000000,0.000000,0.000000,1647840818.039150,0.000000
224.000000,-27172.121665,-38727.660624,-8991.771518,-9749.406248,-27641.888278,25507.341386,-986.360131,-9170.697233,0.188000,0.964000,-0.032000,192.000000,0.000000,0.000000,0.000000,0.000000,0.000000,0.000000,0.000000,0.000000,0.000000,1647840818.047182,0.000000
225.000000,-27169.148883,-38724.173751,-8992.442071,-9746.098190,-27638.736682,25506.849647,-989.467024,-9171.904227,0.188000,0.964000,-0.032000,192.000000,0.000000,0.000000,0.000000,0.000000,0.000000,0.000000,0.000000,0.000000,0.000000,1647840818.047198,0.000000
226.000000,-27170.937022,-38724.173751,-8998.499393,-9744.265347,-27641.105967,25503.541589,-984.393178,-9170.987805,0.188000,0.964000,-0.032000,192.000000,0.000000,0.000000,0.000000,0.000000,0.000000,0.000000,0.000000,0.000000,0.000000,1647840818.053885,0.000000
227.000000,-27165.505548,-38718.161132,-8993.090271,-9736.486940,-27634.936885,25508.570732,-974.066672,-9164.997538,0.188000,0.964000,-0.032000,192.000000,0.000000,0.000000,0.000000,0.000000,0.000000,0.000000,0.000000,0.000000,0.000000,1647840818.053901,0.000000
228.000000,-27163.784464,-38715.568330,-8990.899800,-9732.374219,-27631.964103,25512.348177,-967.204686,-9158.917863,0.188000,0.964000,-0.032000,192.000000,0.000000,0.000000,0.000000,0.000000,0.000000,0.000000,0.000000,0.000000,0.000000,1647840818.061926,0.000000
229.000000,-27167.852481,-38720.642176,-8994.833707,-9735.101132,-27629.818336,25518.539610,-955.604131,-9162.248273,0.184000,0.972000,-0.028000,192.000000,5.000000,192.000000,30.000000,96.000000,255.000000,32.000000,0.000000,0.000000,0.000000,1647840818.061942,0.000000
230.000000,-27177.217862,-38730.700461,-9003.617943,-9746.277004,-27637.417929,25513.398709,-962.779041,-9176.151058,0.184000,0.972000,-0.028000,192.000000,0.000000,0.000000,0.000000,0.000000,0.000000,0.000000,0.000000,0.000000,0.000000,1647840818.069838,0.000000
231.000000,-27176.256737,-38727.727679,-9003.752053,-9743.952423,-27643.117624,25509.733022,-969.708081,-9177.603922,0.184000,0.972000,-0.028000,192.000000,0.000000,0.000000,0.000000,0.000000,0.000000,0.000000,0.000000,0.000000,0.000000,1647840818.069853,0.000000
232.000000,-27172.948679,-38721.536246,-9000.935733,-9737.626879,-27641.441243,25509.800078,-976.748881,-9187.483393,0.184000,0.972000,-0.028000,192.000000,0.000000,0.000000,0.000000,0.000000,0.000000,0.000000,0.000000,0.000000,0.000000,1647840818.077012,0.000000
233.000000,-27182.716391,-38730.275778,-9010.412873,-9746.522873,-27643.989342,25505.776764,-983.543811,-9194.971227,0.184000,0.972000,-0.028000,192.000000,0.000000,0.000000,0.000000,0.000000,0.000000,0.000000,0.000000,0.000000,0.000000,1647840818.077028,0.000000
234.000000,-27175.608537,-38725.872484,-9001.405120,-9737.716286,-27635.741548,25514.650406,-971.384462,-9174.608788,0.184000,0.972000,-0.028000,192.000000,0.000000,0.000000,0.000000,0.000000,0.000000,0.000000,0.000000,0.000000,0.000000,1647840818.083464,0.000000
235.000000,-27165.907880,-38718.518760,-8993.671416,-9727.702704,-27633.372263,25515.075089,-977.754709,-9179.012082,0.184000,0.972000,-0.028000,192.000000,0.000000,0.000000,0.000000,0.000000,0.000000,0.000000,0.000000,0.000000,0.000000,1647840818.091538,0.000000
236.000000,-27161.705752,-38715.031888,-8990.050434,-9723.031190,-27630.019501,25521.311226,-975.430128,-9147.652584,0.184000,0.972000,-0.028000,192.000000,0.000000,0.000000,0.000000,0.000000,0.000000,0.000000,0.000000,0.000000,0.000000,1647840818.091554,0.000000
237.000000,-27176.636717,-38732.510952,-9003.372074,-9737.962155,-27644.883412,25514.762165,-982.314465,-9111.778034,0.184000,0.972000,-0.028000,192.000000,0.000000,0.000000,0.000000,0.000000,0.000000,0.000000,0.000000,0.000000,0.000000,1647840818.099510,0.000000
238.000000,-27178.134284,-38734.053222,-9002.746225,-9739.794998,-27647.744435,25506.089688,-983.610867,-9125.904337,0.184000,0.972000,-0.028000,192.000000,0.000000,0.000000,0.000000,0.000000,0.000000,0.000000,0.000000,0.000000,0.000000,1647840818.099526,0.000000
239.000000,-27174.379191,-38728.398231,-8999.147594,-9733.916489,-27640.882449,25507.095517,-985.823689,-9135.493235,0.190000,0.978000,-0.024000,192.000000,5.000000,240.000000,30.000000,144.000000,255.000000,64.000000,0.000000,0.000000,0.000000,1647840818.106437,0.000000
240.000000,-27172.278127,-38725.827780,-8996.219515,-9731.368390,-27635.629789,25514.516296,-981.867430,-9137.929575,0.190000,0.978000,-0.024000,192.000000,0.000000,0.000000,0.000000,0.000000,0.000000,0.000000,0.000000,0.000000,0.000000,1647840818.106448,0.000000
241.000000,-27171.719333,-38724.576083,-8995.124280,-9728.887347,-27636.970894,25517.064395,-984.996675,-9135.381476,0.190000,0.978000,-0.024000,192.000000,0.000000,0.000000,0.000000,0.000000,0.000000,0.000000,0.000000,0.000000,0.000000,1647840818.113833,0.000000
242.000000,-27168.657144,-38723.503199,-8993.380844,-9726.652172,-27631.986455,25519.612493,-979.878125,-9128.832415,0.190000,0.978000,-0.024000,192.000000,0.000000,0.000000,0.000000,0.000000,0.000000,0.000000,0.000000,0.000000,0.000000,1647840818.113842,0.000000
243.000000,-27181.777618,-38739.752917,-9005.607248,-9739.750295,-27631.919400,25517.600836,-978.022930,-9140.567081,0.190000,0.978000,-0.024000,192.000000,0.000000,0.000000,0.000000,0.000000,0.000000,0.000000,0.000000,0.000000,0.000000,1647840818.121882,0.000000
244.000000,-27186.136208,-38744.245618,-9008.043588,-9742.656021,-27638.289647,25510.291816,-985.466061,-9151.765305,0.190000,0.978000,-0.024000,192.000000,0.000000,0.000000,0.000000,0.000000,0.000000,0.000000,0.000000,0.000000,0.000000,1647840818.121895,0.000000
245.000000,-27178.536615,-38734.477906,-9002.701521,-9733.648268,-27637.082653,25511.811735,-983.633218,-9142.511683,0.190000,0.978000,-0.024000,192.000000,0.000000,0.000000,0.000000,0.000000,0.000000,0.000000,0.000000,0.000000,0.000000,1647840818.129886,0.000000
246.000000,-27176.547310,-38734.321443,-9003.550888,-9732.821254,-27640.547173,25514.203371,-980.615733,-9143.070476,0.190000,0.978000,-0.024000,192.000000,0.000000,0.000000,0.000000,0.000000,0.000000,0.000000,0.000000,0.000000,0.000000,1647840818.129899,0.000000
247.000000,-27168.657144,-38729.694632,-8998.812318,-9728.909699,-27641.709464,25516.617360,-974.357244,-9115.063741,0.190000,0.978000,-0.024000,192.000000,0.000000,0.000000,0.000000,0.000000,0.000000,0.000000,0.000000,0.000000,0.000000,1647840818.136534,0.000000
248.000000,-27167.852481,-38729.247597,-8997.940600,-9727.345076,-27638.311999,25519.411328,-975.340721,-9108.671142,0.190000,0.978000,-0.024000,192.000000,0.000000,0.000000,0.000000,0.000000,0.000000,0.000000,0.000000,0.000000,0.000000,1647840818.136546,0.000000
249.000000,-27159.738798,-38721.737411,-8992.352664,-9718.493786,-27628.231362,25528.508488,-968.456384,-9107.710017,0.196000,0.982000,-0.024000,192.000000,6.000000,32.000000,30.000000,176.000000,255.000000,64.000000,0.000000,0.000000,0.000000,1647840818.143526,0.000000
250.000000,-27157.905955,-38718.496408,-8990.586876,-9716.482129,-27626.756147,25531.034235,-964.544828,-9109.989895,0.196000,0.982000,-0.024000,192.000000,0.000000,0.000000,0.000000,0.000000,0.000000,0.000000,0.000000,0.000000,0.000000,1647840818.151550,0.000000
251.000000,-27154.329676,-38713.355507,-8984.060166,-9711.296524,-27628.097251,25532.822374,-969.015177,-9084.486554,0.196000,0.982000,-0.024000,192.000000,0.000000,0.000000,0.000000,0.000000,0.000000,0.000000,0.000000,0.000000,0.000000,1647840818.151563,0.000000
252.000000,-27160.476406,-38720.753934,-8987.010597,-9713.352884,-27629.661874,25531.816546,-970.155116,-9099.886906,0.196000,0.982000,-0.024000,192.000000,0.000000,0.000000,0.000000,0.000000,0.000000,0.000000,0.000000,0.000000,0.000000,1647840818.159579,0.000000
253.000000,-27166.913708,-38730.253426,-8993.760823,-9721.175995,-27639.071958,25515.700938,-994.809090,-9133.772151,0.196000,0.982000,-0.024000,192.000000,0.000000,0.000000,0.000000,0.000000,0.000000,0.000000,0.000000,0.000000,0.000000,1647840818.159592,0.000000
254.000000,-27168.366571,-38731.147496,-8996.152460,-9719.253745,-27636.590914,25515.835049,-1003.973306,-9134.532110,0.196000,0.982000,-0.024000,192.000000,0.000000,0.000000,0.000000,0.000000,0.000000,0.000000,0.000000,0.000000,0.000000,1647840818.166199,0.000000
255.000000,-27171.473464,-38732.578007,-8998.566449,-9717.130329,-27634.780423,25526.876810,-989.109396,-9097.987008,0.196000,0.982000,-0.024000,192.000000,0.000000,0.000000,0.000000,0.000000,0.000000,0.000000,0.000000,0.000000,0.000000,1647840818.166212,0.000000
0.000000,-27160.968144,-38724.061993,-8988.642274,-9708.211983,-27633.796946,25533.761148,-987.164794,-9096.981179,0.196000,0.982000,-0.024000,192.000000,0.000000,0.000000,0.000000,0.000000,0.000000,0.000000,0.000000,0.000000,0.000000,1647840818.174150,0.000000
1.000000,-27162.286897,-38726.475981,-8991.480946,-9708.860184,-27637.015597,25532.241229,-1006.610812,-9102.949095,0.196000,0.982000,-0.024000,192.000000,0.000000,0.000000,0.000000,0.000000,0.000000,0.000000,0.000000,0.000000,0.000000,1647840818.174179,0.000000
2.000000,-27179.631851,-38746.391385,-9007.753015,-9730.273155,-27643.385845,25525.870982,-1018.658402,-9132.453398,0.196000,0.982000,-0.024000,192.000000,0.000000,0.000000,0.000000,0.000000,0.000000,0.000000,0.000000,0.000000,0.000000,1647840818.182168,0.000000
3.000000,-27182.716391,-38748.291284,-9011.798681,-9734.676449,-27649.800795,25522.473517,-1033.477608,-9114.951982,0.196000,0.982000,-0.024000,192.000000,0.000000,0.000000,0.000000,0.000000,0.000000,0.000000,0.000000,0.000000,0.000000,1647840818.182180,0.000000
4.000000,-27182.403467,-38745.542019,-9011.530460,-9729.960231,-27649.040836,25523.211124,-1033.119980,-9117.254212,0.208000,0.982000,-0.010000,192.000000,6.000000,128.000000,30.000000,176.000000,255.000000,176.000000,0.000000,0.000000,0.000000,1647840818.188811,0.000000
5.000000,-27185.063325,-38747.397214,-9015.397312,-9726.808635,-27652.572412,25527.323845,-987.500070,-9103.329075,0.208000,0.982000,-0.010000,192.000000,0.000000,0.000000,0.000000,0.000000,0.000000,0.000000,0.000000,0.000000,0.000000,1647840818.188823,0.000000
6.000000,-27184.884511,-38746.458441,-9019.241812,-9727.456835,-27656.483967,25522.227648,-988.818823,-9095.528316,0.208000,0.982000,-0.010000,192.000000,0.000000,0.000000,0.000000,0.000000,0.000000,0.000000,0.000000,0.000000,0.000000,1647840818.196729,0.000000
7.000000,-27179.564795,-38742.233961,-9016.201975,-9724.148777,-27650.292534,25524.641636,-985.868393,-9077.758679,0.208000,0.982000,-0.010000,192.000000,0.000000,0.000000,0.000000,0.000000,0.000000,0.000000,0.000000,0.000000,0.000000,1647840818.196741,0.000000
8.000000,-27177.754304,-38740.535228,-9021.521690,-9725.288716,-27648.862022,25516.595008,-1003.570974,-9078.719804,0.208000,0.982000,-0.010000,192.000000,0.000000,0.000000,0.000000,0.000000,0.000000,0.000000,0.000000,0.000000,0.000000,1647840818.203883,0.000000
9.000000,-27170.825263,-38730.991033,-9029.769484,-9722.874728,-27644.414025,25516.818525,-976.793584,-9080.329130,0.208000,0.982000,-0.010000,192.000000,0.000000,0.000000,0.000000,0.000000,0.000000,0.000000,0.000000,0.000000,0.000000,1647840818.203896,0.000000
10.000000,-27170.758208,-38731.639234,-9059.005566,-9723.366466,-27655.835766,25499.562979,-961.862619,-9090.946208,0.208000,0.982000,-0.010000,192.000000,0.000000,0.000000,0.000000,0.000000,0.000000,0.000000,0.000000,0.000000,0.000000,1647840818.211931,0.000000
11.000000,-27179.408333,-38743.619769,-9095.617723,-9721.645382,-27652.058321,25495.606720,-969.484564,-9092.309665,0.208000,0.982000,-0.010000,192.000000,0.000000,0.000000,0.000000,0.000000,0.000000,0.000000,0.000000,0.000000,0.000000,1647840818.218371,0.000000
12.000000,-27183.208130,-38748.783022,-9115.778996,-9720.840719,-27645.241039,25495.584368,-964.544828,-9092.667293,0.208000,0.982000,-0.010000,192.000000,0.000000,0.000000,0.000000,0.000000,0.000000,0.000000,0.000000,0.000000,0.000000,1647840818.218384,0.000000
13.000000,-27178.089580,-38743.865638,-9124.607936,-9719.790187,-27644.056397,25486.375449,-967.584666,-9096.265924,0.208000,0.982000,-0.010000,192.000000,0.000000,0.000000,0.000000,0.000000,0.000000,0.000000,0.000000,0.000000,0.000000,1647840818.226307,0.000000
14.000000,-27183.074019,-38747.754842,-9136.834340,-9727.367428,-27651.633638,25469.276365,-979.274628,-9107.754720,0.186000,0.950000,0.004000,192.000000,5.000000,208.000000,29.000000,176.000000,0.000000,32.000000,0.000000,0.000000,0.000000,1647840818.226316,0.000000
15.000000,-27180.391810,-38745.005577,-9134.196834,-9724.461701,-27650.381941,25465.945955,-980.883954,-9103.932572,0.186000,0.950000,0.004000,192.000000,0.000000,0.000000,0.000000,0.000000,0.000000,0.000000,0.000000,0.000000,0.000000,1647840818.234489,0.000000
16.000000,-27187.074982,-38750.146478,-9140.544729,-9729.334382,-27655.791063,25458.324010,-984.080253,-9104.893697,0.186000,0.950000,0.004000,192.000000,0.000000,0.000000,0.000000,0.000000,0.000000,0.000000,0.000000,0.000000,0.000000,1647840818.234505,0.000000
17.000000,-27190.584205,-38755.220324,-9142.332869,-9731.994239,-27657.646258,25453.853661,-985.600172,-9109.632267,0.186000,0.950000,0.004000,192.000000,0.000000,0.000000,0.000000,0.000000,0.000000,0.000000,0.000000,0.000000,0.000000,1647840818.241615,0.000000
18.000000,-27187.767886,-38752.672226,-9140.947061,-9730.451969,-27655.500490,25454.792435,-984.013198,-9117.164805,0.186000,0.950000,0.004000,192.000000,0.000000,0.000000,0.000000,0.000000,0.000000,0.000000,0.000000,0.000000,0.000000,1647840818.241631,0.000000
19.000000,-27193.959319,-38755.488545,-9146.982032,-9736.285774,-27661.356647,25448.869222,-982.046244,-9125.814930,0.186000,0.950000,0.004000,192.000000,0.000000,0.000000,0.000000,0.000000,0.000000,0.000000,0.000000,0.000000,0.000000,1647840818.249295,0.000000
20.000000,-27185.465656,-38745.787888,-9140.298860,-9730.094341,-27671.146711,25445.158833,-983.342646,-9111.040427,0.186000,0.950000,0.004000,192.000000,0.000000,0.000000,0.000000,0.000000,0.000000,0.000000,0.000000,0.000000,0.000000,1647840818.249311,0.000000
21.000000,-27180.816493,-38740.311711,-9131.492273,-9725.780454,-27669.693848,25451.037341,-978.738186,-9102.390302,0.186000,0.950000,0.004000,192.000000,0.000000,0.000000,0.000000,0.000000,0.000000,0.000000,0.000000,0.000000,0.000000,1647840818.257271,0.000000
22.000000,-27189.377211,-38749.341816,-9115.287258,-9732.597736,-27665.022333,25452.579612,-976.145384,-9108.492328,0.186000,0.950000,0.004000,192.000000,0.000000,0.000000,0.000000,0.000000,0.000000,0.000000,0.000000,0.000000,0.000000,1647840818.257306,0.000000
23.000000,-27186.829112,-38745.787888,-9095.550668,-9725.646344,-27659.233231,25451.998466,-988.416492,-9116.963639,0.186000,0.950000,0.004000,192.000000,0.000000,0.000000,0.000000,0.000000,0.000000,0.000000,0.000000,0.000000,0.000000,1647840818.265346,0.000000
24.000000,-27186.896168,-38746.190220,-9093.650769,-9725.422826,-27660.306115,25453.719551,-984.124957,-9126.150206,0.154000,0.968000,0.018000,192.000000,4.000000,208.000000,30.000000,64.000000,0.000000,144.000000,0.000000,0.000000,0.000000,1647840818.265362,0.000000
25.000000,-27184.459827,-38745.542019,-9089.023958,-9724.707571,-27669.649144,25444.465929,-1004.375637,-9136.253194,0.154000,0.968000,0.018000,192.000000,0.000000,0.000000,0.000000,0.000000,0.000000,0.000000,0.000000,0.000000,0.000000,1647840818.271351,0.000000
26.000000,-27178.782484,-38738.434164,-9079.792688,-9716.951515,-27665.290554,25445.538812,-1027.107361,-9145.998555,0.154000,0.968000,0.018000,192.000000,0.000000,0.000000,0.000000,0.000000,0.000000,0.000000,0.000000,0.000000,0.000000,1647840818.279024,0.000000
27.000000,-27176.234386,-38738.568275,-9076.283464,-9717.487957,-27660.551984,25444.063597,-1013.830425,-9157.487352,0.154000,0.968000,0.018000,192.000000,0.000000,0.000000,0.000000,0.000000,0.000000,0.000000,0.000000,0.000000,0.000000,1647840818.279040,0.000000
28.000000,-27185.286842,-38747.352510,-9081.714938,-9723.947611,-27660.596688,25449.673885,-980.593381,-9109.185232,0.154000,0.968000,0.018000,192.000000,0.000000,0.000000,0.000000,0.000000,0.000000,0.000000,0.000000,0.000000,0.000000,1647840818.286912,0.000000
29.000000,-27183.118723,-38745.318502,-9075.121173,-9718.739655,-27656.081635,25458.212251,-950.977320,-9107.888831,0.154000,0.968000,0.018000,192.000000,0.000000,0.000000,0.000000,0.000000,0.000000,0.000000,0.000000,0.000000,0.000000,1647840818.286927,0.000000
30.000000,-27183.945737,-38743.597417,-9070.539066,-9717.018571,-27659.635563,25455.932374,-954.844171,-9131.671087,0.154000,0.968000,0.018000,192.000000,0.000000,0.000000,0.000000,0.000000,0.000000,0.000000,0.000000,0.000000,0.000000,1647840818.294971,0.000000
31.000000,-27184.012793,-38739.864676,-9064.571150,-9713.419940,-27660.261412,25460.916813,-952.206666,-9100.982142,0.154000,0.968000,0.018000,192.000000,0.000000,0.000000,0.000000,0.000000,0.000000,0.000000,0.000000,0.000000,0.000000,1647840818.294986,0.000000
32.000000,-27181.084714,-38735.729603,-9060.816057,-9711.274172,-27654.114682,25467.085894,-945.635253,-9089.135717,0.154000,0.968000,0.018000,192.000000,0.000000,0.000000,0.000000,0.000000,0.000000,0.000000,0.000000,0.000000,0.000000,1647840818.301383,0.000000
33.000000,-27184.459827,-38739.685862,-9069.041499,-9718.940821,-27654.606420,25466.124769,-944.137686,-9095.997703,0.154000,0.968000,0.018000,192.000000,0.000000,0.000000,0.000000,0.000000,0.000000,0.000000,0.000000,0.000000,0.000000,1647840818.301398,0.000000
34.000000,-27180.212996,-38733.539132,-9070.539066,-9715.252783,-27656.908650,25463.308449,-947.915131,-9099.305761,0.134000,0.954000,0.022000,192.000000,4.000000,48.000000,29.000000,208.000000,0.000000,176.000000,0.000000,0.000000,0.000000,1647840818.309520,0.000000
35.000000,-27184.638641,-38735.729603,-9075.724670,-9719.723132,-27660.261412,25458.748693,-955.246503,-9102.412653,0.134000,0.954000,0.022000,192.000000,0.000000,0.000000,0.000000,0.000000,0.000000,0.000000,0.000000,0.000000,0.000000,1647840818.309536,0.000000
36.000000,-27197.803819,-38750.481755,-9090.722691,-9731.591908,-27668.866833,25447.259897,-969.909247,-9122.328058,0.134000,0.954000,0.022000,192.000000,0.000000,0.000000,0.000000,0.000000,0.000000,0.000000,0.000000,0.000000,0.000000,1647840818.317621,0.000000
37.000000,-27201.089525,-38750.459403,-9100.959790,-9730.720190,-27669.358572,25441.046112,-978.447614,-9130.888776,0.134000,0.954000,0.022000,192.000000,0.000000,0.000000,0.000000,0.000000,0.000000,0.000000,0.000000,0.000000,0.000000,1647840818.317637,0.000000
38.000000,-27199.055517,-38747.330159,-9121.098712,-9728.172091,-27669.537386,25431.814841,-980.772195,-9136.208491,0.134000,0.954000,0.022000,192.000000,0.000000,0.000000,0.000000,0.000000,0.000000,0.000000,0.000000,0.000000,0.000000,1647840818.324290,0.000000
39.000000,-27198.317909,-38747.956007,-9140.388267,-9728.641478,-27670.744380,25425.444594,-987.053035,-9137.124912,0.134000,0.954000,0.022000,192.000000,0.000000,0.000000,0.000000,0.000000,0.000000,0.000000,0.000000,0.000000,0.000000,1647840818.324305,0.000000
40.000000,-27198.563778,-38745.676130,-9147.205549,-9726.629821,-27675.102970,25423.589399,-991.053997,-9139.225976,0.134000,0.954000,0.022000,192.000000,0.000000,0.000000,0.000000,0.000000,0.000000,0.000000,0.000000,0.000000,0.000000,1647840818.331303,0.000000
41.000000,-27196.641528,-38741.809278,-9146.266776,-9722.137120,-27673.560700,25422.896495,-992.663323,-9139.471846,0.134000,0.954000,0.022000,192.000000,0.000000,0.000000,0.000000,0.000000,0.000000,0.000000,0.000000,0.000000,0.000000,1647840818.339215,0.000000
42.000000,-27197.513246,-38741.026967,-9144.657450,-9719.521966,-27666.586955,25423.969379,-991.121053,-9136.834340,0.134000,0.954000,0.022000,192.000000,0.000000,0.000000,0.000000,0.000000,0.000000,0.000000,0.000000,0.000000,0.000000,1647840818.339232,0.000000
43.000000,-27194.071078,-38739.864676,-9141.282337,-9716.057446,-27665.111740,25424.461117,-998.027742,-9147.183197,0.134000,0.954000,0.022000,192.000000,0.000000,0.000000,0.000000,0.000000,0.000000,0.000000,0.000000,0.000000,0.000000,1647840818.347324,0.000000
44.000000,-27198.541426,-38744.603246,-9143.182235,-9719.678428,-27670.722028,25424.371710,-999.704123,-9158.314366,0.118000,0.972000,0.020000,192.000000,3.000000,176.000000,30.000000,96.000000,0.000000,160.000000,0.000000,0.000000,0.000000,1647840818.347340,0.000000
45.000000,-27199.122572,-38745.452612,-9141.036468,-9718.583193,-27675.058267,25427.366844,-986.494242,-9154.648680,0.118000,0.972000,0.020000,192.000000,0.000000,0.000000,0.000000,0.000000,0.000000,0.000000,0.000000,0.000000,0.000000,1647840818.353907,0.000000
46.000000,-27199.636662,-38744.044452,-9140.902357,-9717.845585,-27676.533482,25429.132632,-992.551564,-9154.313404,0.118000,0.972000,0.020000,192.000000,0.000000,0.000000,0.000000,0.000000,0.000000,0.000000,0.000000,0.000000,0.000000,1647840818.353923,0.000000
47.000000,-27200.530732,-38744.603246,-9142.332869,-9718.963172,-27677.874586,25431.568972,-990.539907,-9141.125875,0.118000,0.972000,0.020000,192.000000,0.000000,0.000000,0.000000,0.000000,0.000000,0.000000,0.000000,0.000000,0.000000,1647840818.361831,0.000000
48.000000,-27192.975842,-38734.880237,-9134.152130,-9709.284867,-27668.866833,25443.907135,-973.887858,-9128.810063,0.118000,0.972000,0.020000,192.000000,0.000000,0.000000,0.000000,0.000000,0.000000,0.000000,0.000000,0.000000,0.000000,1647840818.361848,0.000000
49.000000,-27188.013755,-38728.420583,-9128.631250,-9700.098300,-27663.524766,25450.925583,-967.495259,-9130.598203,0.118000,0.972000,0.020000,192.000000,0.000000,0.000000,0.000000,0.000000,0.000000,0.000000,0.000000,0.000000,0.000000,1647840818.369923,0.000000
50.000000,-27198.899054,-38738.344757,-9137.728409,-9708.614315,-27675.035915,25441.537850,-967.584666,-9157.107372,0.118000,0.972000,0.020000,192.000000,0.000000,0.000000,0.000000,0.000000,0.000000,0.000000,0.000000,0.000000,0.000000,1647840818.369940,0.000000
51.000000,-27190.383040,-38733.561484,-9128.765360,-9702.512288,-27677.941642,25432.910077,-973.887858,-9153.374631,0.118000,0.972000,0.020000,192.000000,0.000000,0.000000,0.000000,0.000000,0.000000,0.000000,0.000000,0.000000,0.000000,1647840818.377029,0.000000
52.000000,-27187.030278,-38731.482772,-9126.597241,-9697.952533,-27667.793950,25440.397911,-966.914113,-9136.320250,0.118000,0.972000,0.020000,192.000000,0.000000,0.000000,0.000000,0.000000,0.000000,0.000000,0.000000,0.000000,0.000000,1647840818.377046,0.000000
53.000000,-27193.221711,-38737.718909,-9136.074380,-9703.898097,-27674.275955,25435.815804,-969.864544,-9160.124857,0.118000,0.972000,0.020000,192.000000,0.000000,0.000000,0.000000,0.000000,0.000000,0.000000,0.000000,0.000000,0.000000,1647840818.384329,0.000000
54.000000,-27205.850447,-38751.532287,-9147.809046,-9718.985524,-27682.724915,25433.960609,-982.403872,-9139.270680,0.112000,0.978000,0.014000,192.000000,3.000000,128.000000,30.000000,144.000000,0.000000,112.000000,0.000000,0.000000,0.000000,1647840818.384346,0.000000
55.000000,-27197.759115,-38741.138725,-9142.891662,-9710.067178,-27681.763790,25439.213269,-979.609904,-9113.700284,0.112000,0.978000,0.014000,192.000000,0.000000,0.000000,0.000000,0.000000,0.000000,0.000000,0.000000,0.000000,0.000000,1647840818.391446,0.000000
56.000000,-27193.221711,-38735.841362,-9142.466979,-9705.172146,-27680.959127,25438.363902,-976.234791,-9122.953906,0.112000,0.978000,0.014000,192.000000,0.000000,0.000000,0.000000,0.000000,0.000000,0.000000,0.000000,0.000000,0.000000,1647840818.399525,0.000000
57.000000,-27197.647357,-38742.301016,-9147.339660,-9709.508384,-27683.239005,25431.904248,-971.183297,-9149.954814,0.112000,0.978000,0.014000,192.000000,0.000000,0.000000,0.000000,0.000000,0.000000,0.000000,0.000000,0.000000,0.000000,1647840818.399542,0.000000
58.000000,-27195.322775,-38739.238827,-9143.316346,-9705.686236,-27679.126284,25432.731263,-962.264951,-9124.965563,0.112000,0.978000,0.014000,192.000000,0.000000,0.000000,0.000000,0.000000,0.000000,0.000000,0.000000,0.000000,0.000000,1647840818.406621,0.000000
59.000000,-27197.870874,-38741.809278,-9147.853750,-9711.162413,-27678.969822,25432.843021,-966.087099,-9122.171595,0.112000,0.978000,0.014000,192.000000,0.000000,0.000000,0.000000,0.000000,0.000000,0.000000,0.000000,0.000000,0.000000,1647840818.406637,0.000000
60.000000,-27198.384964,-38739.864676,-9149.552482,-9709.307219,-27683.484874,25425.176373,-970.937427,-9131.067590,0.112000,0.978000,0.014000,192.000000,0.000000,0.000000,0.000000,0.000000,0.000000,0.000000,0.000000,0.000000,0.000000,1647840818.414311,0.000000
61.000000,-27196.418011,-38736.154286,-9144.880968,-9701.886440,-27686.770581,25418.627312,-977.531192,-9137.951927,0.112000,0.978000,0.014000,192.000000,0.000000,0.000000,0.000000,0.000000,0.000000,0.000000,0.000000,0.000000,0.000000,1647840818.414327,0.000000
62.000000,-27210.387851,-38750.705272,-9153.575796,-9714.604582,-27688.961052,25414.224018,-974.781927,-9146.467942,0.112000,0.978000,0.014000,192.000000,0.000000,0.000000,0.000000,0.000000,0.000000,0.000000,0.000000,0.000000,0.000000,1647840818.422097,0.000000
63.000000,-27215.640511,-38757.455499,-9157.420296,-9720.639553,-27691.553854,25408.546675,-982.537983,-9155.989785,0.112000,0.978000,0.014000,192.000000,0.000000,0.000000,0.000000,0.000000,0.000000,0.000000,0.000000,0.000000,0.000000,1647840818.422112,0.000000
64.000000,-27203.391755,-38743.105679,-9146.557349,-9706.714416,-27688.938700,25409.440745,-985.600172,-9153.754610,0.110000,0.982000,0.016000,192.000000,3.000000,112.000000,30.000000,176.000000,0.000000,128.000000,0.000000,0.000000,0.000000,1647840818.430195,0.000000
65.000000,-27203.279996,-38744.111507,-9150.603014,-9707.988466,-27692.693793,25408.032585,-970.266875,-9156.749744,0.110000,0.982000,0.016000,192.000000,0.000000,0.000000,0.000000,0.000000,0.000000,0.000000,0.000000,0.000000,0.000000,1647840818.430229,0.000000
66.000000,-27199.882531,-38740.892856,-9148.904282,-9706.826175,-27699.376964,25402.824629,-971.004483,-9153.978128,0.110000,0.982000,0.016000,192.000000,0.000000,0.000000,0.000000,0.000000,0.000000,0.000000,0.000000,0.000000,0.000000,1647840818.436826,0.000000
67.000000,-27199.211979,-38740.646987,-9148.703116,-9707.407320,-27697.074735,25404.478658,-973.574933,-9155.609805,0.110000,0.982000,0.016000,192.000000,0.000000,0.000000,0.000000,0.000000,0.000000,0.000000,0.000000,0.000000,0.000000,1647840818.436842,0.000000
68.000000,-27201.693022,-38741.764574,-9152.838189,-9708.077873,-27698.080563,25399.740088,-988.483547,-9161.130686,0.110000,0.982000,0.016000,192.000000,0.000000,0.000000,0.000000,0.000000,0.000000,0.000000,0.000000,0.000000,0.000000,1647840818.444723,0.000000
69.000000,-27186.270319,-38725.112525,-9140.611785,-9688.743614,-27688.312851,25409.150172,-977.017102,-9155.140418,0.110000,0.982000,0.016000,192.000000,0.000000,0.000000,0.000000,0.000000,0.000000,0.000000,0.000000,0.000000,0.000000,1647840818.444739,0.000000
70.000000,-27190.271281,-38729.784039,-9146.534997,-9691.291713,-27694.504284,25408.345510,-977.195916,-9160.571892,0.110000,0.982000,0.016000,192.000000,0.000000,0.000000,0.000000,0.000000,0.000000,0.000000,0.000000,0.000000,0.000000,1647840818.451755,0.000000
71.000000,-27194.965147,-38737.160115,-9149.328965,-9698.108995,-27699.421668,25408.591379,-979.162869,-9177.961550,0.110000,0.982000,0.016000,192.000000,0.000000,0.000000,0.000000,0.000000,0.000000,0.000000,0.000000,0.000000,0.000000,1647840818.451772,0.000000
72.000000,-27200.418973,-38742.569237,-9150.759477,-9702.646399,-27698.684060,25411.228885,-978.984055,-9167.702099,0.110000,0.982000,0.016000,192.000000,0.000000,0.000000,0.000000,0.000000,0.000000,0.000000,0.000000,0.000000,0.000000,1647840818.459034,0.000000
73.000000,-27196.283900,-38736.042528,-9145.462113,-9698.556030,-27695.353650,25413.329949,-982.001541,-9164.818724,0.110000,0.982000,0.016000,192.000000,0.000000,0.000000,0.000000,0.000000,0.000000,0.000000,0.000000,0.000000,0.000000,1647840818.466486,0.000000
74.000000,-27194.741630,-38734.991996,-9143.092828,-9698.019588,-27692.291462,25418.448498,-982.001541,-9169.780811,0.112000,0.986000,0.014000,192.000000,3.000000,128.000000,30.000000,208.000000,0.000000,112.000000,0.000000,0.000000,0.000000,1647840818.466502,0.000000
75.000000,-27195.166313,-38736.288397,-9145.037430,-9699.763024,-27701.880360,25417.196800,-984.080253,-9159.722526,0.112000,0.986000,0.014000,192.000000,0.000000,0.000000,0.000000,0.000000,0.000000,0.000000,0.000000,0.000000,0.000000,1647840818.474443,0.000000
76.000000,-27190.092467,-38731.080440,-9143.450456,-9695.560896,-27702.729726,25421.018949,-978.849945,-9159.521360,0.112000,0.986000,0.014000,192.000000,0.000000,0.000000,0.000000,0.000000,0.000000,0.000000,0.000000,0.000000,0.000000,1647840818.474459,0.000000
77.000000,-27185.689173,-38727.325347,-9136.409657,-9690.174125,-27693.341993,25429.378501,-977.218268,-9164.148171,0.112000,0.986000,0.014000,192.000000,0.000000,0.000000,0.000000,0.000000,0.000000,0.000000,0.000000,0.000000,0.000000,1647840818.482484,0.000000
78.000000,-27189.779543,-38730.074612,-9138.153093,-9688.944780,-27692.514979,25427.255085,-980.168698,-9162.695308,0.112000,0.986000,0.014000,192.000000,0.000000,0.000000,0.000000,0.000000,0.000000,0.000000,0.000000,0.000000,0.000000,1647840818.482500,0.000000
79.000000,-27183.118723,-38723.369089,-9129.815892,-9679.959378,-27689.609252,25430.429033,-967.562314,-9160.102506,0.112000,0.986000,0.014000,192.000000,0.000000,0.000000,0.000000,0.000000,0.000000,0.000000,0.000000,0.000000,0.000000,1647840818.488958,0.000000
80.000000,-27191.142999,-38727.794734,-9137.504892,-9683.625064,-27695.018374,25430.317274,-975.206611,-9167.232712,0.112000,0.986000,0.014000,192.000000,0.000000,0.000000,0.000000,0.000000,0.000000,0.000000,0.000000,0.000000,0.000000,1647840818.488976,0.000000
81.000000,-27189.936005,-38724.352565,-9136.521415,-9683.423899,-27693.923139,25431.501917,-977.486489,-9166.875084,0.112000,0.986000,0.014000,192.000000,0.000000,0.000000,0.000000,0.000000,0.000000,0.000000,0.000000,0.000000,0.000000,1647840818.497049,0.000000
82.000000,-27196.194493,-38732.265083,-9142.042296,-9693.079852,-27701.321566,25421.935370,-981.442747,-9163.701137,0.112000,0.986000,0.014000,192.000000,0.000000,0.000000,0.000000,0.000000,0.000000,0.000000,0.000000,0.000000,0.000000,1647840818.497064,0.000000
83.000000,-27193.422877,-38732.578007,-9137.393133,-9691.179954,-27694.347822,25427.031568,-981.509803,-9166.539808,0.112000,0.986000,0.014000,192.000000,0.000000,0.000000,0.000000,0.000000,0.000000,0.000000,0.000000,0.000000,0.000000,1647840818.504969,0.000000
84.000000,-27206.051613,-38747.173696,-9149.641889,-9704.322780,-27705.635453,25420.124879,-1002.073407,-9196.200573,0.116000,0.990000,0.012000,192.000000,3.000000,160.000000,30.000000,240.000000,0.000000,96.000000,0.000000,0.000000,0.000000,1647840818.504985,0.000000
85.000000,-27206.431592,-38744.245618,-9146.691459,-9699.763024,-27715.939607,25416.816821,-994.540870,-9183.169506,0.116000,0.990000,0.012000,192.000000,0.000000,0.000000,0.000000,0.000000,0.000000,0.000000,0.000000,0.000000,0.000000,1647840818.512283,0.000000
86.000000,-27192.886435,-38726.140705,-9132.676915,-9680.406413,-27704.294348,25418.694367,-996.999561,-9179.682634,0.116000,0.990000,0.012000,192.000000,0.000000,0.000000,0.000000,0.000000,0.000000,0.000000,0.000000,0.000000,0.000000,1647840818.512317,0.000000
87.000000,-27186.337374,-38718.384650,-9126.418427,-9671.935102,-27692.738496,25421.041300,-996.016085,-9167.612692,0.116000,0.990000,0.012000,192.000000,0.000000,0.000000,0.000000,0.000000,0.000000,0.000000,0.000000,0.000000,0.000000,1647840818.518600,0.000000
88.000000,-27185.845636,-38716.395344,-9127.424255,-9669.856390,-27688.692831,25422.672978,-997.692466,-9163.477619,0.116000,0.990000,0.012000,192.000000,0.000000,0.000000,0.000000,0.000000,0.000000,0.000000,0.000000,0.000000,0.000000,1647840818.526695,0.000000
89.000000,-27188.907825,-38716.998841,-9131.268755,-9668.761154,-27693.118476,25424.595228,-987.880050,-9159.789581,0.116000,0.990000,0.012000,192.000000,0.000000,0.000000,0.000000,0.000000,0.000000,0.000000,0.000000,0.000000,0.000000,1647840818.526711,0.000000
90.000000,-27188.192569,-38716.328289,-9132.274584,-9669.297596,-27699.801648,25422.672978,-987.433015,-9162.114163,0.116000,0.990000,0.012000,192.000000,0.000000,0.000000,0.000000,0.000000,0.000000,0.000000,0.000000,0.000000,0.000000,1647840818.534469,0.000000
91.000000,-27184.839807,-38712.036754,-9126.865462,-9663.821419,-27692.917310,25429.423205,-976.324198,-9159.543712,0.116000,0.990000,0.012000,192.000000,0.000000,0.000000,0.000000,0.000000,0.000000,0.000000,0.000000,0.000000,0.000000,1647840818.534485,0.000000
92.000000,-27188.796066,-38715.367164,-9131.000534,-9666.883608,-27694.280767,25423.187068,-981.353340,-9166.271587,0.116000,0.990000,0.012000,192.000000,0.000000,0.000000,0.000000,0.000000,0.000000,0.000000,0.000000,0.000000,0.000000,1647840818.541865,0.000000
93.000000,-27189.354860,-38717.289414,-9133.660392,-9668.224712,-27696.717107,25415.274550,-994.004428,-9173.088869,0.116000,0.990000,0.012000,192.000000,0.000000,0.000000,0.000000,0.000000,0.000000,0.000000,0.000000,0.000000,0.000000,1647840818.541882,0.000000
94.000000,-27182.314060,-38711.746181,-9125.747874,-9664.648433,-27695.532464,25414.022853,-988.751768,-9175.748727,0.116000,0.980000,0.018000,192.000000,3.000000,160.000000,30.000000,160.000000,0.000000,144.000000,0.000000,0.000000,0.000000,1647840818.549347,0.000000
95.000000,-27185.957394,-38717.490580,-9127.536014,-9670.728108,-27697.611177,25418.828478,-985.421358,-9180.040262,0.116000,0.980000,0.018000,192.000000,0.000000,0.000000,0.000000,0.000000,0.000000,0.000000,0.000000,0.000000,0.000000,1647840818.549363,0.000000
96.000000,-27183.297537,-38714.137818,-9129.011229,-9668.448230,-27705.166066,25419.946065,-982.627390,-9178.185067,0.116000,0.980000,0.018000,192.000000,0.000000,0.000000,0.000000,0.000000,0.000000,0.000000,0.000000,0.000000,0.000000,1647840818.557337,0.000000
97.000000,-27187.231444,-38718.228187,-9133.526282,-9669.029375,-27705.657805,25422.740033,-973.776099,-9169.557294,0.116000,0.980000,0.018000,192.000000,0.000000,0.000000,0.000000,0.000000,0.000000,0.000000,0.000000,0.000000,0.000000,1647840818.557352,0.000000
98.000000,-27189.667784,-38720.731583,-9130.374686,-9669.498762,-27702.439153,25420.616617,-981.465099,-9171.300730,0.116000,0.980000,0.018000,192.000000,0.000000,0.000000,0.000000,0.000000,0.000000,0.000000,0.000000,0.000000,0.000000,1647840818.565313,0.000000
99.000000,-27188.326679,-38718.943443,-9126.485482,-9665.587207,-27701.165104,25421.063652,-977.017102,-9171.166619,0.116000,0.980000,0.018000,192.000000,0.000000,0.000000,0.000000,0.000000,0.000000,0.000000,0.000000,0.000000,0.000000,1647840818.565329,0.000000
100.000000,-27179.073057,-38707.812274,-9114.974334,-9651.371497,-27693.632566,25431.479565,-967.696424,-9162.717660,0.116000,0.980000,0.018000,192.000000,0.000000,0.000000,0.000000,0.000000,0.000000,0.000000,0.000000,0.000000,0.000000,1647840818.571879,0.000000
101.000000,-27182.783447,-38711.522664,-9119.176462,-9656.959433,-27699.891055,25426.383367,-975.027797,-9170.406660,0.116000,0.980000,0.018000,192.000000,0.000000,0.000000,0.000000,0.000000,0.000000,0.000000,0.000000,0.000000,0.000000,1647840818.571895,0.000000
102.000000,-27196.619176,-38726.163057,-9131.760494,-9671.175143,-27706.104840,25422.069481,-977.039454,-9186.857544,0.116000,0.980000,0.018000,192.000000,0.000000,0.000000,0.000000,0.000000,0.000000,0.000000,0.000000,0.000000,0.000000,1647840818.579021,0.000000
103.000000,-27186.002098,-38715.769495,-9123.490348,-9664.670785,-27699.198151,25423.075309,-979.408739,-9181.582532,0.116000,0.980000,0.018000,192.000000,0.000000,0.000000,0.000000,0.000000,0.000000,0.000000,0.000000,0.000000,0.000000,1647840818.586992,0.000000
104.000000,-27183.029316,-38710.516836,-9118.014171,-9659.820456,-27690.168046,25427.635065,-977.330026,-9171.904227,0.116000,0.980000,0.018000,192.000000,0.000000,0.000000,0.000000,0.000000,0.000000,0.000000,0.000000,0.000000,0.000000,1647840818.587008,0.000000
105.000000,-27192.059421,-38719.144609,-9124.920860,-9667.956491,-27694.794857,25423.499992,-988.036512,-9195.574724,0.124000,0.986000,0.020000,192.000000,3.000000,224.000000,30.000000,208.000000,0.000000,160.000000,0.000000,0.000000,0.000000,1647840818.594009,0.000000
106.000000,-27186.024450,-38711.880292,-9119.399979,-9661.183913,-27696.180665,25423.499992,-998.430073,-9181.582532,0.124000,0.986000,0.020000,192.000000,0.000000,0.000000,0.000000,0.000000,0.000000,0.000000,0.000000,0.000000,0.000000,1647840818.594025,0.000000
107.000000,-27180.369458,-38705.241824,-9114.437892,-9654.970128,-27690.726839,25428.260914,-1000.665248,-9154.447514,0.124000,0.986000,0.020000,192.000000,0.000000,0.000000,0.000000,0.000000,0.000000,0.000000,0.000000,0.000000,0.000000,1647840818.601302,0.000000
108.000000,-27190.785371,-38714.495446,-9124.071494,-9662.972052,-27688.536368,25431.300751,-978.447614,-9170.496067,0.124000,0.986000,0.020000,192.000000,0.000000,0.000000,0.000000,0.000000,0.000000,0.000000,0.000000,0.000000,0.000000,1647840818.601317,0.000000
109.000000,-27184.549234,-38711.030926,-9119.511738,-9659.216959,-27692.805552,25427.947989,-971.496221,-9170.451363,0.124000,0.986000,0.020000,192.000000,0.000000,0.000000,0.000000,0.000000,0.000000,0.000000,0.000000,0.000000,0.000000,1647840818.609608,0.000000
110.000000,-27183.699868,-38711.209740,-9120.003476,-9655.551273,-27699.131095,25425.578705,-982.269762,-9166.696270,0.124000,0.986000,0.020000,192.000000,0.000000,0.000000,0.000000,0.000000,0.000000,0.000000,0.000000,0.000000,0.000000,1647840818.609624,0.000000
111.000000,-27188.013755,-38713.824894,-9122.283354,-9657.026488,-27698.885226,25429.892591,-978.268800,-9164.036413,0.124000,0.986000,0.020000,192.000000,0.000000,0.000000,0.000000,0.000000,0.000000,0.000000,0.000000,0.000000,0.000000,1647840818.617535,0.000000
112.000000,-27190.740668,-38715.098943,-9126.373723,-9660.423954,-27701.500380,25424.125841,-977.218268,-9166.830381,0.124000,0.986000,0.020000,192.000000,0.000000,0.000000,0.000000,0.000000,0.000000,0.000000,0.000000,0.000000,0.000000,1647840818.617563,0.000000
113.000000,-27181.419990,-38703.967774,-9118.550613,-9652.734953,-27701.008642,25417.532077,-981.487451,-9166.048070,0.124000,0.986000,0.020000,192.000000,0.000000,0.000000,0.000000,0.000000,0.000000,0.000000,0.000000,0.000000,0.000000,1647840818.624173,0.000000
114.000000,-27174.155673,-38692.344867,-9110.392226,-9642.095523,-27696.426534,25417.733242,-977.017102,-9170.898398,0.124000,0.986000,0.020000,192.000000,0.000000,0.000000,0.000000,0.000000,0.000000,0.000000,0.000000,0.000000,0.000000,1647840818.624189,0.000000
115.000000,-27182.783447,-38700.682068,-9116.382494,-9647.817570,-27698.080563,25422.360053,-973.172602,-9172.507724,0.124000,0.976000,0.016000,192.000000,3.000000,224.000000,30.000000,128.000000,0.000000,128.000000,0.000000,0.000000,0.000000,1647840818.632191,0.000000
116.000000,-27186.471484,-38707.164074,-9120.562270,-9654.545445,-27706.104840,25418.873181,-978.425262,-9170.294901,0.124000,0.976000,0.016000,192.000000,0.000000,0.000000,0.000000,0.000000,0.000000,0.000000,0.000000,0.000000,0.000000,1647840818.632208,0.000000
117.000000,-27182.895205,-38707.722867,-9117.187156,-9653.897244,-27705.031956,25414.313425,-983.834384,-9174.631140,0.124000,0.976000,0.016000,192.000000,0.000000,0.000000,0.000000,0.000000,0.000000,0.000000,0.000000,0.000000,0.000000,1647840818.639287,0.000000
118.000000,-27176.837883,-38704.414809,-9110.660447,-9645.448285,-27690.793895,25422.136536,-978.045282,-9172.127744,0.124000,0.976000,0.016000,192.000000,0.000000,0.000000,0.000000,0.000000,0.000000,0.000000,0.000000,0.000000,0.000000,1647840818.647390,0.000000
119.000000,-27181.352935,-38710.516836,-9116.047217,-9650.589186,-27691.866778,25419.387271,-979.028759,-9176.352224,0.124000,0.976000,0.016000,192.000000,0.000000,0.000000,0.000000,0.000000,0.000000,0.000000,0.000000,0.000000,0.000000,1647840818.647406,0.000000
120.000000,-27184.839807,-38713.981356,-9122.775092,-9656.199474,-27703.959072,25406.713832,-982.895611,-9182.968340,0.124000,0.976000,0.016000,192.000000,0.000000,0.000000,0.000000,0.000000,0.000000,0.000000,0.000000,0.000000,0.000000,1647840818.653870,0.000000
121.000000,-27186.471484,-38712.908472,-9122.998610,-9656.378288,-27705.076659,25398.801315,-986.203669,-9185.091756,0.124000,0.976000,0.016000,192.000000,0.000000,0.000000,0.000000,0.000000,0.000000,0.000000,0.000000,0.000000,0.000000,1647840818.653886,0.000000
122.000000,-27177.955470,-38701.844359,-9111.822738,-9647.348183,-27695.979499,25406.244446,-972.144422,-9165.042241,0.124000,0.976000,0.016000,192.000000,0.000000,0.000000,0.000000,0.000000,0.000000,0.000000,0.000000,0.000000,0.000000,1647840818.661785,0.000000
123.000000,-27169.730028,-38692.635440,-9103.686703,-9638.519244,-27685.943566,25418.828478,-962.443765,-9160.258968,0.124000,0.976000,0.016000,192.000000,0.000000,0.000000,0.000000,0.000000,0.000000,0.000000,0.000000,0.000000,0.000000,1647840818.661801,0.000000
124.000000,-27177.128455,-38701.352620,-9112.046255,-9645.202416,-27689.944528,25419.834306,-960.409756,-9161.533017,0.124000,0.976000,0.016000,192.000000,0.000000,0.000000,0.000000,0.000000,0.000000,0.000000,0.000000,0.000000,0.000000,1647840818.669925,0.000000
125.000000,-27185.912691,-38708.415772,-9120.606973,-9652.958471,-27702.282691,25407.920826,-982.113300,-9178.721509,0.116000,0.982000,0.018000,192.000000,3.000000,160.000000,30.000000,176.000000,0.000000,144.000000,0.000000,0.000000,0.000000,1647840818.669941,0.000000
126.000000,-27175.563833,-38693.417751,-9110.280467,-9636.418180,-27698.192322,25410.156001,-989.511727,-9184.152983,0.116000,0.982000,0.018000,192.000000,0.000000,0.000000,0.000000,0.000000,0.000000,0.000000,0.000000,0.000000,0.000000,1647840818.676990,0.000000
127.000000,-27173.440417,-38688.790940,-9104.111386,-9626.583412,-27684.580110,25424.908152,-985.957800,-9166.651567,0.116000,0.982000,0.018000,192.000000,0.000000,0.000000,0.000000,0.000000,0.000000,0.000000,0.000000,0.000000,0.000000,1647840818.677006,0.000000
128.000000,-27180.436513,-38698.245728,-9110.794557,-9635.635869,-27682.724915,25427.120975,-984.706102,-9174.519381,0.116000,0.982000,0.018000,192.000000,0.000000,0.000000,0.000000,0.000000,0.000000,0.000000,0.000000,0.000000,0.000000,1647840818.684287,0.000000
129.000000,-27186.359726,-38702.604318,-9115.734293,-9641.022639,-27692.649089,25417.241504,-996.708989,-9192.512535,0.116000,0.982000,0.018000,192.000000,0.000000,0.000000,0.000000,0.000000,0.000000,0.000000,0.000000,0.000000,0.000000,1647840818.684321,0.000000
130.000000,-27199.636662,-38713.869597,-9125.636116,-9651.595015,-27706.171895,25410.692443,-1002.453387,-9203.062559,0.116000,0.982000,0.018000,192.000000,0.000000,0.000000,0.000000,0.000000,0.000000,0.000000,0.000000,0.000000,0.000000,1647840818.692480,0.000000
131.000000,-27199.100220,-38713.154341,-9130.240575,-9653.293747,-27707.691813,25407.965530,-1008.309544,-9216.339495,0.116000,0.982000,0.018000,192.000000,0.000000,0.000000,0.000000,0.000000,0.000000,0.000000,0.000000,0.000000,0.000000,1647840818.692497,0.000000
132.000000,-27200.016642,-38713.087286,-9133.772151,-9653.137285,-27704.182590,25403.562236,-1007.996620,-9223.872033,0.116000,0.982000,0.018000,192.000000,0.000000,0.000000,0.000000,0.000000,0.000000,0.000000,0.000000,0.000000,0.000000,1647840818.699275,0.000000
133.000000,-27200.351918,-38712.036754,-9134.688572,-9651.617366,-27698.795819,25406.087983,-1001.604021,-9179.615579,0.116000,0.982000,0.018000,192.000000,0.000000,0.000000,0.000000,0.000000,0.000000,0.000000,0.000000,0.000000,0.000000,1647840818.699285,0.000000
134.000000,-27199.636662,-38708.214606,-9138.801293,-9646.722334,-27695.845389,25412.324120,-994.362056,-9145.059782,0.116000,0.982000,0.018000,192.000000,0.000000,0.000000,0.000000,0.000000,0.000000,0.000000,0.000000,0.000000,0.000000,1647840818.706768,0.000000
135.000000,-27195.568644,-38703.408981,-9143.830436,-9639.837997,-27702.953244,25409.194876,-999.257088,-9173.580608,0.132000,0.976000,0.024000,192.000000,4.000000,32.000000,30.000000,128.000000,0.000000,192.000000,0.000000,0.000000,0.000000,1647840818.714197,0.000000
136.000000,-27201.625967,-38710.785056,-9158.247311,-9646.699982,-27704.875494,25409.932483,-989.668189,-9176.799259,0.132000,0.976000,0.024000,192.000000,0.000000,0.000000,0.000000,0.000000,0.000000,0.000000,0.000000,0.000000,0.000000,1647840818.714213,0.000000
137.000000,-27202.877665,-38714.428391,-9164.751669,-9651.639718,-27704.339052,25411.050071,-988.215326,-9157.129724,0.132000,0.976000,0.024000,192.000000,0.000000,0.000000,0.000000,0.000000,0.000000,0.000000,0.000000,0.000000,0.000000,1647840818.722127,0.000000
138.000000,-27191.701793,-38704.235995,-9157.599110,-9642.855482,-27703.623796,25407.339681,-988.483547,-9155.229825,0.132000,0.976000,0.024000,192.000000,0.000000,0.000000,0.000000,0.000000,0.000000,0.000000,0.000000,0.000000,0.000000,1647840818.722143,0.000000
139.000000,-27199.547255,-38711.567368,-9167.813858,-9649.717468,-27705.769563,25402.668166,-995.256125,-9169.937273,0.132000,0.976000,0.024000,192.000000,0.000000,0.000000,0.000000,0.000000,0.000000,0.000000,0.000000,0.000000,0.000000,1647840818.729347,0.000000
140.000000,-27198.519075,-38711.366202,-9168.350299,-9651.282090,-27703.288520,25407.898475,-984.996675,-9140.768247,0.132000,0.976000,0.024000,192.000000,0.000000,0.000000,0.000000,0.000000,0.000000,0.000000,0.000000,0.000000,0.000000,1647840818.729363,0.000000
141.000000,-27196.842694,-38712.573196,-9168.372651,-9653.226692,-27709.703470,25396.633195,-983.454404,-9164.014061,0.132000,0.976000,0.024000,192.000000,0.000000,0.000000,0.000000,0.000000,0.000000,0.000000,0.000000,0.000000,0.000000,1647840818.736810,0.000000
142.000000,-27191.612386,-38707.856978,-9164.349337,-9649.002212,-27705.680156,25391.984033,-983.633218,-9165.265759,0.132000,0.976000,0.024000,192.000000,0.000000,0.000000,0.000000,0.000000,0.000000,0.000000,0.000000,0.000000,0.000000,1647840818.736826,0.000000
143.000000,-27181.129418,-38697.955155,-9155.073363,-9636.753456,-27695.286595,25399.717736,-974.960741,-9157.219131,0.132000,0.976000,0.024000,192.000000,0.000000,0.000000,0.000000,0.000000,0.000000,0.000000,0.000000,0.000000,0.000000,1647840818.744846,0.000000
144.000000,-27189.131342,-38706.493522,-9163.209398,-9643.235462,-27700.382793,25397.415507,-978.089986,-9154.425163,0.132000,0.976000,0.024000,192.000000,0.000000,0.000000,0.000000,0.000000,0.000000,0.000000,0.000000,0.000000,0.000000,1647840818.744862,0.000000
145.000000,-27187.343203,-38701.643193,-9162.292977,-9637.736933,-27703.400278,25390.978204,-988.595306,-9155.520398,0.134000,0.972000,0.030000,192.000000,4.000000,48.000000,30.000000,96.000000,0.000000,240.000000,0.000000,0.000000,0.000000,1647840818.752791,0.000000
146.000000,-27186.292671,-38696.122312,-9160.840113,-9629.735008,-27703.444982,25390.665280,-983.186183,-9157.263834,0.134000,0.972000,0.030000,192.000000,0.000000,0.000000,0.000000,0.000000,0.000000,0.000000,0.000000,0.000000,0.000000,1647840818.752807,0.000000
147.000000,-27178.201339,-38688.388609,-9155.967433,-9620.503738,-27692.626738,25402.668166,-970.110413,-9151.720602,0.134000,0.972000,0.030000,192.000000,0.000000,0.000000,0.000000,0.000000,0.000000,0.000000,0.000000,0.000000,0.000000,1647840818.759388,0.000000
148.000000,-27178.916595,-38690.601431,-9156.436820,-9623.632982,-27692.112648,25400.589454,-972.926733,-9155.855674,0.134000,0.972000,0.030000,192.000000,0.000000,0.000000,0.000000,0.000000,0.000000,0.000000,0.000000,0.000000,0.000000,1647840818.759404,0.000000
149.000000,-27187.477313,-38700.816178,-9160.460134,-9634.205357,-27698.639357,25393.347489,-977.844116,-9168.193837,0.134000,0.972000,0.030000,192.000000,0.000000,0.000000,0.000000,0.000000,0.000000,0.000000,0.000000,0.000000,0.000000,1647840818.766531,0.000000
150.000000,-27184.549234,-38697.597527,-9157.532055,-9627.768055,-27701.768601,25391.939329,-981.152175,-9168.395003,0.134000,0.972000,0.030000,192.000000,0.000000,0.000000,0.000000,0.000000,0.000000,0.000000,0.000000,0.000000,0.000000,1647840818.774408,0.000000
151.000000,-27175.519130,-38688.746236,-9148.904282,-9616.033389,-27697.208845,25397.124934,-979.766366,-9171.099564,0.134000,0.972000,0.030000,192.000000,0.000000,0.000000,0.000000,0.000000,0.000000,0.000000,0.000000,0.000000,0.000000,1647840818.774424,0.000000
152.000000,-27179.989479,-38693.149530,-9152.033526,-9615.966334,-27693.498456,25398.153114,-976.458308,-9170.496067,0.134000,0.972000,0.030000,192.000000,0.000000,0.000000,0.000000,0.000000,0.000000,0.000000,0.000000,0.000000,0.000000,1647840818.782535,0.000000
153.000000,-27176.390848,-38689.886175,-9150.603014,-9612.054779,-27692.179703,25399.225998,-981.509803,-9169.624349,0.134000,0.972000,0.030000,192.000000,0.000000,0.000000,0.000000,0.000000,0.000000,0.000000,0.000000,0.000000,0.000000,1647840818.782551,0.000000
154.000000,-27183.431647,-38696.748161,-9158.381421,-9620.839014,-27700.874531,25395.225036,-989.064692,-9184.197686,0.134000,0.972000,0.030000,192.000000,0.000000,0.000000,0.000000,0.000000,0.000000,0.000000,0.000000,0.000000,0.000000,1647840818.789058,0.000000
155.000000,-27194.831037,-38707.409943,-9169.713756,-9634.361820,-27715.850200,25387.625442,-989.869355,-9187.036358,0.128000,0.982000,0.034000,192.000000,4.000000,0.000000,30.000000,176.000000,1.000000,16.000000,0.000000,0.000000,0.000000,1647840818.789074,0.000000
156.000000,-27176.994345,-38688.992106,-9152.905244,-9616.525127,-27706.328357,25396.409678,-970.065709,-9165.824552,0.128000,0.982000,0.034000,192.000000,0.000000,0.000000,0.000000,0.000000,0.000000,0.000000,0.000000,0.000000,0.000000,1647840818.796949,0.000000
157.000000,-27185.443304,-38696.323478,-9157.241482,-9621.956601,-27703.154409,25400.432992,-968.858715,-9159.946043,0.128000,0.982000,0.034000,192.000000,0.000000,0.000000,0.000000,0.000000,0.000000,0.000000,0.000000,0.000000,0.000000,1647840818.796964,0.000000
