%OpenBCI Raw EEG Data
%Number of channels = 8
%Sample Rate = 256 Hz
%Board = OpenBCI_GUI$BoardCytonSerial
%Channels = Fp1, Fp2, F3, F4, Fz, Pz, O1, O2
%Data recorded at AIMS Lab (http://aimsl.uiu.ac.bd) by Rana Depto (mail@ranadepto.com)
%Brainwaves were obtained via the Ultracortex Mark IV Headset using the OpenBCI Cyton Board
%Recording Application = ConcentrateToday (https://concentrate.today)
%Data type = RAW data with noise
%Day No = 9
%Subject ID = 5
%Session ID = 7
%Record starting timestamp (UTC+6) = 2022-03-29T14:37:45.344067
%Record ending timestamp (UTC+6)   = 2022-03-29T14:38:11.188502
%Recorded durations = ~25 seconds
Sample Index, EXG Channel 0, EXG Channel 1, EXG Channel 2, EXG Channel 3, EXG Channel 4, EXG Channel 5, EXG Channel 6, EXG Channel 7, Accel Channel 0, Accel Channel 1, Accel Channel 2, Other, Other, Other, Other, Other, Other, Other, Analog Channel 0, Analog Channel 1, Analog Channel 2, Timestamp, Timestamp (Formatted)
221.000000,-16489.887713,-20684.393726,-4042.178874,-27027.438823,4799.388921,-18047.290212,-60000.620484,-40283.006761,-0.064000,0.936000,0.290000,192.000000,0.000000,0.000000,0.000000,0.000000,0.000000,0.000000,0.000000,0.000000,0.000000,1648543065.350015,0.000000
222.000000,-16487.987815,-20681.532703,-4039.295499,-27024.264875,4803.501642,-18043.982153,-59979.811010,-40270.176860,-0.064000,0.936000,0.290000,192.000000,0.000000,0.000000,0.000000,0.000000,0.000000,0.000000,0.000000,0.000000,0.000000,1648543065.350021,0.000000
223.000000,-16492.413460,-20689.489924,-4046.269244,-27030.009273,4796.952581,-18046.664363,-59960.901435,-40270.445081,-0.068000,0.938000,0.288000,192.000000,253.000000,224.000000,29.000000,80.000000,9.000000,0.000000,0.000000,0.000000,0.000000,1648543065.358030,0.000000
224.000000,-16497.532010,-20695.636653,-4054.919369,-27035.351340,4791.051721,-18047.849005,-59971.116182,-40276.502404,-0.068000,0.938000,0.288000,192.000000,0.000000,0.000000,0.000000,0.000000,0.000000,0.000000,0.000000,0.000000,0.000000,1648543065.358035,0.000000
225.000000,-16491.608798,-20689.624034,-4052.617139,-27025.807145,4796.706712,-18044.049209,-59980.347452,-40267.829927,-0.068000,0.938000,0.288000,192.000000,0.000000,0.000000,0.000000,0.000000,0.000000,0.000000,0.000000,0.000000,0.000000,1648543065.366043,0.000000
226.000000,-16497.330844,-20693.043851,-4057.445116,-27028.355244,4786.760186,-18047.670191,-59988.930522,-40284.034942,-0.068000,0.938000,0.288000,192.000000,0.000000,0.000000,0.000000,0.000000,0.000000,0.000000,0.000000,0.000000,0.000000,1648543065.366047,0.000000
227.000000,-16473.816809,-20672.994336,-4028.879586,-27012.887837,4803.903974,-18028.224174,-59953.435952,-40243.555932,-0.068000,0.938000,0.288000,192.000000,0.000000,0.000000,0.000000,0.000000,0.000000,0.000000,0.000000,0.000000,0.000000,1648543065.373232,0.000000
228.000000,-16478.711841,-20676.861188,-4038.557892,-27013.692500,4803.009904,-18027.128938,-59940.315478,-40257.257552,-0.068000,0.938000,0.288000,192.000000,0.000000,0.000000,0.000000,0.000000,0.000000,0.000000,0.000000,0.000000,0.000000,1648543065.373237,0.000000
229.000000,-16499.543667,-20694.764935,-4056.193418,-27032.065634,4785.977875,-18044.697409,-60004.129708,-40314.053334,-0.068000,0.938000,0.288000,192.000000,0.000000,0.000000,0.000000,0.000000,0.000000,0.000000,0.000000,0.000000,0.000000,1648543065.381253,0.000000
230.000000,-16487.406670,-20685.332499,-4043.318813,-27027.215305,4797.891354,-18039.601212,-59996.306598,-40282.358561,-0.068000,0.938000,0.288000,192.000000,0.000000,0.000000,0.000000,0.000000,0.000000,0.000000,0.000000,0.000000,0.000000,1648543065.381257,0.000000
231.000000,-16493.396937,-20692.172133,-4051.745421,-27028.489355,4796.170270,-18035.644953,-59958.219225,-40275.787148,-0.068000,0.938000,0.288000,192.000000,0.000000,0.000000,0.000000,0.000000,0.000000,0.000000,0.000000,0.000000,0.000000,1648543065.387709,0.000000
232.000000,-16499.498963,-20699.972892,-4057.422764,-27040.268724,4783.563886,-18049.346572,-59974.066612,-40290.919279,-0.068000,0.938000,0.288000,192.000000,0.000000,0.000000,0.000000,0.000000,0.000000,0.000000,0.000000,0.000000,0.000000,1648543065.387714,0.000000
233.000000,-16487.071393,-20685.913645,-4041.731839,-27028.936390,4793.890392,-18047.558433,-59989.444612,-40287.320648,-0.072000,0.946000,0.284000,192.000000,253.000000,192.000000,29.000000,144.000000,8.000000,224.000000,0.000000,0.000000,0.000000,1648543065.395720,0.000000
234.000000,-16481.930492,-20680.973909,-4034.847502,-27015.435936,4808.508433,-18035.287325,-59969.372746,-40286.650096,-0.072000,0.946000,0.284000,192.000000,0.000000,0.000000,0.000000,0.000000,0.000000,0.000000,0.000000,0.000000,0.000000,1648543065.402926,0.000000
235.000000,-16490.871190,-20692.865037,-4048.817342,-27027.639988,4794.695055,-18051.090008,-59960.946138,-40301.849282,-0.072000,0.946000,0.284000,192.000000,0.000000,0.000000,0.000000,0.000000,0.000000,0.000000,0.000000,0.000000,0.000000,1648543065.402938,0.000000
236.000000,-16484.344481,-20680.929206,-4047.364479,-27026.231828,4797.667837,-18057.616718,-59938.661449,-40253.413052,-0.072000,0.946000,0.284000,192.000000,0.000000,0.000000,0.000000,0.000000,0.000000,0.000000,0.000000,0.000000,0.000000,1648543065.410283,0.000000
237.000000,-16502.158821,-20698.587084,-4060.574360,-27041.363959,4787.654255,-18055.582709,-59957.928653,-40286.203061,-0.072000,0.946000,0.284000,192.000000,0.000000,0.000000,0.000000,0.000000,0.000000,0.000000,0.000000,0.000000,0.000000,1648543065.410287,0.000000
238.000000,-16499.387205,-20700.509334,-4053.511209,-27046.907192,4787.162517,-18058.600194,-60019.664171,-40311.348773,-0.072000,0.946000,0.284000,192.000000,0.000000,0.000000,0.000000,0.000000,0.000000,0.000000,0.000000,0.000000,0.000000,1648543065.418378,0.000000
239.000000,-16490.111231,-20690.741621,-4040.547197,-27034.747843,4796.460843,-18052.006430,-60004.666150,-40291.790997,-0.072000,0.946000,0.284000,192.000000,0.000000,0.000000,0.000000,0.000000,0.000000,0.000000,0.000000,0.000000,0.000000,1648543065.418382,0.000000
240.000000,-16489.731251,-20684.125505,-4036.099200,-27032.915000,4796.930229,-18051.469988,-59988.550542,-40288.371180,-0.072000,0.946000,0.284000,192.000000,0.000000,0.000000,0.000000,0.000000,0.000000,0.000000,0.000000,0.000000,0.000000,1648543065.426379,0.000000
241.000000,-16495.810925,-20690.808677,-4041.463618,-27036.670093,4796.729064,-18043.535119,-59990.606903,-40296.104884,-0.072000,0.946000,0.284000,192.000000,0.000000,0.000000,0.000000,0.000000,0.000000,0.000000,0.000000,0.000000,0.000000,1648543065.426405,0.000000
242.000000,-16485.529123,-20680.549226,-4037.283842,-27037.921791,4793.152784,-18056.812055,-59971.116182,-40272.635552,-0.072000,0.946000,0.284000,192.000000,0.000000,0.000000,0.000000,0.000000,0.000000,0.000000,0.000000,0.000000,0.000000,1648543065.432927,0.000000
243.000000,-16482.086954,-20675.587139,-4034.512226,-27018.431070,4809.156634,-18036.561374,-59954.441780,-40253.167183,-0.070000,0.942000,0.278000,192.000000,253.000000,208.000000,29.000000,112.000000,8.000000,176.000000,0.000000,0.000000,0.000000,1648543065.432931,0.000000
244.000000,-16499.253094,-20693.356775,-4048.660880,-27030.903343,4800.126529,-18035.890822,-59953.435952,-40276.524756,-0.070000,0.942000,0.278000,192.000000,0.000000,0.000000,0.000000,0.000000,0.000000,0.000000,0.000000,0.000000,0.000000,1648543065.440943,0.000000
245.000000,-16498.157859,-20692.328595,-4043.184703,-27032.915000,4793.599819,-18039.265935,-59972.122010,-40292.841529,-0.070000,0.942000,0.278000,192.000000,0.000000,0.000000,0.000000,0.000000,0.000000,0.000000,0.000000,0.000000,0.000000,1648543065.440948,0.000000
246.000000,-16480.187056,-20670.356830,-4024.208072,-27021.157982,4803.345180,-18035.242621,-59943.064742,-40256.028206,-0.070000,0.942000,0.278000,192.000000,0.000000,0.000000,0.000000,0.000000,0.000000,0.000000,0.000000,0.000000,0.000000,1648543065.448907,0.000000
247.000000,-16477.773068,-20670.312127,-4021.592918,-27022.499087,4807.100273,-18034.840290,-59947.468036,-40250.552028,-0.070000,0.942000,0.278000,192.000000,0.000000,0.000000,0.000000,0.000000,0.000000,0.000000,0.000000,0.000000,0.000000,1648543065.448911,0.000000
248.000000,-16506.405652,-20702.811563,-4053.600616,-27046.326047,4785.933171,-18049.055999,-59985.689519,-40279.430482,-0.070000,0.942000,0.278000,192.000000,0.000000,0.000000,0.000000,0.000000,0.000000,0.000000,0.000000,0.000000,0.000000,1648543065.455153,0.000000
249.000000,-16508.573772,-20706.745470,-4051.901883,-27050.103492,4781.082842,-18056.946165,-59994.987845,-40302.162206,-0.070000,0.942000,0.278000,192.000000,0.000000,0.000000,0.000000,0.000000,0.000000,0.000000,0.000000,0.000000,0.000000,1648543065.462530,0.000000
250.000000,-16508.529068,-20700.486982,-4053.153581,-27043.643837,4781.976912,-18050.017124,-59985.801278,-40296.551919,-0.070000,0.942000,0.278000,192.000000,0.000000,0.000000,0.000000,0.000000,0.000000,0.000000,0.000000,0.000000,0.000000,1648543065.462533,0.000000
251.000000,-16494.626283,-20682.113848,-4042.022412,-27034.144346,4789.956485,-18048.653668,-59967.808124,-40285.040770,-0.070000,0.942000,0.278000,192.000000,0.000000,0.000000,0.000000,0.000000,0.000000,0.000000,0.000000,0.000000,0.000000,1648543065.470579,0.000000
252.000000,-16490.088879,-20670.356830,-4036.859159,-27022.722605,4801.959372,-18037.276630,-59925.384513,-40243.377119,-0.070000,0.942000,0.278000,192.000000,0.000000,0.000000,0.000000,0.000000,0.000000,0.000000,0.000000,0.000000,0.000000,1648543065.470583,0.000000
253.000000,-16507.523240,-20694.161438,-4055.209941,-27038.525288,4787.698959,-18048.094874,-59945.858711,-40280.235145,-0.064000,0.942000,0.286000,192.000000,254.000000,0.000000,29.000000,112.000000,8.000000,240.000000,0.000000,0.000000,0.000000,1648543065.478647,0.000000
254.000000,-16514.675798,-20708.310092,-4059.903808,-27050.014085,4781.485174,-18054.666287,-60008.912982,-40285.934840,-0.064000,0.942000,0.286000,192.000000,0.000000,0.000000,0.000000,0.000000,0.000000,0.000000,0.000000,0.000000,0.000000,1648543065.478651,0.000000
255.000000,-16506.182135,-20700.285816,-4054.829962,-27052.159852,4778.914723,-18064.612814,-59990.115165,-40254.955322,-0.064000,0.942000,0.286000,192.000000,0.000000,0.000000,0.000000,0.000000,0.000000,0.000000,0.000000,0.000000,0.000000,1648543065.485206,0.000000
0.000000,-16504.349292,-20695.368432,-4052.795953,-27041.453366,4784.815584,-18054.375715,-59977.173504,-40265.706511,-0.064000,0.942000,0.286000,192.000000,0.000000,0.000000,0.000000,0.000000,0.000000,0.000000,0.000000,0.000000,0.000000,1648543065.485210,0.000000
1.000000,-16503.119946,-20694.407307,-4059.814401,-27040.224021,4785.732005,-18049.905366,-59963.695403,-40265.482994,-0.064000,0.942000,0.286000,192.000000,0.000000,0.000000,0.000000,0.000000,0.000000,0.000000,0.000000,0.000000,0.000000,1648543065.493247,0.000000
2.000000,-16494.603931,-20690.942787,-4047.498589,-27038.234715,4794.002151,-18046.843177,-59952.161902,-40257.838697,-0.064000,0.942000,0.286000,192.000000,0.000000,0.000000,0.000000,0.000000,0.000000,0.000000,0.000000,0.000000,0.000000,1648543065.493251,0.000000
3.000000,-16502.561152,-20695.748412,-4046.001023,-27041.453366,4794.158613,-18045.703238,-59961.773153,-40269.573363,-0.064000,0.942000,0.286000,192.000000,0.000000,0.000000,0.000000,0.000000,0.000000,0.000000,0.000000,0.000000,0.000000,1648543065.501135,0.000000
4.000000,-16502.404690,-20701.895142,-4053.287691,-27044.470852,4790.336465,-18046.440845,-59972.390231,-40274.423692,-0.064000,0.942000,0.286000,192.000000,0.000000,0.000000,0.000000,0.000000,0.000000,0.000000,0.000000,0.000000,0.000000,1648543065.501139,0.000000
5.000000,-16490.312396,-20689.646386,-4044.391697,-27035.306637,4795.477366,-18047.558433,-59949.077362,-40262.465508,-0.064000,0.942000,0.286000,192.000000,0.000000,0.000000,0.000000,0.000000,0.000000,0.000000,0.000000,0.000000,0.000000,1648543065.508354,0.000000
6.000000,-16493.329882,-20690.026366,-4040.100162,-27033.250276,4801.244116,-18037.388389,-59921.450606,-40258.196325,-0.064000,0.942000,0.286000,192.000000,0.000000,0.000000,0.000000,0.000000,0.000000,0.000000,0.000000,0.000000,0.000000,1648543065.508357,0.000000
7.000000,-16513.044120,-20707.572485,-4056.528694,-27049.902326,4785.620247,-18052.632279,-59971.362051,-40283.029113,-0.064000,0.950000,0.290000,192.000000,254.000000,0.000000,29.000000,176.000000,9.000000,16.000000,0.000000,0.000000,0.000000,1648543065.514904,0.000000
8.000000,-16504.773975,-20707.907761,-4051.298386,-27049.656457,4784.167383,-18056.722648,-59990.070461,-40273.373160,-0.064000,0.950000,0.290000,192.000000,0.000000,0.000000,0.000000,0.000000,0.000000,0.000000,0.000000,0.000000,0.000000,1648543065.522828,0.000000
9.000000,-16491.586446,-20694.966101,-4036.814456,-27033.004407,4803.591049,-18041.098778,-59950.664336,-40259.090395,-0.064000,0.950000,0.290000,192.000000,0.000000,0.000000,0.000000,0.000000,0.000000,0.000000,0.000000,0.000000,0.000000,1648543065.522832,0.000000
10.000000,-16500.527144,-20698.855305,-4045.352822,-27036.312465,4795.924401,-18046.463197,-59955.626423,-40258.173973,-0.064000,0.950000,0.290000,192.000000,0.000000,0.000000,0.000000,0.000000,0.000000,0.000000,0.000000,0.000000,0.000000,1648543065.530906,0.000000
11.000000,-16499.141335,-20698.520028,-4035.339240,-27038.502936,4798.696017,-18043.669229,-59969.417449,-40264.544221,-0.064000,0.950000,0.290000,192.000000,0.000000,0.000000,0.000000,0.000000,0.000000,0.000000,0.000000,0.000000,0.000000,1648543065.530910,0.000000
12.000000,-16500.437737,-20697.447145,-4036.725049,-27037.318294,4807.770825,-18037.388389,-59961.259062,-40258.956284,-0.064000,0.950000,0.290000,192.000000,0.000000,0.000000,0.000000,0.000000,0.000000,0.000000,0.000000,0.000000,0.000000,1648543065.538067,0.000000
13.000000,-16495.162725,-20690.316938,-4035.205130,-27027.774099,4815.415122,-18034.102682,-59930.748931,-40274.915430,-0.064000,0.950000,0.290000,192.000000,0.000000,0.000000,0.000000,0.000000,0.000000,0.000000,0.000000,0.000000,0.000000,1648543065.538071,0.000000
14.000000,-16487.674890,-20687.545322,-4032.813493,-27030.657474,4811.190642,-18036.427264,-59924.557498,-40245.902866,-0.064000,0.950000,0.290000,192.000000,0.000000,0.000000,0.000000,0.000000,0.000000,0.000000,0.000000,0.000000,0.000000,1648543065.545482,0.000000
15.000000,-16512.373568,-20712.512220,-4053.466505,-27056.831367,4788.481270,-18054.576880,-59957.481618,-40282.224450,-0.064000,0.950000,0.290000,192.000000,0.000000,0.000000,0.000000,0.000000,0.000000,0.000000,0.000000,0.000000,0.000000,1648543065.545486,0.000000
16.000000,-16506.562115,-20709.807659,-4044.592863,-27056.183166,4784.972046,-18064.478703,-59970.892664,-40289.756988,-0.064000,0.950000,0.290000,192.000000,0.000000,0.000000,0.000000,0.000000,0.000000,0.000000,0.000000,0.000000,0.000000,1648543065.553443,0.000000
17.000000,-16498.649597,-20709.673549,-4040.726011,-27039.866393,4796.751415,-18050.687677,-59979.922769,-40262.621970,-0.074000,0.946000,0.300000,192.000000,253.000000,176.000000,29.000000,144.000000,9.000000,96.000000,0.000000,0.000000,0.000000,1648543065.553476,0.000000
18.000000,-16501.532972,-20712.333406,-4048.772639,-27035.887782,4802.898145,-18039.914136,-59965.729411,-40248.652130,-0.074000,0.946000,0.300000,192.000000,0.000000,0.000000,0.000000,0.000000,0.000000,0.000000,0.000000,0.000000,0.000000,1648543065.561465,0.000000
19.000000,-16494.894504,-20706.968988,-4038.736706,-27044.381445,4797.936058,-18053.034610,-59955.961699,-40253.435404,-0.074000,0.946000,0.300000,192.000000,0.000000,0.000000,0.000000,0.000000,0.000000,0.000000,0.000000,0.000000,0.000000,1648543065.561469,0.000000
20.000000,-16486.333786,-20697.581255,-4015.625002,-27028.042320,4810.676552,-18045.569127,-59941.030734,-40259.045691,-0.074000,0.946000,0.300000,192.000000,0.000000,0.000000,0.000000,0.000000,0.000000,0.000000,0.000000,0.000000,0.000000,1648543065.568125,0.000000
21.000000,-16508.596123,-20718.837764,-4037.350897,-27032.780890,4802.115834,-18041.635220,-59959.605033,-40281.688009,-0.074000,0.946000,0.300000,192.000000,0.000000,0.000000,0.000000,0.000000,0.000000,0.000000,0.000000,0.000000,0.000000,1648543065.568129,0.000000
22.000000,-16511.658312,-20717.809584,-4050.739592,-27041.319256,4792.281066,-18053.638107,-59967.271682,-40292.170977,-0.074000,0.946000,0.300000,192.000000,0.000000,0.000000,0.000000,0.000000,0.000000,0.000000,0.000000,0.000000,0.000000,1648543065.575114,0.000000
23.000000,-16485.886751,-20693.736755,-4026.376191,-27021.962645,4807.971991,-18048.005467,-59942.997687,-40247.936874,-0.074000,0.946000,0.300000,192.000000,0.000000,0.000000,0.000000,0.000000,0.000000,0.000000,0.000000,0.000000,0.000000,1648543065.583146,0.000000
24.000000,-16481.371699,-20690.562807,-4019.938889,-27014.899494,4815.884509,-18036.762540,-59929.206661,-40242.572456,-0.074000,0.946000,0.300000,192.000000,0.000000,0.000000,0.000000,0.000000,0.000000,0.000000,0.000000,0.000000,0.000000,1648543065.583150,0.000000
25.000000,-16482.981024,-20691.836857,-4022.442284,-27013.066651,4814.901032,-18037.120168,-59921.919992,-40242.147773,-0.074000,0.946000,0.300000,192.000000,0.000000,0.000000,0.000000,0.000000,0.000000,0.000000,0.000000,0.000000,0.000000,1648543065.591165,0.000000
26.000000,-16496.950864,-20705.650235,-4028.857235,-27027.260009,4804.976857,-18047.804302,-59926.256231,-40257.481069,-0.074000,0.946000,0.300000,192.000000,0.000000,0.000000,0.000000,0.000000,0.000000,0.000000,0.000000,0.000000,0.000000,1648543065.591169,0.000000
27.000000,-16493.106364,-20703.370357,-4025.370362,-27027.327064,4804.082788,-18048.676020,-59933.162920,-40280.659828,-0.074000,0.934000,0.308000,192.000000,253.000000,176.000000,29.000000,48.000000,9.000000,160.000000,0.000000,0.000000,0.000000,1648543065.597812,0.000000
28.000000,-16502.382338,-20711.707558,-4032.701735,-27025.740090,4803.032256,-18040.495281,-59960.655565,-40278.469357,-0.074000,0.934000,0.308000,192.000000,0.000000,0.000000,0.000000,0.000000,0.000000,0.000000,0.000000,0.000000,0.000000,1648543065.597817,0.000000
29.000000,-16494.291007,-20700.196409,-4031.181816,-27023.862544,4806.027389,-18035.667304,-59943.109446,-40265.393587,-0.074000,0.934000,0.308000,192.000000,0.000000,0.000000,0.000000,0.000000,0.000000,0.000000,0.000000,0.000000,0.000000,1648543065.605743,0.000000
30.000000,-16490.401803,-20700.777555,-4023.112836,-27023.035529,4806.116796,-18036.181395,-59932.894699,-40266.757043,-0.074000,0.934000,0.308000,192.000000,0.000000,0.000000,0.000000,0.000000,0.000000,0.000000,0.000000,0.000000,0.000000,1648543065.605748,0.000000
31.000000,-16490.982949,-20706.298435,-4024.141017,-27027.550581,4800.439453,-18046.664363,-59944.048219,-40271.160337,-0.074000,0.934000,0.308000,192.000000,0.000000,0.000000,0.000000,0.000000,0.000000,0.000000,0.000000,0.000000,0.000000,1648543065.613748,0.000000
32.000000,-16491.787611,-20705.627883,-4022.554043,-27021.359148,4805.267430,-18039.891784,-59936.470978,-40265.348883,-0.074000,0.934000,0.308000,192.000000,0.000000,0.000000,0.000000,0.000000,0.000000,0.000000,0.000000,0.000000,0.000000,1648543065.613752,0.000000
33.000000,-16492.167591,-20705.918456,-4022.598746,-27017.916980,4810.810663,-18035.108511,-59926.278582,-40263.739558,-0.074000,0.934000,0.308000,192.000000,0.000000,0.000000,0.000000,0.000000,0.000000,0.000000,0.000000,0.000000,0.000000,1648543065.620361,0.000000
34.000000,-16511.255981,-20725.029197,-4044.883435,-27037.631218,4794.180965,-18046.753770,-59958.062763,-40283.453796,-0.074000,0.934000,0.308000,192.000000,0.000000,0.000000,0.000000,0.000000,0.000000,0.000000,0.000000,0.000000,0.000000,1648543065.620365,0.000000
35.000000,-16509.579600,-20720.380034,-4035.026316,-27037.027721,4797.243154,-18049.011296,-59956.386382,-40281.889174,-0.074000,0.934000,0.308000,192.000000,0.000000,0.000000,0.000000,0.000000,0.000000,0.000000,0.000000,0.000000,0.000000,1648543065.628907,0.000000
36.000000,-16501.220048,-20710.254694,-4031.003002,-27035.083119,4799.433625,-18050.285345,-59935.532205,-40266.555878,-0.074000,0.934000,0.308000,192.000000,0.000000,0.000000,0.000000,0.000000,0.000000,0.000000,0.000000,0.000000,0.000000,1648543065.628911,0.000000
37.000000,-16508.506716,-20720.134165,-4040.256624,-27040.648704,4796.594953,-18055.046267,-59925.831547,-40302.363372,-0.074000,0.930000,0.304000,192.000000,253.000000,176.000000,29.000000,16.000000,9.000000,128.000000,0.000000,0.000000,0.000000,1648543065.635458,0.000000
38.000000,-16503.008187,-20713.450994,-4028.700772,-27040.291076,4797.265505,-18058.220215,-59945.992821,-40260.386796,-0.074000,0.930000,0.304000,192.000000,0.000000,0.000000,0.000000,0.000000,0.000000,0.000000,0.000000,0.000000,0.000000,1648543065.635462,0.000000
39.000000,-16502.605856,-20708.153630,-4028.991345,-27028.645817,4803.702808,-18049.167758,-59953.815932,-40250.306159,-0.074000,0.930000,0.304000,192.000000,0.000000,0.000000,0.000000,0.000000,0.000000,0.000000,0.000000,0.000000,0.000000,1648543065.643459,0.000000
40.000000,-16503.052891,-20710.366453,-4031.315926,-27023.907247,4805.312133,-18050.754732,-59951.647812,-40267.896982,-0.074000,0.930000,0.304000,192.000000,0.000000,0.000000,0.000000,0.000000,0.000000,0.000000,0.000000,0.000000,0.000000,1648543065.649959,0.000000
41.000000,-16478.935358,-20687.232397,-4012.540461,-27010.362090,4815.728046,-18046.731418,-59910.453547,-40252.854258,-0.074000,0.930000,0.304000,192.000000,0.000000,0.000000,0.000000,0.000000,0.000000,0.000000,0.000000,0.000000,0.000000,1648543065.649962,0.000000
42.000000,-16499.364853,-20708.645369,-4035.763924,-27029.383424,4798.673665,-18059.427209,-59926.524452,-40263.024302,-0.074000,0.930000,0.304000,192.000000,0.000000,0.000000,0.000000,0.000000,0.000000,0.000000,0.000000,0.000000,0.000000,1648543065.657974,0.000000
43.000000,-16479.985890,-20691.211008,-4017.301383,-27019.034567,4813.001134,-18056.923813,-59964.701231,-40265.684159,-0.074000,0.930000,0.304000,192.000000,0.000000,0.000000,0.000000,0.000000,0.000000,0.000000,0.000000,0.000000,0.000000,1648543065.658004,0.000000
44.000000,-16486.043213,-20691.032194,-4024.476293,-27017.358186,4814.074017,-18047.938412,-59962.756629,-40288.572346,-0.074000,0.930000,0.304000,192.000000,0.000000,0.000000,0.000000,0.000000,0.000000,0.000000,0.000000,0.000000,0.000000,1648543065.666020,0.000000
45.000000,-16503.812850,-20706.812526,-4035.316889,-27024.376634,4802.965200,-18054.196901,-59969.417449,-40310.275890,-0.074000,0.930000,0.304000,192.000000,0.000000,0.000000,0.000000,0.000000,0.000000,0.000000,0.000000,0.000000,0.000000,1648543065.666023,0.000000
46.000000,-16500.951827,-20709.986473,-4026.823226,-27024.130764,4806.340314,-18053.727514,-59959.023888,-40293.646192,-0.074000,0.930000,0.304000,192.000000,0.000000,0.000000,0.000000,0.000000,0.000000,0.000000,0.000000,0.000000,0.000000,1648543065.673157,0.000000
47.000000,-16499.498963,-20709.494735,-4027.806703,-27029.159907,4800.372398,-18058.980174,-59954.330022,-40283.699666,-0.070000,0.934000,0.302000,192.000000,253.000000,208.000000,29.000000,48.000000,9.000000,112.000000,0.000000,0.000000,0.000000,1648543065.673161,0.000000
48.000000,-16494.291007,-20709.315921,-4022.464636,-27023.750785,4807.413197,-18055.448598,-59941.701286,-40273.507270,-0.070000,0.934000,0.302000,192.000000,0.000000,0.000000,0.000000,0.000000,0.000000,0.000000,0.000000,0.000000,0.000000,1648543065.680705,0.000000
49.000000,-16494.581580,-20709.360624,-4026.242080,-27023.415509,4807.502604,-18050.598270,-59937.722676,-40267.427596,-0.070000,0.934000,0.302000,192.000000,0.000000,0.000000,0.000000,0.000000,0.000000,0.000000,0.000000,0.000000,0.000000,1648543065.680709,0.000000
50.000000,-16497.688472,-20707.304264,-4026.487950,-27028.601113,4802.048779,-18054.956860,-59929.698399,-40275.585982,-0.070000,0.934000,0.302000,192.000000,0.000000,0.000000,0.000000,0.000000,0.000000,0.000000,0.000000,0.000000,0.000000,1648543065.688636,0.000000
51.000000,-16497.375548,-20708.354796,-4027.761999,-27025.315407,4803.814567,-18048.117226,-59928.692571,-40275.161299,-0.070000,0.934000,0.302000,192.000000,0.000000,0.000000,0.000000,0.000000,0.000000,0.000000,0.000000,0.000000,0.000000,1648543065.688640,0.000000
52.000000,-16498.739004,-20711.372281,-4024.655107,-27025.203648,4806.049741,-18042.350476,-59935.018114,-40268.098148,-0.070000,0.934000,0.302000,192.000000,0.000000,0.000000,0.000000,0.000000,0.000000,0.000000,0.000000,0.000000,0.000000,1648543065.696610,0.000000
53.000000,-16492.055832,-20703.660930,-4017.547252,-27021.761480,4810.408331,-18044.764464,-59925.362161,-40255.312950,-0.070000,0.934000,0.302000,192.000000,0.000000,0.000000,0.000000,0.000000,0.000000,0.000000,0.000000,0.000000,0.000000,1648543065.696615,0.000000
54.000000,-16503.119946,-20716.535534,-4031.092409,-27036.603038,4798.003113,-18059.002526,-59943.064742,-40272.836718,-0.070000,0.934000,0.302000,192.000000,0.000000,0.000000,0.000000,0.000000,0.000000,0.000000,0.000000,0.000000,0.000000,1648543065.702780,0.000000
55.000000,-16505.019844,-20714.076843,-4033.193473,-27039.821689,4793.130433,-18063.919909,-59955.067629,-40284.280811,-0.070000,0.934000,0.302000,192.000000,0.000000,0.000000,0.000000,0.000000,0.000000,0.000000,0.000000,0.000000,0.000000,1648543065.710256,0.000000
56.000000,-16494.000434,-20701.313996,-4019.022467,-27031.976227,4801.400578,-18058.488436,-59932.268850,-40254.575342,-0.070000,0.934000,0.302000,192.000000,0.000000,0.000000,0.000000,0.000000,0.000000,0.000000,0.000000,0.000000,0.000000,1648543065.710260,0.000000
57.000000,-16486.445545,-20697.760069,-4014.239194,-27021.448555,4808.530785,-18045.636183,-59925.473920,-40252.474279,-0.072000,0.932000,0.302000,192.000000,253.000000,192.000000,29.000000,32.000000,9.000000,112.000000,0.000000,0.000000,0.000000,1648543065.718328,0.000000
58.000000,-16482.846914,-20696.441316,-4013.568641,-27014.631273,4815.124549,-18038.036589,-59931.553594,-40262.800784,-0.072000,0.932000,0.302000,192.000000,0.000000,0.000000,0.000000,0.000000,0.000000,0.000000,0.000000,0.000000,0.000000,1648543065.718332,0.000000
59.000000,-16486.512600,-20698.117697,-4019.156577,-27017.246427,4808.508433,-18048.586613,-59923.752835,-40286.672448,-0.072000,0.932000,0.302000,192.000000,0.000000,0.000000,0.000000,0.000000,0.000000,0.000000,0.000000,0.000000,0.000000,1648543065.726311,0.000000
60.000000,-16501.935303,-20709.517087,-4030.488912,-27034.032587,4793.733930,-18058.153159,-59961.571987,-40297.222471,-0.072000,0.932000,0.302000,192.000000,0.000000,0.000000,0.000000,0.000000,0.000000,0.000000,0.000000,0.000000,0.000000,1648543065.726314,0.000000
61.000000,-16477.147219,-20680.213950,-4003.286839,-27014.519514,4812.017657,-18052.319354,-59941.723638,-40267.025264,-0.072000,0.932000,0.302000,192.000000,0.000000,0.000000,0.000000,0.000000,0.000000,0.000000,0.000000,0.000000,0.000000,1648543065.732943,0.000000
62.000000,-16490.290045,-20684.483133,-4010.439397,-27009.423317,4815.571584,-18040.785854,-59922.210565,-40258.419843,-0.072000,0.932000,0.302000,192.000000,0.000000,0.000000,0.000000,0.000000,0.000000,0.000000,0.000000,0.000000,0.000000,1648543065.732947,0.000000
63.000000,-16497.979045,-20686.248921,-4020.162406,-27015.637102,4807.569660,-18049.190110,-59942.617708,-40265.795918,-0.072000,0.932000,0.302000,192.000000,0.000000,0.000000,0.000000,0.000000,0.000000,0.000000,0.000000,0.000000,0.000000,1648543065.741032,0.000000
64.000000,-16500.616551,-20679.297528,-4019.111874,-27021.090927,4800.908840,-18063.428171,-59947.378629,-40289.578174,-0.072000,0.932000,0.302000,192.000000,0.000000,0.000000,0.000000,0.000000,0.000000,0.000000,0.000000,0.000000,0.000000,1648543065.741036,0.000000
65.000000,-16501.220048,-20671.362659,-4006.371380,-27019.593360,4804.798043,-18056.342668,-59944.517606,-40286.538337,-0.072000,0.932000,0.302000,192.000000,0.000000,0.000000,0.000000,0.000000,0.000000,0.000000,0.000000,0.000000,0.000000,1648543065.748954,0.000000
66.000000,-16491.899370,-20656.878728,-3999.017656,-27017.268779,4807.234383,-18057.572014,-59937.588565,-40265.661808,-0.072000,0.932000,0.302000,192.000000,0.000000,0.000000,0.000000,0.000000,0.000000,0.000000,0.000000,0.000000,0.000000,1648543065.748959,0.000000
67.000000,-16494.827449,-20651.044923,-4009.277106,-27003.298939,4817.784407,-18040.361171,-59909.693588,-40261.951418,-0.072000,0.932000,0.302000,192.000000,0.000000,0.000000,0.000000,0.000000,0.000000,0.000000,0.000000,0.000000,0.000000,1648543065.756160,0.000000
68.000000,-16496.168553,-20644.093531,-4009.813548,-26999.990880,4820.645430,-18036.583726,-59926.032713,-40262.666674,-0.074000,0.924000,0.298000,192.000000,253.000000,176.000000,28.000000,224.000000,9.000000,80.000000,0.000000,0.000000,0.000000,1648543065.756165,0.000000
69.000000,-16503.231705,-20647.133368,-4005.901993,-27006.696404,4816.152730,-18038.505976,-59931.575946,-40258.330436,-0.074000,0.924000,0.298000,192.000000,0.000000,0.000000,0.000000,0.000000,0.000000,0.000000,0.000000,0.000000,0.000000,1648543065.762641,0.000000
70.000000,-16519.637885,-20651.782531,-4012.272240,-27025.963608,4799.947715,-18057.929642,-59946.730429,-40267.561706,-0.074000,0.924000,0.298000,192.000000,0.000000,0.000000,0.000000,0.000000,0.000000,0.000000,0.000000,0.000000,0.000000,1648543065.770637,0.000000
71.000000,-16507.299722,-20631.397740,-4001.990438,-27010.719718,4807.949639,-18050.464159,-59944.785827,-40273.082587,-0.074000,0.924000,0.298000,192.000000,0.000000,0.000000,0.000000,0.000000,0.000000,0.000000,0.000000,0.000000,0.000000,1648543065.770668,0.000000
72.000000,-16512.910010,-20634.772853,-4009.880604,-27011.189104,4806.697942,-18040.830557,-59941.433065,-40279.944572,-0.074000,0.924000,0.298000,192.000000,0.000000,0.000000,0.000000,0.000000,0.000000,0.000000,0.000000,0.000000,0.000000,1648543065.778616,0.000000
73.000000,-16508.819641,-20631.598906,-4004.113853,-27019.839230,4805.535651,-18046.060866,-59910.475899,-40269.260439,-0.074000,0.924000,0.298000,192.000000,0.000000,0.000000,0.000000,0.000000,0.000000,0.000000,0.000000,0.000000,0.000000,1648543065.778620,0.000000
74.000000,-16517.290952,-20637.097435,-4016.921403,-27034.859602,4792.728101,-18057.840235,-59923.082283,-40268.142851,-0.074000,0.924000,0.298000,192.000000,0.000000,0.000000,0.000000,0.000000,0.000000,0.000000,0.000000,0.000000,0.000000,1648543065.785164,0.000000
75.000000,-16511.211277,-20634.169356,-4011.266412,-27036.871259,4791.386997,-18057.907290,-59953.547711,-40286.203061,-0.074000,0.924000,0.298000,192.000000,0.000000,0.000000,0.000000,0.000000,0.000000,0.000000,0.000000,0.000000,0.000000,1648543065.785168,0.000000
76.000000,-16514.429929,-20632.761196,-4022.263470,-27040.872221,4790.068244,-18050.955898,-59938.817911,-40292.573308,-0.074000,0.924000,0.298000,192.000000,0.000000,0.000000,0.000000,0.000000,0.000000,0.000000,0.000000,0.000000,0.000000,1648543065.793223,0.000000
77.000000,-16509.803117,-20628.737882,-4023.738685,-27040.268724,4791.431700,-18051.805264,-59931.710056,-40284.325514,-0.074000,0.924000,0.298000,192.000000,0.000000,0.000000,0.000000,0.000000,0.000000,0.000000,0.000000,0.000000,0.000000,1648543065.793228,0.000000
78.000000,-16493.240475,-20609.738899,-4010.595859,-27030.702177,4802.920497,-18050.352401,-59912.487556,-40253.435404,-0.076000,0.934000,0.300000,192.000000,253.000000,160.000000,29.000000,48.000000,9.000000,96.000000,0.000000,0.000000,0.000000,1648543065.801292,0.000000
79.000000,-16484.188018,-20599.546504,-3997.721255,-27021.672073,4813.403465,-18039.735322,-59908.777166,-40245.679348,-0.076000,0.934000,0.300000,192.000000,0.000000,0.000000,0.000000,0.000000,0.000000,0.000000,0.000000,0.000000,0.000000,1648543065.801296,0.000000
80.000000,-16493.106364,-20603.927446,-4004.404426,-27027.863506,4807.524956,-18044.786816,-59887.140678,-40241.387813,-0.076000,0.934000,0.300000,192.000000,0.000000,0.000000,0.000000,0.000000,0.000000,0.000000,0.000000,0.000000,0.000000,1648543065.808208,0.000000
81.000000,-16508.573772,-20619.975998,-4016.139092,-27037.944143,4796.371436,-18049.972421,-59909.872402,-40274.513099,-0.076000,0.934000,0.300000,192.000000,0.000000,0.000000,0.000000,0.000000,0.000000,0.000000,0.000000,0.000000,0.000000,1648543065.808227,0.000000
82.000000,-16519.548478,-20631.129519,-4024.677458,-27041.989808,4789.800023,-18054.889805,-59916.443815,-40268.433424,-0.076000,0.934000,0.300000,192.000000,0.000000,0.000000,0.000000,0.000000,0.000000,0.000000,0.000000,0.000000,0.000000,1648543065.815814,0.000000
83.000000,-16511.747719,-20618.523135,-4006.572545,-27029.964570,4800.841785,-18055.917985,-59914.521565,-40250.395566,-0.076000,0.934000,0.300000,192.000000,0.000000,0.000000,0.000000,0.000000,0.000000,0.000000,0.000000,0.000000,0.000000,1648543065.815818,0.000000
84.000000,-16515.145184,-20621.294751,-4009.545327,-27028.422299,4800.886488,-18045.211499,-59925.675085,-40274.535450,-0.076000,0.934000,0.300000,192.000000,0.000000,0.000000,0.000000,0.000000,0.000000,0.000000,0.000000,0.000000,0.000000,1648543065.822785,0.000000
85.000000,-16510.093690,-20613.024606,-4009.724141,-27027.438823,4799.612439,-18043.870395,-59915.616800,-40261.526735,-0.076000,0.934000,0.300000,192.000000,0.000000,0.000000,0.000000,0.000000,0.000000,0.000000,0.000000,0.000000,0.000000,1648543065.830911,0.000000
86.000000,-16498.135507,-20604.486239,-3997.363627,-27019.146325,4807.055570,-18037.500148,-59896.506059,-40247.825116,-0.076000,0.934000,0.300000,192.000000,0.000000,0.000000,0.000000,0.000000,0.000000,0.000000,0.000000,0.000000,0.000000,1648543065.830921,0.000000
87.000000,-16499.856591,-20602.586341,-4005.343199,-27013.334872,4807.882584,-18039.847081,-59871.315643,-40232.245950,-0.076000,0.934000,0.300000,192.000000,0.000000,0.000000,0.000000,0.000000,0.000000,0.000000,0.000000,0.000000,0.000000,1648543065.837834,0.000000
88.000000,-16514.072301,-20620.244219,-4025.169197,-27034.099643,4788.436566,-18060.209520,-59928.267888,-40271.674427,-0.084000,0.938000,0.304000,192.000000,253.000000,96.000000,29.000000,80.000000,9.000000,128.000000,0.000000,0.000000,0.000000,1648543065.837838,0.000000
89.000000,-16522.141280,-20633.096472,-4018.441322,-27047.980076,4782.848630,-18062.958784,-59955.581719,-40281.352732,-0.084000,0.938000,0.304000,192.000000,0.000000,0.000000,0.000000,0.000000,0.000000,0.000000,0.000000,0.000000,0.000000,1648543065.845794,0.000000
90.000000,-16507.523240,-20616.287961,-4009.142996,-27035.798375,4795.186793,-18056.946165,-59934.079341,-40291.634535,-0.084000,0.938000,0.304000,192.000000,0.000000,0.000000,0.000000,0.000000,0.000000,0.000000,0.000000,0.000000,0.000000,1648543065.845804,0.000000
91.000000,-16503.388167,-20608.420147,-4001.766920,-27025.248352,4802.741683,-18051.179415,-59917.159071,-40252.139002,-0.084000,0.938000,0.304000,192.000000,0.000000,0.000000,0.000000,0.000000,0.000000,0.000000,0.000000,0.000000,0.000000,1648543065.853833,0.000000
92.000000,-16519.749644,-20623.038187,-4018.061342,-27043.308561,4789.621209,-18068.993755,-59949.077362,-40279.229317,-0.084000,0.938000,0.304000,192.000000,0.000000,0.000000,0.000000,0.000000,0.000000,0.000000,0.000000,0.000000,0.000000,1648543065.853850,0.000000
93.000000,-16515.301647,-20617.182030,-4015.692057,-27034.881954,4796.103215,-18060.276575,-59948.786789,-40269.595715,-0.084000,0.938000,0.304000,192.000000,0.000000,0.000000,0.000000,0.000000,0.000000,0.000000,0.000000,0.000000,0.000000,1648543065.861967,0.000000
94.000000,-16503.790498,-20604.933274,-4011.288763,-27028.198782,4798.450148,-18058.644898,-59915.125062,-40252.854258,-0.084000,0.938000,0.304000,192.000000,0.000000,0.000000,0.000000,0.000000,0.000000,0.000000,0.000000,0.000000,0.000000,1648543065.861983,0.000000
95.000000,-16512.328865,-20611.884667,-4020.810607,-27040.559297,4785.776709,-18067.473837,-59936.247460,-40260.543258,-0.084000,0.938000,0.304000,192.000000,0.000000,0.000000,0.000000,0.000000,0.000000,0.000000,0.000000,0.000000,0.000000,1648543065.868551,0.000000
96.000000,-16498.023748,-20601.044071,-4000.984609,-27031.059805,4799.567735,-18058.443732,-59934.951059,-40247.176915,-0.084000,0.938000,0.304000,192.000000,0.000000,0.000000,0.000000,0.000000,0.000000,0.000000,0.000000,0.000000,0.000000,1648543065.868568,0.000000
97.000000,-16497.241437,-20601.558161,-4003.264487,-27023.706081,4806.630886,-18046.865528,-59910.565306,-40244.651168,-0.084000,0.938000,0.304000,192.000000,0.000000,0.000000,0.000000,0.000000,0.000000,0.000000,0.000000,0.000000,0.000000,1648543065.876184,0.000000
98.000000,-16501.622379,-20602.295769,-4010.819377,-27022.700253,4805.155671,-18047.603136,-59925.786844,-40248.585075,-0.080000,0.938000,0.298000,192.000000,253.000000,128.000000,29.000000,80.000000,9.000000,80.000000,0.000000,0.000000,0.000000,1648543065.876195,0.000000
99.000000,-16507.255019,-20607.660187,-4012.227537,-27026.701215,4801.691151,-18057.259090,-59945.635193,-40252.273113,-0.080000,0.938000,0.298000,192.000000,0.000000,0.000000,0.000000,0.000000,0.000000,0.000000,0.000000,0.000000,0.000000,1648543065.883605,0.000000
100.000000,-16513.669969,-20620.534792,-4014.619173,-27039.754634,4792.348122,-18070.960709,-59941.835397,-40266.265305,-0.080000,0.938000,0.298000,192.000000,0.000000,0.000000,0.000000,0.000000,0.000000,0.000000,0.000000,0.000000,0.000000,1648543065.883622,0.000000
101.000000,-16498.291969,-20612.376405,-4001.275182,-27033.496145,4799.612439,-18066.065677,-59926.300934,-40246.662825,-0.080000,0.938000,0.298000,192.000000,0.000000,0.000000,0.000000,0.000000,0.000000,0.000000,0.000000,0.000000,0.000000,1648543065.891674,0.000000
102.000000,-16495.386242,-20608.464850,-3994.837880,-27024.019006,4808.731950,-18051.246470,-59916.868498,-40263.158412,-0.080000,0.938000,0.298000,192.000000,0.000000,0.000000,0.000000,0.000000,0.000000,0.000000,0.000000,0.000000,0.000000,1648543065.898111,0.000000
103.000000,-16495.296835,-20611.795260,-4004.024446,-27022.342625,4807.212032,-18044.250374,-59925.429216,-40258.755119,-0.080000,0.938000,0.298000,192.000000,0.000000,0.000000,0.000000,0.000000,0.000000,0.000000,0.000000,0.000000,0.000000,1648543065.898127,0.000000
104.000000,-16507.880867,-20627.843812,-4019.000115,-27035.284285,4793.152784,-18049.145406,-59930.525414,-40250.999063,-0.080000,0.938000,0.298000,192.000000,0.000000,0.000000,0.000000,0.000000,0.000000,0.000000,0.000000,0.000000,0.000000,1648543065.906175,0.000000
105.000000,-16501.868248,-20618.947818,-4011.646391,-27032.266799,4796.326732,-18051.805264,-59936.672144,-40259.045691,-0.080000,0.938000,0.298000,192.000000,0.000000,0.000000,0.000000,0.000000,0.000000,0.000000,0.000000,0.000000,0.000000,1648543065.906192,0.000000
106.000000,-16484.098611,-20601.267588,-3997.296571,-27019.615712,4810.877718,-18045.166796,-59924.803367,-40240.203171,-0.080000,0.938000,0.298000,192.000000,0.000000,0.000000,0.000000,0.000000,0.000000,0.000000,0.000000,0.000000,0.000000,1648543065.914145,0.000000
107.000000,-16497.979045,-20619.998350,-4016.943755,-27028.981093,4803.814567,-18046.932584,-59940.047257,-40248.518020,-0.080000,0.938000,0.298000,192.000000,0.000000,0.000000,0.000000,0.000000,0.000000,0.000000,0.000000,0.000000,0.000000,1648543065.914181,0.000000
108.000000,-16497.688472,-20625.452176,-4011.959316,-27036.692445,4799.500680,-18053.883976,-59932.671181,-40250.507325,-0.074000,0.932000,0.296000,192.000000,253.000000,176.000000,29.000000,32.000000,9.000000,64.000000,0.000000,0.000000,0.000000,1648543065.920701,0.000000
109.000000,-16484.344481,-20610.856487,-3995.150804,-27021.895590,4814.074017,-18039.780025,-59911.146451,-40238.370328,-0.074000,0.932000,0.296000,192.000000,0.000000,0.000000,0.000000,0.000000,0.000000,0.000000,0.000000,0.000000,0.000000,1648543065.920718,0.000000
110.000000,-16499.633074,-20626.234487,-4002.996266,-27030.657474,4804.887450,-18048.608965,-59927.016190,-40262.979598,-0.074000,0.932000,0.296000,192.000000,0.000000,0.000000,0.000000,0.000000,0.000000,0.000000,0.000000,0.000000,0.000000,1648543065.928806,0.000000
111.000000,-16511.546554,-20636.605696,-4017.837825,-27037.362997,4797.578430,-18054.442770,-59942.103617,-40274.311933,-0.074000,0.932000,0.296000,192.000000,0.000000,0.000000,0.000000,0.000000,0.000000,0.000000,0.000000,0.000000,0.000000,1648543065.928823,0.000000
112.000000,-16505.288065,-20633.185879,-4015.177967,-27037.385349,4801.266468,-18052.766389,-59961.549635,-40272.300276,-0.074000,0.932000,0.296000,192.000000,0.000000,0.000000,0.000000,0.000000,0.000000,0.000000,0.000000,0.000000,0.000000,1648543065.936726,0.000000
113.000000,-16492.972254,-20620.154812,-4004.739702,-27035.328988,4806.720293,-18057.393200,-59942.841225,-40260.386796,-0.074000,0.932000,0.296000,192.000000,0.000000,0.000000,0.000000,0.000000,0.000000,0.000000,0.000000,0.000000,0.000000,1648543065.936743,0.000000
114.000000,-16501.644731,-20624.379292,-4009.165348,-27028.444651,4810.296572,-18040.875261,-59929.988972,-40253.591866,-0.074000,0.932000,0.296000,192.000000,0.000000,0.000000,0.000000,0.000000,0.000000,0.000000,0.000000,0.000000,0.000000,1648543065.943940,0.000000
115.000000,-16484.009204,-20614.186897,-3993.295609,-27017.246427,4814.968087,-18038.371866,-59907.480765,-40236.939816,-0.074000,0.932000,0.296000,192.000000,0.000000,0.000000,0.000000,0.000000,0.000000,0.000000,0.000000,0.000000,0.000000,1648543065.943956,0.000000
116.000000,-16493.262827,-20625.563935,-4003.912688,-27028.042320,4799.903011,-18053.481645,-59907.637227,-40248.897999,-0.074000,0.932000,0.296000,192.000000,0.000000,0.000000,0.000000,0.000000,0.000000,0.000000,0.000000,0.000000,0.000000,1648543065.950514,0.000000
117.000000,-16496.123850,-20630.526022,-4011.244060,-27025.449517,4803.747511,-18041.299944,-59960.208530,-40260.587962,-0.074000,0.932000,0.296000,192.000000,0.000000,0.000000,0.000000,0.000000,0.000000,0.000000,0.000000,0.000000,0.000000,1648543065.958412,0.000000
118.000000,-16498.202562,-20629.922525,-4009.478272,-27028.869334,4800.953543,-18042.305773,-59954.195911,-40275.206003,-0.078000,0.940000,0.296000,192.000000,253.000000,144.000000,29.000000,96.000000,9.000000,64.000000,0.000000,0.000000,0.000000,1648543065.958429,0.000000
119.000000,-16502.605856,-20631.621257,-4010.931136,-27034.613733,4794.113909,-18044.585651,-59950.977260,-40265.237125,-0.078000,0.940000,0.296000,192.000000,0.000000,0.000000,0.000000,0.000000,0.000000,0.000000,0.000000,0.000000,0.000000,1648543065.966510,0.000000
120.000000,-16504.572809,-20636.404531,-4015.423836,-27036.156003,4793.085729,-18041.814034,-59942.505949,-40271.920296,-0.078000,0.940000,0.296000,192.000000,0.000000,0.000000,0.000000,0.000000,0.000000,0.000000,0.000000,0.000000,0.000000,1648543065.966527,0.000000
121.000000,-16502.337635,-20632.023589,-4002.549231,-27023.907247,4806.496776,-18031.286363,-59931.710056,-40257.481069,-0.078000,0.940000,0.296000,192.000000,0.000000,0.000000,0.000000,0.000000,0.000000,0.000000,0.000000,0.000000,0.000000,1648543065.973425,0.000000
122.000000,-16495.766222,-20622.993484,-3993.273257,-27014.094831,4818.812587,-18020.646932,-59924.088111,-40253.301293,-0.078000,0.940000,0.296000,192.000000,0.000000,0.000000,0.000000,0.000000,0.000000,0.000000,0.000000,0.000000,0.000000,1648543065.973441,0.000000
123.000000,-16480.634091,-20615.729167,-3989.026426,-27017.291131,4818.298497,-18031.711046,-59911.101748,-40241.767793,-0.078000,0.940000,0.296000,192.000000,0.000000,0.000000,0.000000,0.000000,0.000000,0.000000,0.000000,0.000000,0.000000,1648543065.981001,0.000000
124.000000,-16482.869265,-20618.813708,-3998.302400,-27018.833401,4812.531747,-18027.978304,-59904.239762,-40245.858162,-0.078000,0.940000,0.296000,192.000000,0.000000,0.000000,0.000000,0.000000,0.000000,0.000000,0.000000,0.000000,0.000000,1648543065.981018,0.000000
125.000000,-16491.206466,-20621.920600,-4003.108025,-27019.146325,4807.726122,-18026.748958,-59915.281524,-40235.710470,-0.078000,0.940000,0.296000,192.000000,0.000000,0.000000,0.000000,0.000000,0.000000,0.000000,0.000000,0.000000,0.000000,1648543065.988801,0.000000
126.000000,-16489.820658,-20627.061501,-3986.545382,-27021.448555,4813.068189,-18027.553621,-59930.838338,-40227.149752,-0.078000,0.940000,0.296000,192.000000,0.000000,0.000000,0.000000,0.000000,0.000000,0.000000,0.000000,0.000000,0.000000,1648543065.988812,0.000000
127.000000,-16493.396937,-20627.217964,-3988.422929,-27019.883933,4814.185776,-18033.677999,-59935.331039,-40257.190497,-0.078000,0.940000,0.296000,192.000000,0.000000,0.000000,0.000000,0.000000,0.000000,0.000000,0.000000,0.000000,0.000000,1648543065.996858,0.000000
128.000000,-16499.320149,-20629.676655,-4001.833976,-27021.225038,4807.971991,-18039.578860,-59951.223129,-40270.042750,-0.078000,0.944000,0.298000,192.000000,253.000000,144.000000,29.000000,128.000000,9.000000,80.000000,0.000000,0.000000,0.000000,1648543065.996874,0.000000
129.000000,-16494.000434,-20626.458004,-3993.340313,-27016.240599,4813.358761,-18036.650781,-59956.967528,-40275.228354,-0.078000,0.944000,0.298000,192.000000,0.000000,0.000000,0.000000,0.000000,0.000000,0.000000,0.000000,0.000000,0.000000,1648543066.003436,0.000000
130.000000,-16473.302719,-20604.218019,-3978.565810,-27005.489410,4822.746494,-18039.467101,-59935.621612,-40263.091357,-0.078000,0.944000,0.298000,192.000000,0.000000,0.000000,0.000000,0.000000,0.000000,0.000000,0.000000,0.000000,0.000000,1648543066.003447,0.000000
131.000000,-16475.761411,-20605.894399,-3983.237324,-27001.354337,4827.261547,-18038.461273,-59935.576908,-40257.592828,-0.078000,0.944000,0.298000,192.000000,0.000000,0.000000,0.000000,0.000000,0.000000,0.000000,0.000000,0.000000,0.000000,1648543066.010514,0.000000
132.000000,-16489.463030,-20624.960437,-3993.139147,-27006.674052,4829.452017,-18031.688694,-59947.512740,-40269.238087,-0.078000,0.944000,0.298000,192.000000,0.000000,0.000000,0.000000,0.000000,0.000000,0.000000,0.000000,0.000000,0.000000,1648543066.018698,0.000000
133.000000,-16474.688527,-20604.597998,-3977.358815,-26997.576892,4838.750343,-18032.135729,-59920.623591,-40255.737633,-0.078000,0.944000,0.298000,192.000000,0.000000,0.000000,0.000000,0.000000,0.000000,0.000000,0.000000,0.000000,0.000000,1648543066.018715,0.000000
134.000000,-16492.480516,-20619.081929,-3991.820394,-27013.334872,4823.841730,-18044.876223,-59922.322324,-40276.323590,-0.078000,0.944000,0.298000,192.000000,0.000000,0.000000,0.000000,0.000000,0.000000,0.000000,0.000000,0.000000,0.000000,1648543066.026581,0.000000
135.000000,-16492.927550,-20621.093586,-3991.865098,-27008.998634,4821.450093,-18041.791682,-59939.577870,-40270.735654,-0.078000,0.944000,0.298000,192.000000,0.000000,0.000000,0.000000,0.000000,0.000000,0.000000,0.000000,0.000000,0.000000,1648543066.026598,0.000000
136.000000,-16491.988777,-20619.864240,-3990.702807,-27004.461229,4824.311116,-18031.979267,-59943.779998,-40272.635552,-0.078000,0.944000,0.298000,192.000000,0.000000,0.000000,0.000000,0.000000,0.000000,0.000000,0.000000,0.000000,0.000000,1648543066.033356,0.000000
137.000000,-16485.797344,-20611.705853,-3987.819432,-26999.163866,4828.312079,-18029.341761,-59922.165861,-40257.414014,-0.078000,0.944000,0.298000,192.000000,0.000000,0.000000,0.000000,0.000000,0.000000,0.000000,0.000000,0.000000,0.000000,1648543066.033372,0.000000
138.000000,-16474.710879,-20605.648530,-3974.274275,-27001.555503,4826.456884,-18040.562337,-59889.398204,-40238.772659,-0.086000,0.938000,0.290000,192.000000,253.000000,80.000000,29.000000,80.000000,9.000000,16.000000,0.000000,0.000000,0.000000,1648543066.041468,0.000000
139.000000,-16497.084975,-20625.876859,-3988.534688,-27020.532134,4808.374322,-18057.057924,-59916.309704,-40261.437328,-0.086000,0.938000,0.290000,192.000000,0.000000,0.000000,0.000000,0.000000,0.000000,0.000000,0.000000,0.000000,0.000000,1648543066.041484,0.000000
140.000000,-16502.583504,-20629.520193,-3989.048778,-27019.950988,4807.390846,-18052.252299,-59932.805292,-40289.265250,-0.086000,0.938000,0.290000,192.000000,0.000000,0.000000,0.000000,0.000000,0.000000,0.000000,0.000000,0.000000,0.000000,1648543066.049412,0.000000
141.000000,-16494.268655,-20616.399719,-3990.881621,-27015.927674,4810.721256,-18042.417531,-59915.840318,-40252.720148,-0.086000,0.938000,0.290000,192.000000,0.000000,0.000000,0.000000,0.000000,0.000000,0.000000,0.000000,0.000000,0.000000,1648543066.049428,0.000000
142.000000,-16483.226893,-20604.530943,-3979.929266,-27002.561331,4821.450093,-18030.459348,-59893.577980,-40233.318834,-0.086000,0.938000,0.290000,192.000000,0.000000,0.000000,0.000000,0.000000,0.000000,0.000000,0.000000,0.000000,0.000000,1648543066.055933,0.000000
143.000000,-16510.048987,-20632.470624,-4001.789272,-27017.939331,4805.267430,-18035.779063,-59928.401998,-40255.670578,-0.086000,0.938000,0.290000,192.000000,0.000000,0.000000,0.000000,0.000000,0.000000,0.000000,0.000000,0.000000,0.000000,1648543066.055950,0.000000
144.000000,-16506.338597,-20625.340417,-3999.755263,-27014.184238,4804.127491,-18036.002581,-59916.399111,-40240.560799,-0.086000,0.938000,0.290000,192.000000,0.000000,0.000000,0.000000,0.000000,0.000000,0.000000,0.000000,0.000000,0.000000,1648543066.063942,0.000000
145.000000,-16500.996530,-20623.641684,-3996.938943,-27017.671110,4800.059474,-18039.422398,-59900.350559,-40248.808592,-0.086000,0.938000,0.290000,192.000000,0.000000,0.000000,0.000000,0.000000,0.000000,0.000000,0.000000,0.000000,0.000000,1648543066.063958,0.000000
146.000000,-16507.769109,-20629.363731,-4009.724141,-27022.096756,4793.689226,-18049.279517,-59885.777221,-40244.070023,-0.086000,0.938000,0.290000,192.000000,0.000000,0.000000,0.000000,0.000000,0.000000,0.000000,0.000000,0.000000,0.000000,1648543066.071104,0.000000
147.000000,-16536.915784,-20655.783493,-4033.931081,-27036.200707,4775.316092,-18060.544796,-59958.196873,-40283.766721,-0.086000,0.938000,0.290000,192.000000,0.000000,0.000000,0.000000,0.000000,0.000000,0.000000,0.000000,0.000000,0.000000,1648543066.079034,0.000000
148.000000,-16535.351161,-20654.062409,-4039.273147,-27041.587477,4773.885581,-18067.272671,-59977.754650,-40287.208889,-0.078000,0.936000,0.284000,192.000000,253.000000,144.000000,29.000000,64.000000,8.000000,224.000000,0.000000,0.000000,0.000000,1648543066.079051,0.000000
149.000000,-16524.532917,-20646.798092,-4027.382019,-27043.487375,4777.864191,-18073.262939,-59953.190083,-40265.237125,-0.078000,0.936000,0.284000,192.000000,0.000000,0.000000,0.000000,0.000000,0.000000,0.000000,0.000000,0.000000,0.000000,1648543066.085326,0.000000
150.000000,-16486.400841,-20610.476507,-3972.016748,-27019.705119,4805.937982,-18055.269784,-59906.251419,-40235.710470,-0.078000,0.936000,0.284000,192.000000,0.000000,0.000000,0.000000,0.000000,0.000000,0.000000,0.000000,0.000000,0.000000,1648543066.085361,0.000000
151.000000,-16498.649597,-20622.367635,-3993.183850,-27021.493259,4800.685322,-18052.833444,-59911.638190,-40259.425671,-0.078000,0.936000,0.284000,192.000000,0.000000,0.000000,0.000000,0.000000,0.000000,0.000000,0.000000,0.000000,0.000000,1648543066.093477,0.000000
152.000000,-16512.261809,-20635.778682,-4009.321810,-27037.564163,4787.006055,-18070.916005,-59933.788769,-40275.138947,-0.078000,0.936000,0.284000,192.000000,0.000000,0.000000,0.000000,0.000000,0.000000,0.000000,0.000000,0.000000,0.000000,1648543066.093494,0.000000
153.000000,-16511.367740,-20632.157699,-4008.137167,-27032.333855,4792.191659,-18066.915043,-59918.299010,-40253.614217,-0.078000,0.936000,0.284000,192.000000,0.000000,0.000000,0.000000,0.000000,0.000000,0.000000,0.000000,0.000000,0.000000,1648543066.101601,0.000000
154.000000,-16501.734138,-20617.271437,-3998.570621,-27028.042320,4794.762110,-18064.366944,-59920.265963,-40277.888212,-0.078000,0.936000,0.284000,192.000000,0.000000,0.000000,0.000000,0.000000,0.000000,0.000000,0.000000,0.000000,0.000000,1648543066.101617,0.000000
155.000000,-16498.694300,-20622.099414,-4005.454958,-27028.936390,4789.710616,-18061.327107,-59897.288370,-40262.711377,-0.078000,0.936000,0.284000,192.000000,0.000000,0.000000,0.000000,0.000000,0.000000,0.000000,0.000000,0.000000,0.000000,1648543066.108762,0.000000
156.000000,-16512.999417,-20645.278173,-4006.617249,-27043.979114,4777.484212,-18078.582654,-59940.181367,-40269.282790,-0.078000,0.936000,0.284000,192.000000,0.000000,0.000000,0.000000,0.000000,0.000000,0.000000,0.000000,0.000000,0.000000,1648543066.108779,0.000000
157.000000,-16508.685530,-20633.498804,-4004.717351,-27032.803241,4790.045892,-18062.243529,-59936.202757,-40245.344072,-0.078000,0.936000,0.284000,192.000000,0.000000,0.000000,0.000000,0.000000,0.000000,0.000000,0.000000,0.000000,0.000000,1648543066.116211,0.000000
158.000000,-16506.986798,-20634.370522,-4007.623077,-27031.328026,4796.125566,-18057.124979,-59913.873364,-40229.407278,-0.076000,0.938000,0.288000,192.000000,253.000000,160.000000,29.000000,80.000000,9.000000,0.000000,0.000000,0.000000,0.000000,1648543066.116228,0.000000
159.000000,-16500.437737,-20631.196574,-3995.351970,-27024.086061,4801.355875,-18054.666287,-59904.016245,-40220.086601,-0.076000,0.938000,0.288000,192.000000,0.000000,0.000000,0.000000,0.000000,0.000000,0.000000,0.000000,0.000000,0.000000,1648543066.124368,0.000000
160.000000,-16520.554307,-20649.256784,-4022.665801,-27041.855698,4778.132412,-18076.459238,-59929.407827,-40267.740520,-0.076000,0.938000,0.288000,192.000000,0.000000,0.000000,0.000000,0.000000,0.000000,0.000000,0.000000,0.000000,0.000000,1648543066.124384,0.000000
161.000000,-16517.201545,-20648.228603,-4015.647354,-27031.886820,4786.134337,-18067.317375,-59961.594339,-40260.610313,-0.076000,0.938000,0.288000,192.000000,0.000000,0.000000,0.000000,0.000000,0.000000,0.000000,0.000000,0.000000,0.000000,1648543066.131353,0.000000
162.000000,-16501.845896,-20633.051769,-3994.413196,-27019.079270,4802.026427,-18051.157063,-59932.045332,-40240.449040,-0.076000,0.938000,0.288000,192.000000,0.000000,0.000000,0.000000,0.000000,0.000000,0.000000,0.000000,0.000000,0.000000,1648543066.131370,0.000000
163.000000,-16488.636015,-20619.417205,-3986.210106,-27008.484543,4806.362665,-18052.408761,-59916.443815,-40240.493743,-0.076000,0.938000,0.288000,192.000000,0.000000,0.000000,0.000000,0.000000,0.000000,0.000000,0.000000,0.000000,0.000000,1648543066.138355,0.000000
164.000000,-16502.225876,-20634.281115,-4002.571583,-27016.911151,4795.924401,-18061.014183,-59923.194042,-40249.881476,-0.076000,0.938000,0.288000,192.000000,0.000000,0.000000,0.000000,0.000000,0.000000,0.000000,0.000000,0.000000,0.000000,1648543066.145902,0.000000
165.000000,-16515.927495,-20651.916641,-4019.558909,-27037.206535,4783.899162,-18073.128828,-59942.103617,-40273.484918,-0.076000,0.938000,0.288000,192.000000,0.000000,0.000000,0.000000,0.000000,0.000000,0.000000,0.000000,0.000000,0.000000,1648543066.145918,0.000000
166.000000,-16507.634998,-20649.614412,-4007.086635,-27040.313427,4784.748529,-18088.283311,-59951.401943,-40284.191404,-0.076000,0.938000,0.288000,192.000000,0.000000,0.000000,0.000000,0.000000,0.000000,0.000000,0.000000,0.000000,0.000000,1648543066.153608,0.000000
167.000000,-16493.754565,-20639.176147,-3991.865098,-27027.215305,4797.980761,-18077.845046,-59939.086132,-40279.229317,-0.076000,0.938000,0.288000,192.000000,0.000000,0.000000,0.000000,0.000000,0.000000,0.000000,0.000000,0.000000,0.000000,1648543066.153619,0.000000
168.000000,-16485.104440,-20631.308333,-3989.272295,-27018.676939,4803.859270,-18075.431058,-59919.349542,-40272.948476,-0.080000,0.934000,0.288000,192.000000,253.000000,128.000000,29.000000,48.000000,9.000000,0.000000,0.000000,0.000000,0.000000,1648543066.161935,0.000000
169.000000,-16494.335710,-20633.655266,-3985.807775,-27015.771212,4805.602706,-18074.671099,-59907.458414,-40257.078738,-0.080000,0.934000,0.288000,192.000000,0.000000,0.000000,0.000000,0.000000,0.000000,0.000000,0.000000,0.000000,0.000000,1648543066.161952,0.000000
170.000000,-16507.165612,-20637.767987,-3989.540516,-27014.698328,4803.591049,-18075.587520,-59928.357295,-40268.858107,-0.080000,0.934000,0.288000,192.000000,0.000000,0.000000,0.000000,0.000000,0.000000,0.000000,0.000000,0.000000,0.000000,1648543066.168474,0.000000
171.000000,-16510.719539,-20648.049789,-4001.230478,-27018.006387,4797.779596,-18072.860607,-59932.090036,-40274.311933,-0.080000,0.934000,0.288000,192.000000,0.000000,0.000000,0.000000,0.000000,0.000000,0.000000,0.000000,0.000000,0.000000,1648543066.168510,0.000000
172.000000,-16513.625266,-20654.107112,-4009.344162,-27025.784794,4791.588162,-18072.301814,-59922.948172,-40272.680255,-0.080000,0.934000,0.288000,192.000000,0.000000,0.000000,0.000000,0.000000,0.000000,0.000000,0.000000,0.000000,0.000000,1648543066.176490,0.000000
173.000000,-16510.719539,-20647.312182,-4001.632810,-27021.716776,4794.739758,-18072.100648,-59922.724655,-40255.402357,-0.080000,0.934000,0.288000,192.000000,0.000000,0.000000,0.000000,0.000000,0.000000,0.000000,0.000000,0.000000,0.000000,1648543066.176506,0.000000
174.000000,-16497.554362,-20637.835042,-3983.550249,-27015.324177,4804.194546,-18060.813017,-59913.649847,-40242.438345,-0.080000,0.934000,0.288000,192.000000,0.000000,0.000000,0.000000,0.000000,0.000000,0.000000,0.000000,0.000000,0.000000,1648543066.184531,0.000000
175.000000,-16495.877981,-20638.215022,-3988.713502,-27016.642930,4803.859270,-18057.996697,-59906.743158,-40247.020453,-0.080000,0.934000,0.288000,192.000000,0.000000,0.000000,0.000000,0.000000,0.000000,0.000000,0.000000,0.000000,0.000000,1648543066.184548,0.000000
176.000000,-16496.570885,-20637.991504,-3988.244115,-27009.132744,4806.541479,-18046.619659,-59899.143565,-40251.848430,-0.080000,0.934000,0.288000,192.000000,0.000000,0.000000,0.000000,0.000000,0.000000,0.000000,0.000000,0.000000,0.000000,1648543066.190933,0.000000
177.000000,-16507.925571,-20648.295659,-3995.508432,-27017.469945,4797.757244,-18056.275613,-59912.353446,-40267.025264,-0.080000,0.934000,0.288000,192.000000,0.000000,0.000000,0.000000,0.000000,0.000000,0.000000,0.000000,0.000000,0.000000,1648543066.190943,0.000000
178.000000,-16514.318170,-20653.704781,-3992.490946,-27027.818802,4794.650351,-18070.111343,-59917.628457,-40273.686084,-0.080000,0.934000,0.288000,192.000000,0.000000,0.000000,0.000000,0.000000,0.000000,0.000000,0.000000,0.000000,0.000000,1648543066.198263,0.000000
179.000000,-16508.305551,-20649.726170,-3982.745586,-27023.773137,4799.232459,-18064.143427,-59911.325265,-40263.180764,-0.090000,0.930000,0.296000,192.000000,253.000000,48.000000,29.000000,16.000000,9.000000,64.000000,0.000000,0.000000,0.000000,1648543066.205881,0.000000
180.000000,-16511.501850,-20649.592060,-3993.295609,-27023.147288,4793.868040,-18060.790665,-59908.173669,-40257.525773,-0.090000,0.930000,0.296000,192.000000,0.000000,0.000000,0.000000,0.000000,0.000000,0.000000,0.000000,0.000000,0.000000,1648543066.205893,0.000000
181.000000,-16517.425062,-20653.995353,-4005.074978,-27025.985959,4789.978837,-18059.538968,-59916.510870,-40269.439253,-0.090000,0.930000,0.296000,192.000000,0.000000,0.000000,0.000000,0.000000,0.000000,0.000000,0.000000,0.000000,0.000000,1648543066.214231,0.000000
182.000000,-16505.913914,-20642.126577,-3994.726121,-27025.382462,4793.353950,-18056.946165,-59908.576001,-40257.145793,-0.090000,0.930000,0.296000,192.000000,0.000000,0.000000,0.000000,0.000000,0.000000,0.000000,0.000000,0.000000,0.000000,1648543066.214248,0.000000
183.000000,-16507.299722,-20641.008990,-3993.496775,-27017.626407,4797.667837,-18056.543834,-59912.934591,-40264.074834,-0.090000,0.930000,0.296000,192.000000,0.000000,0.000000,0.000000,0.000000,0.000000,0.000000,0.000000,0.000000,0.000000,1648543066.220747,0.000000
184.000000,-16516.910972,-20653.369505,-4002.325714,-27021.292093,4792.437529,-18063.159950,-59920.198908,-40277.999971,-0.090000,0.930000,0.296000,192.000000,0.000000,0.000000,0.000000,0.000000,0.000000,0.000000,0.000000,0.000000,0.000000,1648543066.220763,0.000000
185.000000,-16529.360894,-20659.136255,-4004.717351,-27029.092852,4785.553191,-18075.364003,-59918.902507,-40282.000933,-0.090000,0.930000,0.296000,192.000000,0.000000,0.000000,0.000000,0.000000,0.000000,0.000000,0.000000,0.000000,0.000000,1648543066.228714,0.000000
186.000000,-16525.672856,-20664.411266,-4004.672647,-27035.373692,4782.111023,-18075.453410,-59937.365048,-40287.320648,-0.090000,0.930000,0.296000,192.000000,0.000000,0.000000,0.000000,0.000000,0.000000,0.000000,0.000000,0.000000,0.000000,1648543066.228731,0.000000
187.000000,-16512.395920,-20650.731999,-3988.333522,-27029.942218,4789.129470,-18070.245453,-59920.824757,-40266.399415,-0.090000,0.930000,0.296000,192.000000,0.000000,0.000000,0.000000,0.000000,0.000000,0.000000,0.000000,0.000000,0.000000,1648543066.236781,0.000000
188.000000,-16505.064548,-20640.271382,-3994.748473,-27017.514648,4797.131395,-18059.114284,-59905.692626,-40262.309046,-0.090000,0.930000,0.296000,192.000000,0.000000,0.000000,0.000000,0.000000,0.000000,0.000000,0.000000,0.000000,0.000000,1648543066.236796,0.000000
189.000000,-16514.049949,-20648.675638,-3990.881621,-27020.174506,4791.275238,-18058.443732,-59916.577925,-40275.250706,-0.096000,0.930000,0.302000,192.000000,253.000000,0.000000,29.000000,16.000000,9.000000,112.000000,0.000000,0.000000,0.000000,1648543066.243899,0.000000
190.000000,-16513.155879,-20644.719380,-3987.238286,-27015.234770,4793.599819,-18049.950069,-59905.044425,-40264.901848,-0.096000,0.930000,0.302000,192.000000,0.000000,0.000000,0.000000,0.000000,0.000000,0.000000,0.000000,0.000000,0.000000,1648543066.243915,0.000000
191.000000,-16526.946905,-20658.845682,-4009.701790,-27027.662340,4778.087709,-18058.533139,-59872.477933,-40250.641435,-0.096000,0.930000,0.302000,192.000000,0.000000,0.000000,0.000000,0.000000,0.000000,0.000000,0.000000,0.000000,0.000000,1648543066.251493,0.000000
192.000000,-16531.841938,-20665.730019,-4018.642487,-27040.693407,4767.023595,-18071.474799,-59911.995818,-40264.320703,-0.096000,0.930000,0.302000,192.000000,0.000000,0.000000,0.000000,0.000000,0.000000,0.000000,0.000000,0.000000,0.000000,1648543066.251509,0.000000
193.000000,-16507.433833,-20633.945839,-3972.173211,-27004.505933,4799.679494,-18042.752807,-59893.823849,-40223.729935,-0.096000,0.930000,0.302000,192.000000,0.000000,0.000000,0.000000,0.000000,0.000000,0.000000,0.000000,0.000000,0.000000,1648543066.258508,0.000000
194.000000,-16527.863327,-20647.222775,-3990.345179,-27021.426203,4783.675645,-18058.264918,-59891.275751,-40252.898962,-0.096000,0.930000,0.302000,192.000000,0.000000,0.000000,0.000000,0.000000,0.000000,0.000000,0.000000,0.000000,0.000000,1648543066.266350,0.000000
195.000000,-16526.455167,-20652.050752,-3996.514260,-27031.372730,4772.320959,-18074.559340,-59930.056027,-40277.441177,-0.096000,0.930000,0.302000,192.000000,0.000000,0.000000,0.000000,0.000000,0.000000,0.000000,0.000000,0.000000,0.000000,1648543066.266368,0.000000
196.000000,-16530.478481,-20657.683391,-4005.477310,-27036.714797,4764.900179,-18080.951939,-59913.918068,-40284.727846,-0.096000,0.930000,0.302000,192.000000,0.000000,0.000000,0.000000,0.000000,0.000000,0.000000,0.000000,0.000000,0.000000,1648543066.273533,0.000000
197.000000,-16536.111121,-20663.316031,-4010.282935,-27037.251238,4760.698052,-18079.633186,-59933.207623,-40263.784261,-0.096000,0.930000,0.302000,192.000000,0.000000,0.000000,0.000000,0.000000,0.000000,0.000000,0.000000,0.000000,0.000000,1648543066.273549,0.000000
198.000000,-16524.085882,-20649.055618,-3996.983647,-27030.590419,4764.363738,-18086.606930,-59928.513757,-40265.080662,-0.096000,0.930000,0.302000,192.000000,0.000000,0.000000,0.000000,0.000000,0.000000,0.000000,0.000000,0.000000,0.000000,1648543066.281101,0.000000
199.000000,-16517.737987,-20639.734940,-4002.370417,-27026.410642,4764.788421,-18082.158933,-59912.196983,-40255.827040,-0.094000,0.928000,0.312000,192.000000,253.000000,16.000000,29.000000,0.000000,9.000000,192.000000,0.000000,0.000000,0.000000,1648543066.281118,0.000000
200.000000,-16507.545591,-20633.074121,-3979.370472,-27006.115258,4784.748529,-18060.164816,-59883.407937,-40233.385889,-0.094000,0.928000,0.312000,192.000000,0.000000,0.000000,0.000000,0.000000,0.000000,0.000000,0.000000,0.000000,0.000000,1648543066.288992,0.000000
201.000000,-16511.501850,-20640.807824,-3977.247057,-27008.864523,4786.536668,-18050.374752,-59873.684928,-40229.429630,-0.094000,0.928000,0.312000,192.000000,0.000000,0.000000,0.000000,0.000000,0.000000,0.000000,0.000000,0.000000,0.000000,1648543066.289008,0.000000
202.000000,-16512.932362,-20642.931240,-3982.656179,-27015.458288,4784.033273,-18059.784837,-59890.716957,-40244.628816,-0.094000,0.928000,0.312000,192.000000,0.000000,0.000000,0.000000,0.000000,0.000000,0.000000,0.000000,0.000000,0.000000,1648543066.296827,0.000000
203.000000,-16518.274429,-20647.021609,-3995.307266,-27023.795488,4780.702863,-18065.998622,-59906.452585,-40249.322683,-0.094000,0.928000,0.312000,192.000000,0.000000,0.000000,0.000000,0.000000,0.000000,0.000000,0.000000,0.000000,0.000000,1648543066.296839,0.000000
204.000000,-16522.275391,-20646.686333,-3997.251868,-27023.057881,4783.675645,-18064.612814,-59882.446811,-40241.879552,-0.094000,0.928000,0.312000,192.000000,0.000000,0.000000,0.000000,0.000000,0.000000,0.000000,0.000000,0.000000,0.000000,1648543066.303418,0.000000
205.000000,-16537.675743,-20658.242185,-4013.188662,-27023.482564,4778.266523,-18061.260052,-59893.130945,-40263.739558,-0.094000,0.928000,0.312000,192.000000,0.000000,0.000000,0.000000,0.000000,0.000000,0.000000,0.000000,0.000000,0.000000,1648543066.303429,0.000000
206.000000,-16530.590240,-20653.593022,-4011.288763,-27018.811049,4780.300531,-18056.789703,-59916.376760,-40264.119537,-0.094000,0.928000,0.312000,192.000000,0.000000,0.000000,0.000000,0.000000,0.000000,0.000000,0.000000,0.000000,0.000000,1648543066.311514,0.000000
207.000000,-16511.703016,-20634.392874,-3977.045891,-27000.817895,4797.533726,-18049.883014,-59899.948227,-40241.633682,-0.094000,0.928000,0.312000,192.000000,0.000000,0.000000,0.000000,0.000000,0.000000,0.000000,0.000000,0.000000,0.000000,1648543066.311526,0.000000
208.000000,-16509.043158,-20631.196574,-3971.703824,-26995.408773,4806.943811,-18040.070598,-59866.711183,-40245.008796,-0.094000,0.928000,0.312000,192.000000,0.000000,0.000000,0.000000,0.000000,0.000000,0.000000,0.000000,0.000000,0.000000,1648543066.318657,0.000000
209.000000,-16509.959580,-20633.722321,-3983.505545,-27006.182314,4797.220802,-18045.926755,-59887.699471,-40245.589941,-0.094000,0.926000,0.320000,192.000000,253.000000,16.000000,28.000000,240.000000,10.000000,0.000000,0.000000,0.000000,0.000000,1648543066.325787,0.000000
210.000000,-16506.562115,-20624.267533,-3978.476403,-27011.613788,4790.403520,-18054.018087,-59884.614931,-40216.487970,-0.094000,0.926000,0.320000,192.000000,0.000000,0.000000,0.000000,0.000000,0.000000,0.000000,0.000000,0.000000,0.000000,1648543066.325804,0.000000
211.000000,-16518.185022,-20630.481318,-3998.749435,-27016.844096,4783.139203,-18061.818845,-59880.636320,-40246.573418,-0.094000,0.926000,0.320000,192.000000,0.000000,0.000000,0.000000,0.000000,0.000000,0.000000,0.000000,0.000000,0.000000,1648543066.333412,0.000000
212.000000,-16543.509548,-20657.906909,-4013.009848,-27037.362997,4766.643616,-18073.240587,-59927.463225,-40309.270061,-0.094000,0.926000,0.320000,192.000000,0.000000,0.000000,0.000000,0.000000,0.000000,0.000000,0.000000,0.000000,0.000000,1648543066.333429,0.000000
213.000000,-16542.973106,-20653.838891,-4009.455920,-27038.100605,4764.877828,-18076.235721,-59944.204681,-40309.940614,-0.094000,0.926000,0.320000,192.000000,0.000000,0.000000,0.000000,0.000000,0.000000,0.000000,0.000000,0.000000,0.000000,1648543066.341065,0.000000
214.000000,-16539.665048,-20649.994391,-4009.277106,-27040.849869,4764.654310,-18080.840180,-59924.713960,-40291.276907,-0.094000,0.926000,0.320000,192.000000,0.000000,0.000000,0.000000,0.000000,0.000000,0.000000,0.000000,0.000000,0.000000,1648543066.341090,0.000000
215.000000,-16530.009094,-20637.075083,-4005.477310,-27028.757576,4771.382185,-18076.906273,-59904.709149,-40269.886287,-0.094000,0.926000,0.320000,192.000000,0.000000,0.000000,0.000000,0.000000,0.000000,0.000000,0.000000,0.000000,0.000000,1648543066.349147,0.000000
216.000000,-16514.295818,-20625.988618,-3974.274275,-27014.832439,4787.676607,-18066.155084,-59888.258265,-40243.622988,-0.094000,0.926000,0.320000,192.000000,0.000000,0.000000,0.000000,0.000000,0.000000,0.000000,0.000000,0.000000,0.000000,1648543066.349155,0.000000
217.000000,-16514.809908,-20627.128557,-3970.541533,-27007.881046,4798.316037,-18049.793607,-59864.319547,-40221.561816,-0.094000,0.926000,0.320000,192.000000,0.000000,0.000000,0.000000,0.000000,0.000000,0.000000,0.000000,0.000000,0.000000,1648543066.355990,0.000000
218.000000,-16517.223897,-20629.520193,-3971.837934,-27012.574913,4795.007979,-18053.056962,-59880.502210,-40239.823191,-0.094000,0.926000,0.320000,192.000000,0.000000,0.000000,0.000000,0.000000,0.000000,0.000000,0.000000,0.000000,0.000000,1648543066.356006,0.000000
219.000000,-16512.239458,-20623.015836,-3970.429775,-27016.754689,4790.492927,-18065.216311,-59899.747062,-40249.322683,-0.088000,0.924000,0.318000,192.000000,253.000000,64.000000,28.000000,224.000000,9.000000,240.000000,0.000000,0.000000,0.000000,1648543066.363906,0.000000
220.000000,-16500.817716,-20614.030434,-3959.589179,-27005.332947,4800.573564,-18060.276575,-59892.259227,-40243.511229,-0.088000,0.924000,0.318000,192.000000,0.000000,0.000000,0.000000,0.000000,0.000000,0.000000,0.000000,0.000000,0.000000,1648543066.363922,0.000000
221.000000,-16502.739966,-20612.689330,-3953.375394,-27000.303805,4806.586183,-18051.447636,-59880.479858,-40242.460697,-0.088000,0.924000,0.318000,192.000000,0.000000,0.000000,0.000000,0.000000,0.000000,0.000000,0.000000,0.000000,0.000000,1648543066.373433,0.000000
222.000000,-16501.622379,-20607.146097,-3952.727193,-26996.124029,4807.547308,-18048.564261,-59845.186453,-40223.171142,-0.088000,0.924000,0.318000,192.000000,0.000000,0.000000,0.000000,0.000000,0.000000,0.000000,0.000000,0.000000,0.000000,1648543066.373449,0.000000
223.000000,-16523.281219,-20627.195612,-3979.348121,-27017.939331,4791.029369,-18054.375715,-59859.044535,-40256.810517,-0.088000,0.924000,0.318000,192.000000,0.000000,0.000000,0.000000,0.000000,0.000000,0.000000,0.000000,0.000000,0.000000,1648543066.379502,0.000000
224.000000,-16519.213202,-20624.267533,-3977.761147,-27019.280436,4786.715482,-18067.295023,-59901.691663,-40258.933933,-0.088000,0.924000,0.318000,192.000000,0.000000,0.000000,0.000000,0.000000,0.000000,0.000000,0.000000,0.000000,0.000000,1648543066.379519,0.000000
225.000000,-16516.285123,-20625.496879,-3967.904027,-27017.715814,4787.989532,-18068.524369,-59905.111480,-40265.594753,-0.088000,0.924000,0.318000,192.000000,0.000000,0.000000,0.000000,0.000000,0.000000,0.000000,0.000000,0.000000,0.000000,1648543066.385521,0.000000
226.000000,-16515.972199,-20628.000275,-3967.680510,-27014.586570,4795.432662,-18060.656555,-59906.631399,-40277.709398,-0.088000,0.924000,0.318000,192.000000,0.000000,0.000000,0.000000,0.000000,0.000000,0.000000,0.000000,0.000000,0.000000,1648543066.393556,0.000000
227.000000,-16518.721464,-20627.977923,-3974.318978,-27020.330968,4792.951619,-18064.255186,-59897.444832,-40258.978636,-0.088000,0.924000,0.318000,192.000000,0.000000,0.000000,0.000000,0.000000,0.000000,0.000000,0.000000,0.000000,0.000000,1648543066.393573,0.000000
228.000000,-16506.182135,-20618.053748,-3969.714519,-27017.358186,4797.801947,-18062.154122,-59887.677120,-40224.400487,-0.088000,0.924000,0.318000,192.000000,0.000000,0.000000,0.000000,0.000000,0.000000,0.000000,0.000000,0.000000,0.000000,1648543066.401581,0.000000
229.000000,-16511.345388,-20627.508536,-3972.553190,-27023.951951,4790.492927,-18071.050116,-59908.866573,-40258.397491,-0.104000,0.918000,0.314000,192.000000,252.000000,192.000000,28.000000,176.000000,9.000000,208.000000,0.000000,0.000000,0.000000,1648543066.401598,0.000000
230.000000,-16496.414423,-20614.008083,-3946.133428,-27008.752764,4804.820395,-18060.030706,-59878.937588,-40243.444174,-0.104000,0.918000,0.314000,192.000000,0.000000,0.000000,0.000000,0.000000,0.000000,0.000000,0.000000,0.000000,0.000000,1648543066.408753,0.000000
231.000000,-16502.985835,-20618.880763,-3950.424963,-27007.344604,4806.250907,-18045.502072,-59852.204901,-40232.402412,-0.104000,0.918000,0.314000,192.000000,0.000000,0.000000,0.000000,0.000000,0.000000,0.000000,0.000000,0.000000,0.000000,1648543066.408768,0.000000
232.000000,-16515.860440,-20625.765100,-3966.138240,-27014.631273,4795.946753,-18054.643936,-59853.478951,-40235.531656,-0.104000,0.918000,0.314000,192.000000,0.000000,0.000000,0.000000,0.000000,0.000000,0.000000,0.000000,0.000000,0.000000,1648543066.416277,0.000000
233.000000,-16505.489231,-20616.779699,-3965.601798,-27014.877142,4794.918572,-18066.512712,-59871.472105,-40249.903828,-0.104000,0.918000,0.314000,192.000000,0.000000,0.000000,0.000000,0.000000,0.000000,0.000000,0.000000,0.000000,0.000000,1648543066.416294,0.000000
234.000000,-16517.961504,-20630.682484,-3977.649388,-27027.148250,4785.642598,-18065.015145,-59906.474937,-40289.399360,-0.104000,0.918000,0.314000,192.000000,0.000000,0.000000,0.000000,0.000000,0.000000,0.000000,0.000000,0.000000,0.000000,1648543066.424094,0.000000
235.000000,-16524.063530,-20628.380254,-3980.108080,-27022.007349,4787.766014,-18055.269784,-59905.424405,-40269.662770,-0.104000,0.918000,0.314000,192.000000,0.000000,0.000000,0.000000,0.000000,0.000000,0.000000,0.000000,0.000000,0.000000,1648543066.424120,0.000000
236.000000,-16506.025673,-20615.103318,-3964.618321,-27006.651700,4802.026427,-18046.105569,-59898.920047,-40255.067081,-0.104000,0.918000,0.314000,192.000000,0.000000,0.000000,0.000000,0.000000,0.000000,0.000000,0.000000,0.000000,0.000000,1648543066.432255,0.000000
237.000000,-16524.398807,-20637.723283,-3974.006054,-27025.807145,4787.274276,-18064.702221,-59906.117309,-40279.318724,-0.104000,0.918000,0.314000,192.000000,0.000000,0.000000,0.000000,0.000000,0.000000,0.000000,0.000000,0.000000,0.000000,1648543066.432267,0.000000
238.000000,-16511.680664,-20617.494955,-3959.097440,-27016.441764,4794.404482,-18069.574901,-59888.057099,-40264.320703,-0.104000,0.918000,0.314000,192.000000,0.000000,0.000000,0.000000,0.000000,0.000000,0.000000,0.000000,0.000000,0.000000,1648543066.438544,0.000000
239.000000,-16490.513562,-20596.998405,-3945.619338,-27002.762497,4809.827186,-18057.773180,-59865.124210,-40246.238142,-0.104000,0.924000,0.328000,192.000000,252.000000,192.000000,28.000000,224.000000,10.000000,64.000000,0.000000,0.000000,0.000000,1648543066.438553,0.000000
240.000000,-16501.018882,-20606.632007,-3956.683452,-27016.262950,4796.751415,-18070.200750,-59863.716050,-40234.838752,-0.104000,0.924000,0.328000,192.000000,0.000000,0.000000,0.000000,0.000000,0.000000,0.000000,0.000000,0.000000,0.000000,1648543066.445752,0.000000
241.000000,-16501.756489,-20605.156792,-3959.030385,-27008.708061,4799.768901,-18056.253261,-59883.631454,-40253.860087,-0.104000,0.924000,0.328000,192.000000,0.000000,0.000000,0.000000,0.000000,0.000000,0.000000,0.000000,0.000000,0.000000,1648543066.453814,0.000000
242.000000,-16502.248228,-20599.948835,-3954.850609,-27010.473849,4802.249944,-18059.851892,-59901.266980,-40260.699720,-0.104000,0.924000,0.328000,192.000000,0.000000,0.000000,0.000000,0.000000,0.000000,0.000000,0.000000,0.000000,0.000000,1648543066.453831,0.000000
243.000000,-16505.086899,-20602.027548,-3955.208237,-27009.088040,4805.356837,-18057.795531,-59882.647977,-40250.417918,-0.104000,0.924000,0.328000,192.000000,0.000000,0.000000,0.000000,0.000000,0.000000,0.000000,0.000000,0.000000,0.000000,1648543066.462001,0.000000
244.000000,-16516.374530,-20611.147059,-3975.414214,-27029.428128,4784.145031,-18071.899482,-59906.407882,-40261.169107,-0.104000,0.924000,0.328000,192.000000,0.000000,0.000000,0.000000,0.000000,0.000000,0.000000,0.000000,0.000000,0.000000,1648543066.462017,0.000000
245.000000,-16507.880867,-20595.433783,-3959.835048,-27024.175468,4787.207220,-18078.023860,-59928.133777,-40259.805651,-0.104000,0.924000,0.328000,192.000000,0.000000,0.000000,0.000000,0.000000,0.000000,0.000000,0.000000,0.000000,0.000000,1648543066.468651,0.000000
246.000000,-16497.464955,-20570.824512,-3943.562978,-26995.006441,4812.464692,-18052.632279,-59896.081376,-40238.817363,-0.104000,0.924000,0.328000,192.000000,0.000000,0.000000,0.000000,0.000000,0.000000,0.000000,0.000000,0.000000,0.000000,1648543066.468668,0.000000
247.000000,-16521.783653,-20597.266626,-3980.778632,-27018.632235,4786.693130,-18071.407744,-59909.112443,-40265.974732,-0.104000,0.924000,0.328000,192.000000,0.000000,0.000000,0.000000,0.000000,0.000000,0.000000,0.000000,0.000000,0.000000,1648543066.476421,0.000000
248.000000,-16518.989684,-20595.165562,-3970.429775,-27022.610846,4782.334540,-18080.884884,-59919.014265,-40268.902811,-0.104000,0.924000,0.328000,192.000000,0.000000,0.000000,0.000000,0.000000,0.000000,0.000000,0.000000,0.000000,0.000000,1648543066.476438,0.000000
249.000000,-16523.840013,-20596.372556,-3974.073109,-27025.427166,4779.004130,-18077.018032,-59914.499213,-40270.758005,-0.092000,0.922000,0.316000,192.000000,253.000000,32.000000,28.000000,208.000000,9.000000,224.000000,0.000000,0.000000,0.000000,1648543066.484615,0.000000
250.000000,-16524.778786,-20594.986748,-3979.772804,-27040.939276,4765.727194,-18101.582599,-59920.981219,-40264.320703,-0.092000,0.922000,0.316000,192.000000,0.000000,0.000000,0.000000,0.000000,0.000000,0.000000,0.000000,0.000000,0.000000,1648543066.484632,0.000000
251.000000,-16524.957600,-20591.455172,-3974.341330,-27034.792547,4777.059528,-18090.563189,-59912.554611,-40262.241991,-0.092000,0.922000,0.316000,192.000000,0.000000,0.000000,0.000000,0.000000,0.000000,0.000000,0.000000,0.000000,0.000000,1648543066.491052,0.000000
252.000000,-16526.499871,-20589.667033,-3984.690188,-27029.696349,4781.865154,-18077.956805,-59918.813100,-40283.632610,-0.092000,0.922000,0.316000,192.000000,0.000000,0.000000,0.000000,0.000000,0.000000,0.000000,0.000000,0.000000,0.000000,1648543066.491068,0.000000
253.000000,-16512.373568,-20573.037335,-3979.772804,-27025.516573,4785.977875,-18079.700241,-59894.807326,-40236.939816,-0.092000,0.922000,0.316000,192.000000,0.000000,0.000000,0.000000,0.000000,0.000000,0.000000,0.000000,0.000000,0.000000,1648543066.499156,0.000000
254.000000,-16520.151975,-20577.977071,-3971.368548,-27033.809070,4782.848630,-18078.537950,-59888.973521,-40248.562723,-0.092000,0.922000,0.316000,192.000000,0.000000,0.000000,0.000000,0.000000,0.000000,0.000000,0.000000,0.000000,0.000000,1648543066.499173,0.000000
255.000000,-16532.780711,-20595.724356,-3995.843708,-27039.397006,4770.778688,-18084.282349,-59948.406809,-40286.426578,-0.092000,0.922000,0.316000,192.000000,0.000000,0.000000,0.000000,0.000000,0.000000,0.000000,0.000000,0.000000,0.000000,1648543066.506169,0.000000
0.000000,-16521.850708,-20588.325928,-3981.203315,-27037.564163,4778.087709,-18087.031613,-59936.113350,-40273.753139,-0.092000,0.922000,0.316000,192.000000,0.000000,0.000000,0.000000,0.000000,0.000000,0.000000,0.000000,0.000000,0.000000,1648543066.513886,0.000000
1.000000,-16517.089786,-20583.095620,-3971.748527,-27029.651645,4785.128508,-18076.459238,-59925.898603,-40275.921258,-0.092000,0.922000,0.316000,192.000000,0.000000,0.000000,0.000000,0.000000,0.000000,0.000000,0.000000,0.000000,0.000000,1648543066.513909,0.000000
2.000000,-16511.255981,-20576.859483,-3970.765051,-27024.309578,4787.296627,-18075.386354,-59909.112443,-40263.225468,-0.092000,0.922000,0.316000,192.000000,0.000000,0.000000,0.000000,0.000000,0.000000,0.000000,0.000000,0.000000,0.000000,1648543066.520644,0.000000
3.000000,-16500.191867,-20567.739972,-3961.846705,-27020.398023,4789.442395,-18071.541854,-59900.887001,-40263.896020,-0.092000,0.928000,0.316000,192.000000,253.000000,32.000000,29.000000,0.000000,9.000000,224.000000,0.000000,0.000000,0.000000,1648543066.520658,0.000000
4.000000,-16504.908085,-20571.740934,-3970.295664,-27030.277494,4780.099366,-18084.684680,-59878.557608,-40246.394604,-0.092000,0.928000,0.316000,192.000000,0.000000,0.000000,0.000000,0.000000,0.000000,0.000000,0.000000,0.000000,0.000000,1648543066.528784,0.000000
5.000000,-16542.235499,-20604.665053,-4003.867984,-27057.188995,4755.780668,-18110.031558,-59928.424350,-40282.224450,-0.092000,0.928000,0.316000,192.000000,0.000000,0.000000,0.000000,0.000000,0.000000,0.000000,0.000000,0.000000,0.000000,1648543066.528796,0.000000
6.000000,-16510.674836,-20576.993594,-3966.764088,-27031.797413,4780.792270,-18082.695375,-59936.739199,-40295.523738,-0.092000,0.928000,0.316000,192.000000,0.000000,0.000000,0.000000,0.000000,0.000000,0.000000,0.000000,0.000000,0.000000,1648543066.536764,0.000000
7.000000,-16529.003266,-20595.344376,-3991.909801,-27040.760462,4768.275293,-18083.209465,-59949.591452,-40283.118520,-0.092000,0.928000,0.316000,192.000000,0.000000,0.000000,0.000000,0.000000,0.000000,0.000000,0.000000,0.000000,0.000000,1648543066.536780,0.000000
8.000000,-16527.460996,-20593.377422,-3996.290743,-27046.080178,4763.849648,-18093.223046,-59944.517606,-40277.374122,-0.092000,0.928000,0.316000,192.000000,0.000000,0.000000,0.000000,0.000000,0.000000,0.000000,0.000000,0.000000,0.000000,1648543066.543791,0.000000
9.000000,-16509.467841,-20578.915844,-3967.702862,-27029.897515,4783.474479,-18079.007337,-59922.545841,-40275.049540,-0.092000,0.928000,0.316000,192.000000,0.000000,0.000000,0.000000,0.000000,0.000000,0.000000,0.000000,0.000000,0.000000,1648543066.543807,0.000000
10.000000,-16499.901295,-20562.733181,-3959.477420,-27020.263913,4797.019636,-18062.265880,-59901.892829,-40253.994197,-0.092000,0.928000,0.316000,192.000000,0.000000,0.000000,0.000000,0.000000,0.000000,0.000000,0.000000,0.000000,0.000000,1648543066.551498,0.000000
11.000000,-16493.732213,-20560.140378,-3953.621263,-27011.703195,4802.451110,-18051.626450,-59895.880210,-40230.815438,-0.092000,0.928000,0.316000,192.000000,0.000000,0.000000,0.000000,0.000000,0.000000,0.000000,0.000000,0.000000,0.000000,1648543066.551515,0.000000
12.000000,-16510.987760,-20579.742858,-3971.837934,-27026.187125,4783.228610,-18074.894616,-59885.173724,-40235.755174,-0.092000,0.928000,0.316000,192.000000,0.000000,0.000000,0.000000,0.000000,0.000000,0.000000,0.000000,0.000000,0.000000,1648543066.559258,0.000000
13.000000,-16529.003266,-20599.166524,-4004.426778,-27049.075311,4758.596988,-18092.597198,-59923.059931,-40286.828910,-0.098000,0.928000,0.314000,192.000000,252.000000,240.000000,29.000000,0.000000,9.000000,208.000000,0.000000,0.000000,0.000000,1648543066.559275,0.000000
14.000000,-16522.543612,-20587.454210,-3988.489984,-27048.225945,4760.988624,-18091.971349,-59945.389324,-40292.953288,-0.098000,0.928000,0.314000,192.000000,0.000000,0.000000,0.000000,0.000000,0.000000,0.000000,0.000000,0.000000,0.000000,1648543066.566556,0.000000
15.000000,-16518.609705,-20582.939158,-3977.582333,-27049.097663,4763.782592,-18088.663291,-59936.783902,-40290.852224,-0.098000,0.928000,0.314000,192.000000,0.000000,0.000000,0.000000,0.000000,0.000000,0.000000,0.000000,0.000000,0.000000,1648543066.573559,0.000000
16.000000,-16513.200583,-20576.434800,-3974.006054,-27035.083119,4773.907933,-18079.923758,-59931.888870,-40285.979543,-0.098000,0.928000,0.314000,192.000000,0.000000,0.000000,0.000000,0.000000,0.000000,0.000000,0.000000,0.000000,0.000000,1648543066.573576,0.000000
17.000000,-16507.769109,-20573.193797,-3969.647464,-27024.600151,4786.134337,-18064.188130,-59921.875289,-40253.971845,-0.098000,0.928000,0.314000,192.000000,0.000000,0.000000,0.000000,0.000000,0.000000,0.000000,0.000000,0.000000,0.000000,1648543066.581001,0.000000
18.000000,-16494.626283,-20562.733181,-3961.779649,-27018.207552,4792.281066,-18060.276575,-59908.307780,-40253.413052,-0.098000,0.928000,0.314000,192.000000,0.000000,0.000000,0.000000,0.000000,0.000000,0.000000,0.000000,0.000000,0.000000,1648543066.581019,0.000000
19.000000,-16487.116097,-20554.507739,-3953.621263,-27010.563256,4799.947715,-18053.302831,-59870.354518,-40235.129325,-0.098000,0.928000,0.314000,192.000000,0.000000,0.000000,0.000000,0.000000,0.000000,0.000000,0.000000,0.000000,0.000000,1648543066.589021,0.000000
20.000000,-16506.629170,-20574.244329,-3975.190696,-27023.191991,4782.356892,-18069.485494,-59880.144582,-40254.105956,-0.098000,0.928000,0.314000,192.000000,0.000000,0.000000,0.000000,0.000000,0.000000,0.000000,0.000000,0.000000,0.000000,1648543066.589038,0.000000
21.000000,-16517.358007,-20586.403678,-3972.106155,-27033.227924,4773.729119,-18077.241549,-59922.054103,-40281.106863,-0.098000,0.928000,0.314000,192.000000,0.000000,0.000000,0.000000,0.000000,0.000000,0.000000,0.000000,0.000000,0.000000,1648543066.597017,0.000000
22.000000,-16512.105347,-20576.255986,-3967.367586,-27025.896552,4786.559020,-18061.192997,-59920.824757,-40258.777470,-0.098000,0.928000,0.314000,192.000000,0.000000,0.000000,0.000000,0.000000,0.000000,0.000000,0.000000,0.000000,0.000000,1648543066.597052,0.000000
23.000000,-16512.932362,-20574.579605,-3979.973969,-27026.365939,4780.926380,-18068.993755,-59918.813100,-40248.026281,-0.098000,0.928000,0.314000,192.000000,0.000000,0.000000,0.000000,0.000000,0.000000,0.000000,0.000000,0.000000,0.000000,1648543066.603600,0.000000
24.000000,-16509.646655,-20569.505759,-3982.298551,-27028.131727,4776.456031,-18076.794514,-59907.100786,-40247.199267,-0.094000,0.930000,0.304000,192.000000,253.000000,16.000000,29.000000,16.000000,9.000000,128.000000,0.000000,0.000000,0.000000,1648543066.603617,0.000000
25.000000,-16500.370681,-20565.102466,-3965.087708,-27021.537962,4785.195563,-18063.048191,-59890.024053,-40235.822229,-0.094000,0.930000,0.304000,192.000000,0.000000,0.000000,0.000000,0.000000,0.000000,0.000000,0.000000,0.000000,0.000000,1648543066.611685,0.000000
26.000000,-16511.054815,-20580.346355,-3968.753394,-27022.789660,4788.503622,-18048.653668,-59903.613913,-40247.355729,-0.094000,0.930000,0.304000,192.000000,0.000000,0.000000,0.000000,0.000000,0.000000,0.000000,0.000000,0.000000,0.000000,1648543066.611701,0.000000
27.000000,-16505.623341,-20567.851730,-3975.727138,-27019.325139,4792.281066,-18047.804302,-59901.937533,-40252.049595,-0.094000,0.930000,0.304000,192.000000,0.000000,0.000000,0.000000,0.000000,0.000000,0.000000,0.000000,0.000000,0.000000,1648543066.619489,0.000000
28.000000,-16501.197696,-20560.989745,-3972.530839,-27018.028738,4788.145994,-18056.342668,-59887.297140,-40244.785278,-0.094000,0.930000,0.304000,192.000000,0.000000,0.000000,0.000000,0.000000,0.000000,0.000000,0.000000,0.000000,0.000000,1648543066.619505,0.000000
29.000000,-16499.677777,-20563.448437,-3968.663987,-27017.738166,4789.911782,-18048.005467,-59885.039614,-40234.391717,-0.094000,0.930000,0.304000,192.000000,0.000000,0.000000,0.000000,0.000000,0.000000,0.000000,0.000000,0.000000,0.000000,1648543066.625686,0.000000
30.000000,-16518.542650,-20580.793390,-3983.684359,-27041.609829,4772.455069,-18063.316412,-59895.679044,-40264.119537,-0.094000,0.930000,0.304000,192.000000,0.000000,0.000000,0.000000,0.000000,0.000000,0.000000,0.000000,0.000000,0.000000,1648543066.625697,0.000000
31.000000,-16526.455167,-20587.007175,-3992.915629,-27047.108358,4763.469668,-18070.692488,-59916.801443,-40275.138947,-0.094000,0.930000,0.304000,192.000000,0.000000,0.000000,0.000000,0.000000,0.000000,0.000000,0.000000,0.000000,0.000000,1648543066.633278,0.000000
32.000000,-16531.730179,-20593.556236,-3987.350045,-27045.454329,4765.302511,-18060.790665,-59914.387454,-40268.947514,-0.094000,0.930000,0.304000,192.000000,0.000000,0.000000,0.000000,0.000000,0.000000,0.000000,0.000000,0.000000,0.000000,1648543066.641413,0.000000
33.000000,-16509.177269,-20567.650565,-3966.205295,-27025.315407,4780.412290,-18055.917985,-59889.465259,-40260.207982,-0.094000,0.930000,0.304000,192.000000,0.000000,0.000000,0.000000,0.000000,0.000000,0.000000,0.000000,0.000000,0.000000,1648543066.641429,0.000000
34.000000,-16490.379452,-20548.048085,-3949.977928,-27007.299901,4796.438491,-18042.484587,-59859.603329,-40234.771697,-0.092000,0.936000,0.300000,192.000000,253.000000,32.000000,29.000000,64.000000,9.000000,96.000000,0.000000,0.000000,0.000000,1648543066.649426,0.000000
35.000000,-16528.466824,-20583.006213,-3976.732967,-27030.679826,4777.260694,-18055.560357,-59868.722840,-40230.703679,-0.092000,0.936000,0.300000,192.000000,0.000000,0.000000,0.000000,0.000000,0.000000,0.000000,0.000000,0.000000,0.000000,1648543066.649442,0.000000
36.000000,-16547.376400,-20590.963434,-3995.575487,-27045.431977,4760.943921,-18079.744945,-59925.608030,-40267.785223,-0.092000,0.936000,0.300000,192.000000,0.000000,0.000000,0.000000,0.000000,0.000000,0.000000,0.000000,0.000000,0.000000,1648543066.656014,0.000000
37.000000,-16529.159728,-20584.280263,-3979.728100,-27029.271666,4782.356892,-18060.477741,-59903.233934,-40274.468395,-0.092000,0.936000,0.300000,192.000000,0.000000,0.000000,0.000000,0.000000,0.000000,0.000000,0.000000,0.000000,0.000000,1648543066.656031,0.000000
38.000000,-16509.445490,-20566.331812,-3965.132411,-27017.492296,4795.186793,-18053.101665,-59873.036727,-40226.769772,-0.092000,0.936000,0.300000,192.000000,0.000000,0.000000,0.000000,0.000000,0.000000,0.000000,0.000000,0.000000,0.000000,1648543066.663961,0.000000
39.000000,-16531.394903,-20584.637890,-3988.557039,-27033.809070,4774.623188,-18077.330956,-59875.160143,-40236.917464,-0.092000,0.936000,0.300000,192.000000,0.000000,0.000000,0.000000,0.000000,0.000000,0.000000,0.000000,0.000000,0.000000,1648543066.663977,0.000000
40.000000,-16535.172347,-20588.795315,-3978.208182,-27038.838212,4778.892372,-18080.795477,-59934.235803,-40284.236107,-0.092000,0.936000,0.300000,192.000000,0.000000,0.000000,0.000000,0.000000,0.000000,0.000000,0.000000,0.000000,0.000000,1648543066.672005,0.000000
41.000000,-16510.585429,-20564.789541,-3960.080917,-27021.113279,4798.293686,-18064.344593,-59911.749948,-40234.168200,-0.092000,0.936000,0.300000,192.000000,0.000000,0.000000,0.000000,0.000000,0.000000,0.000000,0.000000,0.000000,0.000000,1648543066.672023,0.000000
42.000000,-16522.878888,-20571.495065,-3977.358815,-27025.069538,4789.509450,-18068.300851,-59899.300027,-40247.936874,-0.092000,0.936000,0.300000,192.000000,0.000000,0.000000,0.000000,0.000000,0.000000,0.000000,0.000000,0.000000,0.000000,1648543066.678782,0.000000
43.000000,-16527.148071,-20581.173370,-3970.943865,-27027.327064,4788.570677,-18065.350421,-59891.901599,-40243.578284,-0.092000,0.936000,0.300000,192.000000,0.000000,0.000000,0.000000,0.000000,0.000000,0.000000,0.000000,0.000000,0.000000,1648543066.678818,0.000000
44.000000,-16531.350199,-20589.912902,-3984.064339,-27030.612770,4783.161555,-18062.444694,-59902.384568,-40262.554915,-0.088000,0.938000,0.292000,192.000000,253.000000,64.000000,29.000000,80.000000,9.000000,32.000000,0.000000,0.000000,0.000000,1648543066.686604,0.000000
45.000000,-16522.610667,-20576.099524,-3982.007978,-27031.797413,4786.111985,-18062.690564,-59885.710166,-40257.302255,-0.088000,0.938000,0.292000,192.000000,0.000000,0.000000,0.000000,0.000000,0.000000,0.000000,0.000000,0.000000,0.000000,1648543066.686621,0.000000
46.000000,-16515.569868,-20563.336678,-3957.622225,-27012.396099,4806.161500,-18047.603136,-59845.029991,-40224.176970,-0.088000,0.938000,0.292000,192.000000,0.000000,0.000000,0.000000,0.000000,0.000000,0.000000,0.000000,0.000000,0.000000,1648543066.693675,0.000000
47.000000,-16554.864234,-20605.313254,-3993.295609,-27048.896497,4773.438546,-18083.254168,-59920.109501,-40280.056331,-0.088000,0.938000,0.292000,192.000000,0.000000,0.000000,0.000000,0.000000,0.000000,0.000000,0.000000,0.000000,0.000000,1648543066.701722,0.000000
48.000000,-16552.338487,-20610.364748,-3983.840821,-27050.505823,4776.724252,-18081.153104,-59930.927745,-40272.076758,-0.088000,0.938000,0.292000,192.000000,0.000000,0.000000,0.000000,0.000000,0.000000,0.000000,0.000000,0.000000,0.000000,1648543066.701739,0.000000
49.000000,-16546.482330,-20600.105298,-3974.050757,-27041.363959,4787.542497,-18061.863549,-59897.958922,-40252.116651,-0.088000,0.938000,0.292000,192.000000,0.000000,0.000000,0.000000,0.000000,0.000000,0.000000,0.000000,0.000000,0.000000,1648543066.708700,0.000000
50.000000,-16533.607725,-20586.068402,-3964.975949,-27030.724529,4795.209145,-18054.912156,-59868.074640,-40235.352842,-0.088000,0.938000,0.292000,192.000000,0.000000,0.000000,0.000000,0.000000,0.000000,0.000000,0.000000,0.000000,0.000000,1648543066.708716,0.000000
51.000000,-16548.605746,-20604.218019,-3974.050757,-27043.353265,4785.016750,-18061.327107,-59884.480820,-40250.820249,-0.088000,0.938000,0.292000,192.000000,0.000000,0.000000,0.000000,0.000000,0.000000,0.000000,0.000000,0.000000,0.000000,1648543066.716280,0.000000
52.000000,-16560.586281,-20613.426937,-3982.164440,-27047.354227,4780.255828,-18062.534101,-59908.464242,-40245.634645,-0.088000,0.938000,0.292000,192.000000,0.000000,0.000000,0.000000,0.000000,0.000000,0.000000,0.000000,0.000000,0.000000,1648543066.716297,0.000000
53.000000,-16547.197586,-20605.648530,-3970.362719,-27041.140442,4784.368549,-18061.662383,-59896.327245,-40247.892171,-0.088000,0.938000,0.292000,192.000000,0.000000,0.000000,0.000000,0.000000,0.000000,0.000000,0.000000,0.000000,0.000000,1648543066.724111,0.000000
54.000000,-16542.459016,-20601.848734,-3956.012899,-27039.061730,4785.776709,-18057.169683,-59871.852085,-40246.796935,-0.086000,0.940000,0.290000,192.000000,253.000000,80.000000,29.000000,96.000000,9.000000,16.000000,0.000000,0.000000,0.000000,1648543066.724127,0.000000
55.000000,-16547.644621,-20593.153905,-3965.065356,-27036.625390,4790.448223,-18049.726552,-59844.314735,-40218.633737,-0.086000,0.940000,0.290000,192.000000,0.000000,0.000000,0.000000,0.000000,0.000000,0.000000,0.000000,0.000000,0.000000,1648543066.732215,0.000000
56.000000,-16587.944816,-20630.280153,-4002.459824,-27069.951841,4759.535761,-18078.001508,-59911.369969,-40282.336209,-0.086000,0.940000,0.290000,192.000000,0.000000,0.000000,0.000000,0.000000,0.000000,0.000000,0.000000,0.000000,0.000000,1648543066.732231,0.000000
57.000000,-16586.536656,-20627.664998,-3994.636714,-27062.464006,4767.090650,-18076.749811,-59938.504987,-40252.116651,-0.086000,0.940000,0.290000,192.000000,0.000000,0.000000,0.000000,0.000000,0.000000,0.000000,0.000000,0.000000,0.000000,1648543066.738569,0.000000
58.000000,-16566.040107,-20601.938141,-3978.811679,-27047.823614,4781.865154,-18077.375660,-59877.775297,-40231.485990,-0.086000,0.940000,0.290000,192.000000,0.000000,0.000000,0.000000,0.000000,0.000000,0.000000,0.000000,0.000000,0.000000,1648543066.738582,0.000000
59.000000,-16568.409391,-20606.319083,-3973.894295,-27057.814843,4775.852534,-18081.331918,-59903.390396,-40283.811424,-0.086000,0.940000,0.290000,192.000000,0.000000,0.000000,0.000000,0.000000,0.000000,0.000000,0.000000,0.000000,0.000000,1648543066.746592,0.000000
60.000000,-16568.945833,-20609.783603,-3969.021615,-27056.138463,4782.870982,-18070.334860,-59908.888925,-40252.720148,-0.086000,0.940000,0.290000,192.000000,0.000000,0.000000,0.000000,0.000000,0.000000,0.000000,0.000000,0.000000,0.000000,1648543066.746601,0.000000
61.000000,-16568.185874,-20612.845792,-3973.670778,-27055.825538,4782.848630,-18075.632224,-59897.668349,-40262.845488,-0.086000,0.940000,0.290000,192.000000,0.000000,0.000000,0.000000,0.000000,0.000000,0.000000,0.000000,0.000000,0.000000,1648543066.753893,0.000000
62.000000,-16575.539598,-20619.908943,-3988.713502,-27062.128730,4772.544476,-18084.684680,-59904.955018,-40286.761855,-0.086000,0.940000,0.290000,192.000000,0.000000,0.000000,0.000000,0.000000,0.000000,0.000000,0.000000,0.000000,0.000000,1648543066.761851,0.000000
63.000000,-16568.588205,-20604.218019,-3974.922475,-27052.539832,4778.557095,-18077.040383,-59871.963843,-40253.502459,-0.086000,0.940000,0.290000,192.000000,0.000000,0.000000,0.000000,0.000000,0.000000,0.000000,0.000000,0.000000,0.000000,1648543066.761867,0.000000
64.000000,-16585.173200,-20623.395815,-3988.601743,-27064.028628,4763.156743,-18081.980119,-59907.078434,-40273.574325,-0.090000,0.940000,0.288000,192.000000,253.000000,48.000000,29.000000,96.000000,9.000000,0.000000,0.000000,0.000000,0.000000,1648543066.768556,0.000000
65.000000,-16588.481258,-20623.217001,-3990.367531,-27061.994620,4763.849648,-18082.695375,-59921.919992,-40273.328456,-0.090000,0.940000,0.288000,192.000000,0.000000,0.000000,0.000000,0.000000,0.000000,0.000000,0.000000,0.000000,0.000000,1648543066.768593,0.000000
66.000000,-16582.982729,-20616.310312,-3988.802909,-27056.473739,4773.013863,-18069.396087,-59921.808233,-40263.113709,-0.090000,0.940000,0.288000,192.000000,0.000000,0.000000,0.000000,0.000000,0.000000,0.000000,0.000000,0.000000,0.000000,1648543066.776583,0.000000
67.000000,-16594.627988,-20626.726225,-4003.242135,-27060.005314,4766.934188,-18071.541854,-59913.336922,-40285.577212,-0.090000,0.940000,0.288000,192.000000,0.000000,0.000000,0.000000,0.000000,0.000000,0.000000,0.000000,0.000000,0.000000,1648543066.776599,0.000000
68.000000,-16580.658147,-20614.321007,-3992.088615,-27058.485396,4766.263636,-18080.147276,-59923.104635,-40263.448985,-0.090000,0.940000,0.288000,192.000000,0.000000,0.000000,0.000000,0.000000,0.000000,0.000000,0.000000,0.000000,0.000000,1648543066.784468,0.000000
69.000000,-16575.696060,-20607.883705,-3986.925362,-27051.891631,4767.917665,-18079.968462,-59909.581829,-40257.414014,-0.090000,0.940000,0.288000,192.000000,0.000000,0.000000,0.000000,0.000000,0.000000,0.000000,0.000000,0.000000,0.000000,1648543066.784479,0.000000
70.000000,-16567.358859,-20606.184972,-3982.320903,-27051.221079,4769.750508,-18085.019956,-59897.802460,-40245.232313,-0.090000,0.940000,0.288000,192.000000,0.000000,0.000000,0.000000,0.000000,0.000000,0.000000,0.000000,0.000000,0.000000,1648543066.791149,0.000000
71.000000,-16571.829208,-20608.666016,-3985.517202,-27051.399893,4768.610569,-18082.091878,-59904.105652,-40245.098203,-0.090000,0.940000,0.288000,192.000000,0.000000,0.000000,0.000000,0.000000,0.000000,0.000000,0.000000,0.000000,0.000000,1648543066.791165,0.000000
72.000000,-16578.087697,-20618.880763,-3994.457900,-27060.228832,4755.959482,-18096.642863,-59912.599315,-40288.035904,-0.090000,0.940000,0.288000,192.000000,0.000000,0.000000,0.000000,0.000000,0.000000,0.000000,0.000000,0.000000,0.000000,1648543066.799247,0.000000
73.000000,-16551.176196,-20597.780716,-3966.384109,-27043.934410,4771.851572,-18087.791573,-59895.902562,-40255.178840,-0.090000,0.940000,0.288000,192.000000,0.000000,0.000000,0.000000,0.000000,0.000000,0.000000,0.000000,0.000000,0.000000,1648543066.799265,0.000000
74.000000,-16552.338487,-20597.423088,-3962.360795,-27039.933448,4779.518220,-18081.130753,-59882.245646,-40254.552991,-0.090000,0.936000,0.288000,192.000000,253.000000,48.000000,29.000000,64.000000,9.000000,0.000000,0.000000,0.000000,0.000000,1648543066.807240,0.000000
75.000000,-16561.614461,-20610.431804,-3969.938036,-27038.547640,4785.128508,-18069.016107,-59902.250457,-40255.089433,-0.090000,0.936000,0.288000,192.000000,0.000000,0.000000,0.000000,0.000000,0.000000,0.000000,0.000000,0.000000,0.000000,1648543066.807257,0.000000
76.000000,-16588.995348,-20634.996371,-4001.945734,-27072.566995,4751.712650,-18106.030596,-59921.495309,-40288.058256,-0.090000,0.936000,0.288000,192.000000,0.000000,0.000000,0.000000,0.000000,0.000000,0.000000,0.000000,0.000000,0.000000,1648543066.814255,0.000000
77.000000,-16571.471580,-20616.936161,-3988.713502,-27066.867300,4762.352081,-18102.677834,-59891.767489,-40251.736671,-0.090000,0.936000,0.288000,192.000000,0.000000,0.000000,0.000000,0.000000,0.000000,0.000000,0.000000,0.000000,0.000000,1648543066.820790,0.000000
78.000000,-16554.417199,-20603.212190,-3971.256789,-27048.740035,4777.037177,-18083.768259,-59875.495419,-40248.942703,-0.090000,0.936000,0.288000,192.000000,0.000000,0.000000,0.000000,0.000000,0.000000,0.000000,0.000000,0.000000,0.000000,1648543066.820806,0.000000
79.000000,-16564.676650,-20612.443461,-3982.298551,-27052.003390,4774.444374,-18071.743020,-59913.426329,-40276.882383,-0.090000,0.936000,0.288000,192.000000,0.000000,0.000000,0.000000,0.000000,0.000000,0.000000,0.000000,0.000000,0.000000,1648543066.828731,0.000000
80.000000,-16562.910862,-20607.302559,-3979.258714,-27046.437805,4781.060491,-18069.239625,-59919.036617,-40273.082587,-0.090000,0.936000,0.288000,192.000000,0.000000,0.000000,0.000000,0.000000,0.000000,0.000000,0.000000,0.000000,0.000000,1648543066.828743,0.000000
81.000000,-16554.238385,-20600.597036,-3967.121716,-27036.535983,4792.951619,-18067.585596,-59882.223294,-40258.755119,-0.090000,0.936000,0.288000,192.000000,0.000000,0.000000,0.000000,0.000000,0.000000,0.000000,0.000000,0.000000,0.000000,1648543066.836645,0.000000
82.000000,-16570.398697,-20616.757347,-3978.744624,-27046.437805,4781.775747,-18078.336785,-59911.258210,-40288.594698,-0.090000,0.936000,0.288000,192.000000,0.000000,0.000000,0.000000,0.000000,0.000000,0.000000,0.000000,0.000000,0.000000,1648543066.836656,0.000000
83.000000,-16560.787447,-20604.575646,-3968.842801,-27042.101567,4781.731043,-18082.069526,-59912.711073,-40269.975694,-0.090000,0.936000,0.288000,192.000000,0.000000,0.000000,0.000000,0.000000,0.000000,0.000000,0.000000,0.000000,0.000000,1648543066.843728,0.000000
84.000000,-16570.398697,-20611.929370,-3980.421004,-27051.198727,4767.671796,-18091.546666,-59903.211582,-40271.897944,-0.084000,0.932000,0.292000,192.000000,253.000000,96.000000,29.000000,32.000000,9.000000,32.000000,0.000000,0.000000,0.000000,1648543066.843767,0.000000
85.000000,-16562.620290,-20608.174277,-3979.593990,-27047.778910,4768.923493,-18085.466991,-59907.167841,-40260.386796,-0.084000,0.932000,0.292000,192.000000,0.000000,0.000000,0.000000,0.000000,0.000000,0.000000,0.000000,0.000000,0.000000,1648543066.851320,0.000000
86.000000,-16571.181008,-20619.506612,-3985.584257,-27050.528175,4764.475496,-18083.030651,-59916.108539,-40273.127290,-0.084000,0.932000,0.292000,192.000000,0.000000,0.000000,0.000000,0.000000,0.000000,0.000000,0.000000,0.000000,0.000000,1648543066.851346,0.000000
87.000000,-16560.742743,-20603.592170,-3975.973007,-27039.553468,4777.953598,-18073.285290,-59899.188268,-40258.755119,-0.084000,0.932000,0.292000,192.000000,0.000000,0.000000,0.000000,0.000000,0.000000,0.000000,0.000000,0.000000,0.000000,1648543066.860765,0.000000
88.000000,-16557.613499,-20597.400736,-3982.924400,-27041.296904,4774.176153,-18077.710936,-59869.751021,-40244.002967,-0.084000,0.932000,0.292000,192.000000,0.000000,0.000000,0.000000,0.000000,0.000000,0.000000,0.000000,0.000000,0.000000,1648543066.860781,0.000000
89.000000,-16573.416182,-20613.806917,-3991.730987,-27064.408608,4757.814677,-18101.403785,-59879.943416,-40272.210869,-0.084000,0.932000,0.292000,192.000000,0.000000,0.000000,0.000000,0.000000,0.000000,0.000000,0.000000,0.000000,0.000000,1648543066.867219,0.000000
90.000000,-16569.214054,-20611.370577,-3978.409347,-27052.405721,4767.604741,-18097.358119,-59927.060893,-40280.704532,-0.084000,0.932000,0.292000,192.000000,0.000000,0.000000,0.000000,0.000000,0.000000,0.000000,0.000000,0.000000,0.000000,1648543066.867234,0.000000
91.000000,-16571.628043,-20616.042091,-3984.332560,-27048.985904,4775.472555,-18082.091878,-59907.637227,-40277.664695,-0.084000,0.932000,0.292000,192.000000,0.000000,0.000000,0.000000,0.000000,0.000000,0.000000,0.000000,0.000000,0.000000,1648543066.873642,0.000000
92.000000,-16586.201380,-20630.570725,-4011.221708,-27074.757466,4752.852589,-18107.081128,-59913.851012,-40270.400378,-0.084000,0.932000,0.292000,192.000000,0.000000,0.000000,0.000000,0.000000,0.000000,0.000000,0.000000,0.000000,0.000000,1648543066.873659,0.000000
93.000000,-16572.164485,-20618.612542,-3989.808737,-27069.661268,4757.635863,-18112.154974,-59901.892829,-40278.782282,-0.084000,0.932000,0.292000,192.000000,0.000000,0.000000,0.000000,0.000000,0.000000,0.000000,0.000000,0.000000,0.000000,1648543066.881198,0.000000
94.000000,-16570.219883,-20620.087757,-3990.792214,-27070.801207,4754.417211,-18114.054872,-59913.359274,-40262.778433,-0.082000,0.932000,0.290000,192.000000,253.000000,112.000000,29.000000,32.000000,9.000000,16.000000,0.000000,0.000000,0.000000,1648543066.889052,0.000000
95.000000,-16548.359877,-20602.452231,-3971.256789,-27047.935372,4776.388976,-18097.559285,-59888.928817,-40248.249799,-0.082000,0.932000,0.290000,192.000000,0.000000,0.000000,0.000000,0.000000,0.000000,0.000000,0.000000,0.000000,0.000000,1648543066.889068,0.000000
96.000000,-16561.905034,-20616.444423,-3986.299513,-27050.148195,4772.969159,-18099.481535,-59897.400129,-40252.563685,-0.082000,0.932000,0.290000,192.000000,0.000000,0.000000,0.000000,0.000000,0.000000,0.000000,0.000000,0.000000,0.000000,1648543066.897068,0.000000
97.000000,-16568.230577,-20623.261705,-3991.552173,-27065.481492,4764.699014,-18108.913971,-59901.870477,-40270.422729,-0.082000,0.932000,0.290000,192.000000,0.000000,0.000000,0.000000,0.000000,0.000000,0.000000,0.000000,0.000000,0.000000,1648543066.897085,0.000000
98.000000,-16565.682479,-20611.527039,-3981.560943,-27045.297866,4773.438546,-18099.101555,-59903.144527,-40279.162261,-0.082000,0.932000,0.290000,192.000000,0.000000,0.000000,0.000000,0.000000,0.000000,0.000000,0.000000,0.000000,0.000000,1648543066.903665,0.000000
99.000000,-16579.697022,-20620.892420,-3997.207164,-27050.751692,4764.631959,-18106.567038,-59916.957905,-40287.477110,-0.082000,0.932000,0.290000,192.000000,0.000000,0.000000,0.000000,0.000000,0.000000,0.000000,0.000000,0.000000,0.000000,1648543066.903681,0.000000
100.000000,-16564.430781,-20602.005196,-3985.405443,-27041.833346,4776.858363,-18103.057814,-59865.146561,-40259.090395,-0.082000,0.932000,0.290000,192.000000,0.000000,0.000000,0.000000,0.000000,0.000000,0.000000,0.000000,0.000000,0.000000,1648543066.911734,0.000000
101.000000,-16581.552217,-20622.322932,-4002.728045,-27058.843024,4760.273368,-18115.731253,-59894.494402,-40270.154508,-0.082000,0.932000,0.290000,192.000000,0.000000,0.000000,0.000000,0.000000,0.000000,0.000000,0.000000,0.000000,0.000000,1648543066.911751,0.000000
102.000000,-16577.663014,-20625.608638,-3998.660028,-27070.443579,4751.846761,-18126.236573,-59944.271737,-40273.484918,-0.082000,0.932000,0.290000,192.000000,0.000000,0.000000,0.000000,0.000000,0.000000,0.000000,0.000000,0.000000,0.000000,1648543066.919534,0.000000
103.000000,-16571.382173,-20622.859373,-4000.224650,-27070.153006,4752.807886,-18129.477576,-59926.010361,-40276.010665,-0.082000,0.932000,0.290000,192.000000,0.000000,0.000000,0.000000,0.000000,0.000000,0.000000,0.000000,0.000000,0.000000,1648543066.919550,0.000000
104.000000,-16570.532807,-20622.032359,-3995.016693,-27066.979059,4755.624206,-18122.548535,-59899.881172,-40279.318724,-0.088000,0.938000,0.292000,192.000000,253.000000,64.000000,29.000000,80.000000,9.000000,32.000000,0.000000,0.000000,0.000000,1648543066.926287,0.000000
105.000000,-16564.855464,-20611.258818,-3987.417100,-27049.611753,4774.287912,-18098.900390,-59889.733480,-40249.143869,-0.088000,0.938000,0.292000,192.000000,0.000000,0.000000,0.000000,0.000000,0.000000,0.000000,0.000000,0.000000,0.000000,1648543066.926304,0.000000
106.000000,-16540.246193,-20591.343414,-3968.038138,-27036.312465,4789.710616,-18087.791573,-59852.562529,-40224.780467,-0.088000,0.938000,0.292000,192.000000,0.000000,0.000000,0.000000,0.000000,0.000000,0.000000,0.000000,0.000000,0.000000,1648543066.934387,0.000000
107.000000,-16567.023583,-20624.021664,-3995.195507,-27062.754579,4762.016804,-18117.944076,-59885.218428,-40264.387758,-0.088000,0.938000,0.292000,192.000000,0.000000,0.000000,0.000000,0.000000,0.000000,0.000000,0.000000,0.000000,0.000000,1648543066.934423,0.000000
108.000000,-16544.582432,-20604.933274,-3968.395766,-27046.370750,4779.562924,-18100.755584,-59898.517716,-40256.631703,-0.088000,0.938000,0.292000,192.000000,0.000000,0.000000,0.000000,0.000000,0.000000,0.000000,0.000000,0.000000,0.000000,1648543066.941260,0.000000
109.000000,-16570.488104,-20631.464795,-3994.346141,-27069.080123,4756.741793,-18118.569925,-59894.561457,-40271.450910,-0.088000,0.938000,0.292000,192.000000,0.000000,0.000000,0.000000,0.000000,0.000000,0.000000,0.000000,0.000000,0.000000,1648543066.949427,0.000000
110.000000,-16575.986633,-20636.896269,-3994.726121,-27073.394009,4749.164551,-18130.393997,-59951.580757,-40301.379895,-0.088000,0.938000,0.292000,192.000000,0.000000,0.000000,0.000000,0.000000,0.000000,0.000000,0.000000,0.000000,0.000000,1648543066.949444,0.000000
111.000000,-16567.537673,-20626.860336,-3988.981722,-27063.179262,4759.647520,-18123.196736,-59933.677010,-40276.301238,-0.088000,0.938000,0.292000,192.000000,0.000000,0.000000,0.000000,0.000000,0.000000,0.000000,0.000000,0.000000,0.000000,1648543066.955621,0.000000
112.000000,-16562.150903,-20614.298655,-3981.896219,-27051.913983,4767.135354,-18110.635055,-59913.783957,-40260.096223,-0.088000,0.938000,0.292000,192.000000,0.000000,0.000000,0.000000,0.000000,0.000000,0.000000,0.000000,0.000000,0.000000,1648543066.955632,0.000000
113.000000,-16550.326830,-20604.240370,-3968.641635,-27047.890669,4772.767994,-18110.813869,-59879.764602,-40251.736671,-0.088000,0.938000,0.292000,192.000000,0.000000,0.000000,0.000000,0.000000,0.000000,0.000000,0.000000,0.000000,0.000000,1648543066.963900,0.000000
114.000000,-16563.849636,-20621.071234,-3981.158612,-27056.831367,4766.129525,-18115.418329,-59902.272809,-40271.719130,-0.096000,0.940000,0.298000,192.000000,253.000000,0.000000,29.000000,96.000000,9.000000,80.000000,0.000000,0.000000,0.000000,1648543066.963917,0.000000
115.000000,-16561.614461,-20617.830231,-3982.991455,-27045.677846,4778.534744,-18099.816811,-59912.979294,-40267.941686,-0.096000,0.940000,0.298000,192.000000,0.000000,0.000000,0.000000,0.000000,0.000000,0.000000,0.000000,0.000000,0.000000,1648543066.971848,0.000000
116.000000,-16568.476447,-20622.367635,-3981.627999,-27056.607849,4775.271389,-18102.499020,-59910.699416,-40279.721055,-0.096000,0.940000,0.298000,192.000000,0.000000,0.000000,0.000000,0.000000,0.000000,0.000000,0.000000,0.000000,0.000000,1648543066.971864,0.000000
117.000000,-16562.441476,-20618.701949,-3985.517202,-27060.161777,4775.740776,-18102.476669,-59924.959829,-40274.691912,-0.096000,0.940000,0.298000,192.000000,0.000000,0.000000,0.000000,0.000000,0.000000,0.000000,0.000000,0.000000,0.000000,1648543066.979104,0.000000
118.000000,-16548.315173,-20605.268551,-3975.168344,-27051.243431,4784.927343,-18098.207485,-59892.572152,-40257.726938,-0.096000,0.940000,0.298000,192.000000,0.000000,0.000000,0.000000,0.000000,0.000000,0.000000,0.000000,0.000000,0.000000,1648543066.979120,0.000000
119.000000,-16553.768999,-20614.209248,-3977.314112,-27055.803186,4781.708691,-18103.124869,-59883.810268,-40270.623895,-0.096000,0.940000,0.298000,192.000000,0.000000,0.000000,0.000000,0.000000,0.000000,0.000000,0.000000,0.000000,0.000000,1648543066.986627,0.000000
120.000000,-16554.551310,-20617.852583,-3980.957446,-27063.738056,4773.125621,-18112.043215,-59926.725617,-40296.864843,-0.096000,0.940000,0.298000,192.000000,0.000000,0.000000,0.000000,0.000000,0.000000,0.000000,0.000000,0.000000,0.000000,1648543066.986643,0.000000
121.000000,-16546.772903,-20613.471641,-3979.146955,-27067.828425,4768.029424,-18124.493137,-59922.769358,-40297.490692,-0.096000,0.940000,0.298000,192.000000,0.000000,0.000000,0.000000,0.000000,0.000000,0.000000,0.000000,0.000000,0.000000,1648543066.994370,0.000000
122.000000,-16535.597031,-20603.592170,-3970.005091,-27058.105416,4777.394805,-18119.888678,-59908.508946,-40294.361448,-0.096000,0.940000,0.298000,192.000000,0.000000,0.000000,0.000000,0.000000,0.000000,0.000000,0.000000,0.000000,0.000000,1648543066.994386,0.000000
123.000000,-16537.809853,-20605.603827,-3969.423946,-27058.373637,4776.768956,-18120.894506,-59914.230992,-40279.452834,-0.096000,0.940000,0.298000,192.000000,0.000000,0.000000,0.000000,0.000000,0.000000,0.000000,0.000000,0.000000,0.000000,1648543067.001447,0.000000
124.000000,-16545.789426,-20609.627141,-3974.810716,-27061.189957,4772.678587,-18124.224916,-59885.285483,-40252.094299,-0.098000,0.940000,0.304000,192.000000,252.000000,240.000000,29.000000,96.000000,9.000000,128.000000,0.000000,0.000000,0.000000,1648543067.008528,0.000000
125.000000,-16539.977973,-20605.492068,-3959.186847,-27044.381445,4786.961351,-18108.533991,-59885.888980,-40280.726883,-0.098000,0.940000,0.304000,192.000000,0.000000,0.000000,0.000000,0.000000,0.000000,0.000000,0.000000,0.000000,0.000000,1648543067.008539,0.000000
126.000000,-16545.454150,-20609.917713,-3962.919588,-27043.554430,4785.284970,-18114.524259,-59911.414672,-40283.520852,-0.098000,0.940000,0.304000,192.000000,0.000000,0.000000,0.000000,0.000000,0.000000,0.000000,0.000000,0.000000,0.000000,1648543067.016252,0.000000
127.000000,-16555.534787,-20615.572705,-3983.013807,-27055.982000,4774.533781,-18127.063588,-59935.241632,-40290.740465,-0.098000,0.940000,0.304000,192.000000,0.000000,0.000000,0.000000,0.000000,0.000000,0.000000,0.000000,0.000000,0.000000,1648543067.016269,0.000000
128.000000,-16542.950755,-20601.088774,-3958.628054,-27041.699236,4785.910819,-18118.681683,-59908.307780,-40265.482994,-0.098000,0.940000,0.304000,192.000000,0.000000,0.000000,0.000000,0.000000,0.000000,0.000000,0.000000,0.000000,0.000000,1648543067.024152,0.000000
129.000000,-16555.288917,-20617.763176,-3973.715481,-27055.065579,4771.516296,-18125.074282,-59919.573059,-40276.882383,-0.098000,0.940000,0.304000,192.000000,0.000000,0.000000,0.000000,0.000000,0.000000,0.000000,0.000000,0.000000,0.000000,1648543067.024189,0.000000
130.000000,-16519.548478,-20583.587358,-3933.907024,-27023.102584,4805.625058,-18102.588427,-59863.581939,-40245.701700,-0.098000,0.940000,0.304000,192.000000,0.000000,0.000000,0.000000,0.000000,0.000000,0.000000,0.000000,0.000000,0.000000,1648543067.032692,0.000000
131.000000,-16544.962412,-20608.062519,-3960.438545,-27037.586515,4794.315075,-18097.022843,-59863.425477,-40251.669616,-0.098000,0.940000,0.304000,192.000000,0.000000,0.000000,0.000000,0.000000,0.000000,0.000000,0.000000,0.000000,0.000000,1648543067.032709,0.000000
132.000000,-16567.582377,-20629.296676,-3985.807775,-27073.505768,4760.161610,-18133.746759,-59956.587548,-40297.691858,-0.098000,0.940000,0.304000,192.000000,0.000000,0.000000,0.000000,0.000000,0.000000,0.000000,0.000000,0.000000,0.000000,1648543067.038937,0.000000
133.000000,-16540.603821,-20603.256894,-3958.158667,-27047.018951,4780.211124,-18120.983913,-59917.606106,-40307.303108,-0.098000,0.940000,0.304000,192.000000,0.000000,0.000000,0.000000,0.000000,0.000000,0.000000,0.000000,0.000000,0.000000,1648543067.038954,0.000000
134.000000,-16548.158711,-20606.922580,-3966.786440,-27051.355189,4775.226685,-18120.805099,-59929.251364,-40302.117503,-0.098000,0.940000,0.304000,192.000000,0.000000,0.000000,0.000000,0.000000,0.000000,0.000000,0.000000,0.000000,0.000000,1648543067.046643,0.000000
135.000000,-16543.330734,-20602.452231,-3957.398708,-27048.740035,4781.418119,-18117.206468,-59946.506911,-40271.629724,-0.096000,0.938000,0.302000,192.000000,253.000000,0.000000,29.000000,80.000000,9.000000,112.000000,0.000000,0.000000,0.000000,1648543067.046655,0.000000
136.000000,-16530.254964,-20584.436725,-3944.635861,-27030.322198,4800.975895,-18098.274541,-59912.644018,-40249.725014,-0.096000,0.938000,0.302000,192.000000,0.000000,0.000000,0.000000,0.000000,0.000000,0.000000,0.000000,0.000000,0.000000,1648543067.054606,0.000000
137.000000,-16542.302554,-20596.797239,-3961.265559,-27043.286209,4788.704787,-18108.645750,-59913.381626,-40278.603468,-0.096000,0.938000,0.302000,192.000000,0.000000,0.000000,0.000000,0.000000,0.000000,0.000000,0.000000,0.000000,0.000000,1648543067.054617,0.000000
138.000000,-16556.317098,-20612.979902,-3969.133373,-27060.608811,4773.729119,-18122.839108,-59932.581774,-40284.906660,-0.096000,0.938000,0.302000,192.000000,0.000000,0.000000,0.000000,0.000000,0.000000,0.000000,0.000000,0.000000,0.000000,1648543067.060660,0.000000
139.000000,-16553.344316,-20604.821516,-3964.461859,-27060.228832,4776.903066,-18125.566021,-59928.066722,-40280.056331,-0.096000,0.938000,0.302000,192.000000,0.000000,0.000000,0.000000,0.000000,0.000000,0.000000,0.000000,0.000000,0.000000,1648543067.068638,0.000000
140.000000,-16544.694191,-20599.300635,-3963.768955,-27059.334762,4780.613456,-18124.493137,-59908.620704,-40273.887250,-0.096000,0.938000,0.302000,192.000000,0.000000,0.000000,0.000000,0.000000,0.000000,0.000000,0.000000,0.000000,0.000000,1648543067.068655,0.000000
141.000000,-16538.458054,-20594.830286,-3963.657196,-27052.986867,4784.860287,-18122.034445,-59926.323286,-40285.264288,-0.096000,0.938000,0.302000,192.000000,0.000000,0.000000,0.000000,0.000000,0.000000,0.000000,0.000000,0.000000,0.000000,1648543067.076559,0.000000
142.000000,-16528.869156,-20580.391059,-3945.731097,-27041.162794,4799.947715,-18111.462070,-59923.037579,-40262.532564,-0.096000,0.938000,0.302000,192.000000,0.000000,0.000000,0.000000,0.000000,0.000000,0.000000,0.000000,0.000000,0.000000,1648543067.076575,0.000000
143.000000,-16542.391961,-20587.275396,-3960.036213,-27044.292038,4790.224706,-18119.486346,-59906.050254,-40259.045691,-0.096000,0.938000,0.302000,192.000000,0.000000,0.000000,0.000000,0.000000,0.000000,0.000000,0.000000,0.000000,0.000000,1648543067.084519,0.000000
144.000000,-16560.832150,-20607.280208,-3985.450147,-27063.000448,4769.884619,-18136.428968,-59912.465204,-40300.351715,-0.096000,0.938000,0.302000,192.000000,0.000000,0.000000,0.000000,0.000000,0.000000,0.000000,0.000000,0.000000,0.000000,1648543067.084536,0.000000
145.000000,-16561.413295,-20609.515382,-3978.766975,-27067.157873,4771.806869,-18132.271544,-59945.769304,-40289.220546,-0.088000,0.926000,0.296000,192.000000,253.000000,64.000000,28.000000,240.000000,9.000000,64.000000,0.000000,0.000000,0.000000,1648543067.091107,0.000000
146.000000,-16553.344316,-20596.797239,-3972.217914,-27062.866338,4777.126584,-18134.126739,-59931.128911,-40271.719130,-0.088000,0.926000,0.296000,192.000000,0.000000,0.000000,0.000000,0.000000,0.000000,0.000000,0.000000,0.000000,0.000000,1648543067.091125,0.000000
147.000000,-16541.475539,-20588.057707,-3966.942902,-27056.473739,4784.927343,-18124.269619,-59884.525524,-40264.611276,-0.088000,0.926000,0.296000,192.000000,0.000000,0.000000,0.000000,0.000000,0.000000,0.000000,0.000000,0.000000,0.000000,1648543067.099056,0.000000
148.000000,-16556.384153,-20605.492068,-3978.096423,-27074.288079,4768.588217,-18137.971239,-59913.828661,-40309.918262,-0.088000,0.926000,0.296000,192.000000,0.000000,0.000000,0.000000,0.000000,0.000000,0.000000,0.000000,0.000000,0.000000,1648543067.099073,0.000000
149.000000,-16567.649432,-20611.638798,-3975.235400,-27076.165626,4769.884619,-18123.107329,-59962.957795,-40296.060180,-0.088000,0.926000,0.296000,192.000000,0.000000,0.000000,0.000000,0.000000,0.000000,0.000000,0.000000,0.000000,0.000000,1648543067.107233,0.000000
150.000000,-16564.631947,-20607.995463,-3974.520144,-27077.394972,4769.370528,-18120.045140,-59952.966565,-40292.416846,-0.088000,0.926000,0.296000,192.000000,0.000000,0.000000,0.000000,0.000000,0.000000,0.000000,0.000000,0.000000,0.000000,1648543067.107270,0.000000
151.000000,-16553.009040,-20592.572760,-3962.114926,-27061.368771,4781.999264,-18110.433890,-59921.092978,-40257.592828,-0.088000,0.926000,0.296000,192.000000,0.000000,0.000000,0.000000,0.000000,0.000000,0.000000,0.000000,0.000000,0.000000,1648543067.114173,0.000000
152.000000,-16550.595051,-20590.628158,-3961.824353,-27059.513576,4784.681473,-18105.114174,-59892.438041,-40248.339206,-0.088000,0.926000,0.296000,192.000000,0.000000,0.000000,0.000000,0.000000,0.000000,0.000000,0.000000,0.000000,0.000000,1648543067.114191,0.000000
153.000000,-16563.313194,-20604.240370,-3980.219839,-27074.377486,4770.555171,-18111.573829,-59923.931649,-40267.047616,-0.088000,0.926000,0.296000,192.000000,0.000000,0.000000,0.000000,0.000000,0.000000,0.000000,0.000000,0.000000,0.000000,1648543067.120763,0.000000
