%OpenBCI Raw EEG Data
%Number of channels = 8
%Sample Rate = 256 Hz
%Board = OpenBCI_GUI$BoardCytonSerial
%Channels = Fp1, Fp2, F3, F4, Fz, Pz, O1, O2
%Data recorded at AIMS Lab (http://aimsl.uiu.ac.bd) by Rana Depto (mail@ranadepto.com)
%Brainwaves were obtained via the Ultracortex Mark IV Headset using the OpenBCI Cyton Board
%Recording Application = ConcentrateToday (https://concentrate.today)
%Data type = RAW data with noise
%Day No = 9
%Subject ID = 7
%Session ID = 7
%Record starting timestamp (UTC+6) = 2022-03-29T09:51:57.043703
%Record ending timestamp (UTC+6)   = 2022-03-29T09:52:52.076510
%Recorded durations = ~55 seconds
Sample Index, EXG Channel 0, EXG Channel 1, EXG Channel 2, EXG Channel 3, EXG Channel 4, EXG Channel 5, EXG Channel 6, EXG Channel 7, Accel Channel 0, Accel Channel 1, Accel Channel 2, Other, Other, Other, Other, Other, Other, Other, Analog Channel 0, Analog Channel 1, Analog Channel 2, Timestamp, Timestamp (Formatted)
219.000000,-45270.597371,-30185.628555,-2252.608806,12269.833657,2.883375,39740.976958,20989.249169,24888.488637,0.054000,0.986000,-0.124000,192.000000,0.000000,0.000000,0.000000,0.000000,0.000000,0.000000,0.000000,0.000000,0.000000,1648525917.050984,0.000000
220.000000,-45280.521545,-30190.478884,-2258.330853,12265.206845,-3.241003,39741.647511,20980.308471,24897.049355,0.054000,0.986000,-0.124000,192.000000,0.000000,0.000000,0.000000,0.000000,0.000000,0.000000,0.000000,0.000000,0.000000,1648525917.050990,0.000000
221.000000,-45283.874307,-30191.685878,-2261.951835,12262.368174,-6.638468,39743.547409,20970.138427,24908.851076,0.054000,0.986000,-0.124000,192.000000,0.000000,0.000000,0.000000,0.000000,0.000000,0.000000,0.000000,0.000000,0.000000,1648525917.058951,0.000000
222.000000,-45288.992857,-30194.949233,-2270.579609,12257.115514,-13.075771,39746.050804,20955.900366,24927.335969,0.054000,0.986000,-0.124000,192.000000,0.000000,0.000000,0.000000,0.000000,0.000000,0.000000,0.000000,0.000000,0.000000,1648525917.058956,0.000000
223.000000,-45290.222203,-30195.776247,-2273.999426,12259.462447,-16.562643,39748.777717,20938.041322,24921.211591,-0.018000,1.022000,-0.102000,192.000000,255.000000,112.000000,31.000000,240.000000,252.000000,208.000000,0.000000,0.000000,0.000000,1648525917.065948,0.000000
224.000000,-45297.307706,-30201.297128,-2278.447423,12257.294328,-21.971765,39747.548371,20922.082176,24913.410832,-0.018000,1.022000,-0.102000,192.000000,0.000000,0.000000,0.000000,0.000000,0.000000,0.000000,0.000000,0.000000,0.000000,1648525917.065953,0.000000
225.000000,-45298.738217,-30197.832608,-2274.871144,12260.378869,-19.513073,39750.699967,20899.976301,24917.545905,-0.018000,1.022000,-0.102000,192.000000,0.000000,0.000000,0.000000,0.000000,0.000000,0.000000,0.000000,0.000000,0.000000,1648525917.074087,0.000000
226.000000,-45305.779017,-30196.446800,-2274.424109,12261.675270,-19.691887,39754.745633,20890.722679,24950.671190,-0.018000,1.022000,-0.102000,192.000000,0.000000,0.000000,0.000000,0.000000,0.000000,0.000000,0.000000,0.000000,0.000000,1648525917.080224,0.000000
227.000000,-45306.114293,-30187.975489,-2268.903228,12271.912369,-11.354686,39759.484203,20887.414621,24989.116191,-0.018000,1.022000,-0.102000,192.000000,0.000000,0.000000,0.000000,0.000000,0.000000,0.000000,0.000000,0.000000,0.000000,1648525917.080228,0.000000
228.000000,-45314.071514,-30190.389477,-2270.892533,12272.582921,-12.114645,39753.337473,20870.002612,25008.383394,-0.018000,1.022000,-0.102000,192.000000,0.000000,0.000000,0.000000,0.000000,0.000000,0.000000,0.000000,0.000000,0.000000,1648525917.087147,0.000000
229.000000,-45312.149264,-30186.522625,-2262.220056,12280.026052,-4.157424,39754.857392,20856.166882,25030.578677,-0.018000,1.022000,-0.102000,192.000000,0.000000,0.000000,0.000000,0.000000,0.000000,0.000000,0.000000,0.000000,0.000000,1648525917.087151,0.000000
230.000000,-45313.311555,-30185.606204,-2259.336681,12282.641206,-1.810491,39754.164488,20842.286449,25055.076188,-0.018000,1.022000,-0.102000,192.000000,0.000000,0.000000,0.000000,0.000000,0.000000,0.000000,0.000000,0.000000,0.000000,1648525917.095178,0.000000
231.000000,-45326.633194,-30190.791808,-2267.852696,12276.606235,-10.348858,39745.737880,20816.917219,25088.290881,-0.018000,1.022000,-0.102000,192.000000,0.000000,0.000000,0.000000,0.000000,0.000000,0.000000,0.000000,0.000000,0.000000,1648525917.095182,0.000000
232.000000,-45336.803238,-30190.791808,-2268.702062,12275.443944,-12.047590,39740.485220,20787.971710,25121.483221,-0.018000,1.022000,-0.102000,192.000000,0.000000,0.000000,0.000000,0.000000,0.000000,0.000000,0.000000,0.000000,0.000000,1648525917.103181,0.000000
233.000000,-45352.650625,-30198.480809,-2275.653455,12266.480895,-19.289555,39735.478429,20780.774448,25154.921431,-0.026000,1.028000,-0.094000,192.000000,255.000000,48.000000,32.000000,32.000000,253.000000,16.000000,0.000000,0.000000,0.000000,1648525917.103186,0.000000
234.000000,-45354.975206,-30192.892872,-2270.199629,12270.727726,-11.824073,39746.676653,20778.807494,25189.298414,-0.026000,1.028000,-0.094000,192.000000,0.000000,0.000000,0.000000,0.000000,0.000000,0.000000,0.000000,0.000000,0.000000,1648525917.109811,0.000000
235.000000,-45369.794413,-30195.373916,-2274.893495,12266.525598,-14.841558,39752.979845,20757.908613,25236.594705,-0.026000,1.028000,-0.094000,192.000000,0.000000,0.000000,0.000000,0.000000,0.000000,0.000000,0.000000,0.000000,0.000000,1648525917.109815,0.000000
236.000000,-45379.651532,-30194.681012,-2271.183106,12267.911407,-13.433398,39761.674674,20743.514090,25262.343915,-0.026000,1.028000,-0.094000,192.000000,0.000000,0.000000,0.000000,0.000000,0.000000,0.000000,0.000000,0.000000,0.000000,1648525917.117833,0.000000
237.000000,-45394.627201,-30199.173713,-2274.535868,12263.508113,-16.696753,39762.568744,20733.768729,25293.390488,-0.026000,1.028000,-0.094000,192.000000,0.000000,0.000000,0.000000,0.000000,0.000000,0.000000,0.000000,0.000000,0.000000,1648525917.117838,0.000000
238.000000,-45404.372561,-30196.580910,-2275.228772,12262.167008,-16.652050,39768.201383,20720.067110,25312.411822,-0.026000,1.028000,-0.094000,192.000000,0.000000,0.000000,0.000000,0.000000,0.000000,0.000000,0.000000,0.000000,0.000000,1648525917.125780,0.000000
239.000000,-45415.928413,-30191.551768,-2275.385234,12265.653880,-15.601518,39777.857337,20709.762956,25363.418503,-0.026000,1.028000,-0.094000,192.000000,0.000000,0.000000,0.000000,0.000000,0.000000,0.000000,0.000000,0.000000,0.000000,1648525917.125783,0.000000
240.000000,-45425.338498,-30188.735448,-2272.546562,12271.331223,-13.567509,39782.931183,20700.710499,25408.881951,-0.026000,1.028000,-0.094000,192.000000,0.000000,0.000000,0.000000,0.000000,0.000000,0.000000,0.000000,0.000000,0.000000,1648525917.132920,0.000000
241.000000,-45440.448277,-30189.964794,-2273.328873,12271.442982,-14.439227,39783.937011,20693.155610,25445.248240,-0.026000,1.028000,-0.094000,192.000000,0.000000,0.000000,0.000000,0.000000,0.000000,0.000000,0.000000,0.000000,0.000000,1648525917.140812,0.000000
242.000000,-45454.708690,-30190.322422,-2271.674844,12272.694680,-13.992192,39787.066255,20694.228493,25487.157761,-0.026000,1.028000,-0.094000,192.000000,0.000000,0.000000,0.000000,0.000000,0.000000,0.000000,0.000000,0.000000,0.000000,1648525917.140816,0.000000
243.000000,-45465.973969,-30188.578986,-2265.818687,12279.534314,-9.477140,39787.915622,20685.198389,25526.116851,-0.026000,1.028000,-0.094000,192.000000,0.000000,0.000000,0.000000,0.000000,0.000000,0.000000,0.000000,0.000000,0.000000,1648525917.148836,0.000000
244.000000,-45482.715426,-30189.473056,-2265.259894,12280.495439,-9.901823,39779.243145,20670.580348,25560.583241,-0.032000,1.016000,-0.074000,192.000000,255.000000,0.000000,31.000000,192.000000,253.000000,176.000000,0.000000,0.000000,0.000000,1648525917.148840,0.000000
245.000000,-45494.584202,-30187.595509,-2266.131612,12280.406032,-12.204052,39770.280095,20643.266516,25600.972843,-0.032000,1.016000,-0.074000,192.000000,0.000000,0.000000,0.000000,0.000000,0.000000,0.000000,0.000000,0.000000,0.000000,1648525917.155484,0.000000
246.000000,-45508.777560,-30186.053239,-2269.573780,12278.483782,-16.339125,39760.914714,20610.275341,25641.563611,-0.032000,1.016000,-0.074000,192.000000,0.000000,0.000000,0.000000,0.000000,0.000000,0.000000,0.000000,0.000000,0.000000,1648525917.155507,0.000000
247.000000,-45518.366458,-30185.606204,-2264.924617,12283.691738,-10.550023,39773.029360,20616.824402,25694.090211,-0.032000,1.016000,-0.074000,192.000000,0.000000,0.000000,0.000000,0.000000,0.000000,0.000000,0.000000,0.000000,0.000000,1648525917.162188,0.000000
248.000000,-45538.125400,-30195.083343,-2270.244333,12280.875418,-13.880433,39778.662000,20611.683501,25749.187261,-0.032000,1.016000,-0.074000,192.000000,0.000000,0.000000,0.000000,0.000000,0.000000,0.000000,0.000000,0.000000,0.000000,1648525917.162193,0.000000
249.000000,-45549.256569,-30197.363221,-2271.518382,12279.176686,-17.032029,39778.729055,20596.126687,25777.730438,-0.032000,1.016000,-0.074000,192.000000,0.000000,0.000000,0.000000,0.000000,0.000000,0.000000,0.000000,0.000000,0.000000,1648525917.170015,0.000000
250.000000,-45561.170049,-30197.787904,-2272.792431,12278.729651,-19.848349,39777.700875,20583.676765,25805.267788,-0.032000,1.016000,-0.074000,192.000000,0.000000,0.000000,0.000000,0.000000,0.000000,0.000000,0.000000,0.000000,0.000000,1648525917.170019,0.000000
251.000000,-45574.312875,-30196.066820,-2274.312350,12279.176686,-21.681192,39779.779587,20574.780771,25856.654448,-0.032000,1.016000,-0.074000,192.000000,0.000000,0.000000,0.000000,0.000000,0.000000,0.000000,0.000000,0.000000,0.000000,1648525917.178127,0.000000
252.000000,-45596.865785,-30204.851056,-2283.789490,12271.957072,-29.861931,39777.611468,20558.709867,25916.199495,-0.032000,1.016000,-0.074000,192.000000,0.000000,0.000000,0.000000,0.000000,0.000000,0.000000,0.000000,0.000000,0.000000,1648525917.178132,0.000000
253.000000,-45617.719962,-30210.640158,-2288.192783,12270.191284,-31.717125,39778.170261,20543.823605,25961.573537,-0.032000,1.016000,-0.074000,192.000000,0.000000,0.000000,0.000000,0.000000,0.000000,0.000000,0.000000,0.000000,0.000000,1648525917.185281,0.000000
254.000000,-45632.472114,-30211.131896,-2285.734091,12270.995947,-28.230253,39780.986581,20528.557364,26000.309110,-0.038000,0.992000,-0.072000,192.000000,254.000000,208.000000,31.000000,0.000000,253.000000,192.000000,0.000000,0.000000,0.000000,1648525917.185285,0.000000
255.000000,-45646.888989,-30213.724698,-2290.539717,12266.905578,-32.410029,39781.388912,20521.874192,26056.747264,-0.038000,0.992000,-0.072000,192.000000,0.000000,0.000000,0.000000,0.000000,0.000000,0.000000,0.000000,0.000000,0.000000,1648525917.191769,0.000000
0.000000,-45663.205762,-30217.546847,-2298.519289,12257.853122,-38.914387,39775.286886,20515.325131,26114.906504,-0.038000,0.992000,-0.072000,192.000000,0.000000,0.000000,0.000000,0.000000,0.000000,0.000000,0.000000,0.000000,0.000000,1648525917.199590,0.000000
1.000000,-45675.387463,-30215.848114,-2299.122786,12259.596558,-34.958128,39773.454043,20505.289198,26167.097827,-0.038000,0.992000,-0.072000,192.000000,0.000000,0.000000,0.000000,0.000000,0.000000,0.000000,0.000000,0.000000,0.000000,1648525917.199593,0.000000
2.000000,-45690.184318,-30219.312634,-2302.967286,12256.891996,-34.913425,39766.368540,20490.581750,26216.897513,-0.038000,0.992000,-0.072000,192.000000,0.000000,0.000000,0.000000,0.000000,0.000000,0.000000,0.000000,0.000000,0.000000,1648525917.207806,0.000000
3.000000,-45686.742149,-30208.069707,-2291.076158,12270.973595,-19.982460,39776.672694,20488.033651,26264.506729,-0.038000,0.992000,-0.072000,192.000000,0.000000,0.000000,0.000000,0.000000,0.000000,0.000000,0.000000,0.000000,0.000000,1648525917.207810,0.000000
4.000000,-45692.799472,-30200.894797,-2285.823498,12275.779221,-12.584032,39781.925354,20481.149314,26317.055680,-0.038000,0.992000,-0.072000,192.000000,0.000000,0.000000,0.000000,0.000000,0.000000,0.000000,0.000000,0.000000,0.000000,1648525917.215647,0.000000
5.000000,-45708.132769,-30201.118314,-2291.500842,12272.627625,-13.723971,39780.003104,20476.589558,26373.091504,-0.038000,0.992000,-0.072000,192.000000,0.000000,0.000000,0.000000,0.000000,0.000000,0.000000,0.000000,0.000000,0.000000,1648525917.215651,0.000000
6.000000,-45727.735249,-30209.030832,-2302.386141,12263.999851,-20.675364,39772.828194,20464.206691,26418.845525,-0.038000,0.992000,-0.072000,192.000000,0.000000,0.000000,0.000000,0.000000,0.000000,0.000000,0.000000,0.000000,0.000000,1648525917.223643,0.000000
7.000000,-45740.185170,-30213.568236,-2303.056693,12258.166046,-22.888186,39766.100319,20442.860775,26442.650132,-0.038000,0.992000,-0.072000,192.000000,0.000000,0.000000,0.000000,0.000000,0.000000,0.000000,0.000000,0.000000,0.000000,1648525917.223646,0.000000
8.000000,-45760.637016,-30219.983187,-2306.655324,12248.487741,-28.096143,39761.071177,20441.273801,26504.206837,-0.048000,1.014000,-0.068000,192.000000,254.000000,128.000000,31.000000,176.000000,253.000000,224.000000,0.000000,0.000000,0.000000,1648525917.231785,0.000000
9.000000,-45779.166613,-30222.330120,-2307.862318,12245.872586,-29.481951,39754.946799,20433.048360,26551.570183,-0.048000,1.014000,-0.068000,192.000000,0.000000,0.000000,0.000000,0.000000,0.000000,0.000000,0.000000,0.000000,0.000000,1648525917.231790,0.000000
10.000000,-45794.969296,-30222.106602,-2308.331705,12244.911461,-30.085448,39740.865200,20407.746185,26587.332974,-0.048000,1.014000,-0.068000,192.000000,0.000000,0.000000,0.000000,0.000000,0.000000,0.000000,0.000000,0.000000,0.000000,1648525917.237967,0.000000
11.000000,-45800.266659,-30217.636254,-2298.675752,12247.325450,-21.547082,39745.849639,20425.627580,26645.045179,-0.048000,1.014000,-0.068000,192.000000,0.000000,0.000000,0.000000,0.000000,0.000000,0.000000,0.000000,0.000000,0.000000,1648525917.237971,0.000000
12.000000,-45815.488197,-30217.591550,-2297.848737,12247.146636,-19.021335,39748.867124,20452.472025,26723.343339,-0.048000,1.014000,-0.068000,192.000000,0.000000,0.000000,0.000000,0.000000,0.000000,0.000000,0.000000,0.000000,0.000000,1648525917.244891,0.000000
13.000000,-45825.635889,-30211.936559,-2290.003275,12249.225348,-10.415913,39741.826325,20446.280592,26774.551186,-0.048000,1.014000,-0.068000,192.000000,0.000000,0.000000,0.000000,0.000000,0.000000,0.000000,0.000000,0.000000,0.000000,1648525917.244894,0.000000
14.000000,-45840.879779,-30210.304881,-2287.902211,12248.487741,-7.197262,39718.245234,20426.700464,26807.564712,-0.048000,1.014000,-0.068000,192.000000,0.000000,0.000000,0.000000,0.000000,0.000000,0.000000,0.000000,0.000000,0.000000,1648525917.251961,0.000000
15.000000,-45849.216980,-30202.727640,-2281.599019,12260.602386,2.749265,39694.373571,20406.852115,26820.662835,-0.048000,1.014000,-0.068000,192.000000,0.000000,0.000000,0.000000,0.000000,0.000000,0.000000,0.000000,0.000000,0.000000,1648525917.259999,0.000000
16.000000,-45872.015759,-30210.371937,-2292.327856,12255.617947,-3.263355,39666.880926,20395.206856,26888.612138,-0.048000,1.014000,-0.068000,192.000000,0.000000,0.000000,0.000000,0.000000,0.000000,0.000000,0.000000,0.000000,0.000000,1648525917.260002,0.000000
17.000000,-45895.462739,-30221.391347,-2301.335609,12240.843444,-11.757018,39637.510733,20414.988150,26963.713999,-0.048000,1.014000,-0.068000,192.000000,0.000000,0.000000,0.000000,0.000000,0.000000,0.000000,0.000000,0.000000,0.000000,1648525917.267164,0.000000
18.000000,-45901.810634,-30217.636254,-2290.718531,12245.582014,-2.771616,39615.963652,20416.798641,26992.480694,-0.064000,1.034000,-0.054000,192.000000,254.000000,0.000000,32.000000,80.000000,254.000000,80.000000,0.000000,0.000000,0.000000,1648525917.267168,0.000000
19.000000,-45921.524873,-30218.239751,-2296.351170,12243.682116,-6.906689,39588.247489,20421.157231,27063.603945,-0.064000,1.034000,-0.054000,192.000000,0.000000,0.000000,0.000000,0.000000,0.000000,0.000000,0.000000,0.000000,0.000000,1648525917.274687,0.000000
20.000000,-45939.786248,-30221.368995,-2299.256897,12243.548005,-8.158387,39561.559506,20420.866659,27135.040120,-0.064000,1.034000,-0.054000,192.000000,0.000000,0.000000,0.000000,0.000000,0.000000,0.000000,0.000000,0.000000,0.000000,1648525917.274691,0.000000
21.000000,-45942.915492,-30213.724698,-2291.456138,12252.287537,-0.156462,39545.466250,20417.983284,27209.806706,-0.064000,1.034000,-0.054000,192.000000,0.000000,0.000000,0.000000,0.000000,0.000000,0.000000,0.000000,0.000000,0.000000,1648525917.282565,0.000000
22.000000,-45955.790097,-30219.089117,-2297.491109,12243.749171,-6.861986,39523.382726,20420.710197,27278.448913,-0.064000,1.034000,-0.054000,192.000000,0.000000,0.000000,0.000000,0.000000,0.000000,0.000000,0.000000,0.000000,0.000000,1648525917.282568,0.000000
23.000000,-45976.890144,-30229.080347,-2307.012952,12236.574261,-11.779369,39505.657793,20419.369092,27358.982248,-0.064000,1.034000,-0.054000,192.000000,0.000000,0.000000,0.000000,0.000000,0.000000,0.000000,0.000000,0.000000,0.000000,1648525917.290687,0.000000
24.000000,-45987.306057,-30226.599303,-2309.382237,12241.804569,-8.136035,39498.661697,20430.701426,27448.255116,-0.064000,1.034000,-0.054000,192.000000,0.000000,0.000000,0.000000,0.000000,0.000000,0.000000,0.000000,0.000000,0.000000,1648525917.290690,0.000000
25.000000,-45995.687961,-30225.258198,-2314.724304,12242.743342,-9.901823,39488.469301,20429.785005,27510.884704,-0.064000,1.034000,-0.054000,192.000000,0.000000,0.000000,0.000000,0.000000,0.000000,0.000000,0.000000,0.000000,0.000000,1648525917.297265,0.000000
26.000000,-45990.591763,-30217.636254,-2306.901193,12252.488703,-1.095235,39489.117502,20432.757787,27577.336440,-0.064000,1.034000,-0.054000,192.000000,0.000000,0.000000,0.000000,0.000000,0.000000,0.000000,0.000000,0.000000,0.000000,1648525917.297269,0.000000
27.000000,-46005.366266,-30226.398137,-2317.473569,12249.672383,-8.136035,39477.829871,20428.801528,27650.694865,-0.064000,1.034000,-0.054000,192.000000,0.000000,0.000000,0.000000,0.000000,0.000000,0.000000,0.000000,0.000000,0.000000,1648525917.305189,0.000000
28.000000,-46019.246700,-30232.008425,-2327.867130,12247.481912,-16.562643,39452.460641,20412.752976,27724.500325,-0.058000,0.990000,-0.050000,192.000000,254.000000,48.000000,30.000000,240.000000,254.000000,112.000000,0.000000,0.000000,0.000000,1648525917.305193,0.000000
29.000000,-46008.741380,-30228.074518,-2318.389990,12253.203959,-11.533500,39444.101089,20409.936656,27776.468131,-0.058000,0.990000,-0.050000,192.000000,0.000000,0.000000,0.000000,0.000000,0.000000,0.000000,0.000000,0.000000,0.000000,1648525917.312338,0.000000
30.000000,-46009.546043,-30234.847097,-2323.061505,12251.192302,-21.524730,39438.513152,20415.681054,27831.006388,-0.058000,0.990000,-0.050000,192.000000,0.000000,0.000000,0.000000,0.000000,0.000000,0.000000,0.000000,0.000000,0.000000,1648525917.312342,0.000000
31.000000,-46008.003772,-30236.746995,-2322.837987,12260.311813,-23.022297,39444.525772,20419.234981,27856.554432,-0.058000,0.990000,-0.050000,192.000000,0.000000,0.000000,0.000000,0.000000,0.000000,0.000000,0.000000,0.000000,0.000000,1648525917.319452,0.000000
32.000000,-46017.391505,-30240.658550,-2333.946804,12259.462447,-32.454733,39446.805650,20418.318560,27867.260917,-0.058000,0.990000,-0.050000,192.000000,0.000000,0.000000,0.000000,0.000000,0.000000,0.000000,0.000000,0.000000,0.000000,1648525917.326793,0.000000
33.000000,-46028.276804,-30246.738225,-2342.731040,12263.351651,-39.249663,39453.064138,20424.375883,27867.305621,-0.058000,0.990000,-0.050000,192.000000,0.000000,0.000000,0.000000,0.000000,0.000000,0.000000,0.000000,0.000000,0.000000,1648525917.326797,0.000000
34.000000,-46023.784104,-30244.301885,-2341.881674,12270.191284,-37.953262,39464.061196,20427.214554,27882.750676,-0.058000,0.990000,-0.050000,192.000000,0.000000,0.000000,0.000000,0.000000,0.000000,0.000000,0.000000,0.000000,0.000000,1648525917.334921,0.000000
35.000000,-46005.679191,-30232.678978,-2331.532816,12285.479878,-25.637451,39477.628705,20436.423473,27885.164664,-0.058000,0.990000,-0.050000,192.000000,0.000000,0.000000,0.000000,0.000000,0.000000,0.000000,0.000000,0.000000,0.000000,1648525917.334925,0.000000
36.000000,-46004.673362,-30233.237771,-2333.879749,12288.854991,-27.760867,39486.301182,20438.368075,27868.020876,-0.058000,0.990000,-0.050000,192.000000,0.000000,0.000000,0.000000,0.000000,0.000000,0.000000,0.000000,0.000000,0.000000,1648525917.342921,0.000000
37.000000,-46008.473159,-30237.439899,-2340.272348,12288.251494,-36.634509,39491.151511,20431.528441,27816.075422,-0.058000,0.990000,-0.050000,192.000000,0.000000,0.000000,0.000000,0.000000,0.000000,0.000000,0.000000,0.000000,0.000000,1648525917.342925,0.000000
38.000000,-46015.156330,-30244.011312,-2350.978834,12288.564418,-48.257416,39494.638383,20423.839441,27771.595451,-0.042000,0.898000,-0.050000,192.000000,254.000000,176.000000,28.000000,16.000000,254.000000,112.000000,0.000000,0.000000,0.000000,1648525917.349476,0.000000
39.000000,-46008.875490,-30239.764481,-2345.480304,12298.399186,-44.927006,39509.256424,20431.751958,27717.750098,-0.042000,0.898000,-0.050000,192.000000,0.000000,0.000000,0.000000,0.000000,0.000000,0.000000,0.000000,0.000000,0.000000,1648525917.349480,0.000000
40.000000,-46009.434284,-30248.191088,-2351.962310,12292.073642,-55.074698,39512.475075,20434.814147,27672.420761,-0.042000,0.898000,-0.050000,192.000000,0.000000,0.000000,0.000000,0.000000,0.000000,0.000000,0.000000,0.000000,0.000000,1648525917.357539,0.000000
41.000000,-46011.110665,-30254.516632,-2354.085726,12292.341863,-60.372062,39513.927938,20427.683941,27636.300342,-0.042000,0.898000,-0.050000,192.000000,0.000000,0.000000,0.000000,0.000000,0.000000,0.000000,0.000000,0.000000,0.000000,1648525917.357542,0.000000
42.000000,-46001.521766,-30247.252315,-2348.453086,12299.494421,-54.895884,39523.561540,20426.544002,27614.999129,-0.042000,0.898000,-0.050000,192.000000,0.000000,0.000000,0.000000,0.000000,0.000000,0.000000,0.000000,0.000000,0.000000,1648525917.365464,0.000000
43.000000,-45989.116548,-30232.209591,-2338.595967,12314.000704,-39.696698,39544.460421,20436.378769,27598.592949,-0.042000,0.898000,-0.050000,192.000000,0.000000,0.000000,0.000000,0.000000,0.000000,0.000000,0.000000,0.000000,0.000000,1648525917.365468,0.000000
44.000000,-45987.306057,-30229.147402,-2339.735906,12318.851032,-38.109724,39552.641160,20440.357380,27601.968062,-0.042000,0.898000,-0.050000,192.000000,0.000000,0.000000,0.000000,0.000000,0.000000,0.000000,0.000000,0.000000,0.000000,1648525917.372638,0.000000
45.000000,-45994.436263,-30233.237771,-2344.496828,12315.833547,-43.228274,39549.578971,20432.131938,27599.777591,-0.042000,0.898000,-0.050000,192.000000,0.000000,0.000000,0.000000,0.000000,0.000000,0.000000,0.000000,0.000000,0.000000,1648525917.372642,0.000000
46.000000,-45985.964952,-30225.191143,-2334.840874,12325.824776,-33.907596,39562.230058,20437.406950,27606.147838,-0.042000,0.898000,-0.050000,192.000000,0.000000,0.000000,0.000000,0.000000,0.000000,0.000000,0.000000,0.000000,0.000000,1648525917.379191,0.000000
47.000000,-45997.163176,-30238.937466,-2344.653290,12313.464262,-45.552855,39556.306846,20435.238830,27612.808658,-0.042000,0.898000,-0.050000,192.000000,0.000000,0.000000,0.000000,0.000000,0.000000,0.000000,0.000000,0.000000,0.000000,1648525917.387115,0.000000
48.000000,-45992.715179,-30237.261085,-2340.428810,12317.174651,-42.378907,39560.307808,20440.916174,27615.870847,-0.032000,0.888000,-0.040000,192.000000,255.000000,0.000000,27.000000,192.000000,254.000000,192.000000,0.000000,0.000000,0.000000,1648525917.387118,0.000000
49.000000,-45998.101949,-30240.390329,-2344.161551,12315.833547,-45.329338,39567.035683,20442.570203,27625.079766,-0.032000,0.888000,-0.040000,192.000000,0.000000,0.000000,0.000000,0.000000,0.000000,0.000000,0.000000,0.000000,0.000000,1648525917.395214,0.000000
50.000000,-45998.414874,-30237.395196,-2341.635804,12321.935573,-40.635471,39578.658590,20448.359304,27634.512202,-0.032000,0.888000,-0.040000,192.000000,0.000000,0.000000,0.000000,0.000000,0.000000,0.000000,0.000000,0.000000,0.000000,1648525917.395218,0.000000
51.000000,-45997.163176,-30233.394233,-2339.333575,12326.808253,-35.695736,39585.833500,20456.070656,27652.170080,-0.032000,0.888000,-0.040000,192.000000,0.000000,0.000000,0.000000,0.000000,0.000000,0.000000,0.000000,0.000000,0.000000,1648525917.402395,0.000000
52.000000,-45994.950353,-30228.968588,-2334.773819,12333.312611,-28.498474,39593.790721,20461.770351,27674.119493,-0.032000,0.888000,-0.040000,192.000000,0.000000,0.000000,0.000000,0.000000,0.000000,0.000000,0.000000,0.000000,0.000000,1648525917.402400,0.000000
53.000000,-45996.134996,-30230.376748,-2334.058563,12336.330096,-26.240948,39598.372829,20465.905424,27701.656842,-0.032000,0.888000,-0.040000,192.000000,0.000000,0.000000,0.000000,0.000000,0.000000,0.000000,0.000000,0.000000,0.000000,1648525917.409939,0.000000
54.000000,-45992.089330,-30226.308730,-2330.996374,12340.241652,-23.379925,39598.529291,20468.364116,27720.029976,-0.032000,0.888000,-0.040000,192.000000,0.000000,0.000000,0.000000,0.000000,0.000000,0.000000,0.000000,0.000000,0.000000,1648525917.409943,0.000000
55.000000,-45993.653952,-30221.436050,-2333.633880,12339.369934,-26.129189,39593.567204,20476.902482,27738.403110,-0.032000,0.888000,-0.040000,192.000000,0.000000,0.000000,0.000000,0.000000,0.000000,0.000000,0.000000,0.000000,0.000000,1648525917.417817,0.000000
56.000000,-46002.482891,-30225.526419,-2340.719383,12331.122140,-31.359497,39588.158082,20481.931625,27756.485672,-0.032000,0.888000,-0.040000,192.000000,0.000000,0.000000,0.000000,0.000000,0.000000,0.000000,0.000000,0.000000,0.000000,1648525917.417820,0.000000
57.000000,-46015.670421,-30242.178469,-2344.608586,12324.260154,-33.907596,39588.895689,20493.778049,27792.673146,-0.032000,0.888000,-0.040000,192.000000,0.000000,0.000000,0.000000,0.000000,0.000000,0.000000,0.000000,0.000000,0.000000,1648525917.425763,0.000000
58.000000,-46013.345839,-30242.312579,-2336.517255,12331.457416,-25.749210,39593.701314,20514.229895,27834.605018,-0.012000,0.914000,-0.050000,192.000000,255.000000,160.000000,28.000000,144.000000,254.000000,112.000000,0.000000,0.000000,0.000000,1648525917.425766,0.000000
59.000000,-46027.159217,-30253.175527,-2351.112944,12316.347637,-39.093201,39573.160061,20508.798421,27855.660362,-0.012000,0.914000,-0.050000,192.000000,0.000000,0.000000,0.000000,0.000000,0.000000,0.000000,0.000000,0.000000,0.000000,1648525917.432467,0.000000
60.000000,-46006.662668,-30233.103661,-2330.258766,12336.374800,-16.316773,39587.487529,20519.415500,27879.263804,-0.012000,0.914000,-0.050000,192.000000,0.000000,0.000000,0.000000,0.000000,0.000000,0.000000,0.000000,0.000000,0.000000,1648525917.432471,0.000000
61.000000,-46016.475083,-30239.093928,-2336.941938,12329.736332,-22.217634,39584.067712,20532.670085,27914.288987,-0.012000,0.914000,-0.050000,192.000000,0.000000,0.000000,0.000000,0.000000,0.000000,0.000000,0.000000,0.000000,0.000000,1648525917.439541,0.000000
62.000000,-46023.940566,-30243.050187,-2343.111020,12325.511852,-26.710335,39578.747997,20542.437797,27947.973066,-0.012000,0.914000,-0.050000,192.000000,0.000000,0.000000,0.000000,0.000000,0.000000,0.000000,0.000000,0.000000,0.000000,1648525917.447426,0.000000
63.000000,-46027.405086,-30245.531231,-2342.932206,12327.009419,-25.548044,39583.777140,20552.607841,27984.741686,-0.012000,0.914000,-0.050000,192.000000,0.000000,0.000000,0.000000,0.000000,0.000000,0.000000,0.000000,0.000000,0.000000,1648525917.447431,0.000000
64.000000,-46029.193226,-30251.342684,-2346.955520,12322.136739,-29.101971,39580.871413,20554.798312,28001.080811,-0.012000,0.914000,-0.050000,192.000000,0.000000,0.000000,0.000000,0.000000,0.000000,0.000000,0.000000,0.000000,0.000000,1648525917.454545,0.000000
65.000000,-46018.442037,-30241.105585,-2334.684412,12335.234861,-15.109779,39593.835425,20565.907129,28037.357692,-0.012000,0.914000,-0.050000,192.000000,0.000000,0.000000,0.000000,0.000000,0.000000,0.000000,0.000000,0.000000,0.000000,1648525917.454549,0.000000
66.000000,-46016.698601,-30238.490431,-2329.588214,12339.258175,-10.594727,39596.964669,20582.447419,28072.092303,-0.012000,0.914000,-0.050000,192.000000,0.000000,0.000000,0.000000,0.000000,0.000000,0.000000,0.000000,0.000000,0.000000,1648525917.462100,0.000000
67.000000,-46020.699563,-30241.440861,-2329.744676,12335.994820,-15.221538,39591.153215,20588.057707,28088.811408,-0.012000,0.914000,-0.050000,192.000000,0.000000,0.000000,0.000000,0.000000,0.000000,0.000000,0.000000,0.000000,0.000000,1648525917.462104,0.000000
68.000000,-46011.892976,-30237.194030,-2322.323897,12339.213471,-11.377038,39591.399084,20591.052841,28110.984339,-0.006000,0.944000,-0.058000,192.000000,255.000000,208.000000,29.000000,128.000000,254.000000,48.000000,0.000000,0.000000,0.000000,1648525917.470139,0.000000
69.000000,-46020.163121,-30245.061844,-2328.045944,12331.233899,-18.842521,39585.475872,20606.050862,28137.627618,-0.006000,0.944000,-0.058000,192.000000,0.000000,0.000000,0.000000,0.000000,0.000000,0.000000,0.000000,0.000000,0.000000,1648525917.470142,0.000000
70.000000,-46026.063982,-30249.375731,-2331.868092,12328.462282,-23.715201,39578.300962,20606.184972,28166.170796,-0.006000,0.944000,-0.058000,192.000000,0.000000,0.000000,0.000000,0.000000,0.000000,0.000000,0.000000,0.000000,0.000000,1648525917.478010,0.000000
71.000000,-46031.428400,-30251.163870,-2333.499769,12329.646925,-24.877492,39574.121186,20610.856487,28202.090049,-0.006000,0.944000,-0.058000,192.000000,0.000000,0.000000,0.000000,0.000000,0.000000,0.000000,0.000000,0.000000,0.000000,1648525917.478013,0.000000
72.000000,-46031.651918,-30250.649780,-2330.929319,12333.312611,-21.792951,39571.796605,20615.304484,28225.805250,-0.006000,0.944000,-0.058000,192.000000,0.000000,0.000000,0.000000,0.000000,0.000000,0.000000,0.000000,0.000000,0.000000,1648525917.484639,0.000000
73.000000,-46029.528502,-30245.732396,-2326.838950,12336.777131,-16.786160,39574.992904,20627.329722,28258.036465,-0.006000,0.944000,-0.058000,192.000000,0.000000,0.000000,0.000000,0.000000,0.000000,0.000000,0.000000,0.000000,0.000000,1648525917.484643,0.000000
74.000000,-46035.183494,-30243.184297,-2325.676659,12335.950117,-16.339125,39571.058997,20630.883650,28275.269660,-0.006000,0.944000,-0.058000,192.000000,0.000000,0.000000,0.000000,0.000000,0.000000,0.000000,0.000000,0.000000,0.000000,1648525917.492763,0.000000
75.000000,-46035.094087,-30237.395196,-2319.082894,12344.890814,-8.851291,39579.150329,20644.875842,28311.658300,-0.006000,0.944000,-0.058000,192.000000,0.000000,0.000000,0.000000,0.000000,0.000000,0.000000,0.000000,0.000000,0.000000,1648525917.492767,0.000000
76.000000,-46044.772392,-30240.122108,-2322.145083,12343.728524,-12.516977,39571.148404,20647.759217,28332.378367,-0.006000,0.944000,-0.058000,192.000000,0.000000,0.000000,0.000000,0.000000,0.000000,0.000000,0.000000,0.000000,0.000000,1648525917.499741,0.000000
77.000000,-46039.855008,-30234.444765,-2313.651420,12349.919957,-6.504358,39572.422453,20652.475435,28347.465795,-0.006000,0.944000,-0.058000,192.000000,0.000000,0.000000,0.000000,0.000000,0.000000,0.000000,0.000000,0.000000,0.000000,1648525917.507613,0.000000
78.000000,-46049.354500,-30237.395196,-2313.807883,12348.668259,-6.258488,39574.009427,20657.683391,28356.026513,-0.022000,0.954000,-0.078000,192.000000,255.000000,80.000000,29.000000,208.000000,253.000000,144.000000,0.000000,0.000000,0.000000,1648525917.507616,0.000000
79.000000,-46062.832601,-30242.826670,-2318.725266,12343.482655,-11.667611,39567.013331,20660.410304,28373.974964,-0.022000,0.954000,-0.078000,192.000000,0.000000,0.000000,0.000000,0.000000,0.000000,0.000000,0.000000,0.000000,0.000000,1648525917.514315,0.000000
80.000000,-46067.302950,-30239.205687,-2317.898252,12344.667297,-11.153520,39564.576991,20667.920490,28398.405421,-0.022000,0.954000,-0.078000,192.000000,0.000000,0.000000,0.000000,0.000000,0.000000,0.000000,0.000000,0.000000,0.000000,1648525917.514318,0.000000
81.000000,-46069.046386,-30233.550696,-2317.071237,12342.566233,-9.834768,39566.678055,20675.855360,28426.814488,-0.022000,0.954000,-0.078000,192.000000,0.000000,0.000000,0.000000,0.000000,0.000000,0.000000,0.000000,0.000000,0.000000,1648525917.522239,0.000000
82.000000,-46077.830622,-30239.362149,-2320.938089,12335.972468,-14.394523,39569.382616,20684.885464,28458.419854,-0.022000,0.954000,-0.078000,192.000000,0.000000,0.000000,0.000000,0.000000,0.000000,0.000000,0.000000,0.000000,0.000000,1648525917.522242,0.000000
83.000000,-46090.973448,-30251.946181,-2325.028458,12328.529337,-20.585957,39570.254334,20683.589063,28472.903785,-0.022000,0.954000,-0.078000,192.000000,0.000000,0.000000,0.000000,0.000000,0.000000,0.000000,0.000000,0.000000,0.000000,1648525917.530360,0.000000
84.000000,-46083.418558,-30241.105585,-2311.036266,12340.308707,-8.203090,39586.682866,20701.202238,28503.928006,-0.022000,0.954000,-0.078000,192.000000,0.000000,0.000000,0.000000,0.000000,0.000000,0.000000,0.000000,0.000000,0.000000,1648525917.530364,0.000000
85.000000,-46090.459358,-30237.149326,-2307.750560,12343.393248,-4.738570,39589.700352,20709.517087,28524.245742,-0.022000,0.954000,-0.078000,192.000000,0.000000,0.000000,0.000000,0.000000,0.000000,0.000000,0.000000,0.000000,0.000000,1648525917.537782,0.000000
86.000000,-46090.951096,-30237.082271,-2305.068350,12339.749913,-4.380942,39583.687733,20710.992302,28540.964847,-0.022000,0.954000,-0.078000,192.000000,0.000000,0.000000,0.000000,0.000000,0.000000,0.000000,0.000000,0.000000,0.000000,1648525917.537793,0.000000
87.000000,-46113.660468,-30249.107510,-2311.818577,12331.144492,-10.930003,39575.842270,20703.124488,28556.991048,-0.022000,0.954000,-0.078000,192.000000,0.000000,0.000000,0.000000,0.000000,0.000000,0.000000,0.000000,0.000000,0.000000,1648525917.545856,0.000000
88.000000,-46142.896550,-30255.969495,-2317.406513,12328.149358,-16.182663,39569.874355,20701.425755,28569.597431,-0.022000,0.954000,-0.078000,192.000000,0.000000,0.000000,0.000000,0.000000,0.000000,0.000000,0.000000,0.000000,0.000000,1648525917.545872,0.000000
89.000000,-46161.783774,-30253.287286,-2313.204385,12334.787826,-10.214747,39575.261125,20721.385863,28614.211513,-0.016000,0.978000,-0.100000,192.000000,255.000000,128.000000,30.000000,144.000000,252.000000,224.000000,0.000000,0.000000,0.000000,1648525917.553143,0.000000
90.000000,-46186.504803,-30257.332952,-2318.457045,12329.177538,-14.796855,39565.649875,20733.589915,28645.571011,-0.016000,0.978000,-0.100000,192.000000,0.000000,0.000000,0.000000,0.000000,0.000000,0.000000,0.000000,0.000000,0.000000,1648525917.553160,0.000000
91.000000,-46208.409513,-30263.725551,-2318.188824,12327.836433,-12.829901,39559.547849,20737.657933,28652.209479,-0.016000,0.978000,-0.100000,192.000000,0.000000,0.000000,0.000000,0.000000,0.000000,0.000000,0.000000,0.000000,0.000000,1648525917.560332,0.000000
92.000000,-46233.577577,-30266.296001,-2321.720400,12323.924878,-12.360515,39549.266046,20731.310038,28658.959706,-0.016000,0.978000,-0.100000,192.000000,0.000000,0.000000,0.000000,0.000000,0.000000,0.000000,0.000000,0.000000,0.000000,1648525917.560348,0.000000
93.000000,-46264.780613,-30263.770254,-2321.876862,12325.780073,-8.583070,39553.445822,20742.061227,28710.324014,-0.016000,0.978000,-0.100000,192.000000,0.000000,0.000000,0.000000,0.000000,0.000000,0.000000,0.000000,0.000000,0.000000,1648525917.567588,0.000000
94.000000,-46298.263526,-30266.363056,-2322.860339,12324.774244,-9.924175,39552.127069,20751.136035,28752.479405,-0.016000,0.978000,-0.100000,192.000000,0.000000,0.000000,0.000000,0.000000,0.000000,0.000000,0.000000,0.000000,0.000000,1648525917.575059,0.000000
95.000000,-46329.958299,-30262.898536,-2315.551319,12332.820872,-10.147692,39554.675168,20747.850328,28759.721370,-0.016000,0.978000,-0.100000,192.000000,0.000000,0.000000,0.000000,0.000000,0.000000,0.000000,0.000000,0.000000,0.000000,1648525917.575076,0.000000
96.000000,-46360.736652,-30256.215364,-2312.086798,12334.698419,-9.521843,39561.268933,20748.945564,28777.222786,-0.016000,0.978000,-0.100000,192.000000,0.000000,0.000000,0.000000,0.000000,0.000000,0.000000,0.000000,0.000000,0.000000,1648525917.582973,0.000000
97.000000,-46404.657829,-30251.879126,-2312.645592,12334.340791,-8.761884,39566.856869,20767.184587,28794.768905,-0.016000,0.978000,-0.100000,192.000000,0.000000,0.000000,0.000000,0.000000,0.000000,0.000000,0.000000,0.000000,0.000000,1648525917.582989,0.000000
98.000000,-46458.570237,-30261.065693,-2320.759275,12324.260154,-17.032029,39561.559506,20771.766695,28817.902961,-0.016000,0.978000,-0.100000,192.000000,0.000000,0.000000,0.000000,0.000000,0.000000,0.000000,0.000000,0.000000,0.000000,1648525917.590998,0.000000
99.000000,-46482.687769,-30250.672132,-2310.432769,12334.229032,-7.197262,39564.912267,20770.470294,28824.630836,-0.016000,0.986000,-0.100000,192.000000,255.000000,128.000000,30.000000,208.000000,252.000000,224.000000,0.000000,0.000000,0.000000,1648525917.591014,0.000000
100.000000,-46496.858775,-30244.659513,-2303.816653,12339.235823,-2.458692,39566.186317,20771.766695,28830.777565,-0.016000,0.986000,-0.100000,192.000000,0.000000,0.000000,0.000000,0.000000,0.000000,0.000000,0.000000,0.000000,0.000000,1648525917.597554,0.000000
101.000000,-46515.410723,-30250.090987,-2307.124711,12333.625535,-7.778407,39566.074558,20779.813323,28858.180804,-0.016000,0.986000,-0.100000,192.000000,0.000000,0.000000,0.000000,0.000000,0.000000,0.000000,0.000000,0.000000,0.000000,1648525917.597570,0.000000
102.000000,-46527.480665,-30254.024894,-2310.544528,12326.517680,-12.896957,39557.022102,20773.577186,28867.792054,-0.016000,0.986000,-0.100000,192.000000,0.000000,0.000000,0.000000,0.000000,0.000000,0.000000,0.000000,0.000000,0.000000,1648525917.605353,0.000000
103.000000,-46534.588520,-30253.287286,-2306.565917,12328.372875,-8.650125,39561.358340,20765.172930,28875.950441,-0.016000,0.986000,-0.100000,192.000000,0.000000,0.000000,0.000000,0.000000,0.000000,0.000000,0.000000,0.000000,0.000000,1648525917.605362,0.000000
104.000000,-46552.201695,-30257.869394,-2309.292830,12324.148396,-11.600555,39567.192145,20782.361422,28903.130162,-0.016000,0.986000,-0.100000,192.000000,0.000000,0.000000,0.000000,0.000000,0.000000,0.000000,0.000000,0.000000,0.000000,1648525917.613471,0.000000
105.000000,-46564.361043,-30255.656571,-2307.594098,12326.607087,-8.851291,39576.870451,20820.113518,28936.076633,-0.016000,0.986000,-0.100000,192.000000,0.000000,0.000000,0.000000,0.000000,0.000000,0.000000,0.000000,0.000000,0.000000,1648525917.613483,0.000000
106.000000,-46579.537878,-30258.964629,-2312.779702,12324.550727,-11.779369,39572.109529,20808.267094,28949.040645,-0.016000,0.986000,-0.100000,192.000000,0.000000,0.000000,0.000000,0.000000,0.000000,0.000000,0.000000,0.000000,0.000000,1648525917.619988,0.000000
107.000000,-46569.680759,-30256.260068,-2306.498862,12327.679971,-6.459654,39565.873392,20798.097050,28956.327314,-0.016000,0.986000,-0.100000,192.000000,0.000000,0.000000,0.000000,0.000000,0.000000,0.000000,0.000000,0.000000,0.000000,1648525917.620003,0.000000
108.000000,-46578.062663,-30260.797472,-2306.945897,12323.209622,-9.030105,39560.643084,20804.422594,28991.218387,-0.016000,0.986000,-0.100000,192.000000,0.000000,0.000000,0.000000,0.000000,0.000000,0.000000,0.000000,0.000000,0.000000,1648525917.627175,0.000000
109.000000,-46582.488308,-30253.264934,-2298.184013,12331.993858,-1.139939,39562.431224,20812.558629,29005.925835,0.004000,0.976000,-0.098000,192.000000,0.000000,32.000000,30.000000,128.000000,252.000000,240.000000,0.000000,0.000000,0.000000,1648525917.635276,0.000000
110.000000,-46583.583544,-30251.208574,-2294.719493,12335.950117,2.525747,39555.792756,20813.743271,29012.318434,0.004000,0.976000,-0.098000,192.000000,0.000000,0.000000,0.000000,0.000000,0.000000,0.000000,0.000000,0.000000,0.000000,1648525917.635294,0.000000
111.000000,-46595.944058,-30250.985056,-2293.043112,12339.347582,5.520881,39552.439994,20825.500289,29041.196888,0.004000,0.976000,-0.098000,192.000000,0.000000,0.000000,0.000000,0.000000,0.000000,0.000000,0.000000,0.000000,0.000000,1648525917.643199,0.000000
112.000000,-46610.226823,-30255.365998,-2298.452234,12336.710076,0.625849,39544.214552,20826.506117,29059.570022,0.004000,0.976000,-0.098000,192.000000,0.000000,0.000000,0.000000,0.000000,0.000000,0.000000,0.000000,0.000000,0.000000,1648525917.643215,0.000000
113.000000,-46613.467826,-30252.460271,-2296.842908,12340.867500,0.983477,39542.784040,20827.757815,29065.403827,0.004000,0.976000,-0.098000,192.000000,0.000000,0.000000,0.000000,0.000000,0.000000,0.000000,0.000000,0.000000,0.000000,1648525917.649873,0.000000
114.000000,-46617.737009,-30256.193013,-2298.094606,12339.146416,-2.615154,39543.655758,20824.874440,29090.415429,0.004000,0.976000,-0.098000,192.000000,0.000000,0.000000,0.000000,0.000000,0.000000,0.000000,0.000000,0.000000,0.000000,1648525917.649889,0.000000
115.000000,-46626.320079,-30258.070559,-2298.742807,12337.358277,-3.844500,39544.013386,20838.173728,29109.973205,0.004000,0.976000,-0.098000,192.000000,0.000000,0.000000,0.000000,0.000000,0.000000,0.000000,0.000000,0.000000,0.000000,1648525917.657911,0.000000
116.000000,-46637.004213,-30261.959763,-2297.826385,12340.107541,-0.894070,39543.029909,20839.604239,29120.612636,0.004000,0.976000,-0.098000,192.000000,0.000000,0.000000,0.000000,0.000000,0.000000,0.000000,0.000000,0.000000,0.000000,1648525917.657927,0.000000
117.000000,-46657.366652,-30272.018048,-2309.471644,12329.199890,-11.131169,39529.261235,20835.156242,29137.465851,0.004000,0.976000,-0.098000,192.000000,0.000000,0.000000,0.000000,0.000000,0.000000,0.000000,0.000000,0.000000,0.000000,1648525917.665863,0.000000
118.000000,-46668.721338,-30283.730362,-2315.104284,12317.331113,-19.513073,39518.800619,20827.981332,29135.543601,0.004000,0.976000,-0.098000,192.000000,0.000000,0.000000,0.000000,0.000000,0.000000,0.000000,0.000000,0.000000,0.000000,1648525917.665878,0.000000
119.000000,-46663.759251,-30276.153121,-2301.179147,12326.852957,-6.236137,39527.987185,20840.587716,29137.376444,0.016000,0.986000,-0.092000,192.000000,0.000000,128.000000,30.000000,208.000000,253.000000,32.000000,0.000000,0.000000,0.000000,1648525917.672934,0.000000
120.000000,-46663.043995,-30267.659458,-2292.931353,12336.173634,2.682209,39531.138781,20846.175652,29149.982828,0.016000,0.986000,-0.092000,192.000000,0.000000,0.000000,0.000000,0.000000,0.000000,0.000000,0.000000,0.000000,0.000000,1648525917.672950,0.000000
121.000000,-46669.190725,-30268.486472,-2294.607734,12335.100750,2.101064,39525.953177,20833.681027,29156.956572,0.016000,0.986000,-0.092000,192.000000,0.000000,0.000000,0.000000,0.000000,0.000000,0.000000,0.000000,0.000000,0.000000,1648525917.680610,0.000000
122.000000,-46675.717434,-30268.866452,-2299.614525,12334.854881,-0.894070,39523.785058,20846.600335,29181.431732,0.016000,0.986000,-0.092000,192.000000,0.000000,0.000000,0.000000,0.000000,0.000000,0.000000,0.000000,0.000000,0.000000,1648525917.680626,0.000000
123.000000,-46675.180993,-30257.981152,-2295.747673,12344.264966,3.531576,39523.047450,20854.736370,29191.355907,0.016000,0.986000,-0.092000,192.000000,0.000000,0.000000,0.000000,0.000000,0.000000,0.000000,0.000000,0.000000,0.000000,1648525917.687613,0.000000
124.000000,-46682.490013,-30260.819824,-2294.987714,12344.220262,4.783273,39527.942482,20857.865615,29215.451087,0.016000,0.986000,-0.092000,192.000000,0.000000,0.000000,0.000000,0.000000,0.000000,0.000000,0.000000,0.000000,0.000000,1648525917.695533,0.000000
125.000000,-46688.435577,-30268.531176,-2289.623295,12348.131817,12.405218,39542.784040,20866.113408,29243.949562,0.016000,0.986000,-0.092000,192.000000,0.000000,0.000000,0.000000,0.000000,0.000000,0.000000,0.000000,0.000000,0.000000,1648525917.695548,0.000000
126.000000,-46689.843737,-30272.263917,-2290.472661,12345.941346,11.712314,39542.113488,20875.545845,29262.501509,0.016000,0.986000,-0.092000,192.000000,0.000000,0.000000,0.000000,0.000000,0.000000,0.000000,0.000000,0.000000,0.000000,1648525917.702724,0.000000
127.000000,-46691.833042,-30273.806187,-2295.948839,12339.369934,4.962087,39529.529456,20866.269871,29270.034047,0.016000,0.986000,-0.092000,192.000000,0.000000,0.000000,0.000000,0.000000,0.000000,0.000000,0.000000,0.000000,0.000000,1648525917.702740,0.000000
128.000000,-46690.424882,-30278.835330,-2298.429882,12336.218338,1.363456,39521.438124,20859.117312,29271.688076,0.016000,0.986000,-0.092000,192.000000,0.000000,0.000000,0.000000,0.000000,0.000000,0.000000,0.000000,0.000000,0.000000,1648525917.710329,0.000000
129.000000,-46687.072121,-30278.187129,-2294.943010,12340.040486,3.665686,39521.192255,20865.286394,29282.752190,0.026000,0.992000,-0.086000,192.000000,0.000000,208.000000,31.000000,0.000000,253.000000,80.000000,0.000000,0.000000,0.000000,1648525917.710345,0.000000
130.000000,-46678.109071,-30265.625449,-2287.902211,12350.344640,11.175872,39525.908473,20877.713964,29304.612196,0.026000,0.992000,-0.086000,192.000000,0.000000,0.000000,0.000000,0.000000,0.000000,0.000000,0.000000,0.000000,0.000000,1648525917.718220,0.000000
131.000000,-46674.823365,-30264.083179,-2287.678693,12352.155131,12.315811,39521.304014,20882.899568,29308.210827,0.026000,0.992000,-0.086000,192.000000,0.000000,0.000000,0.000000,0.000000,0.000000,0.000000,0.000000,0.000000,0.000000,1648525917.718236,0.000000
132.000000,-46679.427824,-30268.709990,-2294.853603,12344.264966,7.018448,39511.983336,20886.118220,29316.659786,0.026000,0.992000,-0.086000,192.000000,0.000000,0.000000,0.000000,0.000000,0.000000,0.000000,0.000000,0.000000,0.000000,1648525917.726229,0.000000
133.000000,-46675.762138,-30272.174510,-2293.758368,12343.281489,8.806587,39512.184502,20883.905397,29331.143717,0.026000,0.992000,-0.086000,192.000000,0.000000,0.000000,0.000000,0.000000,0.000000,0.000000,0.000000,0.000000,0.000000,1648525917.726245,0.000000
134.000000,-46672.431728,-30278.321240,-2298.072254,12336.195986,3.039837,39504.271985,20883.324252,29337.424557,0.026000,0.992000,-0.086000,192.000000,0.000000,0.000000,0.000000,0.000000,0.000000,0.000000,0.000000,0.000000,0.000000,1648525917.732858,0.000000
135.000000,-46670.464774,-30274.633202,-2294.898307,12339.079361,5.163253,39505.568386,20885.894702,29357.988162,0.026000,0.992000,-0.086000,192.000000,0.000000,0.000000,0.000000,0.000000,0.000000,0.000000,0.000000,0.000000,0.000000,1648525917.732874,0.000000
136.000000,-46668.341359,-30274.700257,-2296.060597,12340.219300,4.515052,39503.936708,20885.782943,29369.923993,0.026000,0.992000,-0.086000,192.000000,0.000000,0.000000,0.000000,0.000000,0.000000,0.000000,0.000000,0.000000,0.000000,1648525917.740908,0.000000
137.000000,-46659.713585,-30273.850891,-2289.936219,12345.449608,9.946526,39509.859921,20881.647871,29392.275738,0.026000,0.992000,-0.086000,192.000000,0.000000,0.000000,0.000000,0.000000,0.000000,0.000000,0.000000,0.000000,0.000000,1648525917.740924,0.000000
138.000000,-46661.077042,-30277.114246,-2293.266629,12346.231919,7.621945,39509.390534,20880.776153,29404.949177,0.026000,0.992000,-0.086000,192.000000,0.000000,0.000000,0.000000,0.000000,0.000000,0.000000,0.000000,0.000000,0.000000,1648525917.747726,0.000000
139.000000,-46657.880742,-30270.274612,-2293.937182,12355.306727,10.393561,39515.179636,20886.587606,29426.160982,0.038000,0.978000,-0.088000,192.000000,1.000000,48.000000,30.000000,144.000000,253.000000,64.000000,0.000000,0.000000,0.000000,1648525917.754882,0.000000
140.000000,-46657.232542,-30271.392199,-2299.569821,12356.469018,9.834768,39514.151456,20894.522476,29440.913134,0.038000,0.978000,-0.088000,192.000000,0.000000,0.000000,0.000000,0.000000,0.000000,0.000000,0.000000,0.000000,0.000000,1648525917.754898,0.000000
141.000000,-46638.345318,-30265.580745,-2290.785586,12361.833437,18.507244,39514.777305,20897.227037,29448.691541,0.038000,0.978000,-0.088000,192.000000,0.000000,0.000000,0.000000,0.000000,0.000000,0.000000,0.000000,0.000000,0.000000,1648525917.762475,0.000000
142.000000,-46630.231634,-30263.949068,-2287.321065,12363.621576,20.451846,39514.442028,20905.273665,29469.277497,0.038000,0.978000,-0.088000,192.000000,0.000000,0.000000,0.000000,0.000000,0.000000,0.000000,0.000000,0.000000,0.000000,1648525917.762492,0.000000
143.000000,-46641.966300,-30278.008315,-2297.558164,12354.502065,8.448959,39505.881310,20898.903417,29473.546681,0.038000,0.978000,-0.088000,192.000000,0.000000,0.000000,0.000000,0.000000,0.000000,0.000000,0.000000,0.000000,0.000000,1648525917.770174,0.000000
144.000000,-46631.528036,-30274.566147,-2289.198612,12362.772210,14.126302,39514.531435,20898.657548,29470.462140,0.038000,0.978000,-0.088000,192.000000,0.000000,0.000000,0.000000,0.000000,0.000000,0.000000,0.000000,0.000000,0.000000,1648525917.770185,0.000000
145.000000,-46622.609690,-30265.200766,-2288.393949,12365.834399,14.103951,39516.878368,20895.550656,29485.370753,0.038000,0.978000,-0.088000,192.000000,0.000000,0.000000,0.000000,0.000000,0.000000,0.000000,0.000000,0.000000,0.000000,1648525917.778361,0.000000
146.000000,-46612.752570,-30257.802338,-2280.280266,12374.126896,22.329393,39529.507104,20912.716796,29501.776934,0.038000,0.978000,-0.088000,192.000000,0.000000,0.000000,0.000000,0.000000,0.000000,0.000000,0.000000,0.000000,0.000000,1648525917.778378,0.000000
147.000000,-46630.298690,-30271.950993,-2296.373522,12358.704192,5.654991,39519.828799,20912.873258,29513.779821,0.038000,0.978000,-0.088000,192.000000,0.000000,0.000000,0.000000,0.000000,0.000000,0.000000,0.000000,0.000000,0.000000,1648525917.785196,0.000000
148.000000,-46640.401678,-30283.305679,-2306.901193,12347.573024,-6.191433,39508.250595,20895.394194,29511.142315,0.038000,0.978000,-0.088000,192.000000,0.000000,0.000000,0.000000,0.000000,0.000000,0.000000,0.000000,0.000000,0.000000,1648525917.785212,0.000000
149.000000,-46630.924538,-30280.712876,-2300.128615,12350.031716,0.290573,39515.850188,20899.998653,29527.012053,0.038000,0.970000,-0.096000,192.000000,1.000000,48.000000,30.000000,80.000000,253.000000,0.000000,0.000000,0.000000,0.000000,1648525917.793208,0.000000
150.000000,-46605.041218,-30262.049170,-2280.168507,12366.035565,20.183625,39533.217494,20914.594342,29549.699074,0.038000,0.970000,-0.096000,192.000000,0.000000,0.000000,0.000000,0.000000,0.000000,0.000000,0.000000,0.000000,0.000000,1648525917.793224,0.000000
151.000000,-46625.873044,-30281.249318,-2299.189842,12348.645907,1.072884,39515.000822,20898.523438,29547.441548,0.038000,0.970000,-0.096000,192.000000,0.000000,0.000000,0.000000,0.000000,0.000000,0.000000,0.000000,0.000000,0.000000,1648525917.801096,0.000000
152.000000,-46627.951756,-30284.177397,-2299.413359,12349.651736,1.922250,39515.380802,20906.570066,29567.178138,0.038000,0.970000,-0.096000,192.000000,0.000000,0.000000,0.000000,0.000000,0.000000,0.000000,0.000000,0.000000,0.000000,1648525917.801112,0.000000
153.000000,-46620.016887,-30279.125903,-2293.132519,12355.217320,9.611250,39516.632499,20908.134688,29573.771903,0.038000,0.970000,-0.096000,192.000000,0.000000,0.000000,0.000000,0.000000,0.000000,0.000000,0.000000,0.000000,0.000000,1648525917.808082,0.000000
154.000000,-46632.533864,-30291.620528,-2305.850661,12342.163902,-2.101064,39504.093171,20898.858714,29575.135359,0.038000,0.970000,-0.096000,192.000000,0.000000,0.000000,0.000000,0.000000,0.000000,0.000000,0.000000,0.000000,0.000000,1648525917.808099,0.000000
155.000000,-46609.824492,-30271.816882,-2284.549449,12363.062783,18.239023,39523.695651,20921.411624,29596.414220,0.038000,0.970000,-0.096000,192.000000,0.000000,0.000000,0.000000,0.000000,0.000000,0.000000,0.000000,0.000000,0.000000,1648525917.814840,0.000000
156.000000,-46611.389114,-30271.548661,-2287.969266,12360.268815,14.372172,39515.604319,20924.898496,29599.252891,0.038000,0.970000,-0.096000,192.000000,0.000000,0.000000,0.000000,0.000000,0.000000,0.000000,0.000000,0.000000,0.000000,1648525917.822871,0.000000
157.000000,-46611.858500,-30276.846025,-2288.706874,12354.211492,11.935832,39512.273909,20924.384406,29608.730031,0.038000,0.970000,-0.096000,192.000000,0.000000,0.000000,0.000000,0.000000,0.000000,0.000000,0.000000,0.000000,0.000000,1648525917.822887,0.000000
158.000000,-46607.835186,-30279.505882,-2285.845850,12352.423352,13.142826,39517.414810,20927.424243,29637.876706,0.038000,0.970000,-0.096000,192.000000,0.000000,0.000000,0.000000,0.000000,0.000000,0.000000,0.000000,0.000000,0.000000,1648525917.830754,0.000000
159.000000,-46609.042181,-30282.769237,-2288.952743,12349.271756,10.259451,39512.877406,20908.805240,29649.656075,0.032000,0.986000,-0.102000,192.000000,1.000000,0.000000,30.000000,208.000000,252.000000,208.000000,0.000000,0.000000,0.000000,1648525917.830771,0.000000
160.000000,-46603.633059,-30279.416475,-2281.978998,12352.266890,15.936794,39520.320537,20922.462156,29661.480148,0.032000,0.986000,-0.102000,192.000000,0.000000,0.000000,0.000000,0.000000,0.000000,0.000000,0.000000,0.000000,0.000000,1648525917.837678,0.000000
161.000000,-46597.173404,-30273.962650,-2277.910981,12355.418486,19.200148,39524.075630,20938.443653,29678.825102,0.032000,0.986000,-0.102000,192.000000,0.000000,0.000000,0.000000,0.000000,0.000000,0.000000,0.000000,0.000000,0.000000,1648525917.837694,0.000000
162.000000,-46593.597125,-30272.509786,-2277.039263,12359.151227,20.898881,39524.410906,20941.148214,29692.973756,0.032000,0.986000,-0.102000,192.000000,0.000000,0.000000,0.000000,0.000000,0.000000,0.000000,0.000000,0.000000,0.000000,1648525917.845241,0.000000
163.000000,-46594.535899,-30276.309583,-2282.202516,12357.743067,16.294422,39515.716078,20935.068540,29696.259462,0.032000,0.986000,-0.102000,192.000000,0.000000,0.000000,0.000000,0.000000,0.000000,0.000000,0.000000,0.000000,0.000000,1648525917.845256,0.000000
164.000000,-46591.429006,-30275.035533,-2281.107280,12357.296033,15.847387,39513.033868,20939.538889,29702.585006,0.032000,0.986000,-0.102000,192.000000,0.000000,0.000000,0.000000,0.000000,0.000000,0.000000,0.000000,0.000000,0.000000,1648525917.853356,0.000000
165.000000,-46590.624343,-30275.370809,-2276.793394,12356.983108,18.484893,39513.033868,20944.411569,29719.281759,0.032000,0.986000,-0.102000,192.000000,0.000000,0.000000,0.000000,0.000000,0.000000,0.000000,0.000000,0.000000,0.000000,1648525917.853372,0.000000
166.000000,-46588.679741,-30277.024839,-2273.127708,12357.117219,20.451846,39512.340964,20942.779892,29737.118451,0.032000,0.986000,-0.102000,192.000000,0.000000,0.000000,0.000000,0.000000,0.000000,0.000000,0.000000,0.000000,0.000000,1648525917.861320,0.000000
167.000000,-46588.165651,-30274.677905,-2271.183106,12359.128876,22.597614,39516.230168,20944.813901,29751.356512,0.032000,0.986000,-0.102000,192.000000,0.000000,0.000000,0.000000,0.000000,0.000000,0.000000,0.000000,0.000000,0.000000,1648525917.861335,0.000000
168.000000,-46586.355160,-30269.827577,-2268.456193,12362.548693,26.553872,39520.365241,20949.351305,29767.047437,0.032000,0.986000,-0.102000,192.000000,0.000000,0.000000,0.000000,0.000000,0.000000,0.000000,0.000000,0.000000,0.000000,1648525917.867920,0.000000
169.000000,-46583.784709,-30265.692504,-2262.532981,12370.684728,34.846370,39523.963871,20951.206499,29774.132940,0.026000,1.014000,-0.110000,192.000000,0.000000,208.000000,31.000000,176.000000,252.000000,144.000000,0.000000,0.000000,0.000000,1648525917.867937,0.000000
170.000000,-46587.763320,-30264.641972,-2266.533943,12371.981129,34.824018,39519.180598,20951.832348,29784.794722,0.026000,1.014000,-0.110000,192.000000,0.000000,0.000000,0.000000,0.000000,0.000000,0.000000,0.000000,0.000000,0.000000,1648525917.874996,0.000000
171.000000,-46591.697227,-30271.928641,-2274.222943,12365.387364,27.984384,39509.345831,20950.200671,29795.523560,0.026000,1.014000,-0.110000,192.000000,0.000000,0.000000,0.000000,0.000000,0.000000,0.000000,0.000000,0.000000,0.000000,1648525917.883061,0.000000
172.000000,-46590.780805,-30270.699295,-2274.155888,12364.560350,27.403239,39504.696668,20945.104473,29791.924929,0.026000,1.014000,-0.110000,192.000000,0.000000,0.000000,0.000000,0.000000,0.000000,0.000000,0.000000,0.000000,0.000000,1648525917.883096,0.000000
173.000000,-46595.608782,-30274.186167,-2279.654417,12360.648794,21.010640,39503.243804,20948.032552,29799.859798,0.026000,1.014000,-0.110000,192.000000,0.000000,0.000000,0.000000,0.000000,0.000000,0.000000,0.000000,0.000000,0.000000,1648525917.890048,0.000000
174.000000,-46599.721503,-30280.846987,-2283.454214,12356.960756,15.288593,39508.407057,20966.182168,29827.285388,0.026000,1.014000,-0.110000,192.000000,0.000000,0.000000,0.000000,0.000000,0.000000,0.000000,0.000000,0.000000,0.000000,1648525917.890064,0.000000
175.000000,-46595.720541,-30275.594327,-2279.520307,12357.810123,17.859044,39513.100924,20966.249224,29839.444737,0.026000,1.014000,-0.110000,192.000000,0.000000,0.000000,0.000000,0.000000,0.000000,0.000000,0.000000,0.000000,0.000000,1648525917.897610,0.000000
176.000000,-46600.168538,-30275.907251,-2283.565972,12353.630346,13.925137,39512.832703,20961.756523,29848.921877,0.026000,1.014000,-0.110000,192.000000,0.000000,0.000000,0.000000,0.000000,0.000000,0.000000,0.000000,0.000000,0.000000,1648525917.897626,0.000000
177.000000,-46591.004323,-30268.575879,-2275.876972,12362.705155,22.597614,39523.986223,20967.277404,29857.840223,0.026000,1.014000,-0.110000,192.000000,0.000000,0.000000,0.000000,0.000000,0.000000,0.000000,0.000000,0.000000,0.000000,1648525917.905648,0.000000
178.000000,-46586.153994,-30266.631277,-2274.580571,12366.080268,23.379925,39526.087287,20971.591290,29858.711941,0.026000,1.014000,-0.110000,192.000000,0.000000,0.000000,0.000000,0.000000,0.000000,0.000000,0.000000,0.000000,0.000000,1648525917.905664,0.000000
179.000000,-46591.138433,-30271.325144,-2283.275400,12362.235768,16.227366,39519.091191,20964.885767,29867.004438,0.046000,0.996000,-0.122000,192.000000,1.000000,112.000000,31.000000,32.000000,252.000000,48.000000,0.000000,0.000000,0.000000,1648525917.913661,0.000000
180.000000,-46580.163727,-30260.976286,-2274.558219,12371.399983,25.883320,39528.858904,20978.073296,29881.086037,0.046000,0.996000,-0.122000,192.000000,0.000000,0.000000,0.000000,0.000000,0.000000,0.000000,0.000000,0.000000,0.000000,1648525917.913677,0.000000
181.000000,-46578.174422,-30264.463158,-2280.481432,12361.632271,18.127265,39519.448819,20972.060677,29873.352334,0.046000,0.996000,-0.122000,192.000000,0.000000,0.000000,0.000000,0.000000,0.000000,0.000000,0.000000,0.000000,0.000000,1648525917.920108,0.000000
182.000000,-46566.439756,-30259.098740,-2272.881838,12369.790658,25.302175,39532.926921,20979.660270,29889.289128,0.046000,0.996000,-0.122000,192.000000,0.000000,0.000000,0.000000,0.000000,0.000000,0.000000,0.000000,0.000000,0.000000,1648525917.920124,0.000000
183.000000,-46561.455317,-30256.885917,-2273.105356,12375.177428,26.240948,39536.100869,20978.833256,29903.862465,0.046000,0.996000,-0.122000,192.000000,0.000000,0.000000,0.000000,0.000000,0.000000,0.000000,0.000000,0.000000,0.000000,1648525917.928158,0.000000
184.000000,-46559.667177,-30256.707103,-2273.977074,12375.020966,24.028125,39537.844305,20976.151046,29914.300730,0.046000,0.996000,-0.122000,192.000000,0.000000,0.000000,0.000000,0.000000,0.000000,0.000000,0.000000,0.000000,0.000000,1648525917.928175,0.000000
185.000000,-46567.624398,-30269.559356,-2286.404644,12359.754724,9.186567,39530.647043,20974.117038,29920.581570,0.046000,0.996000,-0.122000,192.000000,0.000000,0.000000,0.000000,0.000000,0.000000,0.000000,0.000000,0.000000,0.000000,1648525917.935391,0.000000
186.000000,-46562.707014,-30269.715818,-2281.084929,12362.034602,12.896957,39536.190276,20988.936244,29924.336663,0.046000,0.996000,-0.122000,192.000000,0.000000,0.000000,0.000000,0.000000,0.000000,0.000000,0.000000,0.000000,0.000000,1648525917.943256,0.000000
187.000000,-46550.547665,-30263.278516,-2272.814783,12369.522437,20.943585,39541.599398,20997.094631,29938.328855,0.046000,0.996000,-0.122000,192.000000,0.000000,0.000000,0.000000,0.000000,0.000000,0.000000,0.000000,0.000000,0.000000,1648525917.943272,0.000000
188.000000,-46549.854761,-30264.843138,-2277.218077,12368.069573,17.456712,39536.167924,20994.568884,29948.297733,0.046000,0.996000,-0.122000,192.000000,0.000000,0.000000,0.000000,0.000000,0.000000,0.000000,0.000000,0.000000,0.000000,1648525917.949953,0.000000
189.000000,-46549.944168,-30267.525347,-2281.464908,12367.488428,15.266241,39533.865694,20996.312320,29957.394893,0.046000,0.996000,-0.122000,192.000000,0.000000,0.000000,0.000000,0.000000,0.000000,0.000000,0.000000,0.000000,0.000000,1648525917.949969,0.000000
190.000000,-46545.876151,-30264.485510,-2281.464908,12371.042355,15.288593,39530.267063,20997.899294,29962.155814,0.048000,0.986000,-0.128000,192.000000,1.000000,128.000000,30.000000,208.000000,252.000000,0.000000,0.000000,0.000000,0.000000,1648525917.957860,0.000000
191.000000,-46542.590444,-30263.457330,-2278.737995,12371.936425,17.188491,39533.396308,20998.413384,29963.899250,0.048000,0.986000,-0.128000,192.000000,0.000000,0.000000,0.000000,0.000000,0.000000,0.000000,0.000000,0.000000,0.000000,1648525917.957876,0.000000
192.000000,-46540.310566,-30264.574917,-2280.593190,12369.902416,14.394523,39533.999805,21001.721442,29980.126617,0.048000,0.986000,-0.128000,192.000000,0.000000,0.000000,0.000000,0.000000,0.000000,0.000000,0.000000,0.000000,0.000000,1648525917.965925,0.000000
193.000000,-46546.479648,-30272.554490,-2288.170432,12360.358222,5.185605,39524.947348,21001.721442,29990.967213,0.048000,0.986000,-0.128000,192.000000,0.000000,0.000000,0.000000,0.000000,0.000000,0.000000,0.000000,0.000000,0.000000,1648525917.965941,0.000000
194.000000,-46541.942244,-30270.207557,-2283.968304,12364.627405,9.588898,39527.316633,21004.671872,29994.096457,0.048000,0.986000,-0.128000,192.000000,0.000000,0.000000,0.000000,0.000000,0.000000,0.000000,0.000000,0.000000,0.000000,1648525917.972895,0.000000
195.000000,-46533.046250,-30263.457330,-2278.849754,12372.316405,16.652050,39533.888046,21013.858439,30007.954539,0.048000,0.986000,-0.128000,192.000000,0.000000,0.000000,0.000000,0.000000,0.000000,0.000000,0.000000,0.000000,0.000000,1648525917.972911,0.000000
196.000000,-46537.158970,-30269.604059,-2286.181126,12366.951986,9.074808,39524.343851,21005.968273,30013.721289,0.048000,0.986000,-0.128000,192.000000,0.000000,0.000000,0.000000,0.000000,0.000000,0.000000,0.000000,0.000000,0.000000,1648525917.980575,0.000000
197.000000,-46546.323186,-30279.617641,-2297.781682,12355.463190,-4.000962,39512.877406,21006.348253,30021.119716,0.048000,0.986000,-0.128000,192.000000,0.000000,0.000000,0.000000,0.000000,0.000000,0.000000,0.000000,0.000000,0.000000,1648525917.980592,0.000000
198.000000,-46542.545741,-30277.091894,-2292.372560,12361.475809,0.514090,39517.705383,21009.008111,30036.654179,0.048000,0.986000,-0.128000,192.000000,0.000000,0.000000,0.000000,0.000000,0.000000,0.000000,0.000000,0.000000,0.000000,1648525917.989991,0.000000
199.000000,-46543.775087,-30275.370809,-2295.635914,12362.146361,-1.564622,39512.922110,21008.605779,30047.762996,0.048000,0.986000,-0.128000,192.000000,0.000000,0.000000,0.000000,0.000000,0.000000,0.000000,0.000000,0.000000,0.000000,1648525917.990007,0.000000
200.000000,-46536.533122,-30265.603097,-2295.278286,12363.666280,-1.430512,39508.541168,21011.265637,30059.363551,0.026000,0.984000,-0.132000,192.000000,0.000000,208.000000,30.000000,192.000000,251.000000,224.000000,0.000000,0.000000,0.000000,1648525917.997045,0.000000
201.000000,-46535.169665,-30265.401931,-2292.707836,12361.408754,-0.067055,39508.429409,21014.350178,30063.744493,0.026000,0.984000,-0.132000,192.000000,0.000000,0.000000,0.000000,0.000000,0.000000,0.000000,0.000000,0.000000,0.000000,1648525918.002981,0.000000
202.000000,-46537.538950,-30269.671115,-2283.364807,12364.493294,8.113683,39523.516837,21030.018750,30072.126397,0.026000,0.984000,-0.132000,192.000000,0.000000,0.000000,0.000000,0.000000,0.000000,0.000000,0.000000,0.000000,0.000000,1648525918.002993,0.000000
203.000000,-46546.881979,-30279.327068,-2294.697141,12352.758628,-3.933907,39512.765648,21021.905067,30081.000040,0.026000,0.984000,-0.132000,192.000000,0.000000,0.000000,0.000000,0.000000,0.000000,0.000000,0.000000,0.000000,0.000000,1648525918.010081,0.000000
204.000000,-46539.215331,-30270.296963,-2289.288019,12363.710983,2.145767,39516.498389,21018.775823,30083.525787,0.026000,0.984000,-0.132000,192.000000,0.000000,0.000000,0.000000,0.000000,0.000000,0.000000,0.000000,0.000000,0.000000,1648525918.010091,0.000000
205.000000,-46541.651671,-30270.431074,-2290.517365,12363.688631,1.005829,39520.588758,21019.379320,30096.802723,0.026000,0.984000,-0.132000,192.000000,0.000000,0.000000,0.000000,0.000000,0.000000,0.000000,0.000000,0.000000,0.000000,1648525918.018113,0.000000
206.000000,-46547.597235,-30275.482568,-2295.725321,12356.826646,-6.392599,39517.906549,21017.322960,30107.017470,0.026000,0.984000,-0.132000,192.000000,0.000000,0.000000,0.000000,0.000000,0.000000,0.000000,0.000000,0.000000,0.000000,1648525918.018129,0.000000
207.000000,-46548.491305,-30281.226967,-2295.792376,12356.938405,-7.666648,39520.231130,21031.628076,30111.219598,0.026000,0.984000,-0.132000,192.000000,0.000000,0.000000,0.000000,0.000000,0.000000,0.000000,0.000000,0.000000,0.000000,1648525918.025288,0.000000
208.000000,-46540.712898,-30272.554490,-2291.143214,12362.705155,-2.816320,39524.835590,21036.299591,30122.618988,0.026000,0.984000,-0.132000,192.000000,0.000000,0.000000,0.000000,0.000000,0.000000,0.000000,0.000000,0.000000,0.000000,1648525918.025304,0.000000
209.000000,-46533.895616,-30261.155100,-2285.152946,12369.209512,2.525747,39529.372994,21037.730102,30129.793898,0.026000,0.984000,-0.132000,192.000000,0.000000,0.000000,0.000000,0.000000,0.000000,0.000000,0.000000,0.000000,0.000000,1648525918.032691,0.000000
210.000000,-46538.433020,-30265.804263,-2290.293847,12365.454419,-2.525747,39528.255406,21048.078960,30139.941590,0.016000,0.976000,-0.132000,192.000000,0.000000,128.000000,30.000000,128.000000,251.000000,224.000000,0.000000,0.000000,0.000000,1648525918.032707,0.000000
211.000000,-46542.299872,-30270.162853,-2296.753502,12359.195931,-9.343029,39518.577101,21037.595992,30147.496479,0.016000,0.976000,-0.132000,192.000000,0.000000,0.000000,0.000000,0.000000,0.000000,0.000000,0.000000,0.000000,0.000000,1648525918.040853,0.000000
212.000000,-46539.729421,-30268.039437,-2290.472661,12364.225073,-3.129244,39522.578063,21036.545460,30163.187404,0.016000,0.976000,-0.132000,192.000000,0.000000,0.000000,0.000000,0.000000,0.000000,0.000000,0.000000,0.000000,0.000000,1648525918.040869,0.000000
213.000000,-46537.829523,-30265.312524,-2284.549449,12370.550617,3.956259,39524.388555,21034.265582,30148.234087,0.016000,0.976000,-0.132000,192.000000,0.000000,0.000000,0.000000,0.000000,0.000000,0.000000,0.000000,0.000000,0.000000,1648525918.048886,0.000000
214.000000,-46535.393183,-30262.227984,-2281.464908,12375.065669,8.538366,39528.031889,21026.800099,30148.770529,0.016000,0.976000,-0.132000,192.000000,0.000000,0.000000,0.000000,0.000000,0.000000,0.000000,0.000000,0.000000,0.000000,1648525918.048902,0.000000
215.000000,-46539.461200,-30267.435940,-2287.298714,12369.209512,3.509224,39523.293319,21018.284085,30152.592677,0.016000,0.976000,-0.132000,192.000000,0.000000,0.000000,0.000000,0.000000,0.000000,0.000000,0.000000,0.000000,0.000000,1648525918.054912,0.000000
216.000000,-46536.466066,-30264.910193,-2283.945952,12371.377632,6.459654,39531.474058,21023.022654,30164.081474,0.016000,0.976000,-0.132000,192.000000,0.000000,0.000000,0.000000,0.000000,0.000000,0.000000,0.000000,0.000000,0.000000,1648525918.054924,0.000000
217.000000,-46540.936415,-30271.146330,-2285.577629,12367.913111,2.503395,39535.452668,21031.739835,30169.155320,0.016000,0.976000,-0.132000,192.000000,0.000000,0.000000,0.000000,0.000000,0.000000,0.000000,0.000000,0.000000,0.000000,1648525918.062143,0.000000
218.000000,-46540.377622,-30273.113283,-2285.152946,12367.354318,1.855195,39541.107659,21052.571661,30200.648928,0.016000,0.976000,-0.132000,192.000000,0.000000,0.000000,0.000000,0.000000,0.000000,0.000000,0.000000,0.000000,0.000000,1648525918.070253,0.000000
219.000000,-46535.214369,-30268.575879,-2280.839059,12372.338757,6.750227,39546.717947,21059.344239,30223.380652,0.016000,0.976000,-0.132000,192.000000,0.000000,0.000000,0.000000,0.000000,0.000000,0.000000,0.000000,0.000000,0.000000,1648525918.070269,0.000000
220.000000,-46537.248377,-30269.492301,-2284.169469,12370.550617,4.470349,39542.761689,21054.739780,30225.325254,-0.002000,0.964000,-0.140000,192.000000,255.000000,240.000000,30.000000,32.000000,251.000000,160.000000,0.000000,0.000000,0.000000,1648525918.078490,0.000000
221.000000,-46543.395107,-30274.029705,-2290.427958,12364.850922,-0.469387,39536.011462,21043.407445,30226.934579,-0.002000,0.964000,-0.140000,192.000000,0.000000,0.000000,0.000000,0.000000,0.000000,0.000000,0.000000,0.000000,0.000000,1648525918.078507,0.000000
222.000000,-46529.112342,-30261.043341,-2275.988731,12378.664300,14.327468,39553.244657,21059.880681,30235.361187,-0.002000,0.964000,-0.140000,192.000000,0.000000,0.000000,0.000000,0.000000,0.000000,0.000000,0.000000,0.000000,0.000000,1648525918.085194,0.000000
223.000000,-46523.390296,-30254.404873,-2268.746766,12385.682748,20.697715,39563.861735,21075.616309,30260.864527,-0.002000,0.964000,-0.140000,192.000000,0.000000,0.000000,0.000000,0.000000,0.000000,0.000000,0.000000,0.000000,0.000000,1648525918.085211,0.000000
224.000000,-46525.871340,-30261.959763,-2271.294865,12381.704138,16.137959,39564.822860,21066.139169,30265.290173,-0.002000,0.964000,-0.140000,192.000000,0.000000,0.000000,0.000000,0.000000,0.000000,0.000000,0.000000,0.000000,0.000000,1648525918.093116,0.000000
225.000000,-46527.167741,-30266.139539,-2272.501859,12380.653606,12.584032,39563.280590,21057.421989,30267.123016,-0.002000,0.964000,-0.140000,192.000000,0.000000,0.000000,0.000000,0.000000,0.000000,0.000000,0.000000,0.000000,0.000000,1648525918.093133,0.000000
226.000000,-46527.458313,-30267.301830,-2274.915847,12377.323196,8.292497,39563.302942,21058.070190,30264.351399,-0.002000,0.964000,-0.140000,192.000000,0.000000,0.000000,0.000000,0.000000,0.000000,0.000000,0.000000,0.000000,0.000000,1648525918.101195,0.000000
227.000000,-46537.293081,-30278.812978,-2286.717568,12364.940329,-4.135073,39560.665436,21065.289803,30274.566147,-0.002000,0.964000,-0.140000,192.000000,0.000000,0.000000,0.000000,0.000000,0.000000,0.000000,0.000000,0.000000,0.000000,1648525918.101211,0.000000
228.000000,-46532.107476,-30273.627373,-2282.873068,12367.130800,-1.877547,39566.566296,21064.753361,30273.605022,-0.002000,0.964000,-0.140000,192.000000,0.000000,0.000000,0.000000,0.000000,0.000000,0.000000,0.000000,0.000000,0.000000,1648525918.108257,0.000000
229.000000,-46530.162874,-30271.615716,-2281.129632,12368.762477,0.536442,39574.210593,21069.737800,30300.315356,-0.002000,0.964000,-0.140000,192.000000,0.000000,0.000000,0.000000,0.000000,0.000000,0.000000,0.000000,0.000000,0.000000,1648525918.108273,0.000000
230.000000,-46525.290194,-30265.804263,-2275.876972,12373.791620,5.833805,39580.089102,21077.806780,30312.228836,-0.014000,0.956000,-0.150000,192.000000,255.000000,144.000000,29.000000,224.000000,251.000000,80.000000,0.000000,0.000000,0.000000,1648525918.115476,0.000000
231.000000,-46526.228967,-30267.234774,-2276.480469,12371.981129,3.732741,39577.116320,21078.477332,30331.428985,-0.014000,0.956000,-0.150000,192.000000,0.000000,0.000000,0.000000,0.000000,0.000000,0.000000,0.000000,0.000000,0.000000,1648525918.115492,0.000000
232.000000,-46524.753752,-30266.206594,-2273.977074,12373.456344,6.683172,39575.015256,21073.694059,30334.021787,-0.014000,0.956000,-0.150000,192.000000,0.000000,0.000000,0.000000,0.000000,0.000000,0.000000,0.000000,0.000000,0.000000,1648525918.122656,0.000000
233.000000,-46519.523444,-30258.785815,-2271.630141,12376.987919,10.415913,39571.304866,21069.626042,30336.748700,-0.014000,0.956000,-0.150000,192.000000,0.000000,0.000000,0.000000,0.000000,0.000000,0.000000,0.000000,0.000000,0.000000,1648525918.130830,0.000000
234.000000,-46525.245491,-30265.893670,-2278.022740,12371.511742,3.911555,39565.068730,21062.831111,30335.295836,-0.014000,0.956000,-0.150000,192.000000,0.000000,0.000000,0.000000,0.000000,0.000000,0.000000,0.000000,0.000000,0.000000,1648525918.130846,0.000000
235.000000,-46528.777066,-30268.218251,-2279.587362,12372.808143,4.783273,39568.242677,21065.356858,30347.008150,-0.014000,0.956000,-0.150000,192.000000,0.000000,0.000000,0.000000,0.000000,0.000000,0.000000,0.000000,0.000000,0.000000,1648525918.137925,0.000000
236.000000,-46522.473874,-30259.836347,-2272.546562,12382.486449,12.427570,39571.170756,21065.088637,30348.595124,-0.014000,0.956000,-0.150000,192.000000,0.000000,0.000000,0.000000,0.000000,0.000000,0.000000,0.000000,0.000000,0.000000,1648525918.137960,0.000000
237.000000,-46517.981174,-30256.617696,-2266.086908,12389.482545,18.484893,39585.386465,21081.271300,30375.439569,-0.014000,0.956000,-0.150000,192.000000,0.000000,0.000000,0.000000,0.000000,0.000000,0.000000,0.000000,0.000000,0.000000,1648525918.145370,0.000000
238.000000,-46530.766372,-30267.547699,-2275.809917,12379.871294,9.432436,39581.586669,21072.241196,30396.763134,-0.014000,0.956000,-0.150000,192.000000,0.000000,0.000000,0.000000,0.000000,0.000000,0.000000,0.000000,0.000000,0.000000,1648525918.145386,0.000000
239.000000,-46522.764447,-30259.366960,-2267.048033,12390.086042,19.423666,39593.813073,21074.699888,30399.244177,-0.014000,0.956000,-0.150000,192.000000,0.000000,0.000000,0.000000,0.000000,0.000000,0.000000,0.000000,0.000000,0.000000,1648525918.153240,0.000000
240.000000,-46517.534139,-30255.857737,-2262.063594,12396.121013,24.676326,39606.039477,21085.071097,30420.634797,-0.014000,0.966000,-0.148000,192.000000,255.000000,144.000000,30.000000,48.000000,251.000000,96.000000,0.000000,0.000000,0.000000,1648525918.153257,0.000000
241.000000,-46520.417514,-30255.857737,-2263.516458,12396.143364,24.162236,39609.168721,21085.652242,30434.381120,-0.014000,0.966000,-0.148000,192.000000,0.000000,0.000000,0.000000,0.000000,0.000000,0.000000,0.000000,0.000000,0.000000,1648525918.161071,0.000000
242.000000,-46528.262976,-30264.127882,-2270.512554,12388.588475,17.076733,39604.586614,21075.213978,30438.471489,-0.014000,0.966000,-0.148000,192.000000,0.000000,0.000000,0.000000,0.000000,0.000000,0.000000,0.000000,0.000000,0.000000,1648525918.161083,0.000000
243.000000,-46529.268805,-30265.960725,-2268.232676,12389.214324,19.580128,39604.720724,21070.497760,30424.009910,-0.014000,0.966000,-0.148000,192.000000,0.000000,0.000000,0.000000,0.000000,0.000000,0.000000,0.000000,0.000000,0.000000,1648525918.167982,0.000000
244.000000,-46516.595366,-30255.410702,-2253.525228,12403.161812,35.069887,39629.441754,21105.880571,30463.505443,-0.014000,0.966000,-0.148000,192.000000,0.000000,0.000000,0.000000,0.000000,0.000000,0.000000,0.000000,0.000000,0.000000,1648525918.167998,0.000000
245.000000,-46509.018124,-30246.581763,-2249.680728,12406.067539,40.769582,39640.528219,21115.067138,30506.890179,-0.014000,0.966000,-0.148000,192.000000,0.000000,0.000000,0.000000,0.000000,0.000000,0.000000,0.000000,0.000000,0.000000,1648525918.175985,0.000000
246.000000,-46520.752790,-30255.678923,-2259.582550,12396.456289,31.046573,39635.879056,21104.181839,30510.265292,-0.014000,0.966000,-0.148000,192.000000,0.000000,0.000000,0.000000,0.000000,0.000000,0.000000,0.000000,0.000000,0.000000,1648525918.176001,0.000000
247.000000,-46521.155121,-30257.131786,-2260.968359,12395.696330,29.459599,39637.220161,21102.125478,30514.534475,-0.014000,0.966000,-0.148000,192.000000,0.000000,0.000000,0.000000,0.000000,0.000000,0.000000,0.000000,0.000000,0.000000,1648525918.183126,0.000000
248.000000,-46519.277575,-30256.327123,-2260.320158,12397.931504,30.107800,39640.997605,21108.071042,30516.903760,-0.014000,0.966000,-0.148000,192.000000,0.000000,0.000000,0.000000,0.000000,0.000000,0.000000,0.000000,0.000000,0.000000,1648525918.191067,0.000000
249.000000,-46514.762523,-30251.320332,-2255.022795,12405.978132,37.305061,39651.838202,21114.977731,30525.620940,-0.014000,0.966000,-0.148000,192.000000,0.000000,0.000000,0.000000,0.000000,0.000000,0.000000,0.000000,0.000000,0.000000,1648525918.191084,0.000000
250.000000,-46518.718781,-30258.830519,-2262.465926,12401.440728,32.499436,39649.983007,21112.519039,30541.691845,-0.004000,1.000000,-0.146000,192.000000,255.000000,224.000000,31.000000,64.000000,251.000000,112.000000,0.000000,0.000000,0.000000,1648525918.197609,0.000000
251.000000,-46517.355325,-30257.243545,-2261.013062,12403.385330,35.561625,39644.775050,21114.128365,30526.425603,-0.004000,1.000000,-0.146000,192.000000,0.000000,0.000000,0.000000,0.000000,0.000000,0.000000,0.000000,0.000000,0.000000,1648525918.197625,0.000000
252.000000,-46514.248432,-30248.191088,-2255.559236,12409.174431,41.261320,39644.819754,21109.188629,30523.899856,-0.004000,1.000000,-0.146000,192.000000,0.000000,0.000000,0.000000,0.000000,0.000000,0.000000,0.000000,0.000000,0.000000,1648525918.205705,0.000000
253.000000,-46516.908290,-30251.454443,-2260.677786,12403.452385,35.963957,39649.781841,21124.253705,30585.858892,-0.004000,1.000000,-0.146000,192.000000,0.000000,0.000000,0.000000,0.000000,0.000000,0.000000,0.000000,0.000000,0.000000,1648525918.205721,0.000000
254.000000,-46511.119188,-30247.095853,-2258.509667,12405.732263,38.534407,39652.017015,21124.633685,30599.336994,-0.004000,1.000000,-0.146000,192.000000,0.000000,0.000000,0.000000,0.000000,0.000000,0.000000,0.000000,0.000000,0.000000,1648525918.213576,0.000000
255.000000,-46518.159988,-30254.516632,-2265.550466,12400.613713,30.979518,39645.736175,21110.105051,30591.245662,-0.004000,1.000000,-0.146000,192.000000,0.000000,0.000000,0.000000,0.000000,0.000000,0.000000,0.000000,0.000000,0.000000,1648525918.213592,0.000000
0.000000,-46515.567185,-30253.220231,-2267.115088,12398.222077,28.699640,39641.623454,21105.589998,30594.486665,-0.004000,1.000000,-0.146000,192.000000,0.000000,0.000000,0.000000,0.000000,0.000000,0.000000,0.000000,0.000000,0.000000,1648525918.220040,0.000000
1.000000,-46512.952031,-30253.331989,-2264.164658,12401.485431,32.588843,39641.958730,21103.645397,30584.160159,-0.004000,1.000000,-0.146000,192.000000,0.000000,0.000000,0.000000,0.000000,0.000000,0.000000,0.000000,0.000000,0.000000,1648525918.220056,0.000000
2.000000,-46506.693543,-30251.968533,-2260.700138,12404.324103,36.232178,39654.296893,21113.815440,30612.368061,-0.004000,1.000000,-0.146000,192.000000,0.000000,0.000000,0.000000,0.000000,0.000000,0.000000,0.000000,0.000000,0.000000,1648525918.228321,0.000000
3.000000,-46506.961764,-30255.991847,-2264.566989,12400.792527,32.410029,39652.218181,21101.700795,30605.327261,-0.004000,1.000000,-0.146000,192.000000,0.000000,0.000000,0.000000,0.000000,0.000000,0.000000,0.000000,0.000000,0.000000,1648525918.228337,0.000000
4.000000,-46498.065769,-30248.995751,-2255.894513,12410.671998,40.635471,39666.612705,21127.673522,30608.724726,0.002000,1.000000,-0.148000,192.000000,0.000000,16.000000,31.000000,64.000000,251.000000,96.000000,0.000000,0.000000,0.000000,1648525918.236302,0.000000
5.000000,-46502.133787,-30255.254239,-2262.756498,12404.055882,34.376983,39669.496080,21142.984467,30643.079358,0.002000,1.000000,-0.148000,192.000000,0.000000,0.000000,0.000000,0.000000,0.000000,0.000000,0.000000,0.000000,0.000000,1648525918.236319,0.000000
6.000000,-46499.518633,-30256.237716,-2264.991673,12403.564144,31.739477,39669.183155,21132.322685,30658.099730,0.002000,1.000000,-0.148000,192.000000,0.000000,0.000000,0.000000,0.000000,0.000000,0.000000,0.000000,0.000000,0.000000,1648525918.243399,0.000000
7.000000,-46499.630392,-30259.277553,-2270.646664,12398.289132,24.497512,39660.667141,21125.773624,30655.059893,0.002000,1.000000,-0.148000,192.000000,0.000000,0.000000,0.000000,0.000000,0.000000,0.000000,0.000000,0.000000,0.000000,1648525918.249960,0.000000
8.000000,-46510.381581,-30269.849929,-2278.089795,12388.499068,15.825035,39656.308550,21133.552031,30654.925782,0.002000,1.000000,-0.148000,192.000000,0.000000,0.000000,0.000000,0.000000,0.000000,0.000000,0.000000,0.000000,0.000000,1648525918.249976,0.000000
9.000000,-46505.620659,-30267.480644,-2272.099527,12393.327045,20.027163,39663.148184,21145.018476,30659.865518,0.002000,1.000000,-0.148000,192.000000,0.000000,0.000000,0.000000,0.000000,0.000000,0.000000,0.000000,0.000000,0.000000,1648525918.257925,0.000000
10.000000,-46499.429226,-30260.797472,-2268.232676,12398.982036,22.999945,39670.680722,21150.628764,30667.308649,0.002000,1.000000,-0.148000,192.000000,0.000000,0.000000,0.000000,0.000000,0.000000,0.000000,0.000000,0.000000,0.000000,1648525918.257941,0.000000
11.000000,-46502.066732,-30264.172586,-2273.172411,12397.976207,18.998983,39671.060702,21149.064141,30680.876157,0.002000,1.000000,-0.148000,192.000000,0.000000,0.000000,0.000000,0.000000,0.000000,0.000000,0.000000,0.000000,0.000000,1648525918.265985,0.000000
12.000000,-46496.769368,-30263.725551,-2270.110222,12401.664245,23.044649,39672.245344,21142.313915,30688.140474,0.002000,1.000000,-0.148000,192.000000,0.000000,0.000000,0.000000,0.000000,0.000000,0.000000,0.000000,0.000000,0.000000,1648525918.266001,0.000000
13.000000,-46495.920002,-30262.227984,-2269.193801,12405.531097,26.799742,39674.994609,21141.129272,30701.260948,0.002000,1.000000,-0.148000,192.000000,0.000000,0.000000,0.000000,0.000000,0.000000,0.000000,0.000000,0.000000,0.000000,1648525918.273097,0.000000
14.000000,-46500.792682,-30266.698333,-2273.217115,12403.318274,23.067000,39671.664199,21147.231298,30696.812951,0.002000,1.006000,-0.148000,192.000000,0.000000,16.000000,31.000000,112.000000,251.000000,96.000000,0.000000,0.000000,0.000000,1648525918.273113,0.000000
15.000000,-46503.944278,-30269.984039,-2279.050920,12397.931504,16.808512,39664.176364,21140.816348,30698.668146,0.002000,1.006000,-0.148000,192.000000,0.000000,0.000000,0.000000,0.000000,0.000000,0.000000,0.000000,0.000000,0.000000,1648525918.280529,0.000000
16.000000,-46499.809206,-30266.564222,-2277.955684,12400.725472,18.641355,39664.198716,21141.129272,30717.510667,0.002000,1.006000,-0.148000,192.000000,0.000000,0.000000,0.000000,0.000000,0.000000,0.000000,0.000000,0.000000,0.000000,1648525918.280546,0.000000
17.000000,-46500.278592,-30266.072484,-2274.491164,12405.061710,23.111704,39670.658370,21145.532566,30735.839097,0.002000,1.006000,-0.148000,192.000000,0.000000,0.000000,0.000000,0.000000,0.000000,0.000000,0.000000,0.000000,0.000000,1648525918.288557,0.000000
18.000000,-46499.339819,-30265.804263,-2275.206420,12405.352283,23.312869,39671.328923,21143.275040,30747.372597,0.002000,1.006000,-0.148000,192.000000,0.000000,0.000000,0.000000,0.000000,0.000000,0.000000,0.000000,0.000000,0.000000,1648525918.288573,0.000000
19.000000,-46491.315543,-30260.842176,-2270.199629,12411.722530,28.207902,39671.910068,21141.486900,30738.543658,0.002000,1.006000,-0.148000,192.000000,0.000000,0.000000,0.000000,0.000000,0.000000,0.000000,0.000000,0.000000,0.000000,1648525918.296598,0.000000
20.000000,-46479.379711,-30256.036551,-2261.705966,12416.729321,34.086410,39671.798309,21140.235202,30728.127745,0.002000,1.006000,-0.148000,192.000000,0.000000,0.000000,0.000000,0.000000,0.000000,0.000000,0.000000,0.000000,0.000000,1648525918.296615,0.000000
21.000000,-46483.581839,-30260.484548,-2265.125783,12411.476661,28.856102,39664.489289,21137.374179,30733.358053,0.002000,1.006000,-0.148000,192.000000,0.000000,0.000000,0.000000,0.000000,0.000000,0.000000,0.000000,0.000000,0.000000,1648525918.302661,0.000000
22.000000,-46492.142557,-30267.659458,-2272.144231,12405.620504,21.390619,39666.702112,21145.487862,30768.137368,0.002000,1.006000,-0.148000,192.000000,0.000000,0.000000,0.000000,0.000000,0.000000,0.000000,0.000000,0.000000,0.000000,1648525918.302679,0.000000
23.000000,-46500.658572,-30276.533100,-2278.134498,12398.780870,15.109779,39666.590353,21139.475243,30771.043095,0.002000,1.006000,-0.148000,192.000000,0.000000,0.000000,0.000000,0.000000,0.000000,0.000000,0.000000,0.000000,0.000000,1648525918.310258,0.000000
24.000000,-46495.227098,-30276.466045,-2274.401757,12400.010216,17.188491,39674.838147,21148.259479,30766.125711,0.004000,1.000000,-0.144000,192.000000,0.000000,32.000000,31.000000,64.000000,251.000000,128.000000,0.000000,0.000000,0.000000,1648525918.318206,0.000000
25.000000,-46486.398159,-30270.676943,-2268.165620,12407.699216,24.586919,39689.411484,21165.425618,30789.080952,0.004000,1.000000,-0.144000,192.000000,0.000000,0.000000,0.000000,0.000000,0.000000,0.000000,0.000000,0.000000,0.000000,1648525918.318223,0.000000
26.000000,-46485.727607,-30265.513690,-2270.467850,12411.901344,24.653974,39693.457150,21166.677316,30810.650386,0.004000,1.000000,-0.144000,192.000000,0.000000,0.000000,0.000000,0.000000,0.000000,0.000000,0.000000,0.000000,0.000000,1648525918.325248,0.000000
27.000000,-46475.803432,-30256.215364,-2268.791469,12419.769158,27.067963,39693.546557,21161.067028,30812.751450,0.004000,1.000000,-0.144000,192.000000,0.000000,0.000000,0.000000,0.000000,0.000000,0.000000,0.000000,0.000000,0.000000,1648525918.325265,0.000000
28.000000,-46477.368054,-30259.813995,-2271.428975,12415.410568,25.413933,39691.087865,21162.788112,30816.931226,0.004000,1.000000,-0.144000,192.000000,0.000000,0.000000,0.000000,0.000000,0.000000,0.000000,0.000000,0.000000,0.000000,1648525918.332858,0.000000
29.000000,-46487.761615,-30274.230871,-2277.061615,12402.603019,18.127265,39684.963487,21159.457703,30821.625092,0.004000,1.000000,-0.144000,192.000000,0.000000,0.000000,0.000000,0.000000,0.000000,0.000000,0.000000,0.000000,0.000000,1648525918.332873,0.000000
30.000000,-46492.656647,-30283.171568,-2278.290961,12396.568048,15.378000,39676.872155,21147.857147,30823.100307,0.004000,1.000000,-0.144000,192.000000,0.000000,0.000000,0.000000,0.000000,0.000000,0.000000,0.000000,0.000000,0.000000,1648525918.340848,0.000000
31.000000,-46480.363188,-30271.615716,-2266.891571,12407.051016,26.397410,39682.147167,21155.099112,30818.205275,0.004000,1.000000,-0.144000,192.000000,0.000000,0.000000,0.000000,0.000000,0.000000,0.000000,0.000000,0.000000,0.000000,1648525918.340864,0.000000
32.000000,-46484.498261,-30274.856719,-2271.473679,12401.999521,19.758942,39677.140376,21149.734694,30821.178057,0.004000,1.000000,-0.144000,192.000000,0.000000,0.000000,0.000000,0.000000,0.000000,0.000000,0.000000,0.000000,0.000000,1648525918.348782,0.000000
33.000000,-46484.699426,-30279.461179,-2272.188934,12398.132670,15.936794,39679.263792,21156.663735,30829.627017,0.004000,1.000000,-0.144000,192.000000,0.000000,0.000000,0.000000,0.000000,0.000000,0.000000,0.000000,0.000000,0.000000,1648525918.348797,0.000000
34.000000,-46479.983208,-30276.488397,-2269.372615,12401.820708,18.239023,39687.265716,21173.628709,30843.842726,0.004000,1.000000,-0.144000,192.000000,0.000000,0.000000,0.000000,0.000000,0.000000,0.000000,0.000000,0.000000,0.000000,1648525918.355408,0.000000
35.000000,-46492.097854,-30286.971365,-2286.359940,12389.773117,3.419817,39679.844937,21166.878482,30841.339331,0.002000,0.992000,-0.148000,192.000000,0.000000,16.000000,31.000000,0.000000,251.000000,96.000000,0.000000,0.000000,0.000000,1648525918.355425,0.000000
36.000000,-46493.483662,-30287.351345,-2287.499879,12391.203629,3.263355,39684.382341,21162.095208,30842.702787,0.002000,0.992000,-0.148000,192.000000,0.000000,0.000000,0.000000,0.000000,0.000000,0.000000,0.000000,0.000000,0.000000,1648525918.363513,0.000000
37.000000,-46493.506014,-30285.719667,-2286.941086,12393.148231,6.437302,39694.038295,21172.466418,30862.774654,0.002000,0.992000,-0.148000,192.000000,0.000000,0.000000,0.000000,0.000000,0.000000,0.000000,0.000000,0.000000,0.000000,1648525918.363529,0.000000
38.000000,-46492.008447,-30282.724533,-2289.086853,12396.121013,7.286669,39695.647621,21167.638441,30866.552099,0.002000,0.992000,-0.148000,192.000000,0.000000,0.000000,0.000000,0.000000,0.000000,0.000000,0.000000,0.000000,0.000000,1648525918.370367,0.000000
39.000000,-46487.426339,-30281.517539,-2286.516403,12397.260952,10.192395,39693.926536,21168.733677,30841.406386,0.002000,0.992000,-0.148000,192.000000,0.000000,0.000000,0.000000,0.000000,0.000000,0.000000,0.000000,0.000000,0.000000,1648525918.378434,0.000000
40.000000,-46483.179508,-30278.164778,-2281.911943,12399.160850,14.841558,39698.575699,21163.860996,30858.639581,0.002000,0.992000,-0.148000,192.000000,0.000000,0.000000,0.000000,0.000000,0.000000,0.000000,0.000000,0.000000,0.000000,1648525918.378449,0.000000
41.000000,-46487.247525,-30283.015106,-2283.945952,12392.097699,7.823111,39693.680667,21156.999011,30885.014639,0.002000,0.992000,-0.148000,192.000000,0.000000,0.000000,0.000000,0.000000,0.000000,0.000000,0.000000,0.000000,0.000000,1648525918.385025,0.000000
42.000000,-46484.855888,-30282.277499,-2279.520307,12392.432975,9.611250,39696.161711,21161.312897,30877.459750,0.002000,0.992000,-0.148000,192.000000,0.000000,0.000000,0.000000,0.000000,0.000000,0.000000,0.000000,0.000000,0.000000,1648525918.385041,0.000000
43.000000,-46478.329179,-30276.153121,-2271.428975,12397.149193,15.847387,39707.538749,21164.777418,30887.942718,0.002000,0.992000,-0.148000,192.000000,0.000000,0.000000,0.000000,0.000000,0.000000,0.000000,0.000000,0.000000,0.000000,1648525918.393199,0.000000
44.000000,-46481.324313,-30278.857682,-2274.491164,12393.774080,10.728837,39706.465865,21165.805598,30897.084582,0.002000,0.992000,-0.148000,192.000000,0.000000,0.000000,0.000000,0.000000,0.000000,0.000000,0.000000,0.000000,0.000000,1648525918.393234,0.000000
45.000000,-46488.186298,-30287.798379,-2282.962475,12387.247370,2.190471,39698.866272,21166.833778,30890.870797,0.002000,0.982000,-0.144000,192.000000,0.000000,16.000000,30.000000,176.000000,251.000000,128.000000,0.000000,0.000000,0.000000,1648525918.401200,0.000000
46.000000,-46488.543926,-30288.290118,-2287.097548,12387.068556,0.692904,39696.944022,21165.895005,30891.988384,0.002000,0.982000,-0.144000,192.000000,0.000000,0.000000,0.000000,0.000000,0.000000,0.000000,0.000000,0.000000,0.000000,1648525918.401216,0.000000
47.000000,-46485.325275,-30286.300813,-2289.735054,12386.621521,-1.609326,39692.317211,21159.860034,30904.103029,0.002000,0.982000,-0.144000,192.000000,0.000000,0.000000,0.000000,0.000000,0.000000,0.000000,0.000000,0.000000,0.000000,1648525918.408220,0.000000
48.000000,-46486.621676,-30291.553472,-2292.484318,12381.927655,-5.833805,39693.524205,21170.767685,30927.326492,0.002000,0.982000,-0.144000,192.000000,0.000000,0.000000,0.000000,0.000000,0.000000,0.000000,0.000000,0.000000,0.000000,1648525918.408235,0.000000
49.000000,-46484.073577,-30290.972327,-2289.086853,12387.426184,-1.139939,39696.139359,21170.074781,30925.404242,0.002000,0.982000,-0.144000,192.000000,0.000000,0.000000,0.000000,0.000000,0.000000,0.000000,0.000000,0.000000,0.000000,1648525918.415643,0.000000
50.000000,-46481.391368,-30288.334821,-2284.750615,12391.404795,4.000962,39694.820606,21161.402304,30915.122439,0.002000,0.982000,-0.144000,192.000000,0.000000,0.000000,0.000000,0.000000,0.000000,0.000000,0.000000,0.000000,0.000000,1648525918.415660,0.000000
51.000000,-46481.100795,-30285.987888,-2282.202516,12394.578742,7.867814,39695.379400,21164.799769,30927.125326,0.002000,0.982000,-0.144000,192.000000,0.000000,0.000000,0.000000,0.000000,0.000000,0.000000,0.000000,0.000000,0.000000,1648525918.423747,0.000000
52.000000,-46483.045397,-30286.412571,-2284.661208,12392.343568,5.766750,39690.305554,21184.446953,30938.167088,0.002000,0.982000,-0.144000,192.000000,0.000000,0.000000,0.000000,0.000000,0.000000,0.000000,0.000000,0.000000,0.000000,1648525918.423763,0.000000
53.000000,-46479.804394,-30284.691487,-2278.983865,12393.885838,9.700657,39693.010115,21192.985319,30946.392530,0.002000,0.982000,-0.144000,192.000000,0.000000,0.000000,0.000000,0.000000,0.000000,0.000000,0.000000,0.000000,0.000000,1648525918.430657,0.000000
54.000000,-46480.050263,-30285.764371,-2275.228772,12393.662321,12.382866,39694.597089,21187.598549,30954.975600,0.002000,0.982000,-0.144000,192.000000,0.000000,0.000000,0.000000,0.000000,0.000000,0.000000,0.000000,0.000000,0.000000,1648525918.437716,0.000000
55.000000,-46474.976417,-30277.404818,-2269.774946,12402.670074,20.362439,39698.106313,21182.479999,30964.966829,0.002000,0.982000,-0.136000,192.000000,0.000000,16.000000,30.000000,176.000000,251.000000,192.000000,0.000000,0.000000,0.000000,1648525918.437732,0.000000
56.000000,-46466.192182,-30271.280440,-2260.342510,12414.225926,29.169027,39707.874025,21178.188464,30958.238954,0.002000,0.982000,-0.136000,192.000000,0.000000,0.000000,0.000000,0.000000,0.000000,0.000000,0.000000,0.000000,0.000000,1648525918.445440,0.000000
57.000000,-46468.226191,-30272.375676,-2261.750670,12413.287152,27.291480,39711.360897,21182.278834,30968.766626,0.002000,0.982000,-0.136000,192.000000,0.000000,0.000000,0.000000,0.000000,0.000000,0.000000,0.000000,0.000000,0.000000,1648525918.445456,0.000000
58.000000,-46473.456499,-30275.259051,-2265.617521,12410.671998,23.335221,39712.992574,21186.413906,30978.534338,0.002000,0.982000,-0.136000,192.000000,0.000000,0.000000,0.000000,0.000000,0.000000,0.000000,0.000000,0.000000,0.000000,1648525918.453269,0.000000
59.000000,-46471.198973,-30276.130769,-2269.506725,12406.849850,17.724933,39710.802103,21193.767630,30988.883196,0.002000,0.982000,-0.136000,192.000000,0.000000,0.000000,0.000000,0.000000,0.000000,0.000000,0.000000,0.000000,0.000000,1648525918.453285,0.000000
60.000000,-46466.907438,-30276.689562,-2269.350263,12406.872202,16.607346,39712.120856,21195.064031,30988.480865,0.002000,0.982000,-0.136000,192.000000,0.000000,0.000000,0.000000,0.000000,0.000000,0.000000,0.000000,0.000000,0.000000,1648525918.460538,0.000000
61.000000,-46471.757766,-30281.584594,-2275.854620,12403.117109,12.494625,39709.058667,21194.348776,30994.225263,0.002000,0.982000,-0.136000,192.000000,0.000000,0.000000,0.000000,0.000000,0.000000,0.000000,0.000000,0.000000,0.000000,1648525918.460553,0.000000
62.000000,-46474.663493,-30282.545719,-2276.234600,12404.502917,13.500454,39709.751571,21192.873561,31006.876350,0.002000,0.982000,-0.136000,192.000000,0.000000,0.000000,0.000000,0.000000,0.000000,0.000000,0.000000,0.000000,0.000000,1648525918.467941,0.000000
63.000000,-46477.412758,-30282.411609,-2277.396891,12405.106414,13.500454,39708.969260,21190.884255,31009.156228,0.002000,0.982000,-0.136000,192.000000,0.000000,0.000000,0.000000,0.000000,0.000000,0.000000,0.000000,0.000000,0.000000,1648525918.467957,0.000000
64.000000,-46476.965723,-30281.249318,-2277.329836,12405.642856,15.243890,39708.857502,21198.707366,31014.833571,0.002000,0.982000,-0.136000,192.000000,0.000000,0.000000,0.000000,0.000000,0.000000,0.000000,0.000000,0.000000,0.000000,1648525918.476087,0.000000
65.000000,-46472.674188,-30272.956821,-2272.658321,12411.119033,22.664669,39713.931348,21204.027081,31013.715984,0.002000,0.984000,-0.134000,192.000000,0.000000,16.000000,30.000000,192.000000,251.000000,208.000000,0.000000,0.000000,0.000000,1648525918.476103,0.000000
66.000000,-46474.127051,-30272.554490,-2275.653455,12409.308542,19.535425,39713.819589,21208.095099,31032.647912,0.002000,0.984000,-0.134000,192.000000,0.000000,0.000000,0.000000,0.000000,0.000000,0.000000,0.000000,0.000000,0.000000,1648525918.483983,0.000000
67.000000,-46476.943371,-30279.349420,-2278.827402,12403.474737,15.042724,39700.296783,21195.354604,31026.925865,0.002000,0.984000,-0.134000,192.000000,0.000000,0.000000,0.000000,0.000000,0.000000,0.000000,0.000000,0.000000,0.000000,1648525918.483999,0.000000
68.000000,-46473.747071,-30279.729400,-2276.145193,12406.469870,17.523768,39700.185025,21194.773459,31014.408888,0.002000,0.984000,-0.134000,192.000000,0.000000,0.000000,0.000000,0.000000,0.000000,0.000000,0.000000,0.000000,0.000000,1648525918.490195,0.000000
69.000000,-46470.327255,-30278.924737,-2275.206420,12408.481527,19.937756,39708.097542,21202.060128,31028.356377,0.002000,0.984000,-0.134000,192.000000,0.000000,0.000000,0.000000,0.000000,0.000000,0.000000,0.000000,0.000000,0.000000,1648525918.497561,0.000000
70.000000,-46473.300037,-30281.651650,-2279.967341,12402.781833,15.512111,39704.945946,21197.858000,31032.402042,0.002000,0.984000,-0.134000,192.000000,0.000000,0.000000,0.000000,0.000000,0.000000,0.000000,0.000000,0.000000,0.000000,1648525918.497577,0.000000
71.000000,-46472.897705,-30278.209481,-2278.067443,12405.553449,18.641355,39709.975089,21192.068898,31037.900572,0.002000,0.984000,-0.134000,192.000000,0.000000,0.000000,0.000000,0.000000,0.000000,0.000000,0.000000,0.000000,0.000000,1648525918.505738,0.000000
72.000000,-46473.389444,-30280.399952,-2278.179202,12404.726434,18.462541,39714.199569,21199.132049,31047.601229,0.002000,0.984000,-0.134000,192.000000,0.000000,0.000000,0.000000,0.000000,0.000000,0.000000,0.000000,0.000000,0.000000,1648525918.505754,0.000000
73.000000,-46473.009464,-30277.650687,-2276.011083,12407.743920,20.630660,39713.372554,21205.435241,31052.228040,0.002000,0.984000,-0.134000,192.000000,0.000000,0.000000,0.000000,0.000000,0.000000,0.000000,0.000000,0.000000,0.000000,1648525918.513717,0.000000
74.000000,-46469.477888,-30269.604059,-2273.574743,12411.342551,22.418800,39709.036316,21203.065956,31053.993828,0.002000,0.984000,-0.134000,192.000000,0.000000,0.000000,0.000000,0.000000,0.000000,0.000000,0.000000,0.000000,0.000000,1648525918.513734,0.000000
75.000000,-46469.947275,-30266.050132,-2278.827402,12408.593286,16.875567,39704.230691,21199.512029,31060.162909,0.008000,0.998000,-0.138000,192.000000,0.000000,64.000000,31.000000,48.000000,251.000000,176.000000,0.000000,0.000000,0.000000,1648525918.520027,0.000000
76.000000,-46472.629484,-30269.335838,-2275.005254,12411.610772,20.585957,39712.009098,21199.467325,31061.101682,0.008000,0.998000,-0.138000,192.000000,0.000000,0.000000,0.000000,0.000000,0.000000,0.000000,0.000000,0.000000,0.000000,1648525918.520043,0.000000
77.000000,-46481.793699,-30282.389257,-2275.541696,12405.575801,17.680230,39718.491103,21209.078575,31071.629354,0.008000,0.998000,-0.138000,192.000000,0.000000,0.000000,0.000000,0.000000,0.000000,0.000000,0.000000,0.000000,0.000000,1648525918.528283,0.000000
78.000000,-46483.559487,-30287.641917,-2281.263743,12399.518478,11.533500,39716.010060,21205.725814,31073.819825,0.008000,0.998000,-0.138000,192.000000,0.000000,0.000000,0.000000,0.000000,0.000000,0.000000,0.000000,0.000000,0.000000,1648525918.528299,0.000000
79.000000,-46478.731510,-30284.155045,-2277.016911,12403.988827,17.076733,39725.017813,21210.442032,31080.279479,0.008000,0.998000,-0.138000,192.000000,0.000000,0.000000,0.000000,0.000000,0.000000,0.000000,0.000000,0.000000,0.000000,1648525918.536269,0.000000
80.000000,-46476.876316,-30283.350382,-2275.988731,12405.419338,18.931928,39726.671842,21206.374014,31086.269747,0.008000,0.998000,-0.138000,192.000000,0.000000,0.000000,0.000000,0.000000,0.000000,0.000000,0.000000,0.000000,0.000000,1648525918.536285,0.000000
81.000000,-46476.697502,-30283.283327,-2272.546562,12407.900382,22.843483,39730.136362,21213.660683,31090.650688,0.008000,0.998000,-0.138000,192.000000,0.000000,0.000000,0.000000,0.000000,0.000000,0.000000,0.000000,0.000000,0.000000,1648525918.544353,0.000000
82.000000,-46479.826746,-30284.982060,-2272.188934,12408.660341,24.273994,39729.242293,21219.338026,31085.107456,0.008000,0.998000,-0.138000,192.000000,0.000000,0.000000,0.000000,0.000000,0.000000,0.000000,0.000000,0.000000,0.000000,1648525918.544370,0.000000
83.000000,-46478.530345,-30284.780894,-2272.971245,12408.459176,23.245814,39730.583397,21229.150442,31093.690526,0.008000,0.998000,-0.138000,192.000000,0.000000,0.000000,0.000000,0.000000,0.000000,0.000000,0.000000,0.000000,0.000000,1648525918.551483,0.000000
84.000000,-46478.284476,-30284.624432,-2275.452289,12407.140423,21.412971,39728.459981,21228.301075,31102.631224,0.008000,0.998000,-0.138000,192.000000,0.000000,0.000000,0.000000,0.000000,0.000000,0.000000,0.000000,0.000000,0.000000,1648525918.551500,0.000000
85.000000,-46469.522592,-30275.527272,-2268.120917,12415.611734,28.342012,39732.483295,21238.761692,31105.447543,0.016000,0.994000,-0.144000,192.000000,0.000000,128.000000,31.000000,16.000000,251.000000,128.000000,0.000000,0.000000,0.000000,1648525918.559337,0.000000
86.000000,-46474.350569,-30277.650687,-2272.434804,12413.108338,23.916367,39728.661147,21239.566355,31110.253168,0.016000,0.994000,-0.144000,192.000000,0.000000,0.000000,0.000000,0.000000,0.000000,0.000000,0.000000,0.000000,0.000000,1648525918.566555,0.000000
87.000000,-46486.778138,-30290.301775,-2284.370635,12399.920809,11.667611,39719.698098,21228.278724,31111.460163,0.016000,0.994000,-0.144000,192.000000,0.000000,0.000000,0.000000,0.000000,0.000000,0.000000,0.000000,0.000000,0.000000,1648525918.566590,0.000000
88.000000,-46495.271801,-30297.499036,-2293.780719,12390.622484,1.609326,39712.567891,21224.233058,31097.937357,0.016000,0.994000,-0.144000,192.000000,0.000000,0.000000,0.000000,0.000000,0.000000,0.000000,0.000000,0.000000,0.000000,1648525918.572697,0.000000
89.000000,-46489.706217,-30293.408667,-2288.729225,12398.535001,6.839634,39722.760287,21231.989113,31112.197770,0.016000,0.994000,-0.144000,192.000000,0.000000,0.000000,0.000000,0.000000,0.000000,0.000000,0.000000,0.000000,0.000000,1648525918.572713,0.000000
90.000000,-46478.530345,-30281.897519,-2279.296789,12413.041283,18.082561,39737.512438,21237.532346,31125.966445,0.016000,0.994000,-0.144000,192.000000,0.000000,0.000000,0.000000,0.000000,0.000000,0.000000,0.000000,0.000000,0.000000,1648525918.580572,0.000000
91.000000,-46484.230040,-30285.429094,-2281.733129,12412.884821,15.623869,39736.350147,21228.301075,31115.483477,0.016000,0.994000,-0.144000,192.000000,0.000000,0.000000,0.000000,0.000000,0.000000,0.000000,0.000000,0.000000,0.000000,1648525918.580590,0.000000
92.000000,-46478.865621,-30279.483530,-2275.385234,12421.870222,23.201111,39746.341377,21235.073654,31116.779878,0.016000,0.994000,-0.144000,192.000000,0.000000,0.000000,0.000000,0.000000,0.000000,0.000000,0.000000,0.000000,0.000000,1648525918.588548,0.000000
93.000000,-46478.507993,-30280.846987,-2279.699120,12417.958667,19.222500,39739.099412,21235.364227,31114.008261,0.016000,0.994000,-0.144000,192.000000,0.000000,0.000000,0.000000,0.000000,0.000000,0.000000,0.000000,0.000000,0.000000,1648525918.588564,0.000000
94.000000,-46483.268915,-30286.166702,-2284.236525,12414.695312,15.981497,39733.779697,21232.480852,31125.452355,0.016000,0.994000,-0.144000,192.000000,0.000000,0.000000,0.000000,0.000000,0.000000,0.000000,0.000000,0.000000,0.000000,1648525918.595696,0.000000
95.000000,-46482.285438,-30287.373696,-2284.616504,12411.297847,14.595689,39728.080002,21231.050340,31118.769183,0.024000,0.988000,-0.142000,192.000000,0.000000,192.000000,30.000000,224.000000,251.000000,144.000000,0.000000,0.000000,0.000000,1648525918.595712,0.000000
96.000000,-46480.989037,-30286.926661,-2280.928466,12414.963533,16.674401,39731.835095,21232.212631,31119.350328,0.024000,0.988000,-0.142000,192.000000,0.000000,0.000000,0.000000,0.000000,0.000000,0.000000,0.000000,0.000000,0.000000,1648525918.602995,0.000000
97.000000,-46481.145499,-30286.993717,-2282.381330,12416.125824,16.070904,39734.785525,21240.818052,31159.985800,0.024000,0.988000,-0.142000,192.000000,0.000000,0.000000,0.000000,0.000000,0.000000,0.000000,0.000000,0.000000,0.000000,1648525918.603006,0.000000
98.000000,-46486.979304,-30291.732286,-2288.796280,12409.174431,8.672477,39728.415278,21243.902593,31171.452245,0.024000,0.988000,-0.142000,192.000000,0.000000,0.000000,0.000000,0.000000,0.000000,0.000000,0.000000,0.000000,0.000000,1648525918.610976,0.000000
99.000000,-46478.575048,-30284.177397,-2281.464908,12414.807071,14.372172,39734.137325,21243.612020,31154.040236,0.024000,0.988000,-0.142000,192.000000,0.000000,0.000000,0.000000,0.000000,0.000000,0.000000,0.000000,0.000000,0.000000,1648525918.610987,0.000000
100.000000,-46482.955990,-30285.965536,-2284.996484,12411.320199,11.131169,39734.159676,21238.828747,31166.624268,0.024000,0.988000,-0.142000,192.000000,0.000000,0.000000,0.000000,0.000000,0.000000,0.000000,0.000000,0.000000,0.000000,1648525918.618207,0.000000
101.000000,-46480.542002,-30282.411609,-2282.806013,12412.773062,12.651087,39736.998348,21239.767520,31175.207338,0.024000,0.988000,-0.142000,192.000000,0.000000,0.000000,0.000000,0.000000,0.000000,0.000000,0.000000,0.000000,0.000000,1648525918.626249,0.000000
102.000000,-46473.411795,-30277.896557,-2275.765213,12421.043208,20.809474,39744.664996,21241.510956,31173.240384,0.024000,0.988000,-0.142000,192.000000,0.000000,0.000000,0.000000,0.000000,0.000000,0.000000,0.000000,0.000000,0.000000,1648525918.626265,0.000000
103.000000,-46475.714025,-30277.628336,-2275.720510,12425.602964,24.229291,39747.280150,21244.617849,31175.162634,0.024000,0.988000,-0.142000,192.000000,0.000000,0.000000,0.000000,0.000000,0.000000,0.000000,0.000000,0.000000,0.000000,1648525918.634200,0.000000
104.000000,-46480.854926,-30283.842121,-2282.537792,12420.976153,17.344954,39743.100374,21246.026009,31168.792387,0.024000,0.988000,-0.142000,192.000000,0.000000,0.000000,0.000000,0.000000,0.000000,0.000000,0.000000,0.000000,0.000000,1648525918.634215,0.000000
105.000000,-46481.167851,-30285.026763,-2280.973170,12423.613658,19.848349,39746.184915,21243.947297,31169.462939,0.022000,0.990000,-0.132000,192.000000,0.000000,176.000000,30.000000,240.000000,251.000000,224.000000,0.000000,0.000000,0.000000,1648525918.642228,0.000000
106.000000,-46474.909362,-30277.941260,-2274.133536,12431.682638,28.587881,39754.812688,21253.357381,31176.414332,0.022000,0.990000,-0.132000,192.000000,0.000000,0.000000,0.000000,0.000000,0.000000,0.000000,0.000000,0.000000,0.000000,1648525918.642244,0.000000
107.000000,-46481.324313,-30280.846987,-2281.867240,12426.944068,21.323564,39748.375386,21244.662552,31177.196643,0.022000,0.990000,-0.132000,192.000000,0.000000,0.000000,0.000000,0.000000,0.000000,0.000000,0.000000,0.000000,0.000000,1648525918.648827,0.000000
108.000000,-46481.950162,-30280.846987,-2282.090757,12427.882842,20.988288,39754.030377,21252.485663,31187.076114,0.022000,0.990000,-0.132000,192.000000,0.000000,0.000000,0.000000,0.000000,0.000000,0.000000,0.000000,0.000000,0.000000,1648525918.648861,0.000000
109.000000,-46480.832574,-30280.735228,-2283.029530,12426.072350,20.362439,39761.451156,21268.713029,31199.906015,0.022000,0.990000,-0.132000,192.000000,0.000000,0.000000,0.000000,0.000000,0.000000,0.000000,0.000000,0.000000,0.000000,1648525918.655461,0.000000
110.000000,-46478.262124,-30277.248356,-2279.810879,12425.960592,22.798779,39764.111014,21271.842274,31209.092582,0.022000,0.990000,-0.132000,192.000000,0.000000,0.000000,0.000000,0.000000,0.000000,0.000000,0.000000,0.000000,0.000000,1648525918.655478,0.000000
111.000000,-46478.038606,-30280.265842,-2278.313312,12423.613658,22.552910,39765.116842,21269.249471,31205.605710,0.022000,0.990000,-0.132000,192.000000,0.000000,0.000000,0.000000,0.000000,0.000000,0.000000,0.000000,0.000000,0.000000,1648525918.663504,0.000000
112.000000,-46476.675150,-30281.674001,-2277.754519,12422.965458,24.206939,39766.122671,21261.560471,31199.526036,0.022000,0.990000,-0.132000,192.000000,0.000000,0.000000,0.000000,0.000000,0.000000,0.000000,0.000000,0.000000,0.000000,1648525918.663520,0.000000
113.000000,-46475.646970,-30279.908214,-2278.447423,12423.233679,21.927061,39761.540563,21256.173701,31185.399733,0.022000,0.990000,-0.132000,192.000000,0.000000,0.000000,0.000000,0.000000,0.000000,0.000000,0.000000,0.000000,0.000000,1648525918.671480,0.000000
114.000000,-46475.848135,-30278.410647,-2280.570839,12423.904231,19.758942,39761.160584,21261.851044,31199.816608,0.022000,0.990000,-0.132000,192.000000,0.000000,0.000000,0.000000,0.000000,0.000000,0.000000,0.000000,0.000000,0.000000,1648525918.671496,0.000000
115.000000,-46476.630447,-30280.802283,-2280.570839,12427.368751,22.083524,39760.177107,21250.429303,31194.251024,0.022000,0.986000,-0.128000,192.000000,0.000000,176.000000,30.000000,208.000000,252.000000,0.000000,0.000000,0.000000,0.000000,1648525918.678519,0.000000
116.000000,-46477.971551,-30280.869339,-2282.314275,12428.642801,22.619965,39761.227639,21262.968631,31185.511492,0.022000,0.986000,-0.128000,192.000000,0.000000,0.000000,0.000000,0.000000,0.000000,0.000000,0.000000,0.000000,0.000000,1648525918.685080,0.000000
117.000000,-46487.560450,-30291.955804,-2291.143214,12419.322123,13.791026,39755.326778,21280.313585,31192.172312,0.022000,0.986000,-0.128000,192.000000,0.000000,0.000000,0.000000,0.000000,0.000000,0.000000,0.000000,0.000000,0.000000,1648525918.685096,0.000000
118.000000,-46488.096891,-30295.375621,-2293.266629,12415.924658,9.879471,39751.571685,21272.289309,31198.743725,0.022000,0.986000,-0.128000,192.000000,0.000000,0.000000,0.000000,0.000000,0.000000,0.000000,0.000000,0.000000,0.000000,1648525918.693194,0.000000
119.000000,-46486.308752,-30290.860568,-2288.729225,12423.390141,14.036896,39756.444366,21271.350535,31203.258777,0.022000,0.986000,-0.128000,192.000000,0.000000,0.000000,0.000000,0.000000,0.000000,0.000000,0.000000,0.000000,0.000000,1648525918.693210,0.000000
120.000000,-46481.927810,-30280.399952,-2283.722434,12426.362923,18.417837,39760.534735,21283.107553,31213.138248,0.022000,0.986000,-0.128000,192.000000,0.000000,0.000000,0.000000,0.000000,0.000000,0.000000,0.000000,0.000000,0.000000,1648525918.701201,0.000000
121.000000,-46484.051226,-30278.880033,-2288.081025,12421.378484,14.372172,39755.058557,21279.888902,31236.473469,0.022000,0.986000,-0.128000,192.000000,0.000000,0.000000,0.000000,0.000000,0.000000,0.000000,0.000000,0.000000,0.000000,1648525918.701217,0.000000
122.000000,-46482.084272,-30275.460216,-2287.566935,12423.367789,14.618041,39753.002197,21274.591538,31220.827248,0.022000,0.986000,-0.128000,192.000000,0.000000,0.000000,0.000000,0.000000,0.000000,0.000000,0.000000,0.000000,0.000000,1648525918.708175,0.000000
123.000000,-46481.167851,-30272.889766,-2289.019798,12422.697237,13.656916,39756.958456,21280.000660,31221.318987,0.022000,0.986000,-0.128000,192.000000,0.000000,0.000000,0.000000,0.000000,0.000000,0.000000,0.000000,0.000000,0.000000,1648525918.708191,0.000000
124.000000,-46477.502165,-30270.855757,-2284.817670,12426.251164,17.702582,39764.915677,21280.246530,31229.879705,0.022000,0.986000,-0.128000,192.000000,0.000000,0.000000,0.000000,0.000000,0.000000,0.000000,0.000000,0.000000,0.000000,1648525918.717212,0.000000
125.000000,-46482.598362,-30272.845062,-2288.393949,12423.904231,14.483930,39769.073101,21288.606082,31244.698911,0.032000,0.980000,-0.132000,192.000000,1.000000,0.000000,30.000000,160.000000,251.000000,224.000000,0.000000,0.000000,0.000000,1648525918.717228,0.000000
126.000000,-46486.956952,-30277.494225,-2291.254972,12420.774987,11.578204,39760.579438,21281.967614,31240.228562,0.032000,0.980000,-0.132000,192.000000,0.000000,0.000000,0.000000,0.000000,0.000000,0.000000,0.000000,0.000000,0.000000,1648525918.723775,0.000000
127.000000,-46492.500185,-30282.925699,-2296.328818,12416.483452,7.130206,39750.319988,21269.115361,31232.003120,0.032000,0.980000,-0.132000,192.000000,0.000000,0.000000,0.000000,0.000000,0.000000,0.000000,0.000000,0.000000,0.000000,1648525918.723792,0.000000
128.000000,-46496.858775,-30288.267766,-2303.436673,12409.777929,1.832843,39743.882685,21263.594480,31245.660036,0.032000,0.980000,-0.132000,192.000000,0.000000,0.000000,0.000000,0.000000,0.000000,0.000000,0.000000,0.000000,0.000000,1648525918.730887,0.000000
129.000000,-46495.025932,-30286.591385,-2301.246202,12412.370731,3.643334,39745.715528,21264.712067,31245.324760,0.032000,0.980000,-0.132000,192.000000,0.000000,0.000000,0.000000,0.000000,0.000000,0.000000,0.000000,0.000000,0.000000,1648525918.730903,0.000000
130.000000,-46496.299982,-30284.646783,-2298.184013,12413.555373,6.750227,39751.415223,21275.038573,31251.225621,0.032000,0.980000,-0.132000,192.000000,0.000000,0.000000,0.000000,0.000000,0.000000,0.000000,0.000000,0.000000,0.000000,1648525918.737316,0.000000
131.000000,-46495.897650,-30285.026763,-2295.010065,12413.622429,9.790064,39754.499764,21279.911253,31249.906868,0.032000,0.980000,-0.132000,192.000000,0.000000,0.000000,0.000000,0.000000,0.000000,0.000000,0.000000,0.000000,0.000000,1648525918.745360,0.000000
132.000000,-46490.890859,-30278.924737,-2290.383254,12421.199670,13.858082,39760.154755,21285.745059,31266.938897,0.032000,0.980000,-0.132000,192.000000,0.000000,0.000000,0.000000,0.000000,0.000000,0.000000,0.000000,0.000000,0.000000,1648525918.745376,0.000000
133.000000,-46490.913211,-30276.376638,-2289.958571,12424.306562,14.305116,39758.076043,21282.414649,31272.795054,0.032000,0.980000,-0.132000,192.000000,0.000000,0.000000,0.000000,0.000000,0.000000,0.000000,0.000000,0.000000,0.000000,1648525918.753235,0.000000
134.000000,-46492.969572,-30271.325144,-2295.837080,12423.501900,10.907651,39746.587246,21280.246530,31273.934993,0.032000,0.980000,-0.132000,192.000000,0.000000,0.000000,0.000000,0.000000,0.000000,0.000000,0.000000,0.000000,0.000000,1648525918.753251,0.000000
135.000000,-46494.444787,-30269.067618,-2297.647571,12424.150100,10.862948,39745.492011,21283.487533,31273.599717,0.032000,0.980000,-0.132000,192.000000,0.000000,0.000000,0.000000,0.000000,0.000000,0.000000,0.000000,0.000000,0.000000,1648525918.760532,0.000000
136.000000,-46498.624563,-30278.097722,-2296.440577,12422.451368,12.516977,39753.560991,21286.527370,31281.266365,0.038000,0.972000,-0.130000,192.000000,1.000000,48.000000,30.000000,96.000000,251.000000,240.000000,0.000000,0.000000,0.000000,1648525918.760549,0.000000
137.000000,-46504.726589,-30290.346478,-2299.502766,12415.879955,7.376076,39752.711624,21287.197922,31283.032153,0.038000,0.972000,-0.130000,192.000000,0.000000,0.000000,0.000000,0.000000,0.000000,0.000000,0.000000,0.000000,0.000000,1648525918.768013,0.000000
138.000000,-46501.440883,-30289.787685,-2299.636877,12412.124862,3.665686,39746.810764,21282.280538,31277.064237,0.038000,0.972000,-0.130000,192.000000,0.000000,0.000000,0.000000,0.000000,0.000000,0.000000,0.000000,0.000000,0.000000,1648525918.768029,0.000000
139.000000,-46495.964705,-30283.305679,-2295.121824,12416.058769,6.526709,39750.610560,21290.193056,31279.098246,0.038000,0.972000,-0.130000,192.000000,0.000000,0.000000,0.000000,0.000000,0.000000,0.000000,0.000000,0.000000,0.000000,1648525918.775935,0.000000
140.000000,-46493.416607,-30277.047190,-2289.131557,12421.669057,12.718143,39756.064386,21287.086163,31281.311069,0.038000,0.972000,-0.130000,192.000000,0.000000,0.000000,0.000000,0.000000,0.000000,0.000000,0.000000,0.000000,0.000000,1648525918.775951,0.000000
141.000000,-46494.221269,-30278.030667,-2288.930391,12420.104435,13.254584,39753.963322,21279.128942,31279.701743,0.038000,0.972000,-0.130000,192.000000,0.000000,0.000000,0.000000,0.000000,0.000000,0.000000,0.000000,0.000000,0.000000,1648525918.784075,0.000000
142.000000,-46490.220307,-30272.241565,-2280.526135,12427.368751,21.725896,39762.769909,21291.556512,31282.741580,0.038000,0.972000,-0.130000,192.000000,0.000000,0.000000,0.000000,0.000000,0.000000,0.000000,0.000000,0.000000,0.000000,1648525918.784091,0.000000
143.000000,-46496.858775,-30277.740094,-2285.756443,12421.065560,16.160311,39760.601790,21299.066698,31290.408229,0.038000,0.972000,-0.130000,192.000000,0.000000,0.000000,0.000000,0.000000,0.000000,0.000000,0.000000,0.000000,0.000000,1648525918.790666,0.000000
144.000000,-46497.104644,-30277.538929,-2286.583458,12421.602001,17.233195,39763.172241,21298.485553,31292.799865,0.038000,0.972000,-0.130000,192.000000,0.000000,0.000000,0.000000,0.000000,0.000000,0.000000,0.000000,0.000000,0.000000,1648525918.790682,0.000000
145.000000,-46491.963743,-30268.687638,-2282.426033,12429.715685,23.402276,39770.660075,21302.710033,31308.311976,0.038000,0.972000,-0.130000,192.000000,0.000000,0.000000,0.000000,0.000000,0.000000,0.000000,0.000000,0.000000,0.000000,1648525918.797723,0.000000
146.000000,-46487.672208,-30262.876184,-2277.463946,12436.018877,29.683117,39773.074063,21298.373794,31303.819275,0.042000,0.974000,-0.122000,192.000000,1.000000,80.000000,30.000000,112.000000,252.000000,48.000000,0.000000,0.000000,0.000000,1648525918.797739,0.000000
147.000000,-46488.879202,-30266.743036,-2277.955684,12433.470778,30.376021,39766.793223,21289.455448,31296.867883,0.042000,0.974000,-0.122000,192.000000,0.000000,0.000000,0.000000,0.000000,0.000000,0.000000,0.000000,0.000000,0.000000,1648525918.805661,0.000000
148.000000,-46490.756749,-30268.240603,-2275.720510,12433.761350,33.259396,39767.933162,21294.037556,31298.901892,0.042000,0.974000,-0.122000,192.000000,0.000000,0.000000,0.000000,0.000000,0.000000,0.000000,0.000000,0.000000,0.000000,1648525918.813757,0.000000
149.000000,-46489.885031,-30266.161891,-2272.546562,12436.197691,35.293404,39770.861241,21292.092954,31305.652118,0.042000,0.974000,-0.122000,192.000000,0.000000,0.000000,0.000000,0.000000,0.000000,0.000000,0.000000,0.000000,0.000000,1648525918.813773,0.000000
150.000000,-46499.898612,-30275.236699,-2283.834193,12429.223946,24.273994,39769.766005,21308.901466,31314.816334,0.042000,0.974000,-0.122000,192.000000,0.000000,0.000000,0.000000,0.000000,0.000000,0.000000,0.000000,0.000000,0.000000,1648525918.820169,0.000000
151.000000,-46503.385485,-30278.589461,-2288.416301,12427.659324,19.893053,39775.130424,21314.802327,31325.947502,0.042000,0.974000,-0.122000,192.000000,0.000000,0.000000,0.000000,0.000000,0.000000,0.000000,0.000000,0.000000,0.000000,1648525918.820204,0.000000
152.000000,-46502.223194,-30276.644859,-2290.584420,12426.899365,16.495587,39773.163470,21309.437908,31318.437316,0.042000,0.974000,-0.122000,192.000000,0.000000,0.000000,0.000000,0.000000,0.000000,0.000000,0.000000,0.000000,0.000000,1648525918.828168,0.000000
153.000000,-46497.909307,-30274.186167,-2287.969266,12430.118016,17.836692,39772.649380,21299.603140,31312.871732,0.042000,0.974000,-0.122000,192.000000,0.000000,0.000000,0.000000,0.000000,0.000000,0.000000,0.000000,0.000000,0.000000,1648525918.828184,0.000000
154.000000,-46496.948182,-30276.734266,-2287.455176,12428.642801,19.267204,39772.850546,21307.448603,31323.488810,0.042000,0.974000,-0.122000,192.000000,0.000000,0.000000,0.000000,0.000000,0.000000,0.000000,0.000000,0.000000,0.000000,1648525918.836551,0.000000
155.000000,-46496.344685,-30278.723571,-2287.164603,12426.184109,20.474198,39770.481261,21312.634207,31335.536401,0.042000,0.974000,-0.122000,192.000000,0.000000,0.000000,0.000000,0.000000,0.000000,0.000000,0.000000,0.000000,0.000000,1648525918.836568,0.000000
156.000000,-46496.344685,-30279.550586,-2284.683559,12427.301696,23.111704,39769.117805,21311.158992,31330.194334,0.034000,0.976000,-0.116000,192.000000,1.000000,16.000000,30.000000,128.000000,252.000000,96.000000,0.000000,0.000000,0.000000,1648525918.842799,0.000000
157.000000,-46496.478796,-30277.784798,-2285.287057,12426.988772,22.888186,39770.391854,21319.607952,31343.314808,0.034000,0.976000,-0.116000,192.000000,0.000000,0.000000,0.000000,0.000000,0.000000,0.000000,0.000000,0.000000,0.000000,1648525918.842815,0.000000
158.000000,-46489.996790,-30271.727475,-2278.492126,12433.113150,27.514997,39768.469604,21307.068623,31341.057282,0.034000,0.976000,-0.116000,192.000000,0.000000,0.000000,0.000000,0.000000,0.000000,0.000000,0.000000,0.000000,0.000000,1648525918.850881,0.000000
159.000000,-46485.079406,-30266.519519,-2274.491164,12436.912946,30.800704,39767.240258,21300.877190,31332.854191,0.034000,0.976000,-0.116000,192.000000,0.000000,0.000000,0.000000,0.000000,0.000000,0.000000,0.000000,0.000000,0.000000,1648525918.850898,0.000000
160.000000,-46486.308752,-30264.798434,-2272.367748,12438.656382,33.371154,39773.342284,21324.793556,31347.427529,0.034000,0.976000,-0.116000,192.000000,0.000000,0.000000,0.000000,0.000000,0.000000,0.000000,0.000000,0.000000,0.000000,1648525918.858969,0.000000
