%OpenBCI Raw EEG Data
%Number of channels = 8
%Sample Rate = 256 Hz
%Board = OpenBCI_GUI$BoardCytonSerial
%Channels = Fp1, Fp2, F3, F4, Fz, Pz, O1, O2
%Data recorded at AIMS Lab (http://aimsl.uiu.ac.bd) by Rana Depto (mail@ranadepto.com)
%Brainwaves were obtained via the Ultracortex Mark IV Headset using the OpenBCI Cyton Board
%Recording Application = ConcentrateToday (https://concentrate.today)
%Data type = RAW data with noise
%Day No = 9
%Subject ID = 1
%Session ID = 7
%Record starting timestamp (UTC+6) = 2022-03-27T12:27:40.707399
%Record ending timestamp (UTC+6)   = 2022-03-27T12:28:06.573346
%Recorded durations = ~25 seconds
Sample Index, EXG Channel 0, EXG Channel 1, EXG Channel 2, EXG Channel 3, EXG Channel 4, EXG Channel 5, EXG Channel 6, EXG Channel 7, Accel Channel 0, Accel Channel 1, Accel Channel 2, Other, Other, Other, Other, Other, Other, Other, Analog Channel 0, Analog Channel 1, Analog Channel 2, Timestamp, Timestamp (Formatted)
221.000000,-16456.069524,-6898.396539,6666.944226,26040.966933,-6795.489108,25547.060436,43282.767330,24866.829797,-0.094000,0.982000,0.012000,192.000000,0.000000,0.000000,0.000000,0.000000,0.000000,0.000000,0.000000,0.000000,0.000000,1648362460.711500,0.000000
222.000000,-16457.634146,-6899.067092,6670.229932,26040.095215,-6795.265591,25550.301439,43307.644821,24859.029038,-0.094000,0.982000,0.012000,192.000000,0.000000,0.000000,0.000000,0.000000,0.000000,0.000000,0.000000,0.000000,0.000000,1648362460.711508,0.000000
223.000000,-16460.182245,-6904.386807,6667.681833,26036.407177,-6796.651399,25539.907877,43281.873260,24818.192401,-0.098000,0.990000,0.016000,192.000000,252.000000,240.000000,30.000000,240.000000,0.000000,128.000000,0.000000,0.000000,0.000000,1648362460.719510,0.000000
224.000000,-16478.354213,-6920.569470,6604.180527,26016.357662,-6826.714495,25523.255828,43260.259123,24825.501421,-0.098000,0.990000,0.016000,192.000000,0.000000,0.000000,0.000000,0.000000,0.000000,0.000000,0.000000,0.000000,0.000000,1648362460.719515,0.000000
225.000000,-16474.509713,-6911.628772,6635.987060,26023.353758,-6814.577498,25532.487098,43264.818879,24860.258384,-0.098000,0.990000,0.016000,192.000000,0.000000,0.000000,0.000000,0.000000,0.000000,0.000000,0.000000,0.000000,0.000000,1648362460.726170,0.000000
226.000000,-16465.323146,-6904.342104,6681.495211,26037.345950,-6792.046939,25547.283953,43291.328048,24868.953212,-0.098000,0.990000,0.016000,192.000000,0.000000,0.000000,0.000000,0.000000,0.000000,0.000000,0.000000,0.000000,0.000000,1648362460.726174,0.000000
227.000000,-16457.388277,-6897.614228,6670.162877,26043.492680,-6788.917695,25552.268392,43300.492263,24858.984334,-0.098000,0.990000,0.016000,192.000000,0.000000,0.000000,0.000000,0.000000,0.000000,0.000000,0.000000,0.000000,0.000000,1648362460.734027,0.000000
228.000000,-16453.655535,-6895.155537,6689.139508,26050.533480,-6777.428899,25558.482177,43299.821711,24851.183576,-0.098000,0.990000,0.016000,192.000000,0.000000,0.000000,0.000000,0.000000,0.000000,0.000000,0.000000,0.000000,0.000000,1648362460.734031,0.000000
229.000000,-16464.160855,-6904.990304,6654.762525,26039.648180,-6791.555201,25550.636715,43277.693484,24857.062084,-0.098000,0.990000,0.016000,192.000000,0.000000,0.000000,0.000000,0.000000,0.000000,0.000000,0.000000,0.000000,0.000000,1648362460.742139,0.000000
230.000000,-16478.689489,-6920.301249,6599.218440,26019.509258,-6820.612469,25535.325770,43278.296981,24848.501366,-0.098000,0.990000,0.016000,192.000000,0.000000,0.000000,0.000000,0.000000,0.000000,0.000000,0.000000,0.000000,0.000000,1648362460.742143,0.000000
231.000000,-16451.822692,-6899.581182,6689.474784,26048.253602,-6776.892457,25562.304325,43288.757597,24860.258384,-0.098000,0.990000,0.016000,192.000000,0.000000,0.000000,0.000000,0.000000,0.000000,0.000000,0.000000,0.000000,0.000000,1648362460.749281,0.000000
232.000000,-16445.944184,-6892.853307,6723.717657,26056.277878,-6760.262759,25572.541424,43296.848929,24861.778302,-0.098000,0.990000,0.016000,192.000000,0.000000,0.000000,0.000000,0.000000,0.000000,0.000000,0.000000,0.000000,0.000000,1648362460.749286,0.000000
233.000000,-16454.370791,-6894.216763,6687.664293,26045.034950,-6779.194686,25554.816491,43291.708027,24840.186517,-0.098000,0.988000,0.024000,192.000000,252.000000,240.000000,30.000000,224.000000,0.000000,192.000000,0.000000,0.000000,0.000000,1648362460.755756,0.000000
234.000000,-16470.911082,-6910.891165,6662.473877,26030.975703,-6796.137309,25538.499718,43278.587553,24829.345921,-0.098000,0.988000,0.024000,192.000000,0.000000,0.000000,0.000000,0.000000,0.000000,0.000000,0.000000,0.000000,0.000000,1648362460.763718,0.000000
235.000000,-16475.269672,-6916.166176,6648.548740,26025.410119,-6803.513384,25529.782537,43255.095870,24849.104863,-0.098000,0.988000,0.024000,192.000000,0.000000,0.000000,0.000000,0.000000,0.000000,0.000000,0.000000,0.000000,0.000000,1648362460.763724,0.000000
236.000000,-16457.790608,-6898.016560,6662.585635,26035.893087,-6791.264628,25545.987552,43281.605039,24872.171864,-0.098000,0.988000,0.024000,192.000000,0.000000,0.000000,0.000000,0.000000,0.000000,0.000000,0.000000,0.000000,0.000000,1648362460.771910,0.000000
237.000000,-16450.950974,-6889.321731,6675.706109,26047.247773,-6782.525096,25556.001133,43299.531138,24861.241861,-0.098000,0.988000,0.024000,192.000000,0.000000,0.000000,0.000000,0.000000,0.000000,0.000000,0.000000,0.000000,0.000000,1648362460.771915,0.000000
238.000000,-16457.812960,-6896.720159,6682.970426,26040.028160,-6786.637817,25542.031293,43273.267838,24834.598581,-0.098000,0.988000,0.024000,192.000000,0.000000,0.000000,0.000000,0.000000,0.000000,0.000000,0.000000,0.000000,0.000000,1648362460.778382,0.000000
239.000000,-16465.099629,-6903.693903,6661.177476,26034.999017,-6793.656265,25542.903011,43265.355321,24840.588849,-0.098000,0.988000,0.024000,192.000000,0.000000,0.000000,0.000000,0.000000,0.000000,0.000000,0.000000,0.000000,0.000000,1648362460.778388,0.000000
240.000000,-16461.724515,-6911.047627,6648.660499,26031.825069,-6793.477451,25551.150805,43263.902457,24838.353674,-0.098000,0.988000,0.024000,192.000000,0.000000,0.000000,0.000000,0.000000,0.000000,0.000000,0.000000,0.000000,0.000000,1648362460.786346,0.000000
241.000000,-16453.208501,-6909.952391,6689.161860,26034.104947,-6783.441518,25557.565756,43264.505954,24851.652962,-0.098000,0.988000,0.024000,192.000000,0.000000,0.000000,0.000000,0.000000,0.000000,0.000000,0.000000,0.000000,0.000000,1648362460.786350,0.000000
242.000000,-16447.754675,-6910.131205,6696.269714,26026.907686,-6784.223829,25556.895203,43272.262010,24833.302180,-0.098000,0.988000,0.024000,192.000000,0.000000,0.000000,0.000000,0.000000,0.000000,0.000000,0.000000,0.000000,0.000000,1648362460.794360,0.000000
243.000000,-16456.427152,-6906.063188,6661.624510,26030.685130,-6791.957532,25558.951564,43279.034588,24860.660715,-0.102000,0.980000,0.022000,192.000000,252.000000,208.000000,30.000000,160.000000,0.000000,176.000000,0.000000,0.000000,0.000000,1648362460.794364,0.000000
244.000000,-16455.488378,-6902.755130,6657.847066,26038.642351,-6790.258800,25556.917555,43275.950047,24858.067913,-0.102000,0.980000,0.022000,192.000000,0.000000,0.000000,0.000000,0.000000,0.000000,0.000000,0.000000,0.000000,0.000000,1648362460.801527,0.000000
245.000000,-16460.919852,-6905.437339,6686.166726,26039.759939,-6783.285056,25557.811625,43264.103623,24850.401264,-0.102000,0.980000,0.022000,192.000000,0.000000,0.000000,0.000000,0.000000,0.000000,0.000000,0.000000,0.000000,0.000000,1648362460.801531,0.000000
246.000000,-16466.306623,-6910.622944,6680.087051,26024.270180,-6794.282114,25550.837880,43265.735300,24837.124328,-0.102000,0.980000,0.022000,192.000000,0.000000,0.000000,0.000000,0.000000,0.000000,0.000000,0.000000,0.000000,0.000000,1648362460.809064,0.000000
247.000000,-16469.122943,-6916.389694,6668.642958,26027.734700,-6793.768024,25551.083750,43275.167736,24817.499497,-0.102000,0.980000,0.022000,192.000000,0.000000,0.000000,0.000000,0.000000,0.000000,0.000000,0.000000,0.000000,0.000000,1648362460.809067,0.000000
248.000000,-16471.492227,-6918.513110,6644.190150,26025.946561,-6802.552259,25548.200375,43268.216344,24838.666599,-0.102000,0.980000,0.022000,192.000000,0.000000,0.000000,0.000000,0.000000,0.000000,0.000000,0.000000,0.000000,0.000000,1648362460.815995,0.000000
249.000000,-16461.970384,-6909.728874,6679.327092,26030.148689,-6793.231582,25556.515224,43283.236716,24864.236994,-0.102000,0.980000,0.022000,192.000000,0.000000,0.000000,0.000000,0.000000,0.000000,0.000000,0.000000,0.000000,0.000000,1648362460.824124,0.000000
250.000000,-16454.951937,-6897.502470,6705.590392,26040.631657,-6779.529962,25568.294593,43292.825615,24863.722904,-0.102000,0.980000,0.022000,192.000000,0.000000,0.000000,0.000000,0.000000,0.000000,0.000000,0.000000,0.000000,0.000000,1648362460.824128,0.000000
251.000000,-16463.222082,-6909.907688,6678.433022,26028.226439,-6793.320989,25557.163424,43275.748882,24849.104863,-0.102000,0.980000,0.022000,192.000000,0.000000,0.000000,0.000000,0.000000,0.000000,0.000000,0.000000,0.000000,0.000000,1648362460.831125,0.000000
252.000000,-16468.810018,-6918.691923,6662.183304,26017.050566,-6804.183937,25544.981723,43267.366978,24829.301218,-0.102000,0.980000,0.022000,192.000000,0.000000,0.000000,0.000000,0.000000,0.000000,0.000000,0.000000,0.000000,0.000000,1648362460.831129,0.000000
253.000000,-16457.142408,-6907.896031,6671.638092,26036.004846,-6791.063463,25553.475386,43280.867431,24834.844450,-0.102000,0.978000,0.022000,192.000000,252.000000,208.000000,30.000000,144.000000,0.000000,176.000000,0.000000,0.000000,0.000000,1648362460.838580,0.000000
254.000000,-16450.146312,-6899.000037,6688.625418,26045.772558,-6779.239390,25562.483139,43278.185222,24850.513023,-0.102000,0.978000,0.022000,192.000000,0.000000,0.000000,0.000000,0.000000,0.000000,0.000000,0.000000,0.000000,0.000000,1648362460.838584,0.000000
255.000000,-16441.026800,-6892.898010,6692.939304,26046.666628,-6776.288960,25561.276145,43266.070576,24850.468320,-0.102000,0.978000,0.022000,192.000000,0.000000,0.000000,0.000000,0.000000,0.000000,0.000000,0.000000,0.000000,0.000000,1648362460.846606,0.000000
0.000000,-16452.068562,-6895.133185,6684.244476,26036.653046,-6781.541619,25560.247965,43265.109451,24848.009628,-0.102000,0.978000,0.022000,192.000000,0.000000,0.000000,0.000000,0.000000,0.000000,0.000000,0.000000,0.000000,0.000000,1648362460.846610,0.000000
1.000000,-16446.212405,-6894.641446,6694.079243,26041.235154,-6779.485259,25560.091503,43284.689580,24847.339075,-0.102000,0.978000,0.022000,192.000000,0.000000,0.000000,0.000000,0.000000,0.000000,0.000000,0.000000,0.000000,0.000000,1648362460.854697,0.000000
2.000000,-16448.134655,-6901.458728,6678.790650,26038.016503,-6783.799146,25558.526881,43294.971382,24851.720017,-0.102000,0.978000,0.022000,192.000000,0.000000,0.000000,0.000000,0.000000,0.000000,0.000000,0.000000,0.000000,0.000000,1648362460.854703,0.000000
3.000000,-16458.505864,-6909.527708,6636.210577,26032.830898,-6801.971114,25545.562869,43282.141481,24834.375064,-0.102000,0.978000,0.022000,192.000000,0.000000,0.000000,0.000000,0.000000,0.000000,0.000000,0.000000,0.000000,0.000000,1648362460.861345,0.000000
4.000000,-16464.786704,-6906.286705,6647.609967,26031.087462,-6801.993466,25546.836918,43278.900478,24834.598581,-0.102000,0.978000,0.022000,192.000000,0.000000,0.000000,0.000000,0.000000,0.000000,0.000000,0.000000,0.000000,0.000000,1648362460.861351,0.000000
5.000000,-16467.759486,-6909.237136,6678.343615,26026.326540,-6797.053730,25542.590087,43257.196934,24826.641360,-0.102000,0.978000,0.022000,192.000000,0.000000,0.000000,0.000000,0.000000,0.000000,0.000000,0.000000,0.000000,0.000000,1648362460.869301,0.000000
6.000000,-16452.247376,-6896.228420,6706.305648,26034.619037,-6782.145117,25545.384055,43260.102661,24821.142831,-0.102000,0.978000,0.022000,192.000000,0.000000,0.000000,0.000000,0.000000,0.000000,0.000000,0.000000,0.000000,0.000000,1648362460.869307,0.000000
7.000000,-16450.570995,-6894.306170,6697.923743,26044.722026,-6775.841925,25562.058456,43295.552527,24867.679163,-0.094000,0.980000,0.024000,192.000000,253.000000,16.000000,30.000000,160.000000,0.000000,192.000000,0.000000,0.000000,0.000000,1648362460.876312,0.000000
8.000000,-16457.611794,-6906.845499,6682.903371,26030.662779,-6789.252971,25549.787348,43278.811071,24866.472169,-0.094000,0.980000,0.024000,192.000000,0.000000,0.000000,0.000000,0.000000,0.000000,0.000000,0.000000,0.000000,0.000000,1648362460.884326,0.000000
9.000000,-16451.040381,-6901.034045,6685.674988,26032.987360,-6787.956570,25549.966162,43275.525364,24860.481901,-0.094000,0.980000,0.024000,192.000000,0.000000,0.000000,0.000000,0.000000,0.000000,0.000000,0.000000,0.000000,0.000000,1648362460.884330,0.000000
10.000000,-16439.685695,-6893.881487,6684.825621,26036.854212,-6785.408471,25556.783444,43292.959725,24865.443988,-0.094000,0.980000,0.024000,192.000000,0.000000,0.000000,0.000000,0.000000,0.000000,0.000000,0.000000,0.000000,0.000000,1648362460.890960,0.000000
11.000000,-16445.765370,-6898.664760,6680.556438,26035.893087,-6787.464832,25546.591049,43278.565202,24833.972732,-0.094000,0.980000,0.024000,192.000000,0.000000,0.000000,0.000000,0.000000,0.000000,0.000000,0.000000,0.000000,0.000000,1648362460.890963,0.000000
12.000000,-16456.896538,-6904.833842,6664.507886,26027.444127,-6795.422053,25535.325770,43259.923847,24806.100107,-0.094000,0.980000,0.024000,192.000000,0.000000,0.000000,0.000000,0.000000,0.000000,0.000000,0.000000,0.000000,0.000000,1648362460.898926,0.000000
13.000000,-16453.230852,-6902.196336,6693.766319,26032.294456,-6781.899247,25559.599764,43285.114263,24862.806483,-0.094000,0.980000,0.024000,192.000000,0.000000,0.000000,0.000000,0.000000,0.000000,0.000000,0.000000,0.000000,0.000000,1648362460.898931,0.000000
14.000000,-16454.035515,-6904.722083,6669.089993,26031.914476,-6787.308370,25556.001133,43280.420396,24853.821081,-0.094000,0.980000,0.024000,192.000000,0.000000,0.000000,0.000000,0.000000,0.000000,0.000000,0.000000,0.000000,0.000000,1648362460.906943,0.000000
15.000000,-16471.134600,-6922.357610,6636.143522,26014.591874,-6808.654286,25530.967180,43252.212495,24819.309988,-0.094000,0.980000,0.024000,192.000000,0.000000,0.000000,0.000000,0.000000,0.000000,0.000000,0.000000,0.000000,0.000000,1648362460.906948,0.000000
16.000000,-16463.110323,-6917.730798,6668.262979,26014.748337,-6803.647495,25529.402558,43243.092983,24829.860011,-0.094000,0.980000,0.024000,192.000000,0.000000,0.000000,0.000000,0.000000,0.000000,0.000000,0.000000,0.000000,0.000000,1648362460.913940,0.000000
17.000000,-16445.139521,-6898.798871,6700.337732,26034.373168,-6780.334625,25549.586183,43260.706158,24847.003799,-0.100000,0.978000,0.020000,192.000000,252.000000,224.000000,30.000000,144.000000,0.000000,160.000000,0.000000,0.000000,0.000000,1648362460.913944,0.000000
18.000000,-16452.403838,-6897.100138,6657.489438,26027.779404,-6793.276285,25544.378226,43273.558411,24843.561631,-0.100000,0.978000,0.020000,192.000000,0.000000,0.000000,0.000000,0.000000,0.000000,0.000000,0.000000,0.000000,0.000000,1648362460.921559,0.000000
19.000000,-16452.895576,-6901.235211,6643.743115,26018.123450,-6799.981809,25536.778633,43267.724606,24837.012570,-0.100000,0.978000,0.020000,192.000000,0.000000,0.000000,0.000000,0.000000,0.000000,0.000000,0.000000,0.000000,0.000000,1648362460.921563,0.000000
20.000000,-16443.619602,-6898.128319,6701.567078,26035.669569,-6783.240352,25537.516241,43260.795565,24828.898886,-0.100000,0.978000,0.020000,192.000000,0.000000,0.000000,0.000000,0.000000,0.000000,0.000000,0.000000,0.000000,0.000000,1648362460.929561,0.000000
21.000000,-16446.145349,-6897.144842,6688.357197,26038.307075,-6784.469698,25541.807776,43256.906361,24838.040750,-0.100000,0.978000,0.020000,192.000000,0.000000,0.000000,0.000000,0.000000,0.000000,0.000000,0.000000,0.000000,0.000000,1648362460.929565,0.000000
22.000000,-16463.266786,-6910.399426,6668.598255,26021.878543,-6802.306390,25524.641636,43260.817916,24815.152563,-0.100000,0.978000,0.020000,192.000000,0.000000,0.000000,0.000000,0.000000,0.000000,0.000000,0.000000,0.000000,0.000000,1648362460.936534,0.000000
23.000000,-16460.741038,-6910.757054,6644.681888,26021.342101,-6807.536698,25523.524049,43272.999617,24818.237104,-0.100000,0.978000,0.020000,192.000000,0.000000,0.000000,0.000000,0.000000,0.000000,0.000000,0.000000,0.000000,0.000000,1648362460.943132,0.000000
24.000000,-16431.572012,-6888.807641,6698.929572,26044.453805,-6773.785564,25549.362665,43299.642897,24847.495538,-0.100000,0.978000,0.020000,192.000000,0.000000,0.000000,0.000000,0.000000,0.000000,0.000000,0.000000,0.000000,0.000000,1648362460.943136,0.000000
25.000000,-16418.496241,-6874.793097,6729.529110,26057.306058,-6758.206398,25555.822319,43310.483493,24855.788035,-0.100000,0.978000,0.020000,192.000000,0.000000,0.000000,0.000000,0.000000,0.000000,0.000000,0.000000,0.000000,0.000000,1648362460.951254,0.000000
26.000000,-16444.692486,-6891.288685,6685.071490,26037.837689,-6782.167468,25535.973970,43288.467024,24843.829852,-0.100000,0.978000,0.020000,192.000000,0.000000,0.000000,0.000000,0.000000,0.000000,0.000000,0.000000,0.000000,0.000000,1648362460.951258,0.000000
27.000000,-16455.667192,-6909.013618,6663.457354,26017.788174,-6801.009989,25518.070223,43258.761556,24840.901773,-0.100000,0.978000,0.020000,192.000000,0.000000,0.000000,0.000000,0.000000,0.000000,0.000000,0.000000,0.000000,0.000000,1648362460.959281,0.000000
28.000000,-16447.419399,-6906.398464,6647.699374,26020.336273,-6804.407454,25518.561961,43269.803318,24849.574250,-0.108000,0.984000,0.016000,192.000000,252.000000,160.000000,30.000000,192.000000,0.000000,128.000000,0.000000,0.000000,0.000000,1648362460.959314,0.000000
29.000000,-16436.847024,-6892.249810,6684.825621,26039.849346,-6782.793317,25541.919534,43304.828501,24864.527567,-0.108000,0.984000,0.016000,192.000000,0.000000,0.000000,0.000000,0.000000,0.000000,0.000000,0.000000,0.000000,0.000000,1648362460.966153,0.000000
30.000000,-16433.628372,-6885.253714,6717.481520,26049.550003,-6768.599959,25548.133319,43311.489321,24868.908509,-0.108000,0.984000,0.016000,192.000000,0.000000,0.000000,0.000000,0.000000,0.000000,0.000000,0.000000,0.000000,0.000000,1648362460.966157,0.000000
31.000000,-16433.382503,-6879.844592,6694.973313,26047.337180,-6774.500820,25542.321866,43297.810054,24851.809424,-0.108000,0.984000,0.016000,192.000000,0.000000,0.000000,0.000000,0.000000,0.000000,0.000000,0.000000,0.000000,0.000000,1648362460.973779,0.000000
32.000000,-16447.777027,-6899.000037,6659.836371,26031.489793,-6795.377349,25533.135299,43288.243507,24858.693762,-0.108000,0.984000,0.016000,192.000000,0.000000,0.000000,0.000000,0.000000,0.000000,0.000000,0.000000,0.000000,0.000000,1648362460.973783,0.000000
33.000000,-16433.740131,-6885.611342,6716.051008,26051.584012,-6766.744765,25551.396674,43301.229870,24868.327364,-0.108000,0.984000,0.016000,192.000000,0.000000,0.000000,0.000000,0.000000,0.000000,0.000000,0.000000,0.000000,0.000000,1648362460.981839,0.000000
34.000000,-16429.225079,-6882.482097,6707.065607,26049.751168,-6768.197628,25542.031293,43297.541833,24844.634514,-0.108000,0.984000,0.016000,192.000000,0.000000,0.000000,0.000000,0.000000,0.000000,0.000000,0.000000,0.000000,0.000000,1648362460.981843,0.000000
35.000000,-16427.258125,-6886.281894,6694.369816,26046.040779,-6775.350186,25535.035197,43284.466062,24837.951343,-0.108000,0.984000,0.016000,192.000000,0.000000,0.000000,0.000000,0.000000,0.000000,0.000000,0.000000,0.000000,0.000000,1648362460.989973,0.000000
36.000000,-16433.851890,-6887.622999,6688.670121,26044.498509,-6777.473602,25538.097386,43277.760539,24857.017381,-0.108000,0.984000,0.016000,192.000000,0.000000,0.000000,0.000000,0.000000,0.000000,0.000000,0.000000,0.000000,0.000000,1648362460.989977,0.000000
37.000000,-16433.270744,-6892.495679,6692.089938,26035.893087,-6778.501782,25539.527898,43296.737170,24850.334209,-0.108000,0.984000,0.016000,192.000000,0.000000,0.000000,0.000000,0.000000,0.000000,0.000000,0.000000,0.000000,0.000000,1648362460.995894,0.000000
38.000000,-16422.340741,-6880.962179,6697.253191,26047.605401,-6768.689366,25550.189680,43309.835292,24856.235070,-0.110000,0.980000,0.018000,192.000000,252.000000,144.000000,30.000000,160.000000,0.000000,144.000000,0.000000,0.000000,0.000000,1648362460.995897,0.000000
39.000000,-16424.531212,-6885.387824,6701.790595,26048.991209,-6766.141268,25548.893279,43296.848929,24849.887174,-0.110000,0.980000,0.018000,192.000000,0.000000,0.000000,0.000000,0.000000,0.000000,0.000000,0.000000,0.000000,0.000000,1648362461.003559,0.000000
40.000000,-16441.049152,-6901.056397,6674.342653,26033.389692,-6781.966303,25540.869002,43305.767275,24846.109730,-0.110000,0.980000,0.018000,192.000000,0.000000,0.000000,0.000000,0.000000,0.000000,0.000000,0.000000,0.000000,0.000000,1648362461.011515,0.000000
41.000000,-16449.766332,-6904.856194,6660.596330,26024.404290,-6793.186878,25531.615380,43295.530176,24838.331322,-0.110000,0.980000,0.018000,192.000000,0.000000,0.000000,0.000000,0.000000,0.000000,0.000000,0.000000,0.000000,0.000000,1648362461.011519,0.000000
42.000000,-16432.242564,-6885.812507,6663.949092,26034.149651,-6785.453175,25537.180965,43296.223080,24840.857070,-0.110000,0.980000,0.018000,192.000000,0.000000,0.000000,0.000000,0.000000,0.000000,0.000000,0.000000,0.000000,0.000000,1648362461.019579,0.000000
43.000000,-16425.313523,-6883.711443,6689.944171,26047.963029,-6773.584398,25548.893279,43317.032554,24854.446930,-0.110000,0.980000,0.018000,192.000000,0.000000,0.000000,0.000000,0.000000,0.000000,0.000000,0.000000,0.000000,0.000000,1648362461.019584,0.000000
44.000000,-16431.572012,-6889.746414,6721.370723,26049.885279,-6764.129611,25555.107064,43316.764333,24856.883270,-0.110000,0.980000,0.018000,192.000000,0.000000,0.000000,0.000000,0.000000,0.000000,0.000000,0.000000,0.000000,0.000000,1648362461.026055,0.000000
45.000000,-16435.796492,-6893.210935,6696.426177,26038.709407,-6775.998387,25547.283953,43306.974269,24845.774453,-0.110000,0.980000,0.018000,192.000000,0.000000,0.000000,0.000000,0.000000,0.000000,0.000000,0.000000,0.000000,0.000000,1648362461.026060,0.000000
46.000000,-16441.563242,-6899.067092,6684.713863,26031.869773,-6785.944913,25536.130433,43295.507824,24826.417843,-0.110000,0.980000,0.018000,192.000000,0.000000,0.000000,0.000000,0.000000,0.000000,0.000000,0.000000,0.000000,0.000000,1648362461.034150,0.000000
47.000000,-16436.042361,-6888.673531,6682.366929,26038.195317,-6781.720433,25546.255773,43284.197841,24866.628631,-0.110000,0.980000,0.018000,192.000000,0.000000,0.000000,0.000000,0.000000,0.000000,0.000000,0.000000,0.000000,0.000000,1648362461.034154,0.000000
48.000000,-16432.220212,-6887.734757,6685.093842,26036.854212,-6779.217038,25549.005037,43303.129769,24856.659753,-0.110000,0.980000,0.014000,192.000000,252.000000,144.000000,30.000000,160.000000,0.000000,112.000000,0.000000,0.000000,0.000000,1648362461.042165,0.000000
49.000000,-16430.029742,-6897.122490,6679.572961,26024.113718,-6788.045977,25539.170270,43302.906251,24828.071872,-0.110000,0.980000,0.014000,192.000000,0.000000,0.000000,0.000000,0.000000,0.000000,0.000000,0.000000,0.000000,0.000000,1648362461.042169,0.000000
50.000000,-16428.018085,-6890.238153,6694.861554,26033.948485,-6777.652416,25552.849537,43312.741019,24866.025134,-0.110000,0.980000,0.014000,192.000000,0.000000,0.000000,0.000000,0.000000,0.000000,0.000000,0.000000,0.000000,0.000000,1648362461.049364,0.000000
51.000000,-16443.373733,-6895.647275,6695.286238,26034.596686,-6778.457079,25551.262564,43316.384353,24876.686916,-0.110000,0.980000,0.014000,192.000000,0.000000,0.000000,0.000000,0.000000,0.000000,0.000000,0.000000,0.000000,0.000000,1648362461.049368,0.000000
52.000000,-16444.558375,-6899.156499,6684.959732,26032.942657,-6782.212172,25541.584258,43304.292059,24852.301163,-0.110000,0.980000,0.014000,192.000000,0.000000,0.000000,0.000000,0.000000,0.000000,0.000000,0.000000,0.000000,0.000000,1648362461.056816,0.000000
53.000000,-16445.005410,-6899.491775,6684.579752,26024.672511,-6785.766099,25535.482232,43293.943202,24843.807500,-0.110000,0.980000,0.014000,192.000000,0.000000,0.000000,0.000000,0.000000,0.000000,0.000000,0.000000,0.000000,0.000000,1648362461.056820,0.000000
54.000000,-16440.155082,-6896.340179,6679.349444,26029.858116,-6782.569800,25541.025465,43299.061751,24851.988238,-0.110000,0.980000,0.014000,192.000000,0.000000,0.000000,0.000000,0.000000,0.000000,0.000000,0.000000,0.000000,0.000000,1648362461.063738,0.000000
55.000000,-16435.438864,-6894.105005,6702.327037,26037.256543,-6774.165544,25543.260639,43290.478681,24845.796805,-0.110000,0.980000,0.014000,192.000000,0.000000,0.000000,0.000000,0.000000,0.000000,0.000000,0.000000,0.000000,0.000000,1648362461.071624,0.000000
56.000000,-16441.250317,-6899.402368,6687.530182,26028.517011,-6781.452213,25535.459880,43278.699312,24821.925142,-0.110000,0.980000,0.014000,192.000000,0.000000,0.000000,0.000000,0.000000,0.000000,0.000000,0.000000,0.000000,0.000000,1648362461.071629,0.000000
57.000000,-16437.696390,-6886.818336,6677.449546,26037.100081,-6778.144154,25550.413197,43327.493170,24857.397360,-0.110000,0.980000,0.014000,192.000000,0.000000,0.000000,0.000000,0.000000,0.000000,0.000000,0.000000,0.000000,0.000000,1648362461.078965,0.000000
58.000000,-16439.149253,-6885.141955,6687.373720,26039.447014,-6774.992558,25550.279087,43317.546644,24859.699590,-0.106000,0.978000,0.012000,192.000000,252.000000,176.000000,30.000000,144.000000,0.000000,96.000000,0.000000,0.000000,0.000000,1648362461.078970,0.000000
59.000000,-16437.182300,-6899.737644,6684.624456,26031.243924,-6783.352111,25543.774729,43314.775028,24836.811404,-0.106000,0.978000,0.012000,192.000000,0.000000,0.000000,0.000000,0.000000,0.000000,0.000000,0.000000,0.000000,0.000000,1648362461.086380,0.000000
60.000000,-16434.924774,-6898.977685,6693.095767,26031.087462,-6781.362806,25547.440415,43311.735190,24854.893965,-0.106000,0.978000,0.012000,192.000000,0.000000,0.000000,0.000000,0.000000,0.000000,0.000000,0.000000,0.000000,0.000000,1648362461.086384,0.000000
61.000000,-16441.652649,-6896.966028,6698.124909,26034.104947,-6775.976035,25554.637677,43323.514560,24865.443988,-0.106000,0.978000,0.012000,192.000000,0.000000,0.000000,0.000000,0.000000,0.000000,0.000000,0.000000,0.000000,0.000000,1648362461.094385,0.000000
62.000000,-16445.430093,-6903.179813,6688.781880,26023.420813,-6784.737919,25544.646447,43311.511673,24857.710285,-0.106000,0.978000,0.012000,192.000000,0.000000,0.000000,0.000000,0.000000,0.000000,0.000000,0.000000,0.000000,0.000000,1648362461.094389,0.000000
63.000000,-16444.334858,-6902.755130,6688.871287,26027.913514,-6780.759308,25548.356837,43309.276498,24866.919204,-0.106000,0.978000,0.012000,192.000000,0.000000,0.000000,0.000000,0.000000,0.000000,0.000000,0.000000,0.000000,0.000000,1648362461.101619,0.000000
64.000000,-16438.054018,-6898.374188,6696.023845,26032.316808,-6775.081965,25552.313096,43319.513597,24862.158282,-0.106000,0.978000,0.012000,192.000000,0.000000,0.000000,0.000000,0.000000,0.000000,0.000000,0.000000,0.000000,0.000000,1648362461.101623,0.000000
65.000000,-16436.243526,-6897.189545,6695.800328,26031.579200,-6778.367672,25546.546346,43308.896519,24842.600506,-0.106000,0.978000,0.012000,192.000000,0.000000,0.000000,0.000000,0.000000,0.000000,0.000000,0.000000,0.000000,0.000000,1648362461.109076,0.000000
66.000000,-16434.500090,-6892.048644,6694.101595,26033.166174,-6776.512477,25543.171232,43293.160891,24845.461529,-0.106000,0.978000,0.012000,192.000000,0.000000,0.000000,0.000000,0.000000,0.000000,0.000000,0.000000,0.000000,0.000000,1648362461.109079,0.000000
67.000000,-16439.193957,-6897.994208,6683.506868,26026.639465,-6782.972131,25537.225668,43290.523385,24843.472224,-0.106000,0.978000,0.012000,192.000000,0.000000,0.000000,0.000000,0.000000,0.000000,0.000000,0.000000,0.000000,0.000000,1648362461.117065,0.000000
68.000000,-16435.103588,-6895.222592,6684.155069,26028.315846,-6782.078061,25542.254811,43304.023839,24843.561631,-0.102000,0.976000,0.012000,192.000000,252.000000,208.000000,30.000000,128.000000,0.000000,96.000000,0.000000,0.000000,0.000000,1648362461.117069,0.000000
69.000000,-16429.359189,-6887.041853,6689.050101,26034.172003,-6775.774869,25547.775691,43312.338687,24853.843433,-0.102000,0.976000,0.012000,192.000000,0.000000,0.000000,0.000000,0.000000,0.000000,0.000000,0.000000,0.000000,0.000000,1648362461.124127,0.000000
70.000000,-16436.422340,-6887.846516,6689.072453,26035.781328,-6775.081965,25548.200375,43307.488359,24858.246727,-0.102000,0.976000,0.012000,192.000000,0.000000,0.000000,0.000000,0.000000,0.000000,0.000000,0.000000,0.000000,0.000000,1648362461.131314,0.000000
71.000000,-16436.422340,-6881.476269,6688.424252,26037.524764,-6774.232599,25545.272296,43300.536966,24844.209831,-0.102000,0.976000,0.012000,192.000000,0.000000,0.000000,0.000000,0.000000,0.000000,0.000000,0.000000,0.000000,0.000000,1648362461.131318,0.000000
72.000000,-16433.226041,-6883.890257,6693.431043,26043.112700,-6772.042128,25543.573564,43277.134690,24849.797767,-0.102000,0.976000,0.012000,192.000000,0.000000,0.000000,0.000000,0.000000,0.000000,0.000000,0.000000,0.000000,0.000000,1648362461.138744,0.000000
73.000000,-16440.982096,-6899.648237,6684.423290,26031.802718,-6779.820535,25542.388921,43287.237678,24863.655849,-0.102000,0.976000,0.012000,192.000000,0.000000,0.000000,0.000000,0.000000,0.000000,0.000000,0.000000,0.000000,0.000000,1648362461.138749,0.000000
74.000000,-16448.358172,-6900.944638,6678.097746,26025.186601,-6786.570762,25537.449186,43289.204632,24837.794881,-0.102000,0.976000,0.012000,192.000000,0.000000,0.000000,0.000000,0.000000,0.000000,0.000000,0.000000,0.000000,0.000000,1648362461.146730,0.000000
75.000000,-16443.977230,-6894.395577,6690.994703,26026.505354,-6782.815669,25542.746549,43299.709952,24843.248706,-0.102000,0.976000,0.012000,192.000000,0.000000,0.000000,0.000000,0.000000,0.000000,0.000000,0.000000,0.000000,0.000000,1648362461.146734,0.000000
76.000000,-16428.398064,-6882.392690,6702.707017,26042.486852,-6771.997425,25559.286840,43312.159874,24876.306936,-0.102000,0.976000,0.012000,192.000000,0.000000,0.000000,0.000000,0.000000,0.000000,0.000000,0.000000,0.000000,0.000000,1648362461.154716,0.000000
77.000000,-16425.380579,-6880.001054,6703.578735,26047.672456,-6767.437669,25563.936003,43327.269653,24872.887119,-0.102000,0.976000,0.012000,192.000000,0.000000,0.000000,0.000000,0.000000,0.000000,0.000000,0.000000,0.000000,0.000000,1648362461.154720,0.000000
78.000000,-16428.576878,-6884.225534,6697.610819,26047.136014,-6770.499858,25558.929212,43309.298850,24857.799692,-0.110000,0.980000,0.004000,192.000000,252.000000,144.000000,30.000000,160.000000,0.000000,32.000000,0.000000,0.000000,0.000000,1648362461.161352,0.000000
79.000000,-16427.839271,-6880.470440,6697.588467,26044.766729,-6773.539695,25551.374322,43297.698295,24830.619971,-0.110000,0.980000,0.004000,192.000000,0.000000,0.000000,0.000000,0.000000,0.000000,0.000000,0.000000,0.000000,0.000000,1648362461.161356,0.000000
80.000000,-16436.042361,-6885.410176,6692.514621,26043.336218,-6776.288960,25557.319886,43310.975231,24863.655849,-0.110000,0.980000,0.004000,192.000000,0.000000,0.000000,0.000000,0.000000,0.000000,0.000000,0.000000,0.000000,0.000000,1648362461.169391,0.000000
81.000000,-16425.000599,-6878.436432,6698.057854,26050.377017,-6769.739898,25567.333468,43315.155007,24886.365221,-0.110000,0.980000,0.004000,192.000000,0.000000,0.000000,0.000000,0.000000,0.000000,0.000000,0.000000,0.000000,0.000000,1648362461.169396,0.000000
82.000000,-16426.788739,-6894.194412,6695.777976,26040.318732,-6776.646587,25549.563831,43293.384408,24840.454738,-0.110000,0.980000,0.004000,192.000000,0.000000,0.000000,0.000000,0.000000,0.000000,0.000000,0.000000,0.000000,0.000000,1648362461.177359,0.000000
83.000000,-16435.930602,-6900.944638,6688.558363,26034.529630,-6783.195649,25539.036159,43278.855774,24827.490726,-0.110000,0.980000,0.004000,192.000000,0.000000,0.000000,0.000000,0.000000,0.000000,0.000000,0.000000,0.000000,0.000000,1648362461.177363,0.000000
84.000000,-16448.916966,-6903.336275,6684.378586,26029.232267,-6789.141213,25543.595915,43285.941277,24863.655849,-0.110000,0.980000,0.004000,192.000000,0.000000,0.000000,0.000000,0.000000,0.000000,0.000000,0.000000,0.000000,0.000000,1648362461.185923,0.000000
85.000000,-16454.303736,-6908.343066,6681.606970,26020.626845,-6793.633913,25541.092520,43299.061751,24861.867709,-0.110000,0.980000,0.004000,192.000000,0.000000,0.000000,0.000000,0.000000,0.000000,0.000000,0.000000,0.000000,0.000000,1648362461.192037,0.000000
86.000000,-16447.061771,-6904.610324,6687.932514,26029.075805,-6787.710701,25542.523032,43296.491301,24855.877442,-0.110000,0.980000,0.004000,192.000000,0.000000,0.000000,0.000000,0.000000,0.000000,0.000000,0.000000,0.000000,0.000000,1648362461.192042,0.000000
87.000000,-16438.992791,-6896.630752,6690.570020,26036.295418,-6784.536753,25539.952581,43291.283344,24847.272020,-0.110000,0.980000,0.004000,192.000000,0.000000,0.000000,0.000000,0.000000,0.000000,0.000000,0.000000,0.000000,0.000000,1648362461.198991,0.000000
88.000000,-16425.067654,-6883.577333,6699.913049,26040.654008,-6777.317140,25543.037122,43296.603059,24854.469282,-0.104000,0.978000,0.004000,192.000000,252.000000,192.000000,30.000000,144.000000,0.000000,32.000000,0.000000,0.000000,0.000000,1648362461.198995,0.000000
89.000000,-16417.602172,-6875.128374,6701.321209,26046.599572,-6772.176239,25542.858308,43284.622524,24855.050427,-0.104000,0.978000,0.004000,192.000000,0.000000,0.000000,0.000000,0.000000,0.000000,0.000000,0.000000,0.000000,0.000000,1648362461.206989,0.000000
90.000000,-16432.868413,-6880.626903,6692.492270,26041.369264,-6776.534829,25541.539555,43294.725513,24847.495538,-0.104000,0.978000,0.004000,192.000000,0.000000,0.000000,0.000000,0.000000,0.000000,0.000000,0.000000,0.000000,0.000000,1648362461.206993,0.000000
91.000000,-16441.071503,-6892.406272,6685.138546,26036.585991,-6783.530925,25533.090595,43293.138539,24831.536392,-0.104000,0.978000,0.004000,192.000000,0.000000,0.000000,0.000000,0.000000,0.000000,0.000000,0.000000,0.000000,0.000000,1648362461.213553,0.000000
92.000000,-16432.466082,-6887.779461,6687.507831,26044.498509,-6782.726262,25529.648427,43293.786740,24817.566552,-0.104000,0.978000,0.004000,192.000000,0.000000,0.000000,0.000000,0.000000,0.000000,0.000000,0.000000,0.000000,0.000000,1648362461.213557,0.000000
93.000000,-16432.242564,-6886.840688,6690.078281,26041.369264,-6780.893419,25537.046854,43300.335801,24856.995029,-0.104000,0.978000,0.004000,192.000000,0.000000,0.000000,0.000000,0.000000,0.000000,0.000000,0.000000,0.000000,0.000000,1648362461.221964,0.000000
94.000000,-16440.199785,-6896.966028,6682.501040,26032.808546,-6788.247143,25534.632866,43289.450501,24876.262233,-0.104000,0.978000,0.004000,192.000000,0.000000,0.000000,0.000000,0.000000,0.000000,0.000000,0.000000,0.000000,0.000000,1648362461.221971,0.000000
95.000000,-16429.783872,-6890.841650,6690.659427,26045.236116,-6778.971169,25539.594953,43291.439806,24873.602375,-0.104000,0.978000,0.004000,192.000000,0.000000,0.000000,0.000000,0.000000,0.000000,0.000000,0.000000,0.000000,0.000000,1648362461.230112,0.000000
96.000000,-16427.146366,-6890.528725,6690.949999,26034.082596,-6781.407509,25533.984665,43289.361094,24859.341962,-0.104000,0.978000,0.004000,192.000000,0.000000,0.000000,0.000000,0.000000,0.000000,0.000000,0.000000,0.000000,0.000000,1648362461.230128,0.000000
97.000000,-16420.798471,-6883.085595,6689.765357,26042.755072,-6782.011006,25525.446299,43269.132765,24842.511099,-0.104000,0.978000,0.004000,192.000000,0.000000,0.000000,0.000000,0.000000,0.000000,0.000000,0.000000,0.000000,0.000000,1648362461.237183,0.000000
98.000000,-16438.389294,-6896.474289,6650.493342,26035.222535,-6797.746634,25513.354005,43258.292169,24827.557782,-0.100000,0.984000,0.010000,192.000000,252.000000,224.000000,30.000000,192.000000,0.000000,80.000000,0.000000,0.000000,0.000000,1648362461.237199,0.000000
99.000000,-16430.186204,-6885.723100,6673.649749,26042.464500,-6784.693215,25529.223744,43302.459216,24846.199137,-0.100000,0.984000,0.010000,192.000000,0.000000,0.000000,0.000000,0.000000,0.000000,0.000000,0.000000,0.000000,0.000000,1648362461.243654,0.000000
100.000000,-16427.392236,-6875.664815,6712.810005,26051.315791,-6771.930369,25537.873869,43306.683696,24853.083474,-0.100000,0.984000,0.010000,192.000000,0.000000,0.000000,0.000000,0.000000,0.000000,0.000000,0.000000,0.000000,0.000000,1648362461.243671,0.000000
101.000000,-16424.441805,-6881.163345,6696.604991,26043.962067,-6780.804012,25530.117813,43285.024856,24863.208814,-0.100000,0.984000,0.010000,192.000000,0.000000,0.000000,0.000000,0.000000,0.000000,0.000000,0.000000,0.000000,0.000000,1648362461.251697,0.000000
102.000000,-16428.442768,-6885.007845,6693.185174,26027.801755,-6788.716529,25519.523086,43281.090949,24835.135023,-0.100000,0.984000,0.010000,192.000000,0.000000,0.000000,0.000000,0.000000,0.000000,0.000000,0.000000,0.000000,0.000000,1648362461.259784,0.000000
103.000000,-16432.086102,-6886.460708,6694.101595,26046.241945,-6783.106242,25525.870982,43293.809091,24841.818195,-0.100000,0.984000,0.010000,192.000000,0.000000,0.000000,0.000000,0.000000,0.000000,0.000000,0.000000,0.000000,0.000000,1648362461.259801,0.000000
104.000000,-16437.830500,-6894.864964,6654.203731,26037.278895,-6797.254896,25518.450203,43280.643914,24844.522756,-0.100000,0.984000,0.010000,192.000000,0.000000,0.000000,0.000000,0.000000,0.000000,0.000000,0.000000,0.000000,0.000000,1648362461.266781,0.000000
105.000000,-16438.724570,-6891.199278,6659.277577,26038.731758,-6795.265591,25520.215991,43279.369864,24856.883270,-0.100000,0.984000,0.010000,192.000000,0.000000,0.000000,0.000000,0.000000,0.000000,0.000000,0.000000,0.000000,0.000000,1648362461.266797,0.000000
106.000000,-16423.994771,-6885.276066,6697.610819,26049.997038,-6779.418204,25529.514316,43286.567126,24862.359448,-0.100000,0.984000,0.010000,192.000000,0.000000,0.000000,0.000000,0.000000,0.000000,0.000000,0.000000,0.000000,0.000000,1648362461.274133,0.000000
107.000000,-16419.725587,-6877.497658,6705.500985,26043.604439,-6779.619369,25525.714520,43271.926733,24843.159299,-0.100000,0.984000,0.010000,192.000000,0.000000,0.000000,0.000000,0.000000,0.000000,0.000000,0.000000,0.000000,0.000000,1648362461.274151,0.000000
108.000000,-16430.320314,-6885.611342,6700.918877,26029.567543,-6787.286018,25517.667892,43279.816899,24827.691892,-0.096000,0.986000,0.006000,192.000000,253.000000,0.000000,30.000000,208.000000,0.000000,48.000000,0.000000,0.000000,0.000000,1648362461.282390,0.000000
109.000000,-16435.505919,-6887.555943,6684.311531,26037.144785,-6791.868125,25513.376357,43281.560335,24829.032997,-0.096000,0.986000,0.006000,192.000000,0.000000,0.000000,0.000000,0.000000,0.000000,0.000000,0.000000,0.000000,0.000000,1648362461.282401,0.000000
110.000000,-16424.888840,-6881.744490,6681.964598,26043.671494,-6787.800108,25522.786441,43286.477719,24856.279773,-0.096000,0.986000,0.006000,192.000000,0.000000,0.000000,0.000000,0.000000,0.000000,0.000000,0.000000,0.000000,0.000000,1648362461.289654,0.000000
111.000000,-16428.666285,-6895.311999,6657.981176,26024.583104,-6803.245163,25515.767993,43276.732359,24853.798730,-0.096000,0.986000,0.006000,192.000000,0.000000,0.000000,0.000000,0.000000,0.000000,0.000000,0.000000,0.000000,0.000000,1648362461.289671,0.000000
112.000000,-16428.331009,-6883.979664,6680.712900,26036.138956,-6789.342378,25529.536668,43295.418417,24858.358486,-0.096000,0.986000,0.006000,192.000000,0.000000,0.000000,0.000000,0.000000,0.000000,0.000000,0.000000,0.000000,0.000000,1648362461.297661,0.000000
113.000000,-16433.449558,-6885.432528,6690.860592,26035.043721,-6784.916733,25532.040063,43289.584612,24846.221488,-0.096000,0.986000,0.006000,192.000000,0.000000,0.000000,0.000000,0.000000,0.000000,0.000000,0.000000,0.000000,0.000000,1648362461.297677,0.000000
114.000000,-16432.935468,-6884.761975,6698.460185,26048.141843,-6780.334625,25533.716444,43282.275591,24854.111654,-0.096000,0.986000,0.006000,192.000000,0.000000,0.000000,0.000000,0.000000,0.000000,0.000000,0.000000,0.000000,0.000000,1648362461.304786,0.000000
115.000000,-16418.317427,-6869.674548,6706.886793,26068.347820,-6768.465849,25549.630886,43289.919888,24878.698573,-0.096000,0.986000,0.006000,192.000000,0.000000,0.000000,0.000000,0.000000,0.000000,0.000000,0.000000,0.000000,0.000000,1648362461.304801,0.000000
116.000000,-16424.978247,-6870.501562,6695.308589,26041.056340,-6778.367672,25541.405444,43288.712894,24871.031925,-0.096000,0.986000,0.006000,192.000000,0.000000,0.000000,0.000000,0.000000,0.000000,0.000000,0.000000,0.000000,0.000000,1648362461.311360,0.000000
117.000000,-16425.000599,-6874.368414,6682.299874,26044.811433,-6781.049881,25532.263581,43283.884917,24854.938669,-0.096000,0.986000,0.006000,192.000000,0.000000,0.000000,0.000000,0.000000,0.000000,0.000000,0.000000,0.000000,0.000000,1648362461.319254,0.000000
118.000000,-16419.524422,-6876.536533,6678.880057,26061.977573,-6777.697119,25523.926380,43266.249390,24824.495593,-0.094000,0.984000,0.002000,192.000000,253.000000,16.000000,30.000000,192.000000,0.000000,16.000000,0.000000,0.000000,0.000000,1648362461.319271,0.000000
119.000000,-16412.461270,-6862.589045,6702.684665,26054.668552,-6767.080041,25532.576505,43254.537076,24838.688950,-0.094000,0.984000,0.002000,192.000000,0.000000,0.000000,0.000000,0.000000,0.000000,0.000000,0.000000,0.000000,0.000000,1648362461.327340,0.000000
120.000000,-16414.182355,-6866.433545,6700.605953,26054.042703,-6767.325910,25542.992418,43297.653591,24880.777285,-0.094000,0.984000,0.002000,192.000000,0.000000,0.000000,0.000000,0.000000,0.000000,0.000000,0.000000,0.000000,0.000000,1648362461.327357,0.000000
121.000000,-16405.912209,-6863.930150,6717.459168,26066.827901,-6757.871122,25550.144976,43312.137522,24875.055239,-0.094000,0.984000,0.002000,192.000000,0.000000,0.000000,0.000000,0.000000,0.000000,0.000000,0.000000,0.000000,0.000000,1648362461.334441,0.000000
122.000000,-16416.484584,-6874.435469,6702.081168,26046.666628,-6771.483334,25530.833069,43281.940315,24845.819157,-0.094000,0.984000,0.002000,192.000000,0.000000,0.000000,0.000000,0.000000,0.000000,0.000000,0.000000,0.000000,0.000000,1648362461.334457,0.000000
123.000000,-16415.881087,-6872.781440,6703.779901,26053.998000,-6770.388099,25526.653293,43270.764443,24834.442119,-0.094000,0.984000,0.002000,192.000000,0.000000,0.000000,0.000000,0.000000,0.000000,0.000000,0.000000,0.000000,0.000000,1648362461.341999,0.000000
124.000000,-16398.022043,-6858.163399,6716.587450,26070.113608,-6757.267625,25552.111930,43291.037475,24866.650983,-0.094000,0.984000,0.002000,192.000000,0.000000,0.000000,0.000000,0.000000,0.000000,0.000000,0.000000,0.000000,0.000000,1648362461.342015,0.000000
125.000000,-16411.120166,-6874.480173,6715.671029,26054.445035,-6762.520285,25553.006000,43300.536966,24877.603337,-0.094000,0.984000,0.002000,192.000000,0.000000,0.000000,0.000000,0.000000,0.000000,0.000000,0.000000,0.000000,0.000000,1648362461.349965,0.000000
126.000000,-16420.686712,-6869.696900,6704.986895,26059.183605,-6765.761288,25538.007979,43280.487452,24846.422654,-0.094000,0.984000,0.002000,192.000000,0.000000,0.000000,0.000000,0.000000,0.000000,0.000000,0.000000,0.000000,0.000000,1648362461.349981,0.000000
127.000000,-16410.226096,-6858.878655,6706.663276,26066.626736,-6761.201532,25537.113909,43260.080309,24840.007703,-0.094000,0.984000,0.002000,192.000000,0.000000,0.000000,0.000000,0.000000,0.000000,0.000000,0.000000,0.000000,0.000000,1648362461.357801,0.000000
128.000000,-16421.960762,-6866.366490,6700.404787,26057.686038,-6768.152925,25532.531802,43265.355321,24846.623820,-0.094000,0.984000,-0.004000,192.000000,253.000000,16.000000,30.000000,192.000000,255.000000,224.000000,0.000000,0.000000,0.000000,1648362461.357818,0.000000
129.000000,-16420.194974,-6863.192542,6715.425159,26057.574279,-6763.213189,25549.519128,43298.122978,24868.260308,-0.094000,0.984000,-0.004000,192.000000,0.000000,0.000000,0.000000,0.000000,0.000000,0.000000,0.000000,0.000000,0.000000,1648362461.364527,0.000000
130.000000,-16417.423358,-6867.059394,6710.552479,26061.619945,-6760.575683,25553.833014,43300.201690,24888.578044,-0.094000,0.984000,-0.004000,192.000000,0.000000,0.000000,0.000000,0.000000,0.000000,0.000000,0.000000,0.000000,0.000000,1648362461.364543,0.000000
131.000000,-16416.506936,-6875.731871,6696.426177,26053.774482,-6767.683538,25545.406407,43288.958763,24872.775361,-0.094000,0.984000,-0.004000,192.000000,0.000000,0.000000,0.000000,0.000000,0.000000,0.000000,0.000000,0.000000,0.000000,1648362461.371612,0.000000
132.000000,-16417.915096,-6877.140031,6691.352331,26049.304134,-6772.243294,25539.885526,43296.781873,24852.032942,-0.094000,0.984000,-0.004000,192.000000,0.000000,0.000000,0.000000,0.000000,0.000000,0.000000,0.000000,0.000000,0.000000,1648362461.379265,0.000000
133.000000,-16430.387369,-6883.175002,6690.413557,26042.777424,-6778.568837,25537.002151,43290.791606,24857.777340,-0.094000,0.984000,-0.004000,192.000000,0.000000,0.000000,0.000000,0.000000,0.000000,0.000000,0.000000,0.000000,0.000000,1648362461.379276,0.000000
134.000000,-16434.813015,-6889.634656,6692.760491,26027.801755,-6786.235486,25529.961351,43286.365960,24857.419712,-0.094000,0.984000,-0.004000,192.000000,0.000000,0.000000,0.000000,0.000000,0.000000,0.000000,0.000000,0.000000,0.000000,1648362461.387556,0.000000
135.000000,-16428.085140,-6882.884429,6709.278430,26040.430491,-6776.512477,25533.023540,43283.460234,24856.235070,-0.094000,0.984000,-0.004000,192.000000,0.000000,0.000000,0.000000,0.000000,0.000000,0.000000,0.000000,0.000000,0.000000,1648362461.387572,0.000000
136.000000,-16426.162890,-6882.258580,6701.656485,26059.652991,-6773.293826,25532.308284,43277.961704,24846.579116,-0.094000,0.984000,-0.004000,192.000000,0.000000,0.000000,0.000000,0.000000,0.000000,0.000000,0.000000,0.000000,0.000000,1648362461.394200,0.000000
137.000000,-16421.469023,-6875.843629,6697.499060,26052.835709,-6777.585361,25526.720348,43276.799414,24829.524735,-0.094000,0.984000,-0.004000,192.000000,0.000000,0.000000,0.000000,0.000000,0.000000,0.000000,0.000000,0.000000,0.000000,1648362461.394215,0.000000
138.000000,-16418.406834,-6870.948597,6702.371741,26052.500433,-6774.344358,25535.325770,43288.645838,24861.823006,-0.094000,0.984000,-0.004000,192.000000,0.000000,0.000000,0.000000,0.000000,0.000000,0.000000,0.000000,0.000000,0.000000,1648362461.402277,0.000000
139.000000,-16431.572012,-6880.313978,6692.984008,26043.827956,-6779.217038,25534.141127,43294.881975,24876.664564,-0.084000,0.984000,0.000000,192.000000,253.000000,96.000000,30.000000,192.000000,0.000000,0.000000,0.000000,0.000000,0.000000,1648362461.402293,0.000000
140.000000,-16430.946163,-6888.025330,6691.397034,26046.644276,-6780.424032,25526.161555,43288.668190,24855.944497,-0.084000,0.984000,0.000000,192.000000,0.000000,0.000000,0.000000,0.000000,0.000000,0.000000,0.000000,0.000000,0.000000,1648362461.410256,0.000000
141.000000,-16424.777082,-6879.799888,6698.214316,26050.667590,-6775.864276,25531.771842,43278.676960,24858.939631,-0.084000,0.984000,0.000000,192.000000,0.000000,0.000000,0.000000,0.000000,0.000000,0.000000,0.000000,0.000000,0.000000,1648362461.410272,0.000000
142.000000,-16410.628427,-6862.745507,6705.031598,26064.860948,-6768.130573,25538.656180,43274.966571,24860.459549,-0.084000,0.984000,0.000000,192.000000,0.000000,0.000000,0.000000,0.000000,0.000000,0.000000,0.000000,0.000000,0.000000,1648362461.417431,0.000000
143.000000,-16425.090006,-6877.765879,6706.886793,26051.718122,-6776.914808,25526.385072,43277.738187,24832.206944,-0.084000,0.984000,0.000000,192.000000,0.000000,0.000000,0.000000,0.000000,0.000000,0.000000,0.000000,0.000000,0.000000,1648362461.417447,0.000000
144.000000,-16443.194919,-6895.468461,6695.375645,26039.223497,-6786.302541,25526.586238,43266.495260,24849.194270,-0.084000,0.984000,0.000000,192.000000,0.000000,0.000000,0.000000,0.000000,0.000000,0.000000,0.000000,0.000000,0.000000,1648362461.424700,0.000000
145.000000,-16434.365980,-6887.019502,6697.052025,26047.404235,-6778.680596,25536.309247,43277.358207,24858.582003,-0.084000,0.984000,0.000000,192.000000,0.000000,0.000000,0.000000,0.000000,0.000000,0.000000,0.000000,0.000000,0.000000,1648362461.424717,0.000000
146.000000,-16422.184279,-6876.313016,6706.663276,26065.240927,-6767.258855,25543.730026,43297.765350,24869.534358,-0.084000,0.984000,0.000000,192.000000,0.000000,0.000000,0.000000,0.000000,0.000000,0.000000,0.000000,0.000000,0.000000,1648362461.431899,0.000000
147.000000,-16422.564259,-6875.418946,6703.914011,26062.469311,-6769.248160,25540.220802,43290.702199,24870.137855,-0.084000,0.984000,0.000000,192.000000,0.000000,0.000000,0.000000,0.000000,0.000000,0.000000,0.000000,0.000000,0.000000,1648362461.439981,0.000000
148.000000,-16414.271762,-6865.807696,6714.911069,26063.095160,-6764.688404,25538.253848,43267.724606,24853.932840,-0.084000,0.984000,0.000000,192.000000,0.000000,0.000000,0.000000,0.000000,0.000000,0.000000,0.000000,0.000000,0.000000,1648362461.439998,0.000000
149.000000,-16418.898573,-6868.087574,6707.445587,26054.601497,-6771.617445,25527.525011,43254.782945,24839.806538,-0.096000,0.986000,0.006000,192.000000,253.000000,0.000000,30.000000,208.000000,0.000000,48.000000,0.000000,0.000000,0.000000,1648362461.446499,0.000000
150.000000,-16428.800396,-6883.085595,6697.096729,26046.018427,-6780.535791,25524.306360,43268.484565,24844.947439,-0.096000,0.986000,0.006000,192.000000,0.000000,0.000000,0.000000,0.000000,0.000000,0.000000,0.000000,0.000000,0.000000,1648362461.446518,0.000000
151.000000,-16423.748901,-6877.408251,6695.263886,26047.895974,-6777.853582,25531.123642,43284.220193,24846.221488,-0.096000,0.986000,0.006000,192.000000,0.000000,0.000000,0.000000,0.000000,0.000000,0.000000,0.000000,0.000000,0.000000,1648362461.454508,0.000000
152.000000,-16432.488433,-6886.550115,6692.201697,26041.704540,-6781.586323,25520.215991,43257.711024,24832.609276,-0.096000,0.986000,0.006000,192.000000,0.000000,0.000000,0.000000,0.000000,0.000000,0.000000,0.000000,0.000000,0.000000,1648362461.454524,0.000000
153.000000,-16441.607945,-6897.502470,6687.284313,26038.955276,-6785.676692,25517.265560,43258.493335,24840.588849,-0.096000,0.986000,0.006000,192.000000,0.000000,0.000000,0.000000,0.000000,0.000000,0.000000,0.000000,0.000000,0.000000,1648362461.462421,0.000000
154.000000,-16431.706122,-6892.070996,6683.708034,26039.178793,-6783.888553,25525.580409,43272.686693,24855.005724,-0.096000,0.986000,0.006000,192.000000,0.000000,0.000000,0.000000,0.000000,0.000000,0.000000,0.000000,0.000000,0.000000,1648362461.462437,0.000000
155.000000,-16433.606021,-6887.265371,6694.280409,26044.587915,-6779.552314,25521.333578,43245.551675,24840.164166,-0.096000,0.986000,0.006000,192.000000,0.000000,0.000000,0.000000,0.000000,0.000000,0.000000,0.000000,0.000000,0.000000,1648362461.469619,0.000000
156.000000,-16435.930602,-6879.799888,6698.996627,26050.980514,-6775.685462,25527.726177,43269.713911,24845.863860,-0.096000,0.986000,0.006000,192.000000,0.000000,0.000000,0.000000,0.000000,0.000000,0.000000,0.000000,0.000000,0.000000,1648362461.469635,0.000000
157.000000,-16434.276573,-6876.760051,6703.757549,26054.377980,-6770.410451,25538.298552,43299.598193,24855.899794,-0.096000,0.986000,0.006000,192.000000,0.000000,0.000000,0.000000,0.000000,0.000000,0.000000,0.000000,0.000000,0.000000,1648362461.477168,0.000000
158.000000,-16436.355285,-6875.888333,6700.807119,26048.991209,-6772.109183,25538.298552,43292.557394,24854.379875,-0.096000,0.986000,0.006000,192.000000,0.000000,0.000000,0.000000,0.000000,0.000000,0.000000,0.000000,0.000000,0.000000,1648362461.477185,0.000000
159.000000,-16438.299887,-6883.934961,6693.252229,26044.565564,-6777.585361,25533.895258,43283.124957,24838.286619,-0.094000,0.984000,0.004000,192.000000,253.000000,16.000000,30.000000,192.000000,0.000000,32.000000,0.000000,0.000000,0.000000,1648362461.485165,0.000000
160.000000,-16438.948088,-6891.422795,6692.022883,26043.895011,-6780.446384,25531.280104,43276.240620,24834.531526,-0.094000,0.984000,0.004000,192.000000,0.000000,0.000000,0.000000,0.000000,0.000000,0.000000,0.000000,0.000000,0.000000,1648362461.485182,0.000000
161.000000,-16439.685695,-6895.714330,6693.363988,26044.610267,-6779.865239,25532.889430,43270.943257,24842.019360,-0.094000,0.984000,0.004000,192.000000,0.000000,0.000000,0.000000,0.000000,0.000000,0.000000,0.000000,0.000000,0.000000,1648362461.493692,0.000000
162.000000,-16445.340686,-6894.686150,6688.714825,26045.437282,-6782.592151,25536.778633,43267.143460,24856.905622,-0.094000,0.984000,0.004000,192.000000,0.000000,0.000000,0.000000,0.000000,0.000000,0.000000,0.000000,0.000000,0.000000,1648362461.493707,0.000000
163.000000,-16442.881995,-6888.382958,6691.173517,26044.051474,-6783.799146,25538.432662,43277.246449,24852.591735,-0.094000,0.984000,0.004000,192.000000,0.000000,0.000000,0.000000,0.000000,0.000000,0.000000,0.000000,0.000000,0.000000,1648362461.499872,0.000000
164.000000,-16437.964611,-6887.824164,6695.397996,26042.375093,-6784.693215,25539.907877,43276.061806,24853.463453,-0.094000,0.984000,0.004000,192.000000,0.000000,0.000000,0.000000,0.000000,0.000000,0.000000,0.000000,0.000000,0.000000,1648362461.506679,0.000000
165.000000,-16438.679867,-6893.479156,6693.363988,26043.827956,-6786.570762,25542.433625,43274.899515,24850.535375,-0.094000,0.984000,0.004000,192.000000,0.000000,0.000000,0.000000,0.000000,0.000000,0.000000,0.000000,0.000000,0.000000,1648362461.506696,0.000000
166.000000,-16450.191015,-6906.890202,6677.985987,26029.254619,-6799.959457,25531.570677,43280.867431,24845.685046,-0.094000,0.984000,0.004000,192.000000,0.000000,0.000000,0.000000,0.000000,0.000000,0.000000,0.000000,0.000000,0.000000,1648362461.514780,0.000000
167.000000,-16450.503939,-6907.672513,6677.024862,26027.555886,-6800.205326,25533.314113,43279.571030,24856.100959,-0.094000,0.984000,0.004000,192.000000,0.000000,0.000000,0.000000,0.000000,0.000000,0.000000,0.000000,0.000000,0.000000,1648362461.514797,0.000000
168.000000,-16436.891727,-6888.002978,6687.038444,26037.882392,-6789.878820,25545.115834,43290.322219,24870.584890,-0.094000,0.984000,0.004000,192.000000,0.000000,0.000000,0.000000,0.000000,0.000000,0.000000,0.000000,0.000000,0.000000,1648362461.522821,0.000000
169.000000,-16437.674038,-6887.243019,6682.031653,26035.669569,-6791.778718,25540.667837,43272.843155,24866.628631,-0.096000,0.976000,0.002000,192.000000,253.000000,0.000000,30.000000,128.000000,0.000000,16.000000,0.000000,0.000000,0.000000,1648362461.522838,0.000000
170.000000,-16440.870338,-6895.736682,6676.130793,26032.875601,-6795.422053,25532.107119,43262.986036,24853.642267,-0.096000,0.976000,0.002000,192.000000,0.000000,0.000000,0.000000,0.000000,0.000000,0.000000,0.000000,0.000000,0.000000,1648362461.529410,0.000000
171.000000,-16428.219250,-6885.544286,6691.039406,26044.207936,-6787.040149,25536.286895,43276.553545,24843.025189,-0.096000,0.976000,0.002000,192.000000,0.000000,0.000000,0.000000,0.000000,0.000000,0.000000,0.000000,0.000000,0.000000,1648362461.529427,0.000000
172.000000,-16440.512710,-6886.840688,6691.978179,26035.736625,-6789.811765,25533.314113,43274.251315,24843.785148,-0.096000,0.976000,0.002000,192.000000,0.000000,0.000000,0.000000,0.000000,0.000000,0.000000,0.000000,0.000000,0.000000,1648362461.537460,0.000000
173.000000,-16451.755637,-6892.406272,6686.434947,26031.512145,-6795.399701,25527.904991,43266.964646,24855.139834,-0.096000,0.976000,0.002000,192.000000,0.000000,0.000000,0.000000,0.000000,0.000000,0.000000,0.000000,0.000000,0.000000,1648362461.537476,0.000000
174.000000,-16448.224062,-6895.490813,6689.743005,26037.010674,-6790.750538,25533.559982,43261.197896,24869.467302,-0.096000,0.976000,0.002000,192.000000,0.000000,0.000000,0.000000,0.000000,0.000000,0.000000,0.000000,0.000000,0.000000,1648362461.545469,0.000000
175.000000,-16444.401913,-6892.987417,6691.106461,26041.592782,-6786.682521,25533.023540,43257.286341,24853.619916,-0.096000,0.976000,0.002000,192.000000,0.000000,0.000000,0.000000,0.000000,0.000000,0.000000,0.000000,0.000000,0.000000,1648362461.545486,0.000000
176.000000,-16433.695428,-6877.989397,6698.884868,26051.807529,-6777.026567,25540.645485,43284.063731,24854.268116,-0.096000,0.976000,0.002000,192.000000,0.000000,0.000000,0.000000,0.000000,0.000000,0.000000,0.000000,0.000000,0.000000,1648362461.552291,0.000000
177.000000,-16420.753768,-6862.678452,6708.071435,26063.519843,-6766.051861,25555.218822,43302.012182,24876.999840,-0.096000,0.976000,0.002000,192.000000,0.000000,0.000000,0.000000,0.000000,0.000000,0.000000,0.000000,0.000000,0.000000,1648362461.552307,0.000000
178.000000,-16423.190108,-6866.992339,6698.840165,26053.886241,-6773.740861,25542.366569,43275.055978,24854.089302,-0.096000,0.976000,0.002000,192.000000,0.000000,0.000000,0.000000,0.000000,0.000000,0.000000,0.000000,0.000000,0.000000,1648362461.559024,0.000000
179.000000,-16436.645858,-6889.522897,6682.523392,26031.266276,-6792.248105,25526.943866,43257.778079,24833.056311,-0.104000,0.974000,0.006000,192.000000,252.000000,192.000000,30.000000,112.000000,0.000000,48.000000,0.000000,0.000000,0.000000,1648362461.566752,0.000000
180.000000,-16442.904346,-6891.042816,6686.770223,26035.110776,-6792.248105,25530.207220,43259.655626,24854.223413,-0.104000,0.974000,0.006000,192.000000,0.000000,0.000000,0.000000,0.000000,0.000000,0.000000,0.000000,0.000000,0.000000,1648362461.566767,0.000000
181.000000,-16440.088027,-6879.978702,6692.313456,26040.631657,-6786.615465,25537.046854,43273.983094,24847.473186,-0.104000,0.974000,0.006000,192.000000,0.000000,0.000000,0.000000,0.000000,0.000000,0.000000,0.000000,0.000000,0.000000,1648362461.574965,0.000000
182.000000,-16433.136634,-6873.094365,6698.393130,26050.242907,-6778.501782,25538.633828,43271.613809,24840.767663,-0.104000,0.974000,0.006000,192.000000,0.000000,0.000000,0.000000,0.000000,0.000000,0.000000,0.000000,0.000000,0.000000,1648362461.574976,0.000000
183.000000,-16426.341704,-6878.503487,6699.622476,26045.325523,-6775.841925,25542.098348,43267.478736,24860.951288,-0.104000,0.974000,0.006000,192.000000,0.000000,0.000000,0.000000,0.000000,0.000000,0.000000,0.000000,0.000000,0.000000,1648362461.581390,0.000000
184.000000,-16443.485492,-6899.335313,6682.657502,26035.066072,-6787.330721,25538.477366,43269.266876,24858.805520,-0.104000,0.974000,0.006000,192.000000,0.000000,0.000000,0.000000,0.000000,0.000000,0.000000,0.000000,0.000000,0.000000,1648362461.581402,0.000000
185.000000,-16443.194919,-6899.380016,6691.441738,26035.669569,-6788.090681,25528.732005,43263.455422,24841.326456,-0.104000,0.974000,0.006000,192.000000,0.000000,0.000000,0.000000,0.000000,0.000000,0.000000,0.000000,0.000000,0.000000,1648362461.589645,0.000000
186.000000,-16439.462178,-6893.859135,6699.242496,26041.078692,-6783.642683,25532.129470,43264.282437,24846.400302,-0.104000,0.974000,0.006000,192.000000,0.000000,0.000000,0.000000,0.000000,0.000000,0.000000,0.000000,0.000000,0.000000,1648362461.589662,0.000000
187.000000,-16428.554526,-6885.656045,6699.510717,26047.359532,-6779.664073,25537.180965,43276.352379,24853.552860,-0.104000,0.974000,0.006000,192.000000,0.000000,0.000000,0.000000,0.000000,0.000000,0.000000,0.000000,0.000000,0.000000,1648362461.597335,0.000000
188.000000,-16432.108454,-6887.287723,6692.581677,26037.837689,-6784.648512,25529.290799,43277.581725,24830.239991,-0.104000,0.974000,0.006000,192.000000,0.000000,0.000000,0.000000,0.000000,0.000000,0.000000,0.000000,0.000000,0.000000,1648362461.597345,0.000000
189.000000,-16443.887823,-6890.640484,6688.178383,26035.267238,-6785.967265,25531.570677,43290.411626,24846.512061,-0.110000,0.976000,0.002000,192.000000,252.000000,144.000000,30.000000,128.000000,0.000000,16.000000,0.000000,0.000000,0.000000,1648362461.604755,0.000000
190.000000,-16444.916003,-6892.942714,6685.160897,26029.791061,-6790.258800,25526.496831,43277.246449,24856.838567,-0.110000,0.976000,0.002000,192.000000,0.000000,0.000000,0.000000,0.000000,0.000000,0.000000,0.000000,0.000000,0.000000,1648362461.604771,0.000000
191.000000,-16440.512710,-6892.316865,6687.217258,26029.589895,-6789.610599,25515.767993,43267.478736,24834.933857,-0.110000,0.976000,0.002000,192.000000,0.000000,0.000000,0.000000,0.000000,0.000000,0.000000,0.000000,0.000000,0.000000,1648362461.612332,0.000000
192.000000,-16433.538965,-6896.049606,6681.428156,26022.392633,-6791.622256,25512.661101,43266.025873,24841.169994,-0.110000,0.976000,0.002000,192.000000,0.000000,0.000000,0.000000,0.000000,0.000000,0.000000,0.000000,0.000000,0.000000,1648362461.612349,0.000000
193.000000,-16431.192032,-6884.270237,6695.308589,26046.912497,-6778.971169,25531.190697,43293.943202,24889.561521,-0.110000,0.976000,0.002000,192.000000,0.000000,0.000000,0.000000,0.000000,0.000000,0.000000,0.000000,0.000000,0.000000,1648362461.619325,0.000000
194.000000,-16429.001561,-6882.862077,6702.550555,26046.398407,-6776.244256,25528.955523,43297.586536,24875.815198,-0.110000,0.976000,0.002000,192.000000,0.000000,0.000000,0.000000,0.000000,0.000000,0.000000,0.000000,0.000000,0.000000,1648362461.627331,0.000000
195.000000,-16425.000599,-6883.040891,6695.196831,26043.380921,-6781.966303,25517.690243,43289.182280,24856.771512,-0.110000,0.976000,0.002000,192.000000,0.000000,0.000000,0.000000,0.000000,0.000000,0.000000,0.000000,0.000000,0.000000,1648362461.627348,0.000000
196.000000,-16428.442768,-6881.588028,6693.252229,26043.783253,-6784.648512,25515.700938,43282.610867,24850.848299,-0.110000,0.976000,0.002000,192.000000,0.000000,0.000000,0.000000,0.000000,0.000000,0.000000,0.000000,0.000000,0.000000,1648362461.634536,0.000000
197.000000,-16431.616715,-6877.072975,6681.115232,26038.798814,-6790.996407,25511.409403,43267.344626,24848.143738,-0.110000,0.976000,0.002000,192.000000,0.000000,0.000000,0.000000,0.000000,0.000000,0.000000,0.000000,0.000000,0.000000,1648362461.634551,0.000000
198.000000,-16427.973381,-6882.504449,6680.824659,26040.788119,-6793.030416,25506.447316,43262.561353,24834.643285,-0.110000,0.976000,0.002000,192.000000,0.000000,0.000000,0.000000,0.000000,0.000000,0.000000,0.000000,0.000000,0.000000,1648362461.641894,0.000000
199.000000,-16415.366997,-6874.636635,6703.824604,26047.314828,-6782.167468,25523.032310,43311.645783,24862.918241,-0.098000,0.972000,0.002000,192.000000,252.000000,240.000000,30.000000,96.000000,0.000000,16.000000,0.000000,0.000000,0.000000,1648362461.641911,0.000000
200.000000,-16417.266895,-6874.323711,6696.895563,26039.581125,-6787.643646,25516.393842,43314.640917,24844.500404,-0.098000,0.972000,0.002000,192.000000,0.000000,0.000000,0.000000,0.000000,0.000000,0.000000,0.000000,0.000000,0.000000,1648362461.649927,0.000000
201.000000,-16416.730454,-6876.044795,6692.335807,26040.743415,-6788.649474,25514.583351,43305.186129,24852.211756,-0.098000,0.972000,0.002000,192.000000,0.000000,0.000000,0.000000,0.000000,0.000000,0.000000,0.000000,0.000000,0.000000,1648362461.649944,0.000000
202.000000,-16419.345608,-6884.471403,6686.233781,26035.915439,-6791.957532,25517.578485,43313.769199,24873.825893,-0.098000,0.972000,0.002000,192.000000,0.000000,0.000000,0.000000,0.000000,0.000000,0.000000,0.000000,0.000000,0.000000,1648362461.657948,0.000000
203.000000,-16413.869430,-6880.738661,6688.267790,26032.205049,-6791.264628,25508.682490,43295.619583,24843.494575,-0.098000,0.972000,0.002000,192.000000,0.000000,0.000000,0.000000,0.000000,0.000000,0.000000,0.000000,0.000000,0.000000,1648362461.657964,0.000000
204.000000,-16420.619657,-6874.435469,6693.363988,26043.783253,-6782.614503,25520.193639,43305.588461,24864.281698,-0.098000,0.972000,0.002000,192.000000,0.000000,0.000000,0.000000,0.000000,0.000000,0.000000,0.000000,0.000000,0.000000,1648362461.664574,0.000000
205.000000,-16421.513727,-6877.318844,6690.413557,26041.682189,-6783.173297,25521.065357,43306.169606,24868.684991,-0.098000,0.972000,0.002000,192.000000,0.000000,0.000000,0.000000,0.000000,0.000000,0.000000,0.000000,0.000000,0.000000,1648362461.664591,0.000000
206.000000,-16412.148346,-6872.468516,6696.113252,26044.319695,-6780.088756,25515.767993,43300.201690,24840.700607,-0.098000,0.972000,0.002000,192.000000,0.000000,0.000000,0.000000,0.000000,0.000000,0.000000,0.000000,0.000000,0.000000,1648362461.672572,0.000000
207.000000,-16410.226096,-6865.181847,6699.041331,26049.415892,-6776.020739,25520.573618,43314.193882,24844.902735,-0.098000,0.972000,0.002000,192.000000,0.000000,0.000000,0.000000,0.000000,0.000000,0.000000,0.000000,0.000000,0.000000,1648362461.672588,0.000000
208.000000,-16418.831518,-6876.089499,6684.110365,26034.440224,-6784.335588,25514.203371,43307.018972,24838.040750,-0.098000,0.972000,0.002000,192.000000,0.000000,0.000000,0.000000,0.000000,0.000000,0.000000,0.000000,0.000000,0.000000,1648362461.679437,0.000000
209.000000,-16421.290209,-6881.632731,6684.065662,26045.772558,-6782.636855,25517.936113,43305.879033,24854.648096,-0.106000,0.978000,-0.004000,192.000000,252.000000,176.000000,30.000000,144.000000,255.000000,224.000000,0.000000,0.000000,0.000000,1648362461.687562,0.000000
210.000000,-16429.761521,-6886.863039,6691.888772,26036.518936,-6785.296713,25508.838953,43282.588516,24844.835680,-0.106000,0.978000,-0.004000,192.000000,0.000000,0.000000,0.000000,0.000000,0.000000,0.000000,0.000000,0.000000,0.000000,1648362461.687579,0.000000
211.000000,-16425.559393,-6881.029234,6690.301799,26028.002921,-6787.755404,25505.329729,43279.213402,24841.415863,-0.106000,0.978000,-0.004000,192.000000,0.000000,0.000000,0.000000,0.000000,0.000000,0.000000,0.000000,0.000000,0.000000,1648362461.694171,0.000000
212.000000,-16413.131823,-6865.025385,6698.951924,26051.181680,-6772.667977,25518.986645,43290.098702,24872.797712,-0.106000,0.978000,-0.004000,192.000000,0.000000,0.000000,0.000000,0.000000,0.000000,0.000000,0.000000,0.000000,0.000000,1648362461.694183,0.000000
213.000000,-16418.563297,-6872.267350,6692.559325,26038.485889,-6780.804012,25515.544476,43304.046190,24861.197157,-0.106000,0.978000,-0.004000,192.000000,0.000000,0.000000,0.000000,0.000000,0.000000,0.000000,0.000000,0.000000,0.000000,1648362461.702235,0.000000
214.000000,-16421.245506,-6880.001054,6698.974275,26040.542250,-6777.764175,25518.986645,43318.552472,24856.324477,-0.106000,0.978000,-0.004000,192.000000,0.000000,0.000000,0.000000,0.000000,0.000000,0.000000,0.000000,0.000000,0.000000,1648362461.702265,0.000000
215.000000,-16417.825689,-6874.658987,6699.130738,26053.014523,-6772.757384,25522.585275,43304.493225,24861.197157,-0.106000,0.978000,-0.004000,192.000000,0.000000,0.000000,0.000000,0.000000,0.000000,0.000000,0.000000,0.000000,0.000000,1648362461.710097,0.000000
216.000000,-16420.194974,-6875.486001,6694.258057,26053.349799,-6775.014910,25519.768956,43297.474777,24841.035884,-0.106000,0.978000,-0.004000,192.000000,0.000000,0.000000,0.000000,0.000000,0.000000,0.000000,0.000000,0.000000,0.000000,1648362461.710108,0.000000
217.000000,-16420.127919,-6875.865981,6689.228915,26046.107834,-6780.044053,25519.232514,43302.347458,24838.063102,-0.106000,0.978000,-0.004000,192.000000,0.000000,0.000000,0.000000,0.000000,0.000000,0.000000,0.000000,0.000000,0.000000,1648362461.717333,0.000000
218.000000,-16420.083215,-6870.836839,6684.266828,26051.271087,-6779.172335,25527.010921,43310.125865,24879.927919,-0.106000,0.978000,-0.004000,192.000000,0.000000,0.000000,0.000000,0.000000,0.000000,0.000000,0.000000,0.000000,0.000000,1648362461.717349,0.000000
219.000000,-16424.687675,-6869.920417,6684.065662,26049.080616,-6780.669901,25524.708691,43300.894594,24875.189349,-0.106000,0.988000,-0.004000,192.000000,252.000000,176.000000,30.000000,224.000000,255.000000,224.000000,0.000000,0.000000,0.000000,1648362461.724750,0.000000
220.000000,-16427.325180,-6882.526801,6686.904333,26042.330389,-6783.977960,25519.679549,43306.326068,24854.491634,-0.106000,0.988000,-0.004000,192.000000,0.000000,0.000000,0.000000,0.000000,0.000000,0.000000,0.000000,0.000000,0.000000,1648362461.724761,0.000000
221.000000,-16417.669227,-6879.844592,6689.340674,26047.359532,-6782.033358,25516.147973,43299.195862,24844.858032,-0.106000,0.988000,-0.004000,192.000000,0.000000,0.000000,0.000000,0.000000,0.000000,0.000000,0.000000,0.000000,0.000000,1648362461.732848,0.000000
222.000000,-16418.384483,-6872.468516,6690.257095,26050.734645,-6780.692253,25518.472555,43299.888766,24849.954230,-0.106000,0.988000,-0.004000,192.000000,0.000000,0.000000,0.000000,0.000000,0.000000,0.000000,0.000000,0.000000,0.000000,1648362461.732864,0.000000
223.000000,-16430.700294,-6882.683263,6685.809098,26042.978590,-6787.643646,25518.874886,43309.701182,24856.995029,-0.106000,0.988000,-0.004000,192.000000,0.000000,0.000000,0.000000,0.000000,0.000000,0.000000,0.000000,0.000000,0.000000,1648362461.739973,0.000000
224.000000,-16429.001561,-6887.444185,6681.226990,26035.513107,-6793.678617,25520.260694,43315.892615,24866.986259,-0.106000,0.988000,-0.004000,192.000000,0.000000,0.000000,0.000000,0.000000,0.000000,0.000000,0.000000,0.000000,0.000000,1648362461.739990,0.000000
225.000000,-16424.642971,-6878.727004,6680.087051,26039.402311,-6791.264628,25521.512392,43310.327030,24862.650020,-0.106000,0.988000,-0.004000,192.000000,0.000000,0.000000,0.000000,0.000000,0.000000,0.000000,0.000000,0.000000,0.000000,1648362461.746513,0.000000
226.000000,-16427.436939,-6882.862077,6680.019996,26042.799776,-6789.252971,25525.625113,43301.609850,24871.277794,-0.106000,0.988000,-0.004000,192.000000,0.000000,0.000000,0.000000,0.000000,0.000000,0.000000,0.000000,0.000000,0.000000,1648362461.754499,0.000000
227.000000,-16433.829538,-6887.108909,6677.538953,26037.904744,-6794.863259,25519.746604,43302.861548,24842.868727,-0.106000,0.988000,-0.004000,192.000000,0.000000,0.000000,0.000000,0.000000,0.000000,0.000000,0.000000,0.000000,0.000000,1648362461.754515,0.000000
228.000000,-16435.908250,-6890.394615,6676.577828,26032.696787,-6796.897268,25520.283046,43306.929565,24849.373084,-0.106000,0.988000,-0.004000,192.000000,0.000000,0.000000,0.000000,0.000000,0.000000,0.000000,0.000000,0.000000,0.000000,1648362461.762512,0.000000
229.000000,-16434.164814,-6896.720159,6673.046252,26027.444127,-6800.607658,25518.696072,43311.601080,24865.846320,-0.106000,0.988000,-0.002000,192.000000,252.000000,176.000000,30.000000,224.000000,255.000000,240.000000,0.000000,0.000000,0.000000,1648362461.762528,0.000000
230.000000,-16436.109416,-6897.725987,6672.196886,26028.852287,-6801.904059,25521.288874,43311.176397,24880.866692,-0.106000,0.988000,-0.002000,192.000000,0.000000,0.000000,0.000000,0.000000,0.000000,0.000000,0.000000,0.000000,0.000000,1648362461.769631,0.000000
231.000000,-16436.422340,-6894.775557,6672.465107,26027.980569,-6800.764120,25522.428813,43305.566109,24883.235977,-0.106000,0.988000,-0.002000,192.000000,0.000000,0.000000,0.000000,0.000000,0.000000,0.000000,0.000000,0.000000,0.000000,1648362461.769647,0.000000
232.000000,-16435.327105,-6896.541345,6670.274636,26026.997093,-6802.127576,25518.673720,43294.300830,24866.852148,-0.106000,0.988000,-0.002000,192.000000,0.000000,0.000000,0.000000,0.000000,0.000000,0.000000,0.000000,0.000000,0.000000,1648362461.777121,0.000000
233.000000,-16440.803282,-6897.234249,6669.067641,26023.711386,-6804.966248,25515.812697,43292.222117,24852.211756,-0.106000,0.988000,-0.002000,192.000000,0.000000,0.000000,0.000000,0.000000,0.000000,0.000000,0.000000,0.000000,0.000000,1648362461.777137,0.000000
234.000000,-16452.001506,-6905.638505,6661.065717,26014.144840,-6813.862242,25507.989586,43280.889783,24834.978561,-0.106000,0.988000,-0.002000,192.000000,0.000000,0.000000,0.000000,0.000000,0.000000,0.000000,0.000000,0.000000,0.000000,1648362461.785174,0.000000
235.000000,-16449.520463,-6905.772615,6659.612853,26018.883409,-6810.174204,25509.688319,43277.894649,24851.295334,-0.106000,0.988000,-0.002000,192.000000,0.000000,0.000000,0.000000,0.000000,0.000000,0.000000,0.000000,0.000000,0.000000,1648362461.785191,0.000000
236.000000,-16435.975306,-6895.379054,6668.285330,26032.696787,-6798.774814,25519.187810,43295.597231,24848.456663,-0.106000,0.988000,-0.002000,192.000000,0.000000,0.000000,0.000000,0.000000,0.000000,0.000000,0.000000,0.000000,0.000000,1648362461.793156,0.000000
237.000000,-16433.024875,-6890.372263,6668.061813,26037.681226,-6796.584344,25514.717461,43277.022931,24819.757023,-0.106000,0.988000,-0.002000,192.000000,0.000000,0.000000,0.000000,0.000000,0.000000,0.000000,0.000000,0.000000,0.000000,1648362461.793173,0.000000
238.000000,-16438.612811,-6892.205106,6662.138601,26030.148689,-6802.105224,25513.823392,43292.825615,24818.840601,-0.106000,0.988000,-0.002000,192.000000,0.000000,0.000000,0.000000,0.000000,0.000000,0.000000,0.000000,0.000000,0.000000,1648362461.799466,0.000000
239.000000,-16445.653611,-6891.400443,6665.089031,26025.946561,-6801.769948,25525.401595,43309.589423,24882.274852,-0.106000,0.988000,-0.002000,192.000000,0.000000,0.000000,0.000000,0.000000,0.000000,0.000000,0.000000,0.000000,0.000000,1648362461.799478,0.000000
240.000000,-16449.453407,-6898.463595,6666.720708,26020.649197,-6803.781605,25521.802964,43300.760484,24880.084381,-0.104000,0.982000,-0.002000,192.000000,252.000000,192.000000,30.000000,176.000000,255.000000,240.000000,0.000000,0.000000,0.000000,1648362461.806828,0.000000
241.000000,-16430.007390,-6894.149708,6677.158973,26037.122433,-6793.410396,25525.714520,43304.247356,24868.863805,-0.104000,0.982000,-0.002000,192.000000,0.000000,0.000000,0.000000,0.000000,0.000000,0.000000,0.000000,0.000000,0.000000,1648362461.814510,0.000000
242.000000,-16437.383465,-6901.324618,6666.050156,26025.901857,-6800.987637,25516.192677,43291.931545,24852.971715,-0.104000,0.982000,-0.002000,192.000000,0.000000,0.000000,0.000000,0.000000,0.000000,0.000000,0.000000,0.000000,0.000000,1648362461.814521,0.000000
243.000000,-16439.909213,-6895.781385,6669.671138,26029.232267,-6798.596001,25517.846706,43289.316391,24848.344904,-0.104000,0.982000,-0.002000,192.000000,0.000000,0.000000,0.000000,0.000000,0.000000,0.000000,0.000000,0.000000,0.000000,1648362461.822801,0.000000
244.000000,-16436.020009,-6885.588990,6677.941284,26038.105910,-6792.493974,25521.713557,43293.451463,24858.961983,-0.104000,0.982000,-0.002000,192.000000,0.000000,0.000000,0.000000,0.000000,0.000000,0.000000,0.000000,0.000000,0.000000,1648362461.822818,0.000000
245.000000,-16435.572974,-6884.829031,6672.912141,26032.473270,-6797.031378,25512.951674,43282.767330,24837.549011,-0.104000,0.982000,-0.002000,192.000000,0.000000,0.000000,0.000000,0.000000,0.000000,0.000000,0.000000,0.000000,0.000000,1648362461.829360,0.000000
246.000000,-16447.151178,-6904.520917,6664.083202,26020.559790,-6804.630972,25508.660139,43291.596269,24821.120479,-0.104000,0.982000,-0.002000,192.000000,0.000000,0.000000,0.000000,0.000000,0.000000,0.000000,0.000000,0.000000,0.000000,1648362461.829377,0.000000
247.000000,-16452.984983,-6908.834804,6666.340729,26021.140936,-6805.189765,25519.210162,43296.290135,24862.024172,-0.104000,0.982000,-0.002000,192.000000,0.000000,0.000000,0.000000,0.000000,0.000000,0.000000,0.000000,0.000000,0.000000,1648362461.837421,0.000000
248.000000,-16447.329992,-6907.404293,6667.927702,26012.848438,-6809.168376,25516.662063,43292.266821,24850.445968,-0.104000,0.982000,-0.002000,192.000000,0.000000,0.000000,0.000000,0.000000,0.000000,0.000000,0.000000,0.000000,0.000000,1648362461.837438,0.000000
249.000000,-16445.050114,-6900.877583,6667.860647,26017.810526,-6803.647495,25517.690243,43287.081216,24859.364314,-0.104000,0.982000,-0.002000,192.000000,0.000000,0.000000,0.000000,0.000000,0.000000,0.000000,0.000000,0.000000,0.000000,1648362461.845357,0.000000
250.000000,-16439.082198,-6895.356702,6674.141487,26032.987360,-6793.030416,25527.323845,43305.476702,24861.264212,-0.102000,0.982000,0.000000,192.000000,252.000000,208.000000,30.000000,176.000000,0.000000,0.000000,0.000000,0.000000,0.000000,1648362461.845374,0.000000
251.000000,-16433.270744,-6891.914534,6681.025825,26032.808546,-6787.978922,25525.423947,43296.692466,24832.966904,-0.102000,0.982000,0.000000,192.000000,0.000000,0.000000,0.000000,0.000000,0.000000,0.000000,0.000000,0.000000,0.000000,1648362461.852277,0.000000
252.000000,-16431.482605,-6896.340179,6684.043310,26035.423700,-6787.129556,25528.553191,43297.832405,24846.154433,-0.102000,0.982000,0.000000,192.000000,0.000000,0.000000,0.000000,0.000000,0.000000,0.000000,0.000000,0.000000,0.000000,1648362461.852293,0.000000
253.000000,-16435.774140,-6898.955333,6679.394147,26040.989285,-6788.135384,25525.759223,43287.461196,24866.226300,-0.102000,0.982000,0.000000,192.000000,0.000000,0.000000,0.000000,0.000000,0.000000,0.000000,0.000000,0.000000,0.000000,1648362461.859960,0.000000
254.000000,-16434.991829,-6896.384882,6677.315435,26033.546154,-6790.594076,25525.960389,43295.865452,24877.715096,-0.102000,0.982000,0.000000,192.000000,0.000000,0.000000,0.000000,0.000000,0.000000,0.000000,0.000000,0.000000,0.000000,1648362461.859977,0.000000
255.000000,-16441.429131,-6895.334351,6674.879095,26034.551982,-6789.364730,25525.803927,43300.648725,24862.270041,-0.102000,0.982000,0.000000,192.000000,0.000000,0.000000,0.000000,0.000000,0.000000,0.000000,0.000000,0.000000,0.000000,1648362461.866790,0.000000
0.000000,-16441.339724,-6890.707539,6670.676967,26028.293494,-6791.957532,25517.511429,43289.294039,24840.052407,-0.102000,0.982000,0.000000,192.000000,0.000000,0.000000,0.000000,0.000000,0.000000,0.000000,0.000000,0.000000,0.000000,1648362461.874933,0.000000
1.000000,-16437.495224,-6889.746414,6672.353348,26031.132165,-6793.499803,25520.215991,43293.809091,24859.051390,-0.102000,0.982000,0.000000,192.000000,0.000000,0.000000,0.000000,0.000000,0.000000,0.000000,0.000000,0.000000,0.000000,1648362461.874950,0.000000
2.000000,-16431.549660,-6884.605513,6681.383453,26039.402311,-6786.816631,25527.256790,43301.207519,24871.031925,-0.102000,0.982000,0.000000,192.000000,0.000000,0.000000,0.000000,0.000000,0.000000,0.000000,0.000000,0.000000,0.000000,1648362461.881602,0.000000
3.000000,-16434.477739,-6884.985493,6679.394147,26040.095215,-6788.537715,25520.797136,43296.513652,24852.859956,-0.102000,0.982000,0.000000,192.000000,0.000000,0.000000,0.000000,0.000000,0.000000,0.000000,0.000000,0.000000,0.000000,1648362461.881618,0.000000
4.000000,-16442.658477,-6897.502470,6670.341691,26034.708444,-6794.036245,25512.392880,43274.452481,24854.424578,-0.096000,0.984000,0.006000,192.000000,253.000000,0.000000,30.000000,192.000000,0.000000,48.000000,0.000000,0.000000,0.000000,1648362461.889675,0.000000
5.000000,-16435.394160,-6891.176926,6680.087051,26044.833785,-6787.129556,25520.417156,43286.455367,24867.746218,-0.096000,0.984000,0.006000,192.000000,0.000000,0.000000,0.000000,0.000000,0.000000,0.000000,0.000000,0.000000,0.000000,1648362461.889692,0.000000
6.000000,-16434.991829,-6888.740586,6680.623493,26037.792985,-6789.252971,25521.378281,43306.303716,24860.616012,-0.096000,0.984000,0.006000,192.000000,0.000000,0.000000,0.000000,0.000000,0.000000,0.000000,0.000000,0.000000,0.000000,1648362461.897459,0.000000
7.000000,-16439.752750,-6896.474289,6670.721670,26024.203125,-6799.892402,25513.108136,43280.822728,24840.745311,-0.096000,0.984000,0.006000,192.000000,0.000000,0.000000,0.000000,0.000000,0.000000,0.000000,0.000000,0.000000,0.000000,1648362461.897476,0.000000
8.000000,-16441.406779,-6899.469423,6667.145391,26028.852287,-6800.495899,25512.571694,43275.570068,24838.800709,-0.096000,0.984000,0.006000,192.000000,0.000000,0.000000,0.000000,0.000000,0.000000,0.000000,0.000000,0.000000,0.000000,1648362461.904714,0.000000
9.000000,-16441.540890,-6891.601609,6674.856743,26037.234192,-6792.449271,25529.134337,43311.042286,24874.541148,-0.096000,0.984000,0.006000,192.000000,0.000000,0.000000,0.000000,0.000000,0.000000,0.000000,0.000000,0.000000,0.000000,1648362461.904730,0.000000
10.000000,-16445.184224,-6893.367397,6671.615740,26031.087462,-6797.366655,25528.240267,43313.344516,24872.216567,-0.096000,0.984000,0.006000,192.000000,0.000000,0.000000,0.000000,0.000000,0.000000,0.000000,0.000000,0.000000,0.000000,1648362461.912335,0.000000
11.000000,-16447.821730,-6893.367397,6669.715842,26029.880468,-6797.433710,25524.954560,43304.515577,24850.580078,-0.096000,0.984000,0.006000,192.000000,0.000000,0.000000,0.000000,0.000000,0.000000,0.000000,0.000000,0.000000,0.000000,1648362461.912352,0.000000
12.000000,-16440.758579,-6891.847478,6674.141487,26036.518936,-6795.131480,25521.467688,43291.328048,24857.151491,-0.096000,0.984000,0.006000,192.000000,0.000000,0.000000,0.000000,0.000000,0.000000,0.000000,0.000000,0.000000,0.000000,1648362461.920067,0.000000
13.000000,-16443.686657,-6895.669627,6668.508848,26029.522840,-6803.245163,25511.297645,43286.500071,24845.595639,-0.096000,0.984000,0.006000,192.000000,0.000000,0.000000,0.000000,0.000000,0.000000,0.000000,0.000000,0.000000,0.000000,1648362461.920078,0.000000
14.000000,-16453.052038,-6910.220612,6659.501095,26022.169116,-6807.626105,25507.788421,43282.722626,24840.454738,-0.098000,0.978000,0.010000,192.000000,252.000000,240.000000,30.000000,144.000000,0.000000,80.000000,0.000000,0.000000,0.000000,1648362461.927337,0.000000
15.000000,-16444.468968,-6897.033083,6666.966577,26031.623904,-6799.266553,25514.248075,43294.189071,24849.015456,-0.098000,0.978000,0.010000,192.000000,0.000000,0.000000,0.000000,0.000000,0.000000,0.000000,0.000000,0.000000,0.000000,1648362461.934510,0.000000
16.000000,-16439.752750,-6889.277028,6676.533124,26038.776462,-6792.225753,25515.209200,43288.265859,24844.656866,-0.098000,0.978000,0.010000,192.000000,0.000000,0.000000,0.000000,0.000000,0.000000,0.000000,0.000000,0.000000,0.000000,1648362461.934525,0.000000
17.000000,-16446.167701,-6893.300342,6669.849952,26029.701654,-6798.506594,25514.292778,43278.028760,24859.520776,-0.098000,0.978000,0.010000,192.000000,0.000000,0.000000,0.000000,0.000000,0.000000,0.000000,0.000000,0.000000,0.000000,1648362461.941819,0.000000
18.000000,-16450.459236,-6895.066130,6664.485534,26027.846459,-6803.468681,25508.906008,43268.909248,24840.074759,-0.098000,0.978000,0.010000,192.000000,0.000000,0.000000,0.000000,0.000000,0.000000,0.000000,0.000000,0.000000,0.000000,1648362461.941834,0.000000
19.000000,-16446.950012,-6895.602571,6665.603121,26025.611284,-6803.915716,25515.544476,43284.957801,24844.545107,-0.098000,0.978000,0.010000,192.000000,0.000000,0.000000,0.000000,0.000000,0.000000,0.000000,0.000000,0.000000,0.000000,1648362461.949977,0.000000
20.000000,-16450.526291,-6896.094310,6665.334900,26027.399424,-6802.686370,25519.053700,43290.366923,24864.929898,-0.098000,0.978000,0.010000,192.000000,0.000000,0.000000,0.000000,0.000000,0.000000,0.000000,0.000000,0.000000,0.000000,1648362461.949993,0.000000
21.000000,-16438.501053,-6881.789193,6678.678892,26046.197241,-6788.090681,25523.300531,43286.075388,24859.140797,-0.098000,0.978000,0.010000,192.000000,0.000000,0.000000,0.000000,0.000000,0.000000,0.000000,0.000000,0.000000,0.000000,1648362461.957819,0.000000
22.000000,-16434.321276,-6881.096289,6678.433022,26043.135052,-6789.632951,25513.197543,43277.291152,24839.761834,-0.098000,0.978000,0.010000,192.000000,0.000000,0.000000,0.000000,0.000000,0.000000,0.000000,0.000000,0.000000,0.000000,1648362461.957836,0.000000
23.000000,-16435.058884,-6884.270237,6676.130793,26035.535459,-6793.633913,25505.307377,43259.923847,24824.495593,-0.098000,0.978000,0.010000,192.000000,0.000000,0.000000,0.000000,0.000000,0.000000,0.000000,0.000000,0.000000,0.000000,1648362461.964505,0.000000
24.000000,-16433.896593,-6880.157516,6678.008339,26035.490755,-6791.510498,25511.565865,43262.293132,24847.897869,-0.094000,0.982000,0.010000,192.000000,253.000000,16.000000,30.000000,176.000000,0.000000,80.000000,0.000000,0.000000,0.000000,1648362461.964521,0.000000
25.000000,-16435.662381,-6883.756147,6676.913104,26034.596686,-6791.711663,25514.717461,43274.184260,24843.807500,-0.094000,0.982000,0.010000,192.000000,0.000000,0.000000,0.000000,0.000000,0.000000,0.000000,0.000000,0.000000,0.000000,1648362461.972615,0.000000
26.000000,-16434.388332,-6885.343121,6678.120098,26042.330389,-6788.828288,25522.182944,43287.148271,24842.958134,-0.094000,0.982000,0.010000,192.000000,0.000000,0.000000,0.000000,0.000000,0.000000,0.000000,0.000000,0.000000,0.000000,1648362461.972631,0.000000
27.000000,-16432.644896,-6886.393653,6676.421365,26035.267238,-6791.734015,25522.987607,43284.197841,24860.526605,-0.094000,0.982000,0.010000,192.000000,0.000000,0.000000,0.000000,0.000000,0.000000,0.000000,0.000000,0.000000,0.000000,1648362461.980553,0.000000
28.000000,-16435.818843,-6889.500545,6675.840220,26031.176869,-6795.913791,25520.283046,43288.578783,24852.234108,-0.094000,0.982000,0.010000,192.000000,0.000000,0.000000,0.000000,0.000000,0.000000,0.000000,0.000000,0.000000,0.000000,1648362461.980569,0.000000
29.000000,-16435.841195,-6891.556906,6675.057909,26037.457709,-6795.243239,25518.606665,43281.001542,24842.891078,-0.094000,0.982000,0.010000,192.000000,0.000000,0.000000,0.000000,0.000000,0.000000,0.000000,0.000000,0.000000,0.000000,1648362461.987632,0.000000
30.000000,-16442.725532,-6897.547173,6672.062775,26031.690959,-6798.484242,25514.225723,43271.390292,24836.766700,-0.094000,0.982000,0.010000,192.000000,0.000000,0.000000,0.000000,0.000000,0.000000,0.000000,0.000000,0.000000,0.000000,1648362461.987648,0.000000
31.000000,-16436.668210,-6889.075862,6679.572961,26034.976665,-6792.471623,25524.865153,43288.735245,24860.012515,-0.094000,0.982000,0.010000,192.000000,0.000000,0.000000,0.000000,0.000000,0.000000,0.000000,0.000000,0.000000,0.000000,1648362461.994255,0.000000
32.000000,-16438.635163,-6894.417929,6674.923798,26025.879505,-6797.098434,25525.021616,43295.820748,24861.264212,-0.094000,0.982000,0.010000,192.000000,0.000000,0.000000,0.000000,0.000000,0.000000,0.000000,0.000000,0.000000,0.000000,1648362462.002008,0.000000
33.000000,-16443.083160,-6901.995170,6667.882999,26021.140936,-6805.078006,25510.783554,43272.954914,24841.773491,-0.094000,0.982000,0.010000,192.000000,0.000000,0.000000,0.000000,0.000000,0.000000,0.000000,0.000000,0.000000,0.000000,1648362462.002019,0.000000
34.000000,-16446.838253,-6896.451938,6664.552589,26031.087462,-6801.188803,25512.012900,43272.485527,24849.551898,-0.102000,0.984000,0.012000,192.000000,252.000000,208.000000,30.000000,192.000000,0.000000,96.000000,0.000000,0.000000,0.000000,1648362462.010348,0.000000
35.000000,-16441.093855,-6890.215801,6671.213409,26037.278895,-6792.739843,25523.479345,43283.683751,24865.935727,-0.102000,0.984000,0.012000,192.000000,0.000000,0.000000,0.000000,0.000000,0.000000,0.000000,0.000000,0.000000,0.000000,1648362462.010364,0.000000
36.000000,-16442.926698,-6892.383920,6668.374737,26031.847421,-6797.500765,25513.555171,43271.189126,24833.033959,-0.102000,0.984000,0.012000,192.000000,0.000000,0.000000,0.000000,0.000000,0.000000,0.000000,0.000000,0.000000,0.000000,1648362462.016918,0.000000
37.000000,-16443.753713,-6892.741548,6667.257150,26028.181735,-6799.981809,25512.705804,43271.569106,24837.146680,-0.102000,0.984000,0.012000,192.000000,0.000000,0.000000,0.000000,0.000000,0.000000,0.000000,0.000000,0.000000,0.000000,1648362462.016934,0.000000
38.000000,-16445.072466,-6900.877583,6669.268807,26028.472308,-6799.825346,25519.903066,43278.654609,24869.489654,-0.102000,0.984000,0.012000,192.000000,0.000000,0.000000,0.000000,0.000000,0.000000,0.000000,0.000000,0.000000,0.000000,1648362462.024556,0.000000
39.000000,-16445.944184,-6901.279915,6669.626435,26029.925171,-6799.445367,25518.450203,43284.890745,24845.953267,-0.102000,0.984000,0.012000,192.000000,0.000000,0.000000,0.000000,0.000000,0.000000,0.000000,0.000000,0.000000,0.000000,1648362462.024572,0.000000
40.000000,-16446.905309,-6900.587010,6667.726537,26027.131203,-6801.099396,25518.271389,43281.202707,24846.199137,-0.102000,0.984000,0.012000,192.000000,0.000000,0.000000,0.000000,0.000000,0.000000,0.000000,0.000000,0.000000,0.000000,1648362462.032895,0.000000
41.000000,-16449.989849,-6906.621981,6665.178438,26020.917418,-6804.094530,25515.388014,43265.891762,24850.401264,-0.102000,0.984000,0.012000,192.000000,0.000000,0.000000,0.000000,0.000000,0.000000,0.000000,0.000000,0.000000,0.000000,1648362462.032912,0.000000
42.000000,-16446.882957,-6901.816356,6668.218275,26025.790098,-6802.038169,25517.042043,43270.071539,24840.253572,-0.102000,0.984000,0.012000,192.000000,0.000000,0.000000,0.000000,0.000000,0.000000,0.000000,0.000000,0.000000,0.000000,1648362462.040728,0.000000
43.000000,-16446.033591,-6897.390711,6668.866476,26028.382901,-6798.350131,25518.249037,43272.552582,24843.114596,-0.102000,0.984000,0.012000,192.000000,0.000000,0.000000,0.000000,0.000000,0.000000,0.000000,0.000000,0.000000,0.000000,1648362462.040745,0.000000
44.000000,-16440.333896,-6887.444185,6672.666272,26035.848383,-6792.605733,25523.479345,43275.413606,24851.652962,-0.104000,0.982000,0.006000,192.000000,252.000000,192.000000,30.000000,176.000000,0.000000,48.000000,0.000000,0.000000,0.000000,1648362462.047176,0.000000
45.000000,-16452.247376,-6900.877583,6662.183304,26021.185639,-6804.586268,25512.750508,43244.411736,24840.454738,-0.104000,0.982000,0.006000,192.000000,0.000000,0.000000,0.000000,0.000000,0.000000,0.000000,0.000000,0.000000,0.000000,1648362462.047192,0.000000
46.000000,-16450.861567,-6904.364455,6661.959787,26018.235209,-6806.821442,25516.215028,43254.380614,24853.597564,-0.104000,0.982000,0.006000,192.000000,0.000000,0.000000,0.000000,0.000000,0.000000,0.000000,0.000000,0.000000,0.000000,1648362462.054533,0.000000
47.000000,-16450.146312,-6903.179813,6662.853856,26017.966988,-6807.782567,25521.199467,43292.691504,24858.023209,-0.104000,0.982000,0.006000,192.000000,0.000000,0.000000,0.000000,0.000000,0.000000,0.000000,0.000000,0.000000,0.000000,1648362462.062452,0.000000
48.000000,-16449.296945,-6899.156499,6663.882037,26017.162325,-6808.698989,25523.836973,43288.779949,24858.604355,-0.104000,0.982000,0.006000,192.000000,0.000000,0.000000,0.000000,0.000000,0.000000,0.000000,0.000000,0.000000,0.000000,1648362462.062469,0.000000
49.000000,-16443.932527,-6893.300342,6667.815944,26025.410119,-6802.172280,25527.770880,43280.465100,24862.135930,-0.104000,0.982000,0.006000,192.000000,0.000000,0.000000,0.000000,0.000000,0.000000,0.000000,0.000000,0.000000,0.000000,1648362462.071069,0.000000
50.000000,-16446.547681,-6896.831917,6671.347519,26029.388729,-6798.685407,25528.553191,43273.245486,24862.717076,-0.104000,0.982000,0.006000,192.000000,0.000000,0.000000,0.000000,0.000000,0.000000,0.000000,0.000000,0.000000,0.000000,1648362462.071085,0.000000
51.000000,-16445.787721,-6900.944638,6673.314473,26024.538401,-6799.199498,25529.357854,43285.427187,24855.765683,-0.104000,0.982000,0.006000,192.000000,0.000000,0.000000,0.000000,0.000000,0.000000,0.000000,0.000000,0.000000,0.000000,1648362462.077228,0.000000
52.000000,-16447.620564,-6903.738606,6672.420403,26027.935866,-6799.087739,25523.300531,43276.710007,24835.760872,-0.104000,0.982000,0.006000,192.000000,0.000000,0.000000,0.000000,0.000000,0.000000,0.000000,0.000000,0.000000,0.000000,1648362462.077244,0.000000
53.000000,-16446.011239,-6902.688074,6670.408746,26029.724005,-6799.534774,25515.544476,43256.459326,24830.776433,-0.104000,0.982000,0.006000,192.000000,0.000000,0.000000,0.000000,0.000000,0.000000,0.000000,0.000000,0.000000,0.000000,1648362462.085095,0.000000
54.000000,-16439.529233,-6902.039874,6668.799420,26025.834802,-6799.467719,25518.114927,43262.203725,24838.688950,-0.106000,0.986000,0.014000,192.000000,252.000000,176.000000,30.000000,208.000000,0.000000,112.000000,0.000000,0.000000,0.000000,1648362462.085111,0.000000
55.000000,-16441.809111,-6895.043778,6672.152182,26030.305151,-6794.952666,25524.060491,43278.162870,24841.371160,-0.106000,0.986000,0.014000,192.000000,0.000000,0.000000,0.000000,0.000000,0.000000,0.000000,0.000000,0.000000,0.000000,1648362462.093162,0.000000
56.000000,-16439.864509,-6885.879563,6680.467031,26037.144785,-6791.108166,25532.040063,43279.146347,24870.942518,-0.106000,0.986000,0.014000,192.000000,0.000000,0.000000,0.000000,0.000000,0.000000,0.000000,0.000000,0.000000,0.000000,1648362462.093179,0.000000
57.000000,-16439.506881,-6891.042816,6681.875191,26037.860040,-6792.337512,25535.102252,43282.387350,24882.274852,-0.106000,0.986000,0.014000,192.000000,0.000000,0.000000,0.000000,0.000000,0.000000,0.000000,0.000000,0.000000,0.000000,1648362462.099784,0.000000
58.000000,-16445.273631,-6901.950467,6673.985025,26030.014578,-6798.685407,25528.799060,43281.605039,24859.878404,-0.106000,0.986000,0.014000,192.000000,0.000000,0.000000,0.000000,0.000000,0.000000,0.000000,0.000000,0.000000,0.000000,1648362462.099800,0.000000
59.000000,-16445.430093,-6898.553002,6674.119136,26028.964046,-6799.557126,25527.390901,43279.951010,24861.219509,-0.106000,0.986000,0.014000,192.000000,0.000000,0.000000,0.000000,0.000000,0.000000,0.000000,0.000000,0.000000,0.000000,1648362462.107495,0.000000
60.000000,-16448.581689,-6898.888278,6671.436926,26026.818279,-6800.384140,25518.606665,43262.874277,24836.386721,-0.106000,0.986000,0.014000,192.000000,0.000000,0.000000,0.000000,0.000000,0.000000,0.000000,0.000000,0.000000,0.000000,1648362462.107511,0.000000
61.000000,-16450.928623,-6901.928115,6663.949092,26016.715290,-6808.251954,25505.396784,43240.455477,24809.609331,-0.106000,0.986000,0.014000,192.000000,0.000000,0.000000,0.000000,0.000000,0.000000,0.000000,0.000000,0.000000,0.000000,1648362462.114895,0.000000
62.000000,-16453.543777,-6903.068054,6665.334900,26020.671549,-6802.887535,25512.147011,43242.645948,24827.289561,-0.106000,0.986000,0.014000,192.000000,0.000000,0.000000,0.000000,0.000000,0.000000,0.000000,0.000000,0.000000,0.000000,1648362462.122718,0.000000
63.000000,-16455.846006,-6905.347932,6664.753755,26020.693901,-6802.932239,25516.438546,43252.301902,24838.487785,-0.106000,0.986000,0.014000,192.000000,0.000000,0.000000,0.000000,0.000000,0.000000,0.000000,0.000000,0.000000,0.000000,1648362462.122735,0.000000
64.000000,-16451.241547,-6900.855231,6665.826638,26024.180773,-6801.971114,25519.858363,43267.255219,24838.308971,-0.110000,0.982000,0.010000,192.000000,252.000000,144.000000,30.000000,176.000000,0.000000,80.000000,0.000000,0.000000,0.000000,1648362462.129368,0.000000
65.000000,-16440.400951,-6888.271199,6671.682795,26030.059282,-6796.852564,25520.238342,43266.562315,24825.680235,-0.110000,0.982000,0.010000,192.000000,0.000000,0.000000,0.000000,0.000000,0.000000,0.000000,0.000000,0.000000,0.000000,1648362462.129384,0.000000
66.000000,-16439.059846,-6889.187621,6671.101650,26027.779404,-6798.685407,25516.103270,43261.890800,24828.518907,-0.110000,0.982000,0.010000,192.000000,0.000000,0.000000,0.000000,0.000000,0.000000,0.000000,0.000000,0.000000,0.000000,1648362462.137382,0.000000
67.000000,-16444.178396,-6898.061263,6671.794554,26029.925171,-6796.874916,25523.926380,43263.388367,24850.311857,-0.110000,0.982000,0.010000,192.000000,0.000000,0.000000,0.000000,0.000000,0.000000,0.000000,0.000000,0.000000,0.000000,1648362462.137398,0.000000
68.000000,-16445.273631,-6900.274086,6669.268807,26028.472308,-6799.244201,25523.278180,43255.609960,24848.903698,-0.110000,0.982000,0.010000,192.000000,0.000000,0.000000,0.000000,0.000000,0.000000,0.000000,0.000000,0.000000,0.000000,1648362462.145276,0.000000
69.000000,-16435.148291,-6890.126394,6673.247418,26031.333331,-6794.505631,25526.563886,43261.644931,24852.412921,-0.110000,0.982000,0.010000,192.000000,0.000000,0.000000,0.000000,0.000000,0.000000,0.000000,0.000000,0.000000,0.000000,1648362462.145292,0.000000
70.000000,-16444.357210,-6901.682246,6664.709051,26017.452898,-6806.195594,25514.382185,43254.604132,24833.145718,-0.110000,0.982000,0.010000,192.000000,0.000000,0.000000,0.000000,0.000000,0.000000,0.000000,0.000000,0.000000,0.000000,1648362462.152312,0.000000
71.000000,-16444.938355,-6905.102063,6665.178438,26014.323653,-6806.419111,25518.740775,43268.372806,24849.686009,-0.110000,0.982000,0.010000,192.000000,0.000000,0.000000,0.000000,0.000000,0.000000,0.000000,0.000000,0.000000,0.000000,1648362462.152328,0.000000
72.000000,-16437.785797,-6899.201202,6671.727499,26023.756090,-6796.517288,25529.335502,43280.956838,24861.040695,-0.110000,0.982000,0.010000,192.000000,0.000000,0.000000,0.000000,0.000000,0.000000,0.000000,0.000000,0.000000,0.000000,1648362462.159988,0.000000
73.000000,-16430.901460,-6887.310074,6680.131755,26039.648180,-6785.587285,25539.438491,43296.088969,24860.481901,-0.110000,0.982000,0.010000,192.000000,0.000000,0.000000,0.000000,0.000000,0.000000,0.000000,0.000000,0.000000,0.000000,1648362462.160004,0.000000
74.000000,-16437.450521,-6893.546211,6677.047214,26029.522840,-6792.985713,25529.804889,43277.939353,24844.947439,-0.112000,0.986000,0.010000,192.000000,252.000000,128.000000,30.000000,208.000000,0.000000,80.000000,0.000000,0.000000,0.000000,1648362462.168021,0.000000
75.000000,-16435.885899,-6889.880525,6676.868400,26028.584066,-6795.891439,25529.246095,43274.497184,24848.836642,-0.112000,0.986000,0.010000,192.000000,0.000000,0.000000,0.000000,0.000000,0.000000,0.000000,0.000000,0.000000,0.000000,1648362462.168037,0.000000
76.000000,-16430.208555,-6887.153612,6681.003473,26033.501450,-6792.873954,25536.443357,43277.089986,24856.480939,-0.112000,0.986000,0.010000,192.000000,0.000000,0.000000,0.000000,0.000000,0.000000,0.000000,0.000000,0.000000,0.000000,1648362462.175133,0.000000
77.000000,-16435.170643,-6897.949505,6678.388319,26028.025273,-6797.254896,25533.962313,43272.709045,24847.652000,-0.112000,0.986000,0.010000,192.000000,0.000000,0.000000,0.000000,0.000000,0.000000,0.000000,0.000000,0.000000,0.000000,1648362462.181679,0.000000
78.000000,-16426.006428,-6885.164307,6686.881982,26045.929020,-6786.861335,25539.505546,43276.374731,24853.217584,-0.112000,0.986000,0.010000,192.000000,0.000000,0.000000,0.000000,0.000000,0.000000,0.000000,0.000000,0.000000,0.000000,1648362462.181696,0.000000
79.000000,-16430.812053,-6895.423757,6680.109403,26030.752186,-6796.249067,25521.959427,43249.597341,24816.650130,-0.112000,0.986000,0.010000,192.000000,0.000000,0.000000,0.000000,0.000000,0.000000,0.000000,0.000000,0.000000,0.000000,1648362462.189696,0.000000
80.000000,-16437.674038,-6902.084577,6674.096784,26024.516049,-6802.015817,25525.982741,43260.102661,24859.029038,-0.112000,0.986000,0.010000,192.000000,0.000000,0.000000,0.000000,0.000000,0.000000,0.000000,0.000000,0.000000,0.000000,1648362462.189713,0.000000
81.000000,-16430.320314,-6891.355740,6681.584618,26031.176869,-6793.678617,25534.811680,43275.055978,24863.208814,-0.112000,0.986000,0.010000,192.000000,0.000000,0.000000,0.000000,0.000000,0.000000,0.000000,0.000000,0.000000,0.000000,1648362462.197637,0.000000
82.000000,-16427.995733,-6884.940789,6684.043310,26035.468404,-6790.079986,25536.555116,43277.201745,24865.220471,-0.112000,0.986000,0.010000,192.000000,0.000000,0.000000,0.000000,0.000000,0.000000,0.000000,0.000000,0.000000,0.000000,1648362462.197653,0.000000
83.000000,-16427.906326,-6886.214839,6684.423290,26033.523802,-6793.790375,25533.627037,43280.688617,24861.800654,-0.112000,0.986000,0.010000,192.000000,0.000000,0.000000,0.000000,0.000000,0.000000,0.000000,0.000000,0.000000,0.000000,1648362462.204713,0.000000
84.000000,-16430.007390,-6891.065167,6682.009301,26032.965008,-6796.763157,25528.173212,43277.738187,24848.501366,-0.112000,0.986000,0.010000,192.000000,0.000000,0.000000,0.000000,0.000000,0.000000,0.000000,0.000000,0.000000,0.000000,1648362462.204729,0.000000
85.000000,-16442.703181,-6905.303229,6670.721670,26021.945598,-6806.754387,25515.767993,43262.494297,24833.168070,-0.106000,0.978000,0.008000,192.000000,252.000000,176.000000,30.000000,144.000000,0.000000,64.000000,0.000000,0.000000,0.000000,1648362462.212813,0.000000
86.000000,-16435.461215,-6896.563696,6678.857705,26025.566581,-6801.121748,25526.452127,43282.208536,24849.529546,-0.106000,0.978000,0.008000,192.000000,0.000000,0.000000,0.000000,0.000000,0.000000,0.000000,0.000000,0.000000,0.000000,1648362462.212830,0.000000
87.000000,-16441.451483,-6901.034045,6676.622531,26026.237133,-6801.680541,25524.149898,43270.585629,24852.099997,-0.106000,0.978000,0.008000,192.000000,0.000000,0.000000,0.000000,0.000000,0.000000,0.000000,0.000000,0.000000,0.000000,1648362462.220327,0.000000
88.000000,-16448.536986,-6905.817319,6671.727499,26018.369319,-6804.429806,25520.618322,43257.509858,24847.853166,-0.106000,0.978000,0.008000,192.000000,0.000000,0.000000,0.000000,0.000000,0.000000,0.000000,0.000000,0.000000,0.000000,1648362462.220343,0.000000
89.000000,-16445.139521,-6900.765824,6671.191057,26013.608398,-6807.737864,25513.398709,43263.634236,24823.199191,-0.106000,0.978000,0.008000,192.000000,0.000000,0.000000,0.000000,0.000000,0.000000,0.000000,0.000000,0.000000,0.000000,1648362462.228217,0.000000
90.000000,-16443.329029,-6899.268258,6671.861609,26021.029177,-6802.731073,25514.873924,43257.755728,24828.340093,-0.106000,0.978000,0.008000,192.000000,0.000000,0.000000,0.000000,0.000000,0.000000,0.000000,0.000000,0.000000,0.000000,1648362462.228233,0.000000
91.000000,-16434.611849,-6889.165269,6678.276560,26033.769671,-6795.757329,25526.988569,43270.362111,24859.364314,-0.106000,0.978000,0.008000,192.000000,0.000000,0.000000,0.000000,0.000000,0.000000,0.000000,0.000000,0.000000,0.000000,1648362462.234297,0.000000
92.000000,-16434.924774,-6889.634656,6678.097746,26028.628770,-6799.043035,25526.496831,43282.834385,24856.570346,-0.106000,0.978000,0.008000,192.000000,0.000000,0.000000,0.000000,0.000000,0.000000,0.000000,0.000000,0.000000,0.000000,1648362462.234308,0.000000
93.000000,-16429.247430,-6883.309112,6681.986950,26036.831860,-6794.349169,25528.352026,43279.861603,24870.696648,-0.106000,0.978000,0.008000,192.000000,0.000000,0.000000,0.000000,0.000000,0.000000,0.000000,0.000000,0.000000,0.000000,1648362462.241966,0.000000
94.000000,-16425.045303,-6882.638560,6686.881982,26041.995113,-6788.425957,25530.363683,43275.748882,24867.634459,-0.106000,0.978000,0.008000,192.000000,0.000000,0.000000,0.000000,0.000000,0.000000,0.000000,0.000000,0.000000,0.000000,1648362462.249723,0.000000
95.000000,-16437.048189,-6896.496641,6678.969464,26032.942657,-6793.186878,25522.160592,43273.156079,24849.216622,-0.108000,0.980000,0.006000,192.000000,252.000000,160.000000,30.000000,160.000000,0.000000,48.000000,0.000000,0.000000,0.000000,1648362462.249739,0.000000
96.000000,-16431.907288,-6894.037949,6679.863534,26014.770688,-6796.405530,25518.338444,43264.863582,24837.549011,-0.108000,0.980000,0.006000,192.000000,0.000000,0.000000,0.000000,0.000000,0.000000,0.000000,0.000000,0.000000,0.000000,1648362462.257864,0.000000
97.000000,-16431.817881,-6889.031159,6687.664293,26036.809508,-6786.883686,25515.343310,43266.405853,24826.619008,-0.108000,0.980000,0.006000,192.000000,0.000000,0.000000,0.000000,0.000000,0.000000,0.000000,0.000000,0.000000,0.000000,1648362462.257880,0.000000
98.000000,-16419.300904,-6874.368414,6701.589430,26050.846404,-6773.942026,25533.761148,43287.125920,24862.471206,-0.108000,0.980000,0.006000,192.000000,0.000000,0.000000,0.000000,0.000000,0.000000,0.000000,0.000000,0.000000,0.000000,1648362462.264620,0.000000
99.000000,-16417.333951,-6870.188638,6699.622476,26050.689942,-6772.712680,25527.770880,43277.134690,24844.813328,-0.108000,0.980000,0.006000,192.000000,0.000000,0.000000,0.000000,0.000000,0.000000,0.000000,0.000000,0.000000,0.000000,1648362462.264636,0.000000
100.000000,-16419.613829,-6874.301359,6697.879040,26048.343009,-6772.824439,25526.787403,43263.857754,24837.884288,-0.108000,0.980000,0.006000,192.000000,0.000000,0.000000,0.000000,0.000000,0.000000,0.000000,0.000000,0.000000,0.000000,1648362462.272562,0.000000
101.000000,-16422.519555,-6884.873734,6695.152127,26037.949447,-6777.406547,25533.470575,43273.267838,24879.905567,-0.108000,0.980000,0.006000,192.000000,0.000000,0.000000,0.000000,0.000000,0.000000,0.000000,0.000000,0.000000,0.000000,1648362462.272578,0.000000
102.000000,-16421.469023,-6879.554019,6695.979142,26044.990247,-6775.171372,25537.605648,43298.257088,24881.872521,-0.108000,0.980000,0.006000,192.000000,0.000000,0.000000,0.000000,0.000000,0.000000,0.000000,0.000000,0.000000,0.000000,1648362462.280484,0.000000
103.000000,-16414.696445,-6873.027310,6698.907220,26051.829881,-6769.717547,25534.141127,43291.439806,24863.119407,-0.108000,0.980000,0.006000,192.000000,0.000000,0.000000,0.000000,0.000000,0.000000,0.000000,0.000000,0.000000,0.000000,1648362462.280500,0.000000
104.000000,-16426.721683,-6891.735720,6686.658464,26029.679302,-6785.162602,25522.071185,43275.368902,24851.183576,-0.108000,0.980000,0.006000,192.000000,0.000000,0.000000,0.000000,0.000000,0.000000,0.000000,0.000000,0.000000,0.000000,1648362462.287592,0.000000
105.000000,-16423.100701,-6889.165269,6685.607932,26038.687055,-6783.396814,25519.545438,43260.750861,24866.405114,-0.104000,0.970000,0.006000,192.000000,252.000000,192.000000,30.000000,80.000000,0.000000,48.000000,0.000000,0.000000,0.000000,1648362462.287608,0.000000
106.000000,-16417.177488,-6883.040891,6689.631246,26036.340122,-6780.960474,25525.200430,43297.631240,24867.522701,-0.104000,0.970000,0.006000,192.000000,0.000000,0.000000,0.000000,0.000000,0.000000,0.000000,0.000000,0.000000,0.000000,1648362462.295215,0.000000
107.000000,-16413.243581,-6872.937903,6694.615685,26045.414930,-6775.976035,25528.642598,43305.566109,24862.761779,-0.104000,0.970000,0.006000,192.000000,0.000000,0.000000,0.000000,0.000000,0.000000,0.000000,0.000000,0.000000,0.000000,1648362462.295233,0.000000
108.000000,-16417.780986,-6875.821278,6689.743005,26046.331352,-6781.496916,25521.110060,43291.953897,24857.129140,-0.104000,0.970000,0.006000,192.000000,0.000000,0.000000,0.000000,0.000000,0.000000,0.000000,0.000000,0.000000,0.000000,1648362462.302215,0.000000
109.000000,-16415.992846,-6872.021481,6692.738139,26049.862927,-6778.255913,25527.122680,43302.772141,24866.494520,-0.104000,0.970000,0.006000,192.000000,0.000000,0.000000,0.000000,0.000000,0.000000,0.000000,0.000000,0.000000,0.000000,1648362462.310092,0.000000
110.000000,-16419.278552,-6877.072975,6690.257095,26042.665665,-6780.669901,25525.535706,43307.242490,24868.617936,-0.104000,0.970000,0.006000,192.000000,0.000000,0.000000,0.000000,0.000000,0.000000,0.000000,0.000000,0.000000,0.000000,1648362462.310108,0.000000
111.000000,-16417.736282,-6878.168211,6688.625418,26028.226439,-6784.983788,25520.104232,43294.390237,24860.481901,-0.104000,0.970000,0.006000,192.000000,0.000000,0.000000,0.000000,0.000000,0.000000,0.000000,0.000000,0.000000,0.000000,1648362462.316776,0.000000
112.000000,-16427.213422,-6894.976723,6681.808136,26024.516049,-6791.734015,25507.497848,43265.780004,24839.739482,-0.104000,0.970000,0.006000,192.000000,0.000000,0.000000,0.000000,0.000000,0.000000,0.000000,0.000000,0.000000,0.000000,1648362462.316792,0.000000
113.000000,-16417.713930,-6881.520972,6693.632209,26040.631657,-6778.278265,25525.491002,43305.297888,24865.779265,-0.104000,0.970000,0.006000,192.000000,0.000000,0.000000,0.000000,0.000000,0.000000,0.000000,0.000000,0.000000,0.000000,1648362462.324815,0.000000
114.000000,-16412.416567,-6873.295530,6698.527241,26046.577221,-6771.729204,25531.458918,43317.077257,24877.871558,-0.104000,0.970000,0.006000,192.000000,0.000000,0.000000,0.000000,0.000000,0.000000,0.000000,0.000000,0.000000,0.000000,1648362462.324831,0.000000
115.000000,-16406.403948,-6865.383013,6701.522374,26046.241945,-6770.142230,25532.420043,43317.591347,24875.323460,-0.108000,0.974000,0.004000,192.000000,252.000000,160.000000,30.000000,112.000000,0.000000,32.000000,0.000000,0.000000,0.000000,1648362462.332923,0.000000
116.000000,-16417.982151,-6878.794060,6686.591409,26032.719139,-6787.241314,25511.856438,43289.361094,24845.349770,-0.108000,0.974000,0.004000,192.000000,0.000000,0.000000,0.000000,0.000000,0.000000,0.000000,0.000000,0.000000,0.000000,1648362462.332939,0.000000
117.000000,-16430.432073,-6894.082653,6676.421365,26027.399424,-6797.277248,25501.999319,43278.431091,24824.495593,-0.108000,0.974000,0.004000,192.000000,0.000000,0.000000,0.000000,0.000000,0.000000,0.000000,0.000000,0.000000,0.000000,1648362462.341162,0.000000
118.000000,-16410.360206,-6866.768821,6691.888772,26045.236116,-6779.552314,25521.579447,43321.212330,24849.775416,-0.108000,0.974000,0.004000,192.000000,0.000000,0.000000,0.000000,0.000000,0.000000,0.000000,0.000000,0.000000,0.000000,1648362462.341179,0.000000
119.000000,-16415.724625,-6874.904856,6686.278485,26039.894049,-6785.430823,25521.847668,43311.332859,24882.923053,-0.108000,0.974000,0.004000,192.000000,0.000000,0.000000,0.000000,0.000000,0.000000,0.000000,0.000000,0.000000,0.000000,1648362462.347478,0.000000
120.000000,-16420.597305,-6881.252751,6682.188115,26032.629732,-6790.549373,25510.917665,43297.877109,24863.544090,-0.108000,0.974000,0.004000,192.000000,0.000000,0.000000,0.000000,0.000000,0.000000,0.000000,0.000000,0.000000,0.000000,1648362462.347495,0.000000
121.000000,-16419.859698,-6880.761013,6683.819793,26032.674436,-6788.984750,25510.448278,43298.234737,24864.058180,-0.108000,0.974000,0.004000,192.000000,0.000000,0.000000,0.000000,0.000000,0.000000,0.000000,0.000000,0.000000,0.000000,1648362462.355540,0.000000
122.000000,-16417.959800,-6872.803792,6688.111328,26040.363436,-6783.218000,25520.215991,43311.690487,24868.975564,-0.108000,0.974000,0.004000,192.000000,0.000000,0.000000,0.000000,0.000000,0.000000,0.000000,0.000000,0.000000,0.000000,1648362462.355556,0.000000
123.000000,-16415.188183,-6866.120621,6689.899467,26047.515994,-6779.351149,25517.958464,43311.310507,24856.525642,-0.108000,0.974000,0.004000,192.000000,0.000000,0.000000,0.000000,0.000000,0.000000,0.000000,0.000000,0.000000,0.000000,1648362462.362465,0.000000
124.000000,-16418.608000,-6875.150725,6687.954865,26039.603476,-6782.078061,25513.823392,43300.291097,24850.222451,-0.108000,0.974000,0.004000,192.000000,0.000000,0.000000,0.000000,0.000000,0.000000,0.000000,0.000000,0.000000,0.000000,1648362462.369574,0.000000
125.000000,-16414.539983,-6868.311091,6694.749796,26043.917363,-6775.171372,25524.663988,43308.225966,24868.260308,-0.108000,0.976000,-0.006000,192.000000,252.000000,160.000000,30.000000,128.000000,255.000000,208.000000,0.000000,0.000000,0.000000,1648362462.369590,0.000000
126.000000,-16415.366997,-6871.909722,6690.570020,26032.987360,-6780.781660,25516.371491,43293.272649,24850.781244,-0.108000,0.976000,-0.006000,192.000000,0.000000,0.000000,0.000000,0.000000,0.000000,0.000000,0.000000,0.000000,0.000000,1648362462.377198,0.000000
127.000000,-16414.808204,-6878.414080,6689.005397,26036.831860,-6781.094585,25516.438546,43291.104530,24853.754026,-0.108000,0.976000,-0.006000,192.000000,0.000000,0.000000,0.000000,0.000000,0.000000,0.000000,0.000000,0.000000,0.000000,1648362462.377215,0.000000
128.000000,-16413.131823,-6881.409214,6690.234743,26037.725930,-6778.501782,25518.852534,43303.867376,24851.429445,-0.108000,0.976000,-0.006000,192.000000,0.000000,0.000000,0.000000,0.000000,0.000000,0.000000,0.000000,0.000000,0.000000,1648362462.385064,0.000000
129.000000,-16403.207648,-6868.713423,6698.661351,26044.274991,-6770.209285,25528.843764,43321.301737,24867.388590,-0.108000,0.976000,-0.006000,192.000000,0.000000,0.000000,0.000000,0.000000,0.000000,0.000000,0.000000,0.000000,0.000000,1648362462.385082,0.000000
130.000000,-16395.988035,-6861.225588,6706.730331,26056.814320,-6762.386174,25540.153747,43324.587443,24886.320518,-0.108000,0.976000,-0.006000,192.000000,0.000000,0.000000,0.000000,0.000000,0.000000,0.000000,0.000000,0.000000,0.000000,1648362462.393148,0.000000
131.000000,-16404.258180,-6865.874751,6699.868345,26049.706465,-6771.393928,25535.169308,43316.160836,24886.521684,-0.108000,0.976000,-0.006000,192.000000,0.000000,0.000000,0.000000,0.000000,0.000000,0.000000,0.000000,0.000000,0.000000,1648362462.393165,0.000000
132.000000,-16420.910230,-6882.146821,6681.562267,26029.366378,-6790.661131,25514.717461,43284.264896,24870.517834,-0.108000,0.976000,-0.006000,192.000000,0.000000,0.000000,0.000000,0.000000,0.000000,0.000000,0.000000,0.000000,0.000000,1648362462.399777,0.000000
133.000000,-16426.006428,-6893.747377,6680.601142,26021.923247,-6795.757329,25515.566828,43305.677868,24862.784131,-0.108000,0.976000,-0.006000,192.000000,0.000000,0.000000,0.000000,0.000000,0.000000,0.000000,0.000000,0.000000,0.000000,1648362462.399794,0.000000
134.000000,-16423.637143,-6889.165269,6684.155069,26026.639465,-6789.364730,25519.411328,43312.405743,24865.265175,-0.108000,0.976000,-0.006000,192.000000,0.000000,0.000000,0.000000,0.000000,0.000000,0.000000,0.000000,0.000000,0.000000,1648362462.407516,0.000000
135.000000,-16428.621582,-6887.690054,6676.935455,26023.510220,-6795.511460,25511.945845,43301.341629,24859.766645,-0.102000,0.978000,-0.004000,192.000000,252.000000,208.000000,30.000000,144.000000,255.000000,224.000000,0.000000,0.000000,0.000000,1648362462.407532,0.000000
136.000000,-16418.228020,-6882.012711,6683.618627,26029.902819,-6789.700006,25520.104232,43316.093781,24871.456608,-0.102000,0.978000,-0.004000,192.000000,0.000000,0.000000,0.000000,0.000000,0.000000,0.000000,0.000000,0.000000,0.000000,1648362462.415736,0.000000
137.000000,-16415.165831,-6882.795022,6686.479650,26030.416910,-6787.889515,25520.350101,43310.818769,24868.528529,-0.102000,0.978000,-0.004000,192.000000,0.000000,0.000000,0.000000,0.000000,0.000000,0.000000,0.000000,0.000000,0.000000,1648362462.415752,0.000000
138.000000,-16420.418491,-6883.152650,6683.529220,26027.689997,-6789.811765,25513.197543,43297.675943,24850.982410,-0.102000,0.978000,-0.004000,192.000000,0.000000,0.000000,0.000000,0.000000,0.000000,0.000000,0.000000,0.000000,0.000000,1648362462.422960,0.000000
139.000000,-16433.606021,-6900.743473,6672.688624,26012.915494,-6802.015817,25500.971139,43294.032609,24831.692854,-0.102000,0.978000,-0.004000,192.000000,0.000000,0.000000,0.000000,0.000000,0.000000,0.000000,0.000000,0.000000,0.000000,1648362462.429401,0.000000
140.000000,-16420.396140,-6890.193449,6685.160897,26023.219648,-6790.415262,25513.957502,43296.468949,24859.699590,-0.102000,0.978000,-0.004000,192.000000,0.000000,0.000000,0.000000,0.000000,0.000000,0.000000,0.000000,0.000000,0.000000,1648362462.429417,0.000000
141.000000,-16400.950122,-6864.198370,6701.343560,26048.030084,-6771.416279,25529.760185,43325.414458,24861.420674,-0.102000,0.978000,-0.004000,192.000000,0.000000,0.000000,0.000000,0.000000,0.000000,0.000000,0.000000,0.000000,0.000000,1648362462.437255,0.000000
142.000000,-16410.673131,-6875.351891,6694.548630,26039.201145,-6778.367672,25530.810717,43325.995603,24883.884178,-0.102000,0.978000,-0.004000,192.000000,0.000000,0.000000,0.000000,0.000000,0.000000,0.000000,0.000000,0.000000,0.000000,1648362462.437267,0.000000
143.000000,-16415.545811,-6881.476269,6690.257095,26032.182697,-6784.782622,25525.535706,43302.056885,24890.634404,-0.102000,0.978000,-0.004000,192.000000,0.000000,0.000000,0.000000,0.000000,0.000000,0.000000,0.000000,0.000000,0.000000,1648362462.445327,0.000000
144.000000,-16400.905419,-6863.974853,6700.918877,26043.447977,-6775.908980,25531.928305,43316.004374,24891.751992,-0.102000,0.978000,-0.004000,192.000000,0.000000,0.000000,0.000000,0.000000,0.000000,0.000000,0.000000,0.000000,0.000000,1648362462.445343,0.000000
145.000000,-16393.864619,-6858.632786,6708.339656,26051.025218,-6768.488201,25538.298552,43329.147199,24882.811294,-0.106000,0.988000,-0.006000,192.000000,252.000000,176.000000,30.000000,224.000000,255.000000,208.000000,0.000000,0.000000,0.000000,1648362462.451913,0.000000
146.000000,-16414.607038,-6876.782403,6687.954865,26032.428567,-6786.235486,25519.120755,43311.176397,24853.664619,-0.106000,0.988000,-0.006000,192.000000,0.000000,0.000000,0.000000,0.000000,0.000000,0.000000,0.000000,0.000000,0.000000,1648362462.451931,0.000000
147.000000,-16401.285398,-6869.294568,6702.483499,26041.972761,-6774.187896,25532.598857,43312.852778,24882.453666,-0.106000,0.988000,-0.006000,192.000000,0.000000,0.000000,0.000000,0.000000,0.000000,0.000000,0.000000,0.000000,0.000000,1648362462.460080,0.000000
148.000000,-16393.283474,-6863.930150,6708.071435,26042.486852,-6770.365747,25538.790290,43321.078220,24897.138762,-0.106000,0.988000,-0.006000,192.000000,0.000000,0.000000,0.000000,0.000000,0.000000,0.000000,0.000000,0.000000,0.000000,1648362462.460096,0.000000
149.000000,-16406.023968,-6875.486001,6698.728406,26032.830898,-6778.658244,25524.596932,43306.728400,24862.471206,-0.106000,0.988000,-0.006000,192.000000,0.000000,0.000000,0.000000,0.000000,0.000000,0.000000,0.000000,0.000000,0.000000,1648362462.467971,0.000000
150.000000,-16403.632331,-6870.680376,6702.528203,26039.916401,-6772.399756,25525.155726,43309.455312,24856.547994,-0.106000,0.988000,-0.006000,192.000000,0.000000,0.000000,0.000000,0.000000,0.000000,0.000000,0.000000,0.000000,0.000000,1648362462.467988,0.000000
151.000000,-16407.298017,-6868.780478,6699.957752,26036.004846,-6775.752518,25529.067281,43328.476647,24875.390515,-0.106000,0.988000,-0.006000,192.000000,0.000000,0.000000,0.000000,0.000000,0.000000,0.000000,0.000000,0.000000,0.000000,1648362462.475179,0.000000
152.000000,-16406.158078,-6873.899028,6697.387302,26032.093290,-6779.865239,25524.798098,43313.992717,24878.899739,-0.106000,0.988000,-0.006000,192.000000,0.000000,0.000000,0.000000,0.000000,0.000000,0.000000,0.000000,0.000000,0.000000,1648362462.475195,0.000000
153.000000,-16409.108509,-6885.030196,6689.497136,26025.655988,-6786.526058,25512.683453,43293.049132,24860.750122,-0.106000,0.988000,-0.006000,192.000000,0.000000,0.000000,0.000000,0.000000,0.000000,0.000000,0.000000,0.000000,0.000000,1648362462.481768,0.000000
154.000000,-16425.000599,-6896.943676,6677.382490,26018.950465,-6794.192707,25502.759278,43285.784815,24842.466395,-0.106000,0.988000,-0.006000,192.000000,0.000000,0.000000,0.000000,0.000000,0.000000,0.000000,0.000000,0.000000,0.000000,1648362462.481784,0.000000
155.000000,-16410.091985,-6875.642464,6696.873211,26037.971799,-6774.009082,25521.534743,43304.917908,24854.268116,-0.104000,0.986000,-0.012000,192.000000,252.000000,192.000000,30.000000,208.000000,255.000000,160.000000,0.000000,0.000000,0.000000,1648362462.489657,0.000000
156.000000,-16402.872372,-6865.248902,6703.623438,26041.525727,-6768.309387,25525.043967,43303.308583,24857.553823,-0.104000,0.986000,-0.012000,192.000000,0.000000,0.000000,0.000000,0.000000,0.000000,0.000000,0.000000,0.000000,0.000000,1648362462.497680,0.000000
157.000000,-16404.436994,-6870.680376,6700.985932,26037.502412,-6773.874971,25524.663988,43299.374676,24862.225337,-0.104000,0.986000,-0.012000,192.000000,0.000000,0.000000,0.000000,0.000000,0.000000,0.000000,0.000000,0.000000,0.000000,1648362462.497696,0.000000
158.000000,-16393.484639,-6865.919455,6712.340619,26052.500433,-6763.526113,25539.773767,43318.083086,24868.237957,-0.104000,0.986000,-0.012000,192.000000,0.000000,0.000000,0.000000,0.000000,0.000000,0.000000,0.000000,0.000000,0.000000,1648362462.504774,0.000000
159.000000,-16383.627520,-6854.497713,6720.744875,26063.385733,-6752.931387,25551.150805,43326.912025,24895.171809,-0.104000,0.986000,-0.012000,192.000000,0.000000,0.000000,0.000000,0.000000,0.000000,0.000000,0.000000,0.000000,0.000000,1648362462.504790,0.000000
160.000000,-16397.507953,-6864.488943,6706.596220,26052.925116,-6764.330776,25536.778633,43306.571937,24884.331213,-0.104000,0.986000,-0.012000,192.000000,0.000000,0.000000,0.000000,0.000000,0.000000,0.000000,0.000000,0.000000,0.000000,1648362462.512336,0.000000
161.000000,-16417.378654,-6887.555943,6686.278485,26028.181735,-6785.877858,25515.276255,43298.257088,24844.232183,-0.104000,0.986000,-0.012000,192.000000,0.000000,0.000000,0.000000,0.000000,0.000000,0.000000,0.000000,0.000000,0.000000,1648362462.512352,0.000000
