%OpenBCI Raw EEG Data
%Number of channels = 8
%Sample Rate = 256 Hz
%Board = OpenBCI_GUI$BoardCytonSerial
%Channels = Fp1, Fp2, F3, F4, Fz, Pz, O1, O2
%Data recorded at AIMS Lab (http://aimsl.uiu.ac.bd) by Rana Depto (mail@ranadepto.com)
%Brainwaves were obtained via the Ultracortex Mark IV Headset using the OpenBCI Cyton Board
%Recording Application = ConcentrateToday (https://concentrate.today)
%Data type = RAW data with noise
%Day No = 9
%Subject ID = 2
%Session ID = 7
%Record starting timestamp (UTC+6) = 2022-03-20T12:48:22.967098
%Record ending timestamp (UTC+6)   = 2022-03-20T12:48:48.822264
%Recorded durations = ~25 seconds
Sample Index, EXG Channel 0, EXG Channel 1, EXG Channel 2, EXG Channel 3, EXG Channel 4, EXG Channel 5, EXG Channel 6, EXG Channel 7, Accel Channel 0, Accel Channel 1, Accel Channel 2, Other, Other, Other, Other, Other, Other, Other, Analog Channel 0, Analog Channel 1, Analog Channel 2, Timestamp, Timestamp (Formatted)
219.000000,32056.268401,26033.523802,32433.856420,1232.341079,11753.150732,25630.991236,12789.846991,13842.860024,-0.060000,0.970000,0.088000,192.000000,0.000000,0.000000,0.000000,0.000000,0.000000,0.000000,0.000000,0.000000,0.000000,1647758902.966801,0.000000
220.000000,32048.914677,26028.606418,32425.318053,1234.084515,11745.528787,25623.905733,12782.716785,13830.454806,-0.060000,0.970000,0.088000,192.000000,0.000000,0.000000,0.000000,0.000000,0.000000,0.000000,0.000000,0.000000,0.000000,1647758902.966818,0.000000
221.000000,32045.606619,26027.377072,32423.909894,1259.990187,11743.338316,25618.831887,12769.998642,13824.285725,-0.060000,0.970000,0.088000,192.000000,0.000000,0.000000,0.000000,0.000000,0.000000,0.000000,0.000000,0.000000,0.000000,1647758902.973270,0.000000
222.000000,32041.963284,26024.069014,32424.111059,1254.201085,11741.773694,25617.893114,12761.706145,13833.360533,-0.060000,0.970000,0.088000,192.000000,0.000000,0.000000,0.000000,0.000000,0.000000,0.000000,0.000000,0.000000,0.000000,1647758902.973277,0.000000
223.000000,32046.835965,26026.795927,32427.374414,1247.517913,11745.014697,25621.245876,12772.055003,13831.572393,-0.064000,0.970000,0.086000,192.000000,254.000000,0.000000,30.000000,80.000000,2.000000,176.000000,0.000000,0.000000,0.000000,1647758902.981250,0.000000
224.000000,32053.653247,26025.007787,32424.491039,1227.267233,11742.556005,25618.094280,12773.664328,13821.312943,-0.064000,0.970000,0.086000,192.000000,0.000000,0.000000,0.000000,0.000000,0.000000,0.000000,0.000000,0.000000,0.000000,1647758902.981255,0.000000
225.000000,32041.449194,26021.677377,32423.038175,1228.943614,11740.097313,25618.474259,12769.931587,13826.722065,-0.064000,0.970000,0.086000,192.000000,0.000000,0.000000,0.000000,0.000000,0.000000,0.000000,0.000000,0.000000,0.000000,1647758902.990625,0.000000
226.000000,32027.009967,26015.262427,32415.639748,1248.859018,11734.218804,25617.356672,12771.518561,13832.891146,-0.064000,0.970000,0.086000,192.000000,0.000000,0.000000,0.000000,0.000000,0.000000,0.000000,0.000000,0.000000,0.000000,1647758902.990629,0.000000
227.000000,32025.758270,26011.619092,32411.504675,1265.645178,11731.737761,25614.294483,12768.903407,13823.726931,-0.064000,0.970000,0.086000,192.000000,0.000000,0.000000,0.000000,0.000000,0.000000,0.000000,0.000000,0.000000,0.000000,1647758902.997000,0.000000
228.000000,32035.771851,26017.564656,32413.672795,1251.608283,11736.744551,25618.809535,12770.132753,13823.391655,-0.064000,0.970000,0.086000,192.000000,0.000000,0.000000,0.000000,0.000000,0.000000,0.000000,0.000000,0.000000,0.000000,1647758902.997005,0.000000
229.000000,32045.226639,26024.784270,32419.014861,1214.906718,11742.019563,25622.341111,12771.786782,13826.520899,-0.064000,0.970000,0.086000,192.000000,0.000000,0.000000,0.000000,0.000000,0.000000,0.000000,0.000000,0.000000,0.000000,1647758903.003868,0.000000
230.000000,32045.986598,26025.119546,32418.724289,1207.105959,11744.500607,25621.424689,12763.002546,13831.550042,-0.064000,0.970000,0.086000,192.000000,0.000000,0.000000,0.000000,0.000000,0.000000,0.000000,0.000000,0.000000,0.000000,1647758903.003873,0.000000
231.000000,32049.160546,26025.276008,32417.584350,1200.691009,11744.522958,25618.921294,12759.918005,13828.197280,-0.064000,0.970000,0.086000,192.000000,0.000000,0.000000,0.000000,0.000000,0.000000,0.000000,0.000000,0.000000,0.000000,1647758903.010939,0.000000
232.000000,32048.244124,26021.923247,32417.249074,1195.997142,11742.153673,25620.195344,12775.184247,13824.643353,-0.064000,0.970000,0.086000,192.000000,0.000000,0.000000,0.000000,0.000000,0.000000,0.000000,0.000000,0.000000,0.000000,1647758903.010945,0.000000
233.000000,32046.880668,26019.956293,32417.316129,1194.052541,11740.901976,25619.010701,12774.468991,13833.137015,-0.058000,0.972000,0.082000,192.000000,254.000000,48.000000,30.000000,96.000000,2.000000,144.000000,0.000000,0.000000,0.000000,1647758903.018928,0.000000
234.000000,32037.135307,26011.708499,32407.615472,1203.887308,11729.346124,25607.946588,12764.276596,13825.135091,-0.058000,0.972000,0.082000,192.000000,0.000000,0.000000,0.000000,0.000000,0.000000,0.000000,0.000000,0.000000,0.000000,1647758903.026083,0.000000
235.000000,32035.324816,26008.914531,32406.877864,1211.442198,11727.490929,25605.510247,12758.599253,13818.429568,-0.058000,0.972000,0.082000,192.000000,0.000000,0.000000,0.000000,0.000000,0.000000,0.000000,0.000000,0.000000,0.000000,1647758903.026097,0.000000
236.000000,32031.904999,26007.998110,32411.616434,1217.968907,11727.647391,25607.723070,12764.880093,13823.704579,-0.058000,0.972000,0.082000,192.000000,0.000000,0.000000,0.000000,0.000000,0.000000,0.000000,0.000000,0.000000,0.000000,1647758903.033482,0.000000
237.000000,32019.477429,26000.532627,32402.854550,1225.859073,11718.416121,25599.810553,12767.182322,13814.227440,-0.058000,0.972000,0.082000,192.000000,0.000000,0.000000,0.000000,0.000000,0.000000,0.000000,0.000000,0.000000,0.000000,1647758903.033487,0.000000
238.000000,32020.460906,25995.391726,32395.299661,1228.206006,11715.868022,25595.943701,12758.241625,13812.148727,-0.058000,0.972000,0.082000,192.000000,0.000000,0.000000,0.000000,0.000000,0.000000,0.000000,0.000000,0.000000,0.000000,1647758903.041645,0.000000
239.000000,32034.318988,26004.667700,32402.988661,1245.305091,11724.451092,25606.337262,12767.964633,13823.302248,-0.058000,0.972000,0.082000,192.000000,0.000000,0.000000,0.000000,0.000000,0.000000,0.000000,0.000000,0.000000,0.000000,1647758903.041650,0.000000
240.000000,32036.151831,26010.814430,32410.945882,1236.364393,11732.207147,25615.188553,12776.950035,13829.001943,-0.058000,0.972000,0.082000,192.000000,0.000000,0.000000,0.000000,0.000000,0.000000,0.000000,0.000000,0.000000,0.000000,1647758903.049525,0.000000
241.000000,32032.262627,26009.361566,32416.042079,1225.121465,11735.559909,25618.541314,12782.470916,13832.801739,-0.058000,0.972000,0.082000,192.000000,0.000000,0.000000,0.000000,0.000000,0.000000,0.000000,0.000000,0.000000,0.000000,1647758903.049529,0.000000
242.000000,32034.542505,26007.551075,32411.459972,1198.098206,11734.196452,25613.936855,12780.101631,13815.613248,-0.058000,0.972000,0.082000,192.000000,0.000000,0.000000,0.000000,0.000000,0.000000,0.000000,0.000000,0.000000,0.000000,1647758903.056150,0.000000
243.000000,32039.348130,26007.685185,32405.827332,1173.958322,11729.837862,25610.628797,12773.597273,13823.235193,-0.058000,0.978000,0.088000,192.000000,254.000000,48.000000,30.000000,144.000000,2.000000,192.000000,0.000000,0.000000,0.000000,1647758903.056155,0.000000
244.000000,32043.952590,26019.688072,32414.253940,1174.986503,11735.582261,25609.980596,12772.882017,13814.138033,-0.058000,0.978000,0.088000,192.000000,0.000000,0.000000,0.000000,0.000000,0.000000,0.000000,0.000000,0.000000,0.000000,1647758903.064142,0.000000
245.000000,32033.514325,26007.595778,32409.515370,1172.527811,11730.016676,25604.884399,12770.132753,13805.845535,-0.058000,0.978000,0.088000,192.000000,0.000000,0.000000,0.000000,0.000000,0.000000,0.000000,0.000000,0.000000,0.000000,1647758903.064146,0.000000
246.000000,32026.071194,25996.352851,32410.789420,1176.662883,11731.827167,25614.339186,12777.709994,13828.487853,-0.058000,0.978000,0.088000,192.000000,0.000000,0.000000,0.000000,0.000000,0.000000,0.000000,0.000000,0.000000,0.000000,1647758903.072160,0.000000
247.000000,32023.791316,25993.938863,32403.346289,1182.586096,11724.518147,25613.445117,12771.876189,13837.652068,-0.058000,0.978000,0.088000,192.000000,0.000000,0.000000,0.000000,0.000000,0.000000,0.000000,0.000000,0.000000,0.000000,1647758903.072164,0.000000
248.000000,32032.933179,26002.253711,32406.296719,1170.784375,11727.289763,25618.541314,12773.194942,13842.904728,-0.058000,0.978000,0.088000,192.000000,0.000000,0.000000,0.000000,0.000000,0.000000,0.000000,0.000000,0.000000,0.000000,1647758903.079264,0.000000
249.000000,32024.372461,25997.537493,32405.559111,1187.950514,11726.149824,25617.647245,12769.819828,13836.467425,-0.058000,0.978000,0.088000,192.000000,0.000000,0.000000,0.000000,0.000000,0.000000,0.000000,0.000000,0.000000,0.000000,1647758903.085867,0.000000
250.000000,32020.304444,25996.352851,32405.648518,1191.817366,11727.647391,25620.888248,12776.637110,13833.271126,-0.058000,0.978000,0.088000,192.000000,0.000000,0.000000,0.000000,0.000000,0.000000,0.000000,0.000000,0.000000,0.000000,1647758903.085871,0.000000
251.000000,32026.741746,26002.320767,32407.749582,1159.072060,11729.748455,25621.424689,12776.480648,13832.332353,-0.058000,0.978000,0.088000,192.000000,0.000000,0.000000,0.000000,0.000000,0.000000,0.000000,0.000000,0.000000,0.000000,1647758903.093764,0.000000
252.000000,32027.322892,25998.073935,32402.519274,1154.266435,11726.261583,25617.401375,12768.791648,13827.660838,-0.058000,0.978000,0.088000,192.000000,0.000000,0.000000,0.000000,0.000000,0.000000,0.000000,0.000000,0.000000,0.000000,1647758903.093768,0.000000
253.000000,32028.127554,25998.677432,32397.378373,1161.418994,11724.384037,25612.305178,12759.538026,13821.737626,-0.058000,0.984000,0.094000,192.000000,254.000000,48.000000,30.000000,192.000000,2.000000,240.000000,0.000000,0.000000,0.000000,1647758903.101785,0.000000
254.000000,32029.669825,26000.644386,32398.607719,1164.950569,11726.596859,25613.109841,12764.276596,13821.357646,-0.058000,0.984000,0.094000,192.000000,0.000000,0.000000,0.000000,0.000000,0.000000,0.000000,0.000000,0.000000,0.000000,1647758903.101789,0.000000
255.000000,32037.559991,26004.332424,32404.374469,1150.086659,11731.782464,25621.558800,12779.073450,13833.181719,-0.058000,0.984000,0.094000,192.000000,0.000000,0.000000,0.000000,0.000000,0.000000,0.000000,0.000000,0.000000,0.000000,1647758903.108448,0.000000
0.000000,32035.928313,26001.024366,32403.905082,1151.405412,11729.368476,25615.993216,12767.271729,13829.650143,-0.058000,0.984000,0.094000,192.000000,0.000000,0.000000,0.000000,0.000000,0.000000,0.000000,0.000000,0.000000,0.000000,1647758903.108452,0.000000
1.000000,32036.889438,26003.818334,32407.749582,1150.243121,11732.967106,25619.033053,12775.050136,13825.045684,-0.058000,0.984000,0.094000,192.000000,0.000000,0.000000,0.000000,0.000000,0.000000,0.000000,0.000000,0.000000,0.000000,1647758903.116415,0.000000
2.000000,32034.140174,25999.638557,32404.910911,1153.886456,11728.697923,25613.780393,12774.491343,13817.647257,-0.058000,0.984000,0.094000,192.000000,0.000000,0.000000,0.000000,0.000000,0.000000,0.000000,0.000000,0.000000,0.000000,1647758903.116419,0.000000
3.000000,32032.039110,25997.112810,32402.653385,1152.590055,11726.239231,25608.930064,12768.054040,13810.271181,-0.058000,0.984000,0.094000,192.000000,0.000000,0.000000,0.000000,0.000000,0.000000,0.000000,0.000000,0.000000,0.000000,1647758903.124363,0.000000
4.000000,32040.421014,26008.623959,32413.069297,1149.796087,11738.331525,25619.368329,12767.674061,13821.759978,-0.058000,0.984000,0.094000,192.000000,0.000000,0.000000,0.000000,0.000000,0.000000,0.000000,0.000000,0.000000,0.000000,1647758903.124368,0.000000
5.000000,32031.994406,26002.700746,32404.843855,1170.918485,11731.514243,25614.562704,12760.387392,13821.670571,-0.058000,0.984000,0.094000,192.000000,0.000000,0.000000,0.000000,0.000000,0.000000,0.000000,0.000000,0.000000,0.000000,1647758903.131610,0.000000
6.000000,32036.777680,26004.824162,32405.156780,1165.710529,11733.056513,25622.475221,12777.553532,13827.057341,-0.058000,0.984000,0.094000,192.000000,0.000000,0.000000,0.000000,0.000000,0.000000,0.000000,0.000000,0.000000,0.000000,1647758903.131629,0.000000
7.000000,32040.577476,26003.170133,32408.509542,1170.203229,11733.503548,25627.437309,12793.199753,13829.448978,-0.056000,0.978000,0.092000,192.000000,254.000000,64.000000,30.000000,144.000000,2.000000,224.000000,0.000000,0.000000,0.000000,1647758903.138186,0.000000
8.000000,32031.659130,25997.269272,32404.307414,1158.088584,11729.726104,25623.436346,12786.583637,13824.866870,-0.056000,0.978000,0.092000,192.000000,0.000000,0.000000,0.000000,0.000000,0.000000,0.000000,0.000000,0.000000,0.000000,1647758903.146041,0.000000
9.000000,32034.944836,25996.777534,32400.149989,1157.239217,11727.289763,25621.715262,12780.459259,13826.587954,-0.056000,0.978000,0.092000,192.000000,0.000000,0.000000,0.000000,0.000000,0.000000,0.000000,0.000000,0.000000,0.000000,1647758903.146045,0.000000
10.000000,32022.852543,25989.356755,32393.489169,1160.971959,11719.153728,25612.461640,12769.730421,13816.932001,-0.056000,0.978000,0.092000,192.000000,0.000000,0.000000,0.000000,0.000000,0.000000,0.000000,0.000000,0.000000,0.000000,1647758903.154045,0.000000
11.000000,32027.658168,25999.236226,32402.228701,1156.099278,11725.926307,25616.864934,12773.194942,13821.782329,-0.056000,0.978000,0.092000,192.000000,0.000000,0.000000,0.000000,0.000000,0.000000,0.000000,0.000000,0.000000,0.000000,1647758903.154049,0.000000
12.000000,32030.698005,26002.186656,32406.520236,1152.187723,11727.781502,25617.647245,12769.395145,13825.403312,-0.056000,0.978000,0.092000,192.000000,0.000000,0.000000,0.000000,0.000000,0.000000,0.000000,0.000000,0.000000,0.000000,1647758903.161180,0.000000
13.000000,32033.044938,25999.169171,32405.514408,1131.087676,11727.222708,25616.015567,12776.614759,13818.206050,-0.056000,0.978000,0.092000,192.000000,0.000000,0.000000,0.000000,0.000000,0.000000,0.000000,0.000000,0.000000,0.000000,1647758903.161185,0.000000
14.000000,32035.928313,25995.011746,32400.060582,1140.386002,11722.998228,25610.427631,12771.496209,13811.925210,-0.056000,0.978000,0.092000,192.000000,0.000000,0.000000,0.000000,0.000000,0.000000,0.000000,0.000000,0.000000,0.000000,1647758903.168651,0.000000
15.000000,32033.514325,25997.112810,32403.748620,1153.171200,11725.814548,25613.355710,12772.099706,13818.161347,-0.056000,0.978000,0.092000,192.000000,0.000000,0.000000,0.000000,0.000000,0.000000,0.000000,0.000000,0.000000,0.000000,1647758903.168670,0.000000
16.000000,32031.323854,25997.917473,32409.895350,1138.016717,11728.943792,25616.373195,12771.630320,13814.562716,-0.056000,0.978000,0.092000,192.000000,0.000000,0.000000,0.000000,0.000000,0.000000,0.000000,0.000000,0.000000,0.000000,1647758903.176698,0.000000
17.000000,32034.721319,25998.565674,32405.402649,1123.890415,11726.887432,25613.668634,12766.400011,13801.732815,-0.060000,0.978000,0.088000,192.000000,254.000000,32.000000,30.000000,144.000000,2.000000,192.000000,0.000000,0.000000,0.000000,1647758903.176702,0.000000
18.000000,32034.788374,26001.180828,32400.105286,1111.328734,11726.842728,25616.507306,12763.784857,13816.686132,-0.060000,0.978000,0.088000,192.000000,0.000000,0.000000,0.000000,0.000000,0.000000,0.000000,0.000000,0.000000,0.000000,1647758903.184719,0.000000
19.000000,32036.263589,26000.085592,32399.390030,1113.586261,11726.261583,25618.608370,12765.662404,13823.615172,-0.060000,0.978000,0.088000,192.000000,0.000000,0.000000,0.000000,0.000000,0.000000,0.000000,0.000000,0.000000,0.000000,1647758903.184723,0.000000
20.000000,32028.462831,25995.235264,32395.277309,1121.834054,11721.902993,25619.435384,12773.194942,13818.809547,-0.060000,0.978000,0.088000,192.000000,0.000000,0.000000,0.000000,0.000000,0.000000,0.000000,0.000000,0.000000,0.000000,1647758903.191346,0.000000
21.000000,32018.069269,25987.680374,32389.532911,1122.929290,11715.577449,25610.919370,12762.957843,13805.867887,-0.060000,0.978000,0.088000,192.000000,0.000000,0.000000,0.000000,0.000000,0.000000,0.000000,0.000000,0.000000,0.000000,1647758903.191350,0.000000
22.000000,32021.444383,25992.106020,32395.858454,1126.214996,11721.523013,25616.619064,12767.428192,13816.037931,-0.060000,0.978000,0.088000,192.000000,0.000000,0.000000,0.000000,0.000000,0.000000,0.000000,0.000000,0.000000,0.000000,1647758903.198379,0.000000
23.000000,32032.732014,26001.918435,32405.402649,1137.055592,11730.843691,25624.308064,12773.239645,13819.882431,-0.060000,0.978000,0.088000,192.000000,0.000000,0.000000,0.000000,0.000000,0.000000,0.000000,0.000000,0.000000,0.000000,1647758903.206312,0.000000
24.000000,32033.424918,25996.285796,32400.954652,1154.802877,11726.395694,25617.624893,12764.298947,13807.521916,-0.060000,0.978000,0.088000,192.000000,0.000000,0.000000,0.000000,0.000000,0.000000,0.000000,0.000000,0.000000,0.000000,1647758903.206315,0.000000
25.000000,32042.969113,25997.179866,32397.043097,1147.560912,11724.696961,25618.362500,12760.588558,13814.853289,-0.060000,0.978000,0.088000,192.000000,0.000000,0.000000,0.000000,0.000000,0.000000,0.000000,0.000000,0.000000,0.000000,1647758903.214302,0.000000
26.000000,32049.451119,26006.724060,32402.429867,1112.043990,11732.117740,25625.559762,12768.612834,13821.737626,-0.060000,0.978000,0.088000,192.000000,0.000000,0.000000,0.000000,0.000000,0.000000,0.000000,0.000000,0.000000,0.000000,1647758903.214307,0.000000
27.000000,32047.774738,26010.345043,32410.878826,1109.831167,11736.990420,25632.600562,12790.092860,13827.750245,-0.060000,0.978000,0.088000,192.000000,0.000000,0.000000,0.000000,0.000000,0.000000,0.000000,0.000000,0.000000,0.000000,1647758903.220871,0.000000
28.000000,32036.665921,26000.264406,32405.536760,1107.595993,11728.474406,25621.245876,12775.854799,13811.656989,-0.058000,0.972000,0.098000,192.000000,254.000000,48.000000,30.000000,96.000000,3.000000,16.000000,0.000000,0.000000,0.000000,1647758903.220875,0.000000
29.000000,32029.803935,25996.688127,32401.424039,1097.895336,11721.679476,25608.930064,12762.801380,13794.021463,-0.058000,0.972000,0.098000,192.000000,0.000000,0.000000,0.000000,0.000000,0.000000,0.000000,0.000000,0.000000,0.000000,1647758903.228888,0.000000
30.000000,32037.492935,26000.934959,32409.291853,1107.663048,11726.127473,25613.825096,12768.501075,13816.462614,-0.058000,0.972000,0.098000,192.000000,0.000000,0.000000,0.000000,0.000000,0.000000,0.000000,0.000000,0.000000,0.000000,1647758903.228892,0.000000
31.000000,32037.157659,25997.716307,32404.150951,1099.616420,11723.668781,25614.495649,12773.440811,13827.325562,-0.058000,0.972000,0.098000,192.000000,0.000000,0.000000,0.000000,0.000000,0.000000,0.000000,0.000000,0.000000,0.000000,1647758903.236911,0.000000
32.000000,32033.871953,25998.498618,32401.468742,1092.083882,11723.981705,25613.199248,12778.089974,13817.244925,-0.058000,0.972000,0.098000,192.000000,0.000000,0.000000,0.000000,0.000000,0.000000,0.000000,0.000000,0.000000,0.000000,1647758903.236915,0.000000
33.000000,32025.870028,25993.424772,32396.283137,1096.420121,11718.751397,25608.639492,12773.954901,13811.455823,-0.058000,0.972000,0.098000,192.000000,0.000000,0.000000,0.000000,0.000000,0.000000,0.000000,0.000000,0.000000,0.000000,1647758903.243577,0.000000
34.000000,32025.668863,25989.267348,32396.685469,1100.331676,11717.566755,25607.320739,12770.758602,13810.070015,-0.058000,0.972000,0.098000,192.000000,0.000000,0.000000,0.000000,0.000000,0.000000,0.000000,0.000000,0.000000,0.000000,1647758903.243581,0.000000
35.000000,32033.894305,25993.514179,32403.189826,1085.646580,11724.071112,25615.255608,12777.128849,13813.668646,-0.058000,0.972000,0.098000,192.000000,0.000000,0.000000,0.000000,0.000000,0.000000,0.000000,0.000000,0.000000,0.000000,1647758903.251532,0.000000
36.000000,32037.269418,25998.632729,32401.804018,1061.193772,11727.960316,25622.788146,12785.063718,13820.664742,-0.058000,0.972000,0.098000,192.000000,0.000000,0.000000,0.000000,0.000000,0.000000,0.000000,0.000000,0.000000,0.000000,1647758903.251537,0.000000
37.000000,32037.582342,25997.515142,32399.255919,1055.628187,11727.356819,25622.989312,12780.526314,13823.570469,-0.058000,0.972000,0.098000,192.000000,0.000000,0.000000,0.000000,0.000000,0.000000,0.000000,0.000000,0.000000,0.000000,1647758903.258573,0.000000
38.000000,32038.118784,25995.928168,32394.673812,1050.397879,11722.350028,25617.624893,12777.017090,13817.826071,-0.060000,0.972000,0.092000,192.000000,254.000000,32.000000,30.000000,96.000000,2.000000,224.000000,0.000000,0.000000,0.000000,1647758903.258577,0.000000
39.000000,32042.298560,26002.209008,32393.310355,1053.638882,11722.126510,25617.848410,12779.364023,13815.121509,-0.060000,0.972000,0.092000,192.000000,0.000000,0.000000,0.000000,0.000000,0.000000,0.000000,0.000000,0.000000,0.000000,1647758903.266664,0.000000
40.000000,32037.872915,25999.280929,32396.216082,1020.312431,11726.798025,25622.877553,12779.699299,13815.680303,-0.060000,0.972000,0.092000,192.000000,0.000000,0.000000,0.000000,0.000000,0.000000,0.000000,0.000000,0.000000,0.000000,1647758903.273174,0.000000
41.000000,32024.104240,25982.517121,32389.354097,1001.134634,11718.863156,25616.507306,12773.127886,13807.432509,-0.060000,0.972000,0.092000,192.000000,0.000000,0.000000,0.000000,0.000000,0.000000,0.000000,0.000000,0.000000,0.000000,1647758903.273178,0.000000
42.000000,32023.567799,25980.058429,32386.694239,1016.445579,11714.906897,25614.272131,12768.903407,13806.560791,-0.060000,0.972000,0.092000,192.000000,0.000000,0.000000,0.000000,0.000000,0.000000,0.000000,0.000000,0.000000,0.000000,1647758903.281188,0.000000
43.000000,32041.963284,25994.408249,32398.406553,1025.140408,11727.781502,25626.900867,12778.268788,13826.386789,-0.060000,0.972000,0.092000,192.000000,0.000000,0.000000,0.000000,0.000000,0.000000,0.000000,0.000000,0.000000,0.000000,1647758903.281198,0.000000
44.000000,32039.236371,25994.922339,32396.149027,1025.922719,11726.641563,25624.218658,12777.508828,13820.754149,-0.060000,0.972000,0.092000,192.000000,0.000000,0.000000,0.000000,0.000000,0.000000,0.000000,0.000000,0.000000,0.000000,1647758903.289203,0.000000
45.000000,32037.090604,25997.403383,32399.881768,1017.160835,11728.474406,25623.503402,12772.949072,13814.115681,-0.060000,0.972000,0.092000,192.000000,0.000000,0.000000,0.000000,0.000000,0.000000,0.000000,0.000000,0.000000,0.000000,1647758903.289207,0.000000
46.000000,32025.646511,25983.031211,32390.091704,1025.185111,11718.349066,25611.925198,12765.260072,13800.704634,-0.060000,0.972000,0.092000,192.000000,0.000000,0.000000,0.000000,0.000000,0.000000,0.000000,0.000000,0.000000,0.000000,1647758903.296301,0.000000
47.000000,32029.043976,25991.368412,32391.388105,1037.769143,11721.433606,25613.042785,12760.007412,13811.545230,-0.060000,0.972000,0.092000,192.000000,0.000000,0.000000,0.000000,0.000000,0.000000,0.000000,0.000000,0.000000,0.000000,1647758903.296305,0.000000
48.000000,32032.374386,25997.559845,32392.148065,1050.017899,11721.925345,25615.188553,12768.925758,13813.959219,-0.066000,0.972000,0.092000,192.000000,253.000000,240.000000,30.000000,96.000000,2.000000,224.000000,0.000000,0.000000,0.000000,1647758903.303821,0.000000
49.000000,32032.821421,25993.692993,32389.868187,1041.166608,11718.036141,25608.952416,12761.795552,13803.833878,-0.066000,0.972000,0.092000,192.000000,0.000000,0.000000,0.000000,0.000000,0.000000,0.000000,0.000000,0.000000,0.000000,1647758903.303826,0.000000
50.000000,32027.836982,25988.619147,32385.643707,1048.050946,11710.838879,25602.381003,12762.980194,13795.474326,-0.066000,0.972000,0.092000,192.000000,0.000000,0.000000,0.000000,0.000000,0.000000,0.000000,0.000000,0.000000,0.000000,1647758903.311853,0.000000
51.000000,32040.823345,25999.191523,32399.792361,1032.404725,11723.780539,25618.965998,12789.399956,13813.199259,-0.066000,0.972000,0.092000,192.000000,0.000000,0.000000,0.000000,0.000000,0.000000,0.000000,0.000000,0.000000,0.000000,1647758903.311857,0.000000
52.000000,32037.269418,25991.681336,32399.211216,1013.428094,11719.444301,25613.109841,12776.190075,13808.550097,-0.066000,0.972000,0.092000,192.000000,0.000000,0.000000,0.000000,0.000000,0.000000,0.000000,0.000000,0.000000,0.000000,1647758903.319853,0.000000
53.000000,32036.621217,25989.848493,32396.529007,1016.803207,11718.371417,25608.907713,12765.550645,13804.482079,-0.066000,0.972000,0.092000,192.000000,0.000000,0.000000,0.000000,0.000000,0.000000,0.000000,0.000000,0.000000,0.000000,1647758903.319856,0.000000
54.000000,32033.737842,25990.451990,32394.316184,1034.081105,11719.109025,25608.237160,12767.607006,13806.851364,-0.066000,0.972000,0.092000,192.000000,0.000000,0.000000,0.000000,0.000000,0.000000,0.000000,0.000000,0.000000,0.000000,1647758903.326005,0.000000
55.000000,32029.267493,25985.378144,32385.934280,1035.958652,11713.565792,25601.665747,12762.376697,13800.391710,-0.066000,0.972000,0.092000,192.000000,0.000000,0.000000,0.000000,0.000000,0.000000,0.000000,0.000000,0.000000,0.000000,1647758903.334874,0.000000
56.000000,32029.893342,25981.913624,32383.989678,1019.820693,11710.972990,25599.877608,12760.521503,13796.413099,-0.066000,0.972000,0.092000,192.000000,0.000000,0.000000,0.000000,0.000000,0.000000,0.000000,0.000000,0.000000,0.000000,1647758903.334878,0.000000
57.000000,32040.689235,25994.654118,32395.813751,1021.385315,11720.494833,25611.254646,12773.373756,13809.801794,-0.066000,0.972000,0.092000,192.000000,0.000000,0.000000,0.000000,0.000000,0.000000,0.000000,0.000000,0.000000,0.000000,1647758903.341542,0.000000
58.000000,32051.038092,26003.214837,32406.140257,1012.019934,11729.279069,25621.827021,12778.626416,13821.000018,-0.064000,0.976000,0.092000,192.000000,254.000000,0.000000,30.000000,128.000000,2.000000,224.000000,0.000000,0.000000,0.000000,1647758903.341546,0.000000
59.000000,32047.797090,25999.437392,32402.519274,1022.458198,11726.418045,25621.290579,12779.118154,13817.915478,-0.064000,0.976000,0.092000,192.000000,0.000000,0.000000,0.000000,0.000000,0.000000,0.000000,0.000000,0.000000,0.000000,1647758903.348726,0.000000
60.000000,32046.433633,25999.727964,32392.371582,1024.894539,11722.975877,25619.927123,12781.867419,13810.829975,-0.064000,0.976000,0.092000,192.000000,0.000000,0.000000,0.000000,0.000000,0.000000,0.000000,0.000000,0.000000,0.000000,1647758903.348730,0.000000
61.000000,32041.315084,25999.079764,32393.176245,1012.042285,11721.835938,25620.105937,12778.224084,13813.288666,-0.064000,0.976000,0.092000,192.000000,0.000000,0.000000,0.000000,0.000000,0.000000,0.000000,0.000000,0.000000,0.000000,1647758903.356128,0.000000
62.000000,32029.043976,25995.324671,32396.618414,1012.310506,11719.310191,25618.965998,12771.987947,13805.912591,-0.064000,0.976000,0.092000,192.000000,0.000000,0.000000,0.000000,0.000000,0.000000,0.000000,0.000000,0.000000,0.000000,1647758903.356132,0.000000
63.000000,32029.267493,25992.508351,32394.763219,1017.630222,11716.985609,25614.942684,12767.584654,13793.842649,-0.064000,0.976000,0.092000,192.000000,0.000000,0.000000,0.000000,0.000000,0.000000,0.000000,0.000000,0.000000,0.000000,1647758903.364226,0.000000
64.000000,32028.731052,25988.529740,32389.935242,1010.723533,11714.415159,25615.434422,12766.042383,13800.347006,-0.064000,0.976000,0.092000,192.000000,0.000000,0.000000,0.000000,0.000000,0.000000,0.000000,0.000000,0.000000,0.000000,1647758903.364229,0.000000
65.000000,32034.497802,25990.183769,32388.750599,1018.703105,11713.901068,25613.847448,12760.253282,13803.319788,-0.064000,0.976000,0.092000,192.000000,0.000000,0.000000,0.000000,0.000000,0.000000,0.000000,0.000000,0.000000,0.000000,1647758903.372163,0.000000
66.000000,32038.498764,25996.397554,32395.232605,1031.510655,11719.176080,25620.932951,12777.754698,13806.627847,-0.064000,0.976000,0.092000,192.000000,0.000000,0.000000,0.000000,0.000000,0.000000,0.000000,0.000000,0.000000,0.000000,1647758903.372167,0.000000
67.000000,32044.041996,26005.829991,32399.367678,1022.659364,11725.859252,25624.509230,12779.274616,13810.338236,-0.064000,0.976000,0.092000,192.000000,0.000000,0.000000,0.000000,0.000000,0.000000,0.000000,0.000000,0.000000,0.000000,1647758903.379271,0.000000
68.000000,32042.320912,26004.824162,32394.450294,1008.533062,11722.953525,25619.994178,12776.123020,13800.324655,-0.066000,0.976000,0.092000,192.000000,253.000000,240.000000,30.000000,128.000000,2.000000,224.000000,0.000000,0.000000,0.000000,1647758903.379275,0.000000
69.000000,32028.552238,25997.515142,32386.582480,1000.933468,11715.622153,25611.835791,12765.483590,13802.112794,-0.066000,0.976000,0.092000,192.000000,0.000000,0.000000,0.000000,0.000000,0.000000,0.000000,0.000000,0.000000,0.000000,1647758903.385861,0.000000
70.000000,32038.744633,26009.942712,32401.781666,992.305695,11727.647391,25622.564628,12774.848971,13814.920344,-0.066000,0.976000,0.092000,192.000000,0.000000,0.000000,0.000000,0.000000,0.000000,0.000000,0.000000,0.000000,0.000000,1647758903.393777,0.000000
71.000000,32041.091566,26004.153610,32406.430829,983.655570,11727.468577,25624.285713,12778.022918,13812.484004,-0.066000,0.976000,0.092000,192.000000,0.000000,0.000000,0.000000,0.000000,0.000000,0.000000,0.000000,0.000000,0.000000,1647758903.393780,0.000000
72.000000,32036.800031,25995.771706,32399.166512,996.127843,11718.371417,25614.495649,12773.887846,13795.295512,-0.066000,0.976000,0.092000,192.000000,0.000000,0.000000,0.000000,0.000000,0.000000,0.000000,0.000000,0.000000,0.000000,1647758903.401774,0.000000
73.000000,32041.695063,26000.242054,32402.943957,997.245431,11723.288801,25617.669596,12775.653634,13805.063224,-0.066000,0.976000,0.092000,192.000000,0.000000,0.000000,0.000000,0.000000,0.000000,0.000000,0.000000,0.000000,0.000000,1647758903.401777,0.000000
74.000000,32053.586191,26004.824162,32405.715574,1013.629259,11726.440397,25619.658902,12771.898540,13805.264390,-0.066000,0.976000,0.092000,192.000000,0.000000,0.000000,0.000000,0.000000,0.000000,0.000000,0.000000,0.000000,0.000000,1647758903.408417,0.000000
75.000000,32061.968096,26013.809563,32411.147047,993.088006,11734.308211,25628.711358,12780.615721,13818.854251,-0.066000,0.976000,0.092000,192.000000,0.000000,0.000000,0.000000,0.000000,0.000000,0.000000,0.000000,0.000000,0.000000,1647758903.408421,0.000000
76.000000,32051.306313,26007.059337,32402.765143,988.818823,11726.418045,25618.742480,12766.332956,13810.472347,-0.066000,0.976000,0.092000,192.000000,0.000000,0.000000,0.000000,0.000000,0.000000,0.000000,0.000000,0.000000,0.000000,1647758903.416422,0.000000
77.000000,32049.473470,26005.047680,32402.005184,996.731340,11724.585202,25614.406242,12762.376697,13802.425719,-0.066000,0.976000,0.092000,192.000000,0.000000,0.000000,0.000000,0.000000,0.000000,0.000000,0.000000,0.000000,0.000000,1647758903.416426,0.000000
78.000000,32052.625066,26006.433488,32405.939091,995.792567,11729.390827,25618.921294,12775.184247,13800.548172,-0.064000,0.976000,0.090000,192.000000,254.000000,0.000000,30.000000,128.000000,2.000000,208.000000,0.000000,0.000000,0.000000,1647758903.424396,0.000000
79.000000,32048.355883,26005.628825,32402.720440,1002.989829,11726.596859,25614.607407,12760.365040,13801.039910,-0.064000,0.976000,0.090000,192.000000,0.000000,0.000000,0.000000,0.000000,0.000000,0.000000,0.000000,0.000000,0.000000,1647758903.424400,0.000000
80.000000,32036.375348,25999.415040,32393.377411,984.817861,11720.204260,25609.064175,12762.264939,13795.362567,-0.064000,0.976000,0.090000,192.000000,0.000000,0.000000,0.000000,0.000000,0.000000,0.000000,0.000000,0.000000,0.000000,1647758903.431571,0.000000
81.000000,32035.928313,26001.314938,32398.048925,982.783852,11723.445263,25613.087489,12776.100668,13793.887352,-0.064000,0.976000,0.090000,192.000000,0.000000,0.000000,0.000000,0.000000,0.000000,0.000000,0.000000,0.000000,0.000000,1647758903.431576,0.000000
82.000000,32047.707683,26010.322691,32407.190789,991.255163,11732.922403,25624.241009,12786.449526,13805.867887,-0.064000,0.976000,0.090000,192.000000,0.000000,0.000000,0.000000,0.000000,0.000000,0.000000,0.000000,0.000000,0.000000,1647758903.439194,0.000000
83.000000,32057.497747,26010.926188,32406.743754,988.751768,11734.621136,25625.671521,12786.069546,13808.080710,-0.064000,0.976000,0.090000,192.000000,0.000000,0.000000,0.000000,0.000000,0.000000,0.000000,0.000000,0.000000,0.000000,1647758903.439202,0.000000
84.000000,32051.127499,26013.876619,32403.413344,990.182279,11734.263508,25623.793974,12772.680852,13801.531649,-0.064000,0.976000,0.090000,192.000000,0.000000,0.000000,0.000000,0.000000,0.000000,0.000000,0.000000,0.000000,0.000000,1647758903.446043,0.000000
85.000000,32049.026435,26016.625883,32406.117905,983.119128,11736.141054,25627.437309,12775.787744,13806.404329,-0.064000,0.976000,0.090000,192.000000,0.000000,0.000000,0.000000,0.000000,0.000000,0.000000,0.000000,0.000000,0.000000,1647758903.454050,0.000000
86.000000,32048.668808,26012.781383,32404.977966,988.014160,11730.262545,25620.821192,12766.131790,13799.117660,-0.064000,0.976000,0.090000,192.000000,0.000000,0.000000,0.000000,0.000000,0.000000,0.000000,0.000000,0.000000,0.000000,1647758903.454059,0.000000
87.000000,32057.833023,26020.135107,32410.118867,975.832459,11736.006944,25628.152565,12773.463163,13808.527745,-0.064000,0.976000,0.090000,192.000000,0.000000,0.000000,0.000000,0.000000,0.000000,0.000000,0.000000,0.000000,0.000000,1647758903.461224,0.000000
88.000000,32051.261610,26014.815392,32403.592158,968.054052,11729.703752,25623.950437,12770.020994,13802.716291,-0.060000,0.978000,0.088000,192.000000,254.000000,32.000000,30.000000,144.000000,2.000000,192.000000,0.000000,0.000000,0.000000,1647758903.461232,0.000000
89.000000,32050.188726,26015.150668,32402.832198,980.392215,11729.882566,25626.185611,12782.314453,13802.448070,-0.060000,0.978000,0.088000,192.000000,0.000000,0.000000,0.000000,0.000000,0.000000,0.000000,0.000000,0.000000,0.000000,1647758903.468590,0.000000
90.000000,32044.980770,26012.133183,32400.932300,960.700328,11727.289763,25622.989312,12776.435945,13794.468498,-0.060000,0.978000,0.088000,192.000000,0.000000,0.000000,0.000000,0.000000,0.000000,0.000000,0.000000,0.000000,0.000000,1647758903.468597,0.000000
91.000000,32043.952590,26013.831915,32399.144161,951.334948,11726.149824,25618.921294,12774.804267,13781.102154,-0.060000,0.978000,0.088000,192.000000,0.000000,0.000000,0.000000,0.000000,0.000000,0.000000,0.000000,0.000000,0.000000,1647758903.477087,0.000000
92.000000,32049.406415,26017.452898,32397.870111,955.514724,11724.406388,25614.965035,12771.853837,13788.880561,-0.060000,0.978000,0.088000,192.000000,0.000000,0.000000,0.000000,0.000000,0.000000,0.000000,0.000000,0.000000,0.000000,1647758903.477098,0.000000
93.000000,32046.366578,26011.976720,32393.779742,953.100735,11723.445263,25619.368329,12771.183285,13812.349893,-0.060000,0.978000,0.088000,192.000000,0.000000,0.000000,0.000000,0.000000,0.000000,0.000000,0.000000,0.000000,0.000000,1647758903.485030,0.000000
94.000000,32051.194555,26013.921322,32403.726268,936.627500,11731.491891,25626.811460,12774.714860,13811.969913,-0.060000,0.978000,0.088000,192.000000,0.000000,0.000000,0.000000,0.000000,0.000000,0.000000,0.000000,0.000000,0.000000,1647758903.485042,0.000000
95.000000,32050.903982,26013.653101,32406.631995,925.898662,11732.453016,25628.309027,12774.200770,13816.797890,-0.060000,0.978000,0.088000,192.000000,0.000000,0.000000,0.000000,0.000000,0.000000,0.000000,0.000000,0.000000,0.000000,1647758903.491787,0.000000
96.000000,32050.680465,26012.691976,32407.213140,919.595470,11731.581298,25625.895038,12770.065697,13812.282838,-0.060000,0.978000,0.088000,192.000000,0.000000,0.000000,0.000000,0.000000,0.000000,0.000000,0.000000,0.000000,0.000000,1647758903.491805,0.000000
97.000000,32054.659075,26011.417927,32412.912835,923.842302,11736.409275,25629.359559,12772.256168,13812.506355,-0.060000,0.978000,0.088000,192.000000,0.000000,0.000000,0.000000,0.000000,0.000000,0.000000,0.000000,0.000000,0.000000,1647758903.499696,0.000000
98.000000,32051.641590,26005.695880,32404.821504,928.022078,11730.374304,25623.995140,12772.747907,13801.017559,-0.058000,0.980000,0.086000,192.000000,254.000000,48.000000,30.000000,160.000000,2.000000,176.000000,0.000000,0.000000,0.000000,1647758903.499713,0.000000
99.000000,32051.574534,26006.455839,32397.534835,936.158113,11728.541461,25620.843544,12775.117192,13796.100175,-0.058000,0.980000,0.086000,192.000000,0.000000,0.000000,0.000000,0.000000,0.000000,0.000000,0.000000,0.000000,0.000000,1647758903.506713,0.000000
100.000000,32051.239258,26007.461668,32394.003259,955.514724,11728.563813,25621.201172,12777.933511,13801.509297,-0.058000,0.980000,0.086000,192.000000,0.000000,0.000000,0.000000,0.000000,0.000000,0.000000,0.000000,0.000000,0.000000,1647758903.506730,0.000000
101.000000,32051.820404,26010.076822,32398.607719,941.433125,11731.290726,25624.196306,12782.470916,13805.577315,-0.058000,0.980000,0.086000,192.000000,0.000000,0.000000,0.000000,0.000000,0.000000,0.000000,0.000000,0.000000,0.000000,1647758903.513806,0.000000
102.000000,32045.785433,26005.114735,32394.807922,953.704232,11727.043894,25620.642378,12777.911160,13795.586085,-0.058000,0.980000,0.086000,192.000000,0.000000,0.000000,0.000000,0.000000,0.000000,0.000000,0.000000,0.000000,0.000000,1647758903.521356,0.000000
103.000000,32061.275191,26008.914531,32396.529007,948.943311,11729.010848,25620.105937,12770.535084,13798.581219,-0.058000,0.980000,0.086000,192.000000,0.000000,0.000000,0.000000,0.000000,0.000000,0.000000,0.000000,0.000000,0.000000,1647758903.521372,0.000000
104.000000,32047.886497,26008.713366,32394.740867,947.848075,11726.105121,25615.993216,12763.829561,13794.736719,-0.058000,0.980000,0.086000,192.000000,0.000000,0.000000,0.000000,0.000000,0.000000,0.000000,0.000000,0.000000,0.000000,1647758903.529328,0.000000
105.000000,32051.507479,26019.084575,32406.699050,956.609959,11736.968069,25627.884344,12783.141468,13803.945637,-0.058000,0.980000,0.086000,192.000000,0.000000,0.000000,0.000000,0.000000,0.000000,0.000000,0.000000,0.000000,0.000000,1647758903.529345,0.000000
106.000000,32058.034189,26021.096232,32410.476495,925.161055,11741.058438,25633.159355,12794.406747,13807.477213,-0.058000,0.980000,0.086000,192.000000,0.000000,0.000000,0.000000,0.000000,0.000000,0.000000,0.000000,0.000000,0.000000,1647758903.537430,0.000000
107.000000,32053.765005,26013.273122,32402.541626,915.326287,11734.129397,25627.169088,12788.237666,13800.056434,-0.058000,0.980000,0.086000,192.000000,0.000000,0.000000,0.000000,0.000000,0.000000,0.000000,0.000000,0.000000,0.000000,1647758903.537465,0.000000
108.000000,32048.892325,26005.226494,32391.209291,934.593491,11723.177042,25618.943646,12774.848971,13799.788213,-0.060000,0.986000,0.084000,192.000000,254.000000,32.000000,30.000000,208.000000,2.000000,160.000000,0.000000,0.000000,0.000000,1647758903.543717,0.000000
109.000000,32052.222735,26009.115697,32391.768085,935.286395,11725.903955,25622.430518,12776.525352,13802.269256,-0.060000,0.986000,0.084000,192.000000,0.000000,0.000000,0.000000,0.000000,0.000000,0.000000,0.000000,0.000000,0.000000,1647758903.543729,0.000000
110.000000,32055.575497,26011.239113,32396.104323,934.012346,11729.368476,25628.219620,12790.092860,13803.051567,-0.060000,0.986000,0.084000,192.000000,0.000000,0.000000,0.000000,0.000000,0.000000,0.000000,0.000000,0.000000,0.000000,1647758903.551924,0.000000
111.000000,32058.503575,26017.475249,32405.626167,894.561517,11737.929194,25634.366350,12788.617645,13797.530687,-0.060000,0.986000,0.084000,192.000000,0.000000,0.000000,0.000000,0.000000,0.000000,0.000000,0.000000,0.000000,0.000000,1647758903.551940,0.000000
112.000000,32041.404491,26004.824162,32400.619376,905.268002,11728.273240,25629.203097,12779.855762,13800.771690,-0.060000,0.986000,0.084000,192.000000,0.000000,0.000000,0.000000,0.000000,0.000000,0.000000,0.000000,0.000000,0.000000,1647758903.560025,0.000000
113.000000,32046.210116,26011.127354,32404.374469,925.339869,11731.737761,25632.175879,12779.408727,13809.622980,-0.060000,0.986000,0.084000,192.000000,0.000000,0.000000,0.000000,0.000000,0.000000,0.000000,0.000000,0.000000,0.000000,1647758903.560041,0.000000
114.000000,32047.886497,26010.099174,32400.261748,920.266023,11729.837862,25631.550030,12780.146334,13813.512184,-0.060000,0.986000,0.084000,192.000000,0.000000,0.000000,0.000000,0.000000,0.000000,0.000000,0.000000,0.000000,0.000000,1647758903.567893,0.000000
115.000000,32067.913660,26023.465517,32415.684452,917.717924,11745.014697,25644.357579,12786.874209,13817.021408,-0.060000,0.986000,0.084000,192.000000,0.000000,0.000000,0.000000,0.000000,0.000000,0.000000,0.000000,0.000000,0.000000,1647758903.567909,0.000000
116.000000,32064.046808,26022.280875,32414.164533,920.623651,11741.460769,25639.417844,12776.614759,13805.085576,-0.060000,0.986000,0.084000,192.000000,0.000000,0.000000,0.000000,0.000000,0.000000,0.000000,0.000000,0.000000,0.000000,1647758903.574022,0.000000
117.000000,32056.670732,26019.576313,32407.816637,934.258215,11734.799950,25630.834774,12772.770259,13794.557905,-0.060000,0.986000,0.084000,192.000000,0.000000,0.000000,0.000000,0.000000,0.000000,0.000000,0.000000,0.000000,0.000000,1647758903.581413,0.000000
118.000000,32059.531755,26019.039872,32405.290890,948.026889,11734.263508,25626.006797,12768.478724,13788.299416,-0.062000,0.976000,0.084000,192.000000,254.000000,16.000000,30.000000,128.000000,2.000000,160.000000,0.000000,0.000000,0.000000,1647758903.581422,0.000000
119.000000,32066.594907,26018.659892,32405.313242,924.311688,11735.872833,25623.503402,12766.981157,13785.997186,-0.062000,0.976000,0.084000,192.000000,0.000000,0.000000,0.000000,0.000000,0.000000,0.000000,0.000000,0.000000,0.000000,1647758903.591175,0.000000
120.000000,32067.064293,26019.576313,32408.263672,912.085284,11736.923365,25621.067062,12764.500113,13783.940826,-0.062000,0.976000,0.084000,192.000000,0.000000,0.000000,0.000000,0.000000,0.000000,0.000000,0.000000,0.000000,0.000000,1647758903.591191,0.000000
121.000000,32058.101244,26009.830953,32404.039193,917.025020,11731.827167,25617.624893,12768.679889,13781.884465,-0.062000,0.976000,0.084000,192.000000,0.000000,0.000000,0.000000,0.000000,0.000000,0.000000,0.000000,0.000000,0.000000,1647758903.597302,0.000000
122.000000,32047.014778,26006.433488,32405.067373,925.965718,11731.827167,25622.162297,12777.352366,13788.254713,-0.062000,0.976000,0.084000,192.000000,0.000000,0.000000,0.000000,0.000000,0.000000,0.000000,0.000000,0.000000,0.000000,1647758903.597318,0.000000
123.000000,32050.233430,26010.009767,32406.028498,933.140628,11733.570604,25626.744405,12775.743041,13799.430585,-0.062000,0.976000,0.084000,192.000000,0.000000,0.000000,0.000000,0.000000,0.000000,0.000000,0.000000,0.000000,0.000000,1647758903.604029,0.000000
124.000000,32055.620200,26011.753203,32405.872036,924.736372,11733.883528,25626.207963,12764.030726,13804.012692,-0.062000,0.976000,0.084000,192.000000,0.000000,0.000000,0.000000,0.000000,0.000000,0.000000,0.000000,0.000000,0.000000,1647758903.604045,0.000000
125.000000,32060.850508,26020.783308,32414.522161,905.513871,11741.997211,25634.902791,12775.139543,13810.271181,-0.062000,0.976000,0.084000,192.000000,0.000000,0.000000,0.000000,0.000000,0.000000,0.000000,0.000000,0.000000,0.000000,1647758903.612002,0.000000
126.000000,32056.178994,26019.643369,32415.639748,894.315647,11741.594880,25638.277905,12794.943189,13808.550097,-0.062000,0.976000,0.084000,192.000000,0.000000,0.000000,0.000000,0.000000,0.000000,0.000000,0.000000,0.000000,0.000000,1647758903.612013,0.000000
127.000000,32052.133328,26014.435412,32407.146085,909.447778,11734.621136,25631.371216,12779.453430,13798.536515,-0.062000,0.976000,0.084000,192.000000,0.000000,0.000000,0.000000,0.000000,0.000000,0.000000,0.000000,0.000000,0.000000,1647758903.620175,0.000000
128.000000,32057.453043,26023.152593,32406.162608,919.193139,11737.124531,25635.126309,12783.364985,13800.883448,-0.062000,0.976000,0.084000,192.000000,0.000000,0.000000,0.000000,0.000000,0.000000,0.000000,0.000000,0.000000,0.000000,1647758903.620186,0.000000
129.000000,32067.332514,26027.846459,32410.610606,901.647020,11742.578357,25640.446024,12792.372738,13806.963123,-0.064000,0.976000,0.082000,192.000000,254.000000,0.000000,30.000000,128.000000,2.000000,144.000000,0.000000,0.000000,0.000000,1647758903.626955,0.000000
130.000000,32067.220755,26026.013616,32409.202446,872.992083,11739.337354,25640.088396,12796.239590,13803.252733,-0.064000,0.976000,0.082000,192.000000,0.000000,0.000000,0.000000,0.000000,0.000000,0.000000,0.000000,0.000000,0.000000,1647758903.626971,0.000000
131.000000,32064.605601,26023.130241,32406.341422,874.467298,11734.621136,25632.712320,12781.778012,13788.075899,-0.064000,0.976000,0.082000,192.000000,0.000000,0.000000,0.000000,0.000000,0.000000,0.000000,0.000000,0.000000,0.000000,1647758903.633971,0.000000
132.000000,32057.363636,26017.408194,32402.183998,889.845299,11729.212013,25627.526716,12770.579788,13792.680358,-0.064000,0.976000,0.082000,192.000000,0.000000,0.000000,0.000000,0.000000,0.000000,0.000000,0.000000,0.000000,0.000000,1647758903.642010,0.000000
133.000000,32059.308238,26025.052491,32404.530931,897.266078,11733.190624,25634.343998,12791.188096,13800.592876,-0.064000,0.976000,0.082000,192.000000,0.000000,0.000000,0.000000,0.000000,0.000000,0.000000,0.000000,0.000000,0.000000,1647758903.642026,0.000000
134.000000,32065.678485,26028.338197,32402.653385,896.260249,11730.933098,25629.896001,12794.429099,13797.485983,-0.064000,0.976000,0.082000,192.000000,0.000000,0.000000,0.000000,0.000000,0.000000,0.000000,0.000000,0.000000,0.000000,1647758903.648999,0.000000
135.000000,32056.715436,26016.648235,32402.318108,883.497403,11727.736798,25630.879477,12789.757584,13810.427643,-0.064000,0.976000,0.082000,192.000000,0.000000,0.000000,0.000000,0.000000,0.000000,0.000000,0.000000,0.000000,0.000000,1647758903.649016,0.000000
136.000000,32053.608543,26013.183715,32411.214103,879.496441,11731.603650,25633.628742,12789.690529,13805.197335,-0.064000,0.976000,0.082000,192.000000,0.000000,0.000000,0.000000,0.000000,0.000000,0.000000,0.000000,0.000000,0.000000,1647758903.656402,0.000000
137.000000,32062.325723,26021.498563,32418.523123,877.484784,11737.884490,25638.702588,12792.730366,13806.739605,-0.064000,0.976000,0.082000,192.000000,0.000000,0.000000,0.000000,0.000000,0.000000,0.000000,0.000000,0.000000,0.000000,1647758903.656418,0.000000
138.000000,32067.064293,26027.131203,32417.986681,869.035824,11738.532691,25637.517945,12791.076337,13803.319788,-0.064000,0.976000,0.082000,192.000000,0.000000,0.000000,0.000000,0.000000,0.000000,0.000000,0.000000,0.000000,0.000000,1647758903.664497,0.000000
139.000000,32056.961305,26016.268255,32404.486228,848.740440,11726.216880,25626.476184,12788.014148,13790.244018,-0.062000,0.970000,0.084000,192.000000,254.000000,16.000000,30.000000,80.000000,2.000000,160.000000,0.000000,0.000000,0.000000,1647758903.664515,0.000000
140.000000,32059.531755,26016.178848,32405.067373,854.507191,11728.563813,25629.605428,12787.991796,13794.021463,-0.062000,0.970000,0.084000,192.000000,0.000000,0.000000,0.000000,0.000000,0.000000,0.000000,0.000000,0.000000,0.000000,1647758903.673170,0.000000
141.000000,32064.225622,26016.625883,32404.463876,858.172877,11730.486063,25630.275980,12786.226009,13798.022425,-0.062000,0.970000,0.084000,192.000000,0.000000,0.000000,0.000000,0.000000,0.000000,0.000000,0.000000,0.000000,0.000000,1647758903.673188,0.000000
142.000000,32056.603677,26014.502467,32398.384201,861.346824,11725.680438,25620.061233,12775.005433,13777.458820,-0.062000,0.970000,0.084000,192.000000,0.000000,0.000000,0.000000,0.000000,0.000000,0.000000,0.000000,0.000000,0.000000,1647758903.679004,0.000000
143.000000,32067.041942,26030.752186,32413.717498,863.626702,11741.304307,25635.126309,12786.717747,13806.694902,-0.062000,0.970000,0.084000,192.000000,0.000000,0.000000,0.000000,0.000000,0.000000,0.000000,0.000000,0.000000,0.000000,1647758903.679014,0.000000
144.000000,32073.591003,26039.938753,32421.115925,839.464467,11748.680383,25643.843489,12795.233762,13823.078730,-0.062000,0.970000,0.084000,192.000000,0.000000,0.000000,0.000000,0.000000,0.000000,0.000000,0.000000,0.000000,0.000000,1647758903.686811,0.000000
145.000000,32062.929221,26029.701654,32411.214103,826.656917,11737.258641,25630.387739,12781.465087,13805.622018,-0.062000,0.970000,0.084000,192.000000,0.000000,0.000000,0.000000,0.000000,0.000000,0.000000,0.000000,0.000000,0.000000,1647758903.686820,0.000000
146.000000,32060.336418,26027.175907,32407.704879,844.046574,11733.123569,25627.459660,12776.860628,13799.654102,-0.062000,0.970000,0.084000,192.000000,0.000000,0.000000,0.000000,0.000000,0.000000,0.000000,0.000000,0.000000,0.000000,1647758903.694310,0.000000
147.000000,32054.323799,26026.706520,32401.535797,832.066039,11729.368476,25627.169088,12776.704166,13802.649236,-0.062000,0.970000,0.084000,192.000000,0.000000,0.000000,0.000000,0.000000,0.000000,0.000000,0.000000,0.000000,0.000000,1647758903.702337,0.000000
148.000000,32057.229526,26028.584066,32405.022669,825.740495,11732.318906,25630.119518,12782.470916,13806.538440,-0.062000,0.970000,0.084000,192.000000,0.000000,0.000000,0.000000,0.000000,0.000000,0.000000,0.000000,0.000000,0.000000,1647758903.702355,0.000000
149.000000,32059.822328,26021.498563,32400.373507,826.075772,11727.960316,25627.034977,12786.561285,13804.862059,-0.064000,0.982000,0.082000,192.000000,254.000000,0.000000,30.000000,176.000000,2.000000,144.000000,0.000000,0.000000,0.000000,1647758903.708955,0.000000
150.000000,32063.376255,26021.319750,32400.999355,818.722048,11727.267412,25624.397471,12782.828544,13804.012692,-0.064000,0.982000,0.082000,192.000000,0.000000,0.000000,0.000000,0.000000,0.000000,0.000000,0.000000,0.000000,0.000000,1647758903.708990,0.000000
151.000000,32061.655171,26027.354721,32409.269501,796.526765,11734.665839,25628.219620,12779.051099,13809.198297,-0.064000,0.982000,0.082000,192.000000,0.000000,0.000000,0.000000,0.000000,0.000000,0.000000,0.000000,0.000000,0.000000,1647758903.716738,0.000000
152.000000,32056.827194,26026.907686,32413.024594,778.265390,11733.637659,25628.934876,12794.272637,13809.086538,-0.064000,0.982000,0.082000,192.000000,0.000000,0.000000,0.000000,0.000000,0.000000,0.000000,0.000000,0.000000,0.000000,1647758903.716754,0.000000
153.000000,32053.809709,26021.297398,32410.007108,781.662855,11728.139130,25626.364425,12794.719672,13810.651161,-0.064000,0.982000,0.082000,192.000000,0.000000,0.000000,0.000000,0.000000,0.000000,0.000000,0.000000,0.000000,0.000000,1647758903.724770,0.000000
154.000000,32046.768909,26013.049604,32401.826370,804.707504,11721.411255,25622.028187,12780.503962,13806.136108,-0.064000,0.982000,0.082000,192.000000,0.000000,0.000000,0.000000,0.000000,0.000000,0.000000,0.000000,0.000000,0.000000,1647758903.724787,0.000000
155.000000,32049.719340,26014.703633,32400.932300,790.603553,11723.601726,25622.519925,12778.782878,13807.588972,-0.064000,0.982000,0.082000,192.000000,0.000000,0.000000,0.000000,0.000000,0.000000,0.000000,0.000000,0.000000,0.000000,1647758903.731416,0.000000
156.000000,32059.688218,26022.325578,32406.855512,774.443242,11731.313077,25630.097166,12788.796459,13820.485928,-0.064000,0.982000,0.082000,192.000000,0.000000,0.000000,0.000000,0.000000,0.000000,0.000000,0.000000,0.000000,0.000000,1647758903.731432,0.000000
157.000000,32068.159529,26028.896991,32412.354042,767.871829,11739.560871,25635.573344,12797.267770,13831.326524,-0.064000,0.982000,0.082000,192.000000,0.000000,0.000000,0.000000,0.000000,0.000000,0.000000,0.000000,0.000000,0.000000,1647758903.739421,0.000000
158.000000,32071.422883,26031.914476,32416.802039,768.743547,11742.734819,25634.254591,12803.973294,13833.673457,-0.064000,0.982000,0.082000,192.000000,0.000000,0.000000,0.000000,0.000000,0.000000,0.000000,0.000000,0.000000,0.000000,1647758903.739438,0.000000
159.000000,32069.120654,26027.019444,32406.520236,809.311963,11734.442322,25621.111765,12791.165744,13820.664742,-0.060000,0.984000,0.084000,192.000000,254.000000,32.000000,30.000000,192.000000,2.000000,160.000000,0.000000,0.000000,0.000000,1647758903.747416,0.000000
160.000000,32071.042904,26025.745395,32401.692260,816.866853,11733.145920,25618.764832,12794.250285,13819.591858,-0.060000,0.984000,0.084000,192.000000,0.000000,0.000000,0.000000,0.000000,0.000000,0.000000,0.000000,0.000000,0.000000,1647758903.747434,0.000000
161.000000,32074.105093,26038.262372,32418.321957,802.181757,11746.691078,25630.946533,12807.437814,13830.678324,-0.060000,0.984000,0.084000,192.000000,0.000000,0.000000,0.000000,0.000000,0.000000,0.000000,0.000000,0.000000,0.000000,1647758903.754522,0.000000
162.000000,32068.226584,26039.581125,32418.478420,782.042835,11744.142979,25629.091338,12808.041311,13834.299306,-0.060000,0.984000,0.084000,192.000000,0.000000,0.000000,0.000000,0.000000,0.000000,0.000000,0.000000,0.000000,0.000000,1647758903.754538,0.000000
163.000000,32071.959325,26037.301247,32414.119829,780.433509,11738.689153,25621.871724,12800.888753,13829.448978,-0.060000,0.984000,0.084000,192.000000,0.000000,0.000000,0.000000,0.000000,0.000000,0.000000,0.000000,0.000000,0.000000,1647758903.760871,0.000000
164.000000,32071.936974,26034.976665,32415.595045,768.274160,11736.744551,25616.864934,12789.690529,13827.213803,-0.060000,0.984000,0.084000,192.000000,0.000000,0.000000,0.000000,0.000000,0.000000,0.000000,0.000000,0.000000,0.000000,1647758903.768890,0.000000
165.000000,32064.158566,26034.283761,32418.478420,759.087593,11736.722200,25613.333358,12780.414555,13825.313905,-0.060000,0.984000,0.084000,192.000000,0.000000,0.000000,0.000000,0.000000,0.000000,0.000000,0.000000,0.000000,0.000000,1647758903.768903,0.000000
166.000000,32058.749444,26030.796889,32418.813696,744.044869,11735.850481,25616.417899,12803.638018,13822.698751,-0.060000,0.984000,0.084000,192.000000,0.000000,0.000000,0.000000,0.000000,0.000000,0.000000,0.000000,0.000000,0.000000,1647758903.776779,0.000000
167.000000,32057.050712,26024.471345,32414.142181,756.897122,11731.000153,25612.551047,12810.768224,13812.416948,-0.060000,0.984000,0.084000,192.000000,0.000000,0.000000,0.000000,0.000000,0.000000,0.000000,0.000000,0.000000,0.000000,1647758903.776792,0.000000
168.000000,32066.393741,26032.137994,32417.673757,750.213951,11736.029295,25614.272131,12807.415462,13810.986437,-0.060000,0.984000,0.084000,192.000000,0.000000,0.000000,0.000000,0.000000,0.000000,0.000000,0.000000,0.000000,0.000000,1647758903.783915,0.000000
169.000000,32068.584212,26032.383863,32417.405536,740.759163,11737.951545,25617.066099,12804.062701,13826.409140,-0.062000,0.970000,0.090000,192.000000,254.000000,16.000000,30.000000,80.000000,2.000000,208.000000,0.000000,0.000000,0.000000,1647758903.783927,0.000000
170.000000,32068.427750,26031.422738,32416.153838,766.106041,11738.264470,25616.864934,12797.066605,13844.983440,-0.062000,0.970000,0.090000,192.000000,0.000000,0.000000,0.000000,0.000000,0.000000,0.000000,0.000000,0.000000,0.000000,1647758903.791454,0.000000
171.000000,32076.206157,26034.775500,32417.718460,764.563771,11741.796046,25618.116631,12796.664273,13840.691905,-0.062000,0.970000,0.090000,192.000000,0.000000,0.000000,0.000000,0.000000,0.000000,0.000000,0.000000,0.000000,0.000000,1647758903.791485,0.000000
172.000000,32075.468549,26033.769671,32417.763164,754.706652,11743.293612,25618.407204,12801.648712,13834.925155,-0.062000,0.970000,0.090000,192.000000,0.000000,0.000000,0.000000,0.000000,0.000000,0.000000,0.000000,0.000000,0.000000,1647758903.799439,0.000000
173.000000,32068.874785,26028.449956,32408.151914,776.790175,11735.179929,25607.320739,12792.462145,13822.899917,-0.062000,0.970000,0.090000,192.000000,0.000000,0.000000,0.000000,0.000000,0.000000,0.000000,0.000000,0.000000,0.000000,1647758903.799452,0.000000
174.000000,32066.885479,26027.265314,32402.765143,775.896105,11731.670705,25605.242026,12784.482573,13828.800777,-0.062000,0.970000,0.090000,192.000000,0.000000,0.000000,0.000000,0.000000,0.000000,0.000000,0.000000,0.000000,0.000000,1647758903.807488,0.000000
175.000000,32061.431654,26020.135107,32395.299661,769.749376,11725.568679,25602.448058,12788.863515,13823.168137,-0.062000,0.970000,0.090000,192.000000,0.000000,0.000000,0.000000,0.000000,0.000000,0.000000,0.000000,0.000000,0.000000,1647758903.807500,0.000000
176.000000,32069.031247,26028.159383,32402.295757,760.696919,11730.307249,25606.650186,12792.417442,13823.302248,-0.062000,0.970000,0.090000,192.000000,0.000000,0.000000,0.000000,0.000000,0.000000,0.000000,0.000000,0.000000,0.000000,1647758903.814049,0.000000
177.000000,32066.863128,26025.365415,32403.100419,761.099250,11726.798025,25603.476239,12787.097727,13816.149690,-0.062000,0.970000,0.090000,192.000000,0.000000,0.000000,0.000000,0.000000,0.000000,0.000000,0.000000,0.000000,0.000000,1647758903.814061,0.000000
178.000000,32063.018628,26028.651122,32410.744716,779.986475,11733.280031,25611.254646,12799.234724,13822.832861,-0.062000,0.970000,0.090000,192.000000,0.000000,0.000000,0.000000,0.000000,0.000000,0.000000,0.000000,0.000000,0.000000,1647758903.821199,0.000000
179.000000,32064.829119,26028.695825,32412.465800,774.130317,11736.766903,25615.613236,12795.345520,13829.493681,-0.064000,0.976000,0.090000,192.000000,254.000000,0.000000,30.000000,128.000000,2.000000,208.000000,0.000000,0.000000,0.000000,1647758903.829047,0.000000
180.000000,32068.293639,26025.119546,32410.096515,765.077861,11734.665839,25614.026262,12795.345520,13826.207975,-0.064000,0.976000,0.090000,192.000000,0.000000,0.000000,0.000000,0.000000,0.000000,0.000000,0.000000,0.000000,0.000000,1647758903.829060,0.000000
181.000000,32071.042904,26024.069014,32413.337518,744.000166,11735.559909,25614.294483,12798.184192,13821.804681,-0.064000,0.976000,0.090000,192.000000,0.000000,0.000000,0.000000,0.000000,0.000000,0.000000,0.000000,0.000000,0.000000,1647758903.837079,0.000000
182.000000,32062.593944,26018.749299,32409.537722,740.110962,11732.877699,25609.578265,12786.561285,13818.049588,-0.064000,0.976000,0.090000,192.000000,0.000000,0.000000,0.000000,0.000000,0.000000,0.000000,0.000000,0.000000,0.000000,1647758903.837088,0.000000
183.000000,32060.783453,26020.984473,32405.737925,746.078878,11733.861176,25612.193419,12787.500058,13827.437321,-0.064000,0.976000,0.090000,192.000000,0.000000,0.000000,0.000000,0.000000,0.000000,0.000000,0.000000,0.000000,0.000000,1647758903.843685,0.000000
184.000000,32060.470529,26024.448994,32400.328803,753.432602,11731.156615,25609.935893,12794.473802,13831.505338,-0.064000,0.976000,0.090000,192.000000,0.000000,0.000000,0.000000,0.000000,0.000000,0.000000,0.000000,0.000000,0.000000,1647758903.843697,0.000000
185.000000,32062.593944,26026.684168,32394.986736,766.933056,11727.580336,25605.107916,12795.077299,13827.951411,-0.064000,0.976000,0.090000,192.000000,0.000000,0.000000,0.000000,0.000000,0.000000,0.000000,0.000000,0.000000,0.000000,1647758903.851750,0.000000
186.000000,32056.201345,26015.731813,32397.177207,770.375224,11727.446226,25608.460678,12801.089919,13825.515071,-0.064000,0.976000,0.090000,192.000000,0.000000,0.000000,0.000000,0.000000,0.000000,0.000000,0.000000,0.000000,0.000000,1647758903.851762,0.000000
187.000000,32056.178994,26011.909665,32403.838027,754.684300,11732.855348,25613.489820,12800.866401,13828.733722,-0.064000,0.976000,0.090000,192.000000,0.000000,0.000000,0.000000,0.000000,0.000000,0.000000,0.000000,0.000000,0.000000,1647758903.859681,0.000000
188.000000,32055.217869,26010.568560,32398.719478,766.575428,11726.529804,25607.186628,12797.290122,13824.263373,-0.064000,0.976000,0.090000,192.000000,0.000000,0.000000,0.000000,0.000000,0.000000,0.000000,0.000000,0.000000,0.000000,1647758903.859694,0.000000
189.000000,32054.703779,26008.869828,32396.797227,762.216838,11723.065284,25603.744460,12791.724538,13821.558812,-0.062000,0.976000,0.088000,192.000000,254.000000,16.000000,30.000000,128.000000,2.000000,192.000000,0.000000,0.000000,0.000000,1647758903.866268,0.000000
190.000000,32057.922430,26009.473325,32396.461951,748.023480,11721.679476,25603.431535,12786.002491,13825.470367,-0.062000,0.976000,0.088000,192.000000,0.000000,0.000000,0.000000,0.000000,0.000000,0.000000,0.000000,0.000000,0.000000,1647758903.866280,0.000000
191.000000,32055.955476,26004.779459,32390.672849,743.061393,11714.817490,25598.648262,12788.997625,13818.608382,-0.062000,0.976000,0.088000,192.000000,0.000000,0.000000,0.000000,0.000000,0.000000,0.000000,0.000000,0.000000,0.000000,1647758903.874397,0.000000
192.000000,32052.379197,25999.191523,32392.416286,740.200369,11713.789310,25600.615215,12802.542782,13815.859117,-0.062000,0.976000,0.088000,192.000000,0.000000,0.000000,0.000000,0.000000,0.000000,0.000000,0.000000,0.000000,0.000000,1647758903.874409,0.000000
193.000000,32047.685331,26001.136124,32393.176245,737.451105,11718.214955,25602.872742,12796.574866,13828.085521,-0.062000,0.976000,0.088000,192.000000,0.000000,0.000000,0.000000,0.000000,0.000000,0.000000,0.000000,0.000000,0.000000,1647758903.881530,0.000000
194.000000,32048.221773,25995.950520,32389.510559,733.561901,11716.516223,25597.418916,12786.740099,13822.095254,-0.062000,0.976000,0.088000,192.000000,0.000000,0.000000,0.000000,0.000000,0.000000,0.000000,0.000000,0.000000,0.000000,1647758903.889522,0.000000
195.000000,32060.962267,26007.059337,32398.808884,732.064334,11724.518147,25602.537465,12791.344558,13826.073864,-0.062000,0.976000,0.088000,192.000000,0.000000,0.000000,0.000000,0.000000,0.000000,0.000000,0.000000,0.000000,0.000000,1647758903.889538,0.000000
196.000000,32050.389892,26002.320767,32399.054754,726.968137,11719.667819,25596.480143,12795.166706,13811.701693,-0.062000,0.976000,0.088000,192.000000,0.000000,0.000000,0.000000,0.000000,0.000000,0.000000,0.000000,0.000000,0.000000,1647758903.896330,0.000000
197.000000,32047.171241,25996.419906,32396.685469,718.116846,11715.622153,25594.803762,12796.284294,13813.690998,-0.062000,0.976000,0.088000,192.000000,0.000000,0.000000,0.000000,0.000000,0.000000,0.000000,0.000000,0.000000,0.000000,1647758903.896347,0.000000
198.000000,32056.469566,26004.153610,32400.485265,721.559015,11721.053627,25597.754192,12797.468936,13813.355722,-0.062000,0.976000,0.088000,192.000000,0.000000,0.000000,0.000000,0.000000,0.000000,0.000000,0.000000,0.000000,0.000000,1647758903.904300,0.000000
199.000000,32056.693084,26005.002976,32393.757390,718.675639,11716.292705,25593.216788,12790.003453,13821.849385,-0.066000,0.984000,0.092000,192.000000,253.000000,240.000000,30.000000,192.000000,2.000000,224.000000,0.000000,0.000000,0.000000,1647758903.904316,0.000000
200.000000,32056.357808,26005.584121,32393.958556,719.480302,11717.298534,25596.480143,12787.075375,13834.545175,-0.066000,0.984000,0.092000,192.000000,0.000000,0.000000,0.000000,0.000000,0.000000,0.000000,0.000000,0.000000,0.000000,1647758903.912202,0.000000
201.000000,32061.990447,26008.780421,32397.870111,716.172244,11721.366551,25601.039899,12797.133660,13828.420797,-0.066000,0.984000,0.092000,192.000000,0.000000,0.000000,0.000000,0.000000,0.000000,0.000000,0.000000,0.000000,0.000000,1647758903.912219,0.000000
202.000000,32068.114825,26009.339214,32400.015879,709.198500,11721.008923,25601.799858,12799.681759,13828.957239,-0.066000,0.984000,0.092000,192.000000,0.000000,0.000000,0.000000,0.000000,0.000000,0.000000,0.000000,0.000000,0.000000,1647758903.919280,0.000000
203.000000,32062.929221,26001.538456,32395.657289,713.892366,11714.750435,25597.329509,12794.205581,13822.899917,-0.066000,0.984000,0.092000,192.000000,0.000000,0.000000,0.000000,0.000000,0.000000,0.000000,0.000000,0.000000,0.000000,1647758903.919296,0.000000
204.000000,32048.914677,25994.028270,32383.833216,722.408381,11706.145013,25588.902901,12779.006395,13811.321713,-0.066000,0.984000,0.092000,192.000000,0.000000,0.000000,0.000000,0.000000,0.000000,0.000000,0.000000,0.000000,0.000000,1647758903.926900,0.000000
205.000000,32043.483203,25993.067145,32382.760332,711.545433,11705.563868,25588.411163,12773.507866,13806.024349,-0.066000,0.984000,0.092000,192.000000,0.000000,0.000000,0.000000,0.000000,0.000000,0.000000,0.000000,0.000000,0.000000,1647758903.926916,0.000000
206.000000,32057.833023,26004.332424,32399.367678,683.829270,11719.556060,25604.616178,12796.328997,13818.653085,-0.066000,0.984000,0.092000,192.000000,0.000000,0.000000,0.000000,0.000000,0.000000,0.000000,0.000000,0.000000,0.000000,1647758903.934578,0.000000
207.000000,32067.980715,26008.735717,32407.302547,681.459985,11725.300458,25610.807611,12801.536954,13821.156480,-0.066000,0.984000,0.092000,192.000000,0.000000,0.000000,0.000000,0.000000,0.000000,0.000000,0.000000,0.000000,0.000000,1647758903.934588,0.000000
208.000000,32061.789282,26004.824162,32401.893425,687.629066,11723.355856,25604.750288,12787.723576,13810.114719,-0.066000,0.984000,0.092000,192.000000,0.000000,0.000000,0.000000,0.000000,0.000000,0.000000,0.000000,0.000000,0.000000,1647758903.941646,0.000000
209.000000,32051.596886,26002.141953,32398.004222,672.161659,11720.561888,25598.961186,12765.595349,13806.314922,-0.056000,0.972000,0.088000,192.000000,254.000000,64.000000,30.000000,96.000000,2.000000,192.000000,0.000000,0.000000,0.000000,1647758903.948915,0.000000
210.000000,32055.821366,26005.986453,32401.334632,680.230639,11725.501624,25604.213846,12779.252264,13814.786233,-0.056000,0.972000,0.088000,192.000000,0.000000,0.000000,0.000000,0.000000,0.000000,0.000000,0.000000,0.000000,0.000000,1647758903.948928,0.000000
211.000000,32066.438444,26012.759031,32410.141219,670.015892,11733.727066,25616.149678,12802.207506,13830.186585,-0.056000,0.972000,0.088000,192.000000,0.000000,0.000000,0.000000,0.000000,0.000000,0.000000,0.000000,0.000000,0.000000,1647758903.956594,0.000000
212.000000,32065.007933,26007.774592,32402.765143,682.823441,11727.602688,25609.533561,12799.100613,13813.802757,-0.056000,0.972000,0.088000,192.000000,0.000000,0.000000,0.000000,0.000000,0.000000,0.000000,0.000000,0.000000,0.000000,1647758903.956611,0.000000
213.000000,32061.431654,26003.974796,32393.220948,700.883651,11722.126510,25602.448058,12790.092860,13801.866925,-0.056000,0.972000,0.088000,192.000000,0.000000,0.000000,0.000000,0.000000,0.000000,0.000000,0.000000,0.000000,0.000000,1647758903.964517,0.000000
214.000000,32072.652229,26014.234247,32402.519274,699.542546,11731.380133,25612.104012,12793.333863,13813.087501,-0.056000,0.972000,0.088000,192.000000,0.000000,0.000000,0.000000,0.000000,0.000000,0.000000,0.000000,0.000000,0.000000,1647758903.964550,0.000000
215.000000,32076.697895,26013.094308,32403.458047,682.219944,11730.664877,25610.584093,12788.394128,13811.567582,-0.056000,0.972000,0.088000,192.000000,0.000000,0.000000,0.000000,0.000000,0.000000,0.000000,0.000000,0.000000,0.000000,1647758903.972600,0.000000
216.000000,32069.791206,26006.098212,32396.193730,694.915735,11723.691133,25602.425707,12783.655558,13804.504431,-0.056000,0.972000,0.088000,192.000000,0.000000,0.000000,0.000000,0.000000,0.000000,0.000000,0.000000,0.000000,0.000000,1647758903.972616,0.000000
217.000000,32071.825215,26010.702671,32397.132504,693.708741,11728.384999,25606.024338,12789.735233,13809.600629,-0.056000,0.972000,0.088000,192.000000,0.000000,0.000000,0.000000,0.000000,0.000000,0.000000,0.000000,0.000000,0.000000,1647758903.979047,0.000000
218.000000,32067.019590,26007.729889,32398.495960,687.182032,11728.653220,25608.840657,12792.708015,13819.927135,-0.056000,0.972000,0.088000,192.000000,0.000000,0.000000,0.000000,0.000000,0.000000,0.000000,0.000000,0.000000,0.000000,1647758903.979058,0.000000
219.000000,32065.700837,26009.629787,32405.514408,672.876915,11732.520072,25611.567570,12794.004416,13822.564640,-0.062000,0.972000,0.078000,192.000000,254.000000,16.000000,30.000000,96.000000,2.000000,112.000000,0.000000,0.000000,0.000000,1647758903.987134,0.000000
220.000000,32061.968096,26005.204142,32405.760277,655.531961,11731.178967,25607.208980,12796.038424,13814.987399,-0.062000,0.972000,0.078000,192.000000,0.000000,0.000000,0.000000,0.000000,0.000000,0.000000,0.000000,0.000000,0.000000,1647758903.987146,0.000000
221.000000,32057.609505,25999.280929,32399.948823,660.650511,11726.328638,25600.637567,12791.478669,13807.477213,-0.062000,0.972000,0.078000,192.000000,0.000000,0.000000,0.000000,0.000000,0.000000,0.000000,0.000000,0.000000,0.000000,1647758903.995322,0.000000
222.000000,32061.185784,26001.113773,32398.384201,677.839002,11726.529804,25599.765849,12786.248360,13811.344065,-0.062000,0.972000,0.078000,192.000000,0.000000,0.000000,0.000000,0.000000,0.000000,0.000000,0.000000,0.000000,0.000000,1647758903.995338,0.000000
223.000000,32067.801901,26000.890255,32401.602853,658.840020,11729.659048,25602.671576,12793.445622,13807.633675,-0.062000,0.972000,0.078000,192.000000,0.000000,0.000000,0.000000,0.000000,0.000000,0.000000,0.000000,0.000000,0.000000,1647758904.001317,0.000000
224.000000,32058.503575,25999.191523,32402.161646,651.508647,11728.049723,25602.403355,12791.165744,13809.310056,-0.062000,0.972000,0.078000,192.000000,0.000000,0.000000,0.000000,0.000000,0.000000,0.000000,0.000000,0.000000,0.000000,1647758904.001335,0.000000
225.000000,32058.950610,26007.238151,32406.676699,642.813819,11731.178967,25607.700718,12797.468936,13822.072902,-0.062000,0.972000,0.078000,192.000000,0.000000,0.000000,0.000000,0.000000,0.000000,0.000000,0.000000,0.000000,0.000000,1647758904.008808,0.000000
226.000000,32066.796072,26011.082651,32410.990585,627.614633,11737.459807,25611.925198,12796.396052,13817.490794,-0.062000,0.972000,0.078000,192.000000,0.000000,0.000000,0.000000,0.000000,0.000000,0.000000,0.000000,0.000000,0.000000,1647758904.016515,0.000000
227.000000,32068.427750,26010.948540,32409.783591,605.464054,11736.297516,25613.221599,12796.954846,13820.105948,-0.062000,0.972000,0.078000,192.000000,0.000000,0.000000,0.000000,0.000000,0.000000,0.000000,0.000000,0.000000,0.000000,1647758904.016527,0.000000
228.000000,32078.508386,26014.949502,32408.375431,622.741952,11736.208109,25611.053480,12791.992759,13817.021408,-0.062000,0.972000,0.078000,192.000000,0.000000,0.000000,0.000000,0.000000,0.000000,0.000000,0.000000,0.000000,0.000000,1647758904.024935,0.000000
229.000000,32074.239203,26009.428621,32402.161646,641.428011,11731.000153,25607.074870,12790.405785,13803.498602,-0.062000,0.972000,0.078000,192.000000,0.000000,0.000000,0.000000,0.000000,0.000000,0.000000,0.000000,0.000000,0.000000,1647758904.024952,0.000000
230.000000,32063.800939,26003.639520,32397.981870,652.313310,11726.373342,25605.107916,12787.365948,13799.363530,-0.064000,0.978000,0.080000,192.000000,254.000000,0.000000,30.000000,144.000000,2.000000,128.000000,0.000000,0.000000,0.000000,1647758904.031561,0.000000
231.000000,32066.684314,26010.032119,32407.347251,646.948892,11733.749418,25620.083585,12800.084090,13832.779388,-0.064000,0.978000,0.080000,192.000000,0.000000,0.000000,0.000000,0.000000,0.000000,0.000000,0.000000,0.000000,0.000000,1647758904.031577,0.000000
232.000000,32066.952535,26011.619092,32409.805943,638.656394,11735.805778,25625.760928,12807.504869,13834.992210,-0.064000,0.978000,0.080000,192.000000,0.000000,0.000000,0.000000,0.000000,0.000000,0.000000,0.000000,0.000000,0.000000,1647758904.039500,0.000000
233.000000,32071.065256,26017.363491,32409.716536,626.653508,11738.018601,25627.392605,12813.182212,13832.198242,-0.064000,0.978000,0.080000,192.000000,0.000000,0.000000,0.000000,0.000000,0.000000,0.000000,0.000000,0.000000,0.000000,1647758904.039517,0.000000
234.000000,32064.784415,26012.155534,32403.390992,621.087923,11731.424836,25620.128288,12805.202640,13823.905745,-0.064000,0.978000,0.080000,192.000000,0.000000,0.000000,0.000000,0.000000,0.000000,0.000000,0.000000,0.000000,0.000000,1647758904.047434,0.000000
235.000000,32065.276154,26012.848438,32406.296719,611.700191,11735.805778,25624.263361,12805.426157,13824.084559,-0.064000,0.978000,0.080000,192.000000,0.000000,0.000000,0.000000,0.000000,0.000000,0.000000,0.000000,0.000000,0.000000,1647758904.047468,0.000000
236.000000,32060.291715,26009.786249,32400.753486,616.997554,11731.000153,25618.898942,12800.307608,13816.149690,-0.064000,0.978000,0.080000,192.000000,0.000000,0.000000,0.000000,0.000000,0.000000,0.000000,0.000000,0.000000,0.000000,1647758904.054519,0.000000
237.000000,32064.873822,26015.865924,32402.407515,618.137493,11734.308211,25624.464527,12805.739082,13829.314867,-0.064000,0.978000,0.080000,192.000000,0.000000,0.000000,0.000000,0.000000,0.000000,0.000000,0.000000,0.000000,0.000000,1647758904.054536,0.000000
238.000000,32062.862165,26007.863999,32396.216082,612.281336,11727.580336,25620.061233,12803.190983,13825.224498,-0.064000,0.978000,0.080000,192.000000,0.000000,0.000000,0.000000,0.000000,0.000000,0.000000,0.000000,0.000000,0.000000,1647758904.061790,0.000000
239.000000,32060.179956,25999.370336,32391.321050,613.689496,11719.824281,25611.120535,12793.423270,13810.897030,-0.064000,0.978000,0.080000,192.000000,0.000000,0.000000,0.000000,0.000000,0.000000,0.000000,0.000000,0.000000,0.000000,1647758904.061802,0.000000
240.000000,32075.937936,26013.384880,32401.647556,605.464054,11731.514243,25623.972788,12809.829451,13824.241021,-0.062000,0.980000,0.084000,192.000000,254.000000,16.000000,30.000000,160.000000,2.000000,160.000000,0.000000,0.000000,0.000000,1647758904.068785,0.000000
241.000000,32072.987506,26015.195372,32401.714611,592.723559,11732.095388,25623.391643,12807.907201,13826.967934,-0.062000,0.980000,0.084000,192.000000,0.000000,0.000000,0.000000,0.000000,0.000000,0.000000,0.000000,0.000000,0.000000,1647758904.077137,0.000000
242.000000,32073.322782,26014.569523,32396.640765,594.578754,11730.933098,25618.787184,12803.638018,13823.257544,-0.062000,0.980000,0.084000,192.000000,0.000000,0.000000,0.000000,0.000000,0.000000,0.000000,0.000000,0.000000,0.000000,1647758904.077154,0.000000
243.000000,32069.455930,26013.988377,32394.271480,597.216260,11729.457883,25612.215771,12799.570000,13810.293533,-0.062000,0.980000,0.084000,192.000000,0.000000,0.000000,0.000000,0.000000,0.000000,0.000000,0.000000,0.000000,0.000000,1647758904.084214,0.000000
244.000000,32061.833985,26010.434450,32392.438637,599.429083,11724.719313,25606.337262,12794.362044,13811.120547,-0.062000,0.980000,0.084000,192.000000,0.000000,0.000000,0.000000,0.000000,0.000000,0.000000,0.000000,0.000000,0.000000,1647758904.084231,0.000000
245.000000,32054.346151,26006.232322,32391.566919,577.434966,11722.238269,25607.633663,12793.333863,13825.246850,-0.062000,0.980000,0.084000,192.000000,0.000000,0.000000,0.000000,0.000000,0.000000,0.000000,0.000000,0.000000,0.000000,1647758904.091581,0.000000
246.000000,32054.100281,26002.901912,32393.131541,575.244495,11720.763054,25606.493724,12795.032596,13820.508280,-0.062000,0.980000,0.084000,192.000000,0.000000,0.000000,0.000000,0.000000,0.000000,0.000000,0.000000,0.000000,0.000000,1647758904.091597,0.000000
247.000000,32060.291715,26000.130296,32390.762256,582.888792,11717.767920,25604.191494,12794.227933,13817.110815,-0.062000,0.980000,0.084000,192.000000,0.000000,0.000000,0.000000,0.000000,0.000000,0.000000,0.000000,0.000000,0.000000,1647758904.099741,0.000000
248.000000,32062.124558,25996.554017,32386.962460,583.268772,11713.364627,25600.905788,12791.255151,13809.377111,-0.062000,0.980000,0.084000,192.000000,0.000000,0.000000,0.000000,0.000000,0.000000,0.000000,0.000000,0.000000,0.000000,1647758904.099757,0.000000
249.000000,32064.113863,26001.292586,32392.438637,585.481594,11716.739740,25609.175934,12804.599143,13821.938792,-0.062000,0.980000,0.084000,192.000000,0.000000,0.000000,0.000000,0.000000,0.000000,0.000000,0.000000,0.000000,0.000000,1647758904.107809,0.000000
250.000000,32065.745540,26006.142915,32397.825408,581.190059,11722.126510,25613.154544,12807.884849,13822.117605,-0.062000,0.978000,0.086000,192.000000,254.000000,16.000000,30.000000,144.000000,2.000000,176.000000,0.000000,0.000000,0.000000,1647758904.107826,0.000000
251.000000,32059.308238,26000.912607,32398.361850,568.807193,11723.087635,25610.248817,12801.536954,13815.881469,-0.062000,0.978000,0.086000,192.000000,0.000000,0.000000,0.000000,0.000000,0.000000,0.000000,0.000000,0.000000,0.000000,1647758904.114351,0.000000
252.000000,32057.654209,25999.102116,32397.512483,558.435983,11722.238269,25608.237160,12798.139488,13814.428605,-0.062000,0.978000,0.086000,192.000000,0.000000,0.000000,0.000000,0.000000,0.000000,0.000000,0.000000,0.000000,0.000000,1647758904.114367,0.000000
253.000000,32072.696933,26015.687110,32404.195655,563.442774,11729.569641,25614.719166,12804.889715,13821.849385,-0.062000,0.978000,0.086000,192.000000,0.000000,0.000000,0.000000,0.000000,0.000000,0.000000,0.000000,0.000000,0.000000,1647758904.122441,0.000000
254.000000,32069.813558,26009.562732,32400.485265,555.954940,11726.328638,25611.656977,12800.754643,13801.777518,-0.062000,0.978000,0.086000,192.000000,0.000000,0.000000,0.000000,0.000000,0.000000,0.000000,0.000000,0.000000,0.000000,1647758904.122458,0.000000
255.000000,32064.024456,25999.526799,32400.597024,544.086164,11726.798025,25616.775527,12795.837259,13806.426681,-0.062000,0.978000,0.086000,192.000000,0.000000,0.000000,0.000000,0.000000,0.000000,0.000000,0.000000,0.000000,0.000000,1647758904.129459,0.000000
0.000000,32064.113863,25997.671604,32397.356021,534.765486,11722.215917,25614.495649,12787.947093,13820.620039,-0.062000,0.978000,0.086000,192.000000,0.000000,0.000000,0.000000,0.000000,0.000000,0.000000,0.000000,0.000000,0.000000,1647758904.136454,0.000000
1.000000,32055.866069,25992.731868,32388.303565,547.237759,11713.163461,25605.622006,12793.043291,13810.762919,-0.062000,0.978000,0.086000,192.000000,0.000000,0.000000,0.000000,0.000000,0.000000,0.000000,0.000000,0.000000,0.000000,1647758904.136489,0.000000
2.000000,32049.965209,25985.176979,32387.722419,565.588542,11712.515260,25606.761945,12804.152108,13799.922323,-0.062000,0.978000,0.086000,192.000000,0.000000,0.000000,0.000000,0.000000,0.000000,0.000000,0.000000,0.000000,0.000000,1647758904.144019,0.000000
3.000000,32057.900078,25990.072011,32392.237472,567.600199,11715.242173,25608.460678,12801.447547,13803.498602,-0.062000,0.978000,0.086000,192.000000,0.000000,0.000000,0.000000,0.000000,0.000000,0.000000,0.000000,0.000000,0.000000,1647758904.144036,0.000000
4.000000,32062.973924,25996.174037,32394.942033,553.295082,11719.198432,25614.897980,12804.889715,13826.029161,-0.064000,0.982000,0.082000,192.000000,254.000000,0.000000,30.000000,176.000000,2.000000,144.000000,0.000000,0.000000,0.000000,1647758904.152038,0.000000
5.000000,32058.592982,25987.792133,32389.488207,552.490419,11713.006999,25605.085564,12791.858648,13810.829975,-0.064000,0.982000,0.082000,192.000000,0.000000,0.000000,0.000000,0.000000,0.000000,0.000000,0.000000,0.000000,0.000000,1647758904.152054,0.000000
6.000000,32051.418072,25983.701764,32381.843910,559.084184,11706.837917,25594.446134,12781.710956,13796.569562,-0.064000,0.982000,0.082000,192.000000,0.000000,0.000000,0.000000,0.000000,0.000000,0.000000,0.000000,0.000000,0.000000,1647758904.159848,0.000000
7.000000,32051.574534,25989.222644,32380.458102,552.512771,11708.313132,25595.854294,12786.673044,13803.990341,-0.064000,0.982000,0.082000,192.000000,0.000000,0.000000,0.000000,0.000000,0.000000,0.000000,0.000000,0.000000,0.000000,1647758904.159864,0.000000
8.000000,32060.068197,25991.457819,32381.151006,545.449620,11709.855403,25597.642433,12789.288198,13806.918419,-0.064000,0.982000,0.082000,192.000000,0.000000,0.000000,0.000000,0.000000,0.000000,0.000000,0.000000,0.000000,0.000000,1647758904.166352,0.000000
9.000000,32063.309200,25992.262482,32381.262765,525.601271,11711.911763,25600.190532,12790.763413,13806.918419,-0.064000,0.982000,0.082000,192.000000,0.000000,0.000000,0.000000,0.000000,0.000000,0.000000,0.000000,0.000000,0.000000,1647758904.166368,0.000000
10.000000,32066.840776,26002.298415,32392.773913,523.768428,11726.641563,25614.808573,12804.912067,13819.033065,-0.064000,0.982000,0.082000,192.000000,0.000000,0.000000,0.000000,0.000000,0.000000,0.000000,0.000000,0.000000,0.000000,1647758904.174594,0.000000
11.000000,32069.791206,26006.746412,32397.288966,514.246585,11732.542423,25620.083585,12805.224991,13825.515071,-0.064000,0.982000,0.082000,192.000000,0.000000,0.000000,0.000000,0.000000,0.000000,0.000000,0.000000,0.000000,0.000000,1647758904.174610,0.000000
12.000000,32063.622125,26001.404345,32392.684506,521.868530,11726.239231,25610.047652,12800.732291,13810.807623,-0.064000,0.982000,0.082000,192.000000,0.000000,0.000000,0.000000,0.000000,0.000000,0.000000,0.000000,0.000000,0.000000,1647758904.182667,0.000000
13.000000,32069.746503,26001.314938,32395.523178,505.149425,11727.982667,25610.427631,12805.046178,13803.029216,-0.064000,0.982000,0.082000,192.000000,0.000000,0.000000,0.000000,0.000000,0.000000,0.000000,0.000000,0.000000,0.000000,1647758904.182684,0.000000
14.000000,32068.986543,25995.414078,32392.393934,488.251506,11721.679476,25601.375175,12788.349424,13800.145841,-0.066000,0.988000,0.082000,192.000000,253.000000,240.000000,30.000000,224.000000,2.000000,144.000000,0.000000,0.000000,0.000000,1647758904.189664,0.000000
15.000000,32059.196479,25990.519046,32384.861396,480.517802,11712.157632,25589.573454,12776.234779,13788.411175,-0.066000,0.988000,0.082000,192.000000,0.000000,0.000000,0.000000,0.000000,0.000000,0.000000,0.000000,0.000000,0.000000,1647758904.196211,0.000000
16.000000,32052.356845,25988.060354,32384.570823,475.667474,11710.213031,25588.746439,12770.803305,13794.692015,-0.066000,0.988000,0.082000,192.000000,0.000000,0.000000,0.000000,0.000000,0.000000,0.000000,0.000000,0.000000,0.000000,1647758904.196227,0.000000
17.000000,32051.261610,25986.786304,32383.207367,470.325407,11709.721292,25592.278015,12776.346538,13805.778480,-0.066000,0.988000,0.082000,192.000000,0.000000,0.000000,0.000000,0.000000,0.000000,0.000000,0.000000,0.000000,0.000000,1647758904.204335,0.000000
18.000000,32054.279095,25987.054525,32384.883748,479.310808,11709.698940,25592.881512,12791.590427,13802.179849,-0.066000,0.988000,0.082000,192.000000,0.000000,0.000000,0.000000,0.000000,0.000000,0.000000,0.000000,0.000000,0.000000,1647758904.204351,0.000000
19.000000,32062.437482,25995.503485,32393.757390,471.778270,11716.829147,25598.290634,12802.587486,13799.050605,-0.066000,0.988000,0.082000,192.000000,0.000000,0.000000,0.000000,0.000000,0.000000,0.000000,0.000000,0.000000,0.000000,1647758904.212271,0.000000
20.000000,32058.481223,25990.340232,32387.811826,453.986282,11711.822356,25591.026317,12790.875172,13794.915532,-0.066000,0.988000,0.082000,192.000000,0.000000,0.000000,0.000000,0.000000,0.000000,0.000000,0.000000,0.000000,0.000000,1647758904.212287,0.000000
21.000000,32053.608543,25987.836836,32382.402704,457.003767,11708.514298,25587.964128,12781.487439,13795.653140,-0.066000,0.988000,0.082000,192.000000,0.000000,0.000000,0.000000,0.000000,0.000000,0.000000,0.000000,0.000000,0.000000,1647758904.219242,0.000000
22.000000,32048.780566,25984.975813,32380.301640,454.366261,11704.692150,25583.516131,12780.727480,13786.600684,-0.066000,0.988000,0.082000,192.000000,0.000000,0.000000,0.000000,0.000000,0.000000,0.000000,0.000000,0.000000,0.000000,1647758904.219277,0.000000
23.000000,32041.024511,25979.790208,32373.529061,456.266160,11694.902086,25576.609442,12778.469953,13783.180867,-0.066000,0.988000,0.082000,192.000000,0.000000,0.000000,0.000000,0.000000,0.000000,0.000000,0.000000,0.000000,0.000000,1647758904.226820,0.000000
24.000000,32048.244124,25984.998165,32375.808939,442.653947,11699.931228,25582.689116,12782.985006,13784.611378,-0.066000,0.984000,0.084000,192.000000,253.000000,240.000000,30.000000,192.000000,2.000000,160.000000,0.000000,0.000000,0.000000,1647758904.226836,0.000000
25.000000,32059.755273,25997.001052,32384.347306,448.241883,11711.040045,25595.094334,12790.629302,13802.716291,-0.066000,0.984000,0.084000,192.000000,0.000000,0.000000,0.000000,0.000000,0.000000,0.000000,0.000000,0.000000,0.000000,1647758904.234917,0.000000
26.000000,32054.502613,25995.771706,32377.865300,425.577214,11706.748510,25588.545273,12786.874209,13795.384919,-0.066000,0.984000,0.084000,192.000000,0.000000,0.000000,0.000000,0.000000,0.000000,0.000000,0.000000,0.000000,0.000000,1647758904.234933,0.000000
27.000000,32046.321874,25990.027307,32372.165605,419.050505,11700.713539,25581.549177,12780.191038,13785.952483,-0.066000,0.984000,0.084000,192.000000,0.000000,0.000000,0.000000,0.000000,0.000000,0.000000,0.000000,0.000000,0.000000,1647758904.242783,0.000000
28.000000,32046.411281,25986.629842,32370.355114,402.621973,11698.232496,25578.397581,12767.495247,13787.204181,-0.066000,0.984000,0.084000,192.000000,0.000000,0.000000,0.000000,0.000000,0.000000,0.000000,0.000000,0.000000,0.000000,1647758904.242800,0.000000
29.000000,32047.551220,25986.003993,32373.618468,399.515080,11699.908876,25582.957337,12775.720689,13795.228457,-0.066000,0.984000,0.084000,192.000000,0.000000,0.000000,0.000000,0.000000,0.000000,0.000000,0.000000,0.000000,0.000000,1647758904.249117,0.000000
30.000000,32050.971037,25990.094363,32377.038285,395.916450,11703.663969,25588.947605,12796.127831,13791.674530,-0.066000,0.984000,0.084000,192.000000,0.000000,0.000000,0.000000,0.000000,0.000000,0.000000,0.000000,0.000000,0.000000,1647758904.249133,0.000000
31.000000,32055.553145,25989.535569,32377.753541,380.493746,11703.932190,25588.880550,12790.338730,13793.239152,-0.066000,0.984000,0.084000,192.000000,0.000000,0.000000,0.000000,0.000000,0.000000,0.000000,0.000000,0.000000,0.000000,1647758904.256535,0.000000
32.000000,32053.921468,25986.786304,32377.485320,379.376159,11704.848612,25594.312023,12791.299855,13809.578277,-0.066000,0.984000,0.084000,192.000000,0.000000,0.000000,0.000000,0.000000,0.000000,0.000000,0.000000,0.000000,0.000000,1647758904.264610,0.000000
33.000000,32053.317970,25990.094363,32379.653439,365.853353,11707.776690,25595.317852,12793.624436,13802.381015,-0.066000,0.984000,0.084000,192.000000,0.000000,0.000000,0.000000,0.000000,0.000000,0.000000,0.000000,0.000000,0.000000,1647758904.264628,0.000000
34.000000,32048.266476,25987.009822,32375.965402,359.639568,11702.747548,25591.473352,12789.936398,13801.308131,-0.060000,0.974000,0.082000,192.000000,254.000000,32.000000,30.000000,112.000000,2.000000,144.000000,0.000000,0.000000,0.000000,1647758904.271643,0.000000
35.000000,32041.873877,25977.376220,32367.672904,370.301350,11692.152821,25585.259567,12788.394128,13787.405346,-0.060000,0.974000,0.082000,192.000000,0.000000,0.000000,0.000000,0.000000,0.000000,0.000000,0.000000,0.000000,0.000000,1647758904.271659,0.000000
36.000000,32042.589133,25979.030249,32369.997486,370.614275,11693.851554,25586.533616,12788.148259,13782.443259,-0.060000,0.974000,0.082000,192.000000,0.000000,0.000000,0.000000,0.000000,0.000000,0.000000,0.000000,0.000000,0.000000,1647758904.279083,0.000000
37.000000,32049.585229,25986.160455,32373.372599,348.709565,11700.914705,25594.155561,12788.639997,13807.320751,-0.060000,0.974000,0.082000,192.000000,0.000000,0.000000,0.000000,0.000000,0.000000,0.000000,0.000000,0.000000,0.000000,1647758904.279100,0.000000
38.000000,32044.533735,25982.092438,32368.030532,347.882551,11699.372435,25587.561797,12782.247398,13800.659931,-0.060000,0.974000,0.082000,192.000000,0.000000,0.000000,0.000000,0.000000,0.000000,0.000000,0.000000,0.000000,0.000000,1647758904.286896,0.000000
39.000000,32045.651322,25982.070086,32369.215175,332.146923,11698.590123,25585.796009,12790.852820,13794.088518,-0.060000,0.974000,0.082000,192.000000,0.000000,0.000000,0.000000,0.000000,0.000000,0.000000,0.000000,0.000000,0.000000,1647758904.286908,0.000000
40.000000,32044.041996,25980.416057,32370.265707,316.768922,11697.472536,25587.740611,12803.883887,13794.110870,-0.060000,0.974000,0.082000,192.000000,0.000000,0.000000,0.000000,0.000000,0.000000,0.000000,0.000000,0.000000,0.000000,1647758904.294875,0.000000
41.000000,32047.998255,25983.098266,32371.584460,295.355951,11698.746586,25584.432552,12790.875172,13789.439355,-0.060000,0.974000,0.082000,192.000000,0.000000,0.000000,0.000000,0.000000,0.000000,0.000000,0.000000,0.000000,0.000000,1647758904.294885,0.000000
42.000000,32045.047825,25978.851435,32367.181166,287.421082,11695.706748,25581.392715,12789.869343,13792.568599,-0.060000,0.974000,0.082000,192.000000,0.000000,0.000000,0.000000,0.000000,0.000000,0.000000,0.000000,0.000000,0.000000,1647758904.301371,0.000000
43.000000,32047.506517,25978.717325,32368.365809,265.181096,11696.489060,25581.772695,12789.846991,13790.981625,-0.060000,0.974000,0.082000,192.000000,0.000000,0.000000,0.000000,0.000000,0.000000,0.000000,0.000000,0.000000,0.000000,1647758904.301383,0.000000
44.000000,32056.491918,25986.674546,32374.423131,229.731230,11702.568734,25586.623023,12786.628340,13796.681320,-0.064000,0.976000,0.084000,192.000000,254.000000,0.000000,30.000000,128.000000,2.000000,160.000000,0.000000,0.000000,0.000000,1647758904.309826,0.000000
45.000000,32051.194555,25985.914586,32372.344419,210.106398,11700.668836,25586.846541,12786.114250,13806.024349,-0.064000,0.976000,0.084000,192.000000,0.000000,0.000000,0.000000,0.000000,0.000000,0.000000,0.000000,0.000000,0.000000,1647758904.309842,0.000000
46.000000,32042.589133,25982.606528,32369.282230,220.343497,11696.690225,25580.319831,12782.023881,13793.686187,-0.064000,0.976000,0.084000,192.000000,0.000000,0.000000,0.000000,0.000000,0.000000,0.000000,0.000000,0.000000,0.000000,1647758904.316684,0.000000
47.000000,32046.567744,25984.685240,32375.585422,233.911006,11700.870001,25588.008832,12804.085053,13797.843611,-0.064000,0.976000,0.084000,192.000000,0.000000,0.000000,0.000000,0.000000,0.000000,0.000000,0.000000,0.000000,0.000000,1647758904.324739,0.000000
48.000000,32048.624104,25985.825179,32378.111169,222.846892,11704.133356,25592.680346,12811.505832,13796.301341,-0.064000,0.976000,0.084000,192.000000,0.000000,0.000000,0.000000,0.000000,0.000000,0.000000,0.000000,0.000000,0.000000,1647758904.324755,0.000000
49.000000,32050.926334,25988.395630,32382.268594,217.393067,11708.447243,25596.614253,12805.292047,13806.985474,-0.064000,0.976000,0.084000,192.000000,0.000000,0.000000,0.000000,0.000000,0.000000,0.000000,0.000000,0.000000,0.000000,1647758904.331432,0.000000
50.000000,32053.429729,25989.870845,32379.698143,200.003409,11706.077958,25594.401430,12802.878058,13803.386844,-0.064000,0.976000,0.084000,192.000000,0.000000,0.000000,0.000000,0.000000,0.000000,0.000000,0.000000,0.000000,0.000000,1647758904.331448,0.000000
51.000000,32060.872860,25994.207083,32380.368695,188.514613,11706.167365,25592.859160,12801.872230,13802.448070,-0.064000,0.976000,0.084000,192.000000,0.000000,0.000000,0.000000,0.000000,0.000000,0.000000,0.000000,0.000000,0.000000,1647758904.339558,0.000000
52.000000,32062.482186,25998.923302,32389.711724,181.742034,11714.281048,25597.731840,12799.480593,13807.365454,-0.064000,0.976000,0.084000,192.000000,0.000000,0.000000,0.000000,0.000000,0.000000,0.000000,0.000000,0.000000,0.000000,1647758904.339574,0.000000
53.000000,32053.809709,25989.915549,32392.013954,169.269761,11716.136243,25599.832904,12792.439794,13805.599666,-0.064000,0.976000,0.084000,192.000000,0.000000,0.000000,0.000000,0.000000,0.000000,0.000000,0.000000,0.000000,0.000000,1647758904.347499,0.000000
54.000000,32046.366578,25980.013726,32384.347306,155.031700,11706.301475,25591.898035,12784.281407,13792.367434,-0.064000,0.976000,0.080000,192.000000,254.000000,0.000000,30.000000,128.000000,2.000000,128.000000,0.000000,0.000000,0.000000,1647758904.347516,0.000000
55.000000,32051.686293,25985.556958,32378.938184,145.308691,11699.528897,25585.684250,12779.252264,13780.252788,-0.064000,0.976000,0.080000,192.000000,0.000000,0.000000,0.000000,0.000000,0.000000,0.000000,0.000000,0.000000,0.000000,1647758904.354517,0.000000
56.000000,32051.574534,25984.551130,32371.919736,145.822781,11696.198487,25586.131285,12782.157991,13794.088518,-0.064000,0.976000,0.080000,192.000000,0.000000,0.000000,0.000000,0.000000,0.000000,0.000000,0.000000,0.000000,0.000000,1647758904.354535,0.000000
57.000000,32047.059482,25974.716362,32365.974172,134.065763,11691.839897,25588.947605,12786.628340,13803.386844,-0.064000,0.976000,0.080000,192.000000,0.000000,0.000000,0.000000,0.000000,0.000000,0.000000,0.000000,0.000000,0.000000,1647758904.362040,0.000000
58.000000,32041.024511,25963.182862,32353.278381,137.686746,11676.864228,25575.134227,12780.235741,13785.572503,-0.064000,0.976000,0.080000,192.000000,0.000000,0.000000,0.000000,0.000000,0.000000,0.000000,0.000000,0.000000,0.000000,1647758904.362057,0.000000
59.000000,32032.262627,25962.579365,32354.239506,152.952987,11679.971120,25577.682326,12781.129811,13788.791154,-0.064000,0.976000,0.080000,192.000000,0.000000,0.000000,0.000000,0.000000,0.000000,0.000000,0.000000,0.000000,0.000000,1647758904.370108,0.000000
60.000000,32033.581380,25968.793150,32360.766215,154.428202,11688.442432,25586.623023,12787.120078,13794.803774,-0.064000,0.976000,0.080000,192.000000,0.000000,0.000000,0.000000,0.000000,0.000000,0.000000,0.000000,0.000000,0.000000,1647758904.370124,0.000000
61.000000,32040.711587,25980.192540,32366.980000,154.852886,11695.974969,25598.961186,12804.643846,13811.411120,-0.064000,0.976000,0.080000,192.000000,0.000000,0.000000,0.000000,0.000000,0.000000,0.000000,0.000000,0.000000,0.000000,1647758904.377174,0.000000
62.000000,32041.203325,25983.433543,32370.779797,143.520551,11697.628998,25601.598692,12812.645771,13815.009751,-0.064000,0.976000,0.080000,192.000000,0.000000,0.000000,0.000000,0.000000,0.000000,0.000000,0.000000,0.000000,0.000000,1647758904.384174,0.000000
63.000000,32045.494860,25985.892235,32377.172396,116.452589,11701.808775,25602.336300,12810.432948,13813.467480,-0.064000,0.976000,0.080000,192.000000,0.000000,0.000000,0.000000,0.000000,0.000000,0.000000,0.000000,0.000000,0.000000,1647758904.384191,0.000000
64.000000,32046.098357,25982.047735,32373.529061,102.236879,11697.070205,25595.764887,12800.978160,13804.526783,-0.062000,0.976000,0.078000,192.000000,254.000000,16.000000,30.000000,128.000000,2.000000,112.000000,0.000000,0.000000,0.000000,1647758904.391811,0.000000
65.000000,32041.784470,25976.035115,32368.455216,102.281583,11689.448260,25587.651204,12793.244456,13797.083652,-0.062000,0.976000,0.078000,192.000000,0.000000,0.000000,0.000000,0.000000,0.000000,0.000000,0.000000,0.000000,0.000000,1647758904.391846,0.000000
66.000000,32050.300485,25987.233339,32376.926527,112.943365,11698.880696,25595.049631,12805.917896,13803.811527,-0.062000,0.976000,0.078000,192.000000,0.000000,0.000000,0.000000,0.000000,0.000000,0.000000,0.000000,0.000000,0.000000,1647758904.399737,0.000000
67.000000,32054.614372,25992.798924,32381.575690,114.575042,11705.720330,25598.067117,12808.242477,13807.588972,-0.062000,0.976000,0.078000,192.000000,0.000000,0.000000,0.000000,0.000000,0.000000,0.000000,0.000000,0.000000,0.000000,1647758904.399754,0.000000
68.000000,32052.937991,25988.641499,32374.020800,113.792731,11700.646484,25589.573454,12798.295951,13796.748376,-0.062000,0.976000,0.078000,192.000000,0.000000,0.000000,0.000000,0.000000,0.000000,0.000000,0.000000,0.000000,0.000000,1647758904.407713,0.000000
69.000000,32058.280058,25990.474342,32370.668038,95.129024,11701.115871,25588.455866,12798.899448,13800.458765,-0.062000,0.976000,0.078000,192.000000,0.000000,0.000000,0.000000,0.000000,0.000000,0.000000,0.000000,0.000000,0.000000,1647758904.407729,0.000000
70.000000,32059.129424,25990.027307,32371.048018,81.829736,11700.378263,25585.304270,12794.652616,13801.956332,-0.062000,0.976000,0.078000,192.000000,0.000000,0.000000,0.000000,0.000000,0.000000,0.000000,0.000000,0.000000,0.000000,1647758904.414321,0.000000
71.000000,32052.245087,25983.098266,32366.980000,70.497402,11693.516277,25575.491855,12783.812020,13790.534591,-0.062000,0.976000,0.078000,192.000000,0.000000,0.000000,0.000000,0.000000,0.000000,0.000000,0.000000,0.000000,0.000000,1647758904.414337,0.000000
72.000000,32058.704741,25992.597758,32373.551413,61.199076,11701.115871,25581.415067,12792.640959,13800.123489,-0.062000,0.976000,0.078000,192.000000,0.000000,0.000000,0.000000,0.000000,0.000000,0.000000,0.000000,0.000000,0.000000,1647758904.422447,0.000000
73.000000,32064.203270,25996.956348,32375.227794,42.624777,11705.496813,25587.517093,12796.507811,13808.706559,-0.062000,0.976000,0.078000,192.000000,0.000000,0.000000,0.000000,0.000000,0.000000,0.000000,0.000000,0.000000,0.000000,1647758904.422464,0.000000
74.000000,32053.228563,25987.501560,32367.404684,10.304154,11697.696054,25584.499608,12796.686625,13806.806661,-0.062000,0.976000,0.078000,192.000000,0.000000,0.000000,0.000000,0.000000,0.000000,0.000000,0.000000,0.000000,0.000000,1647758904.430305,0.000000
75.000000,32046.008950,25987.143932,32368.075236,3.755093,11696.377301,25590.020489,12816.132643,13805.666722,-0.056000,0.972000,0.068000,192.000000,254.000000,64.000000,30.000000,96.000000,2.000000,32.000000,0.000000,0.000000,0.000000,1647758904.430322,0.000000
76.000000,32042.857354,25986.316918,32367.203518,12.785198,11694.320940,25586.980651,12809.516526,13795.675492,-0.056000,0.972000,0.068000,192.000000,0.000000,0.000000,0.000000,0.000000,0.000000,0.000000,0.000000,0.000000,0.000000,1647758904.436620,0.000000
77.000000,32044.869011,25985.266386,32366.957649,2.659858,11694.365644,25587.025355,12806.029654,13799.765861,-0.056000,0.972000,0.068000,192.000000,0.000000,0.000000,0.000000,0.000000,0.000000,0.000000,0.000000,0.000000,0.000000,1647758904.443681,0.000000
78.000000,32048.266476,25988.865017,32369.595154,-20.541253,11697.494888,25587.204169,12802.766300,13792.792117,-0.056000,0.972000,0.068000,192.000000,0.000000,0.000000,0.000000,0.000000,0.000000,0.000000,0.000000,0.000000,0.000000,1647758904.443692,0.000000
79.000000,32049.071139,25989.133237,32370.690390,-28.587881,11697.025501,25584.209035,12791.031634,13788.455878,-0.056000,0.972000,0.068000,192.000000,0.000000,0.000000,0.000000,0.000000,0.000000,0.000000,0.000000,0.000000,0.000000,1647758904.452063,0.000000
80.000000,32049.987561,25989.624976,32368.522271,-32.432381,11695.818507,25589.349936,12796.016073,13803.923285,-0.056000,0.972000,0.068000,192.000000,0.000000,0.000000,0.000000,0.000000,0.000000,0.000000,0.000000,0.000000,0.000000,1647758904.452080,0.000000
81.000000,32058.011837,25995.838761,32367.516442,-30.688945,11696.846687,25593.507361,12806.029654,13818.228402,-0.056000,0.972000,0.068000,192.000000,0.000000,0.000000,0.000000,0.000000,0.000000,0.000000,0.000000,0.000000,0.000000,1647758904.460035,0.000000
82.000000,32053.653247,25991.301357,32362.017913,-29.705468,11693.113946,25588.008832,12802.028692,13808.259524,-0.056000,0.972000,0.068000,192.000000,0.000000,0.000000,0.000000,0.000000,0.000000,0.000000,0.000000,0.000000,0.000000,1647758904.460051,0.000000
83.000000,32053.317970,25995.078802,32369.058713,-48.682099,11700.065339,25596.591901,12809.293009,13814.138033,-0.056000,0.972000,0.068000,192.000000,0.000000,0.000000,0.000000,0.000000,0.000000,0.000000,0.000000,0.000000,0.000000,1647758904.466293,0.000000
84.000000,32057.318933,25999.817371,32377.686486,-65.557666,11705.295647,25601.308119,12806.275523,13823.637524,-0.056000,0.972000,0.068000,192.000000,0.000000,0.000000,0.000000,0.000000,0.000000,0.000000,0.000000,0.000000,0.000000,1647758904.466303,0.000000
85.000000,32059.621162,25998.699784,32381.016896,-59.276826,11706.189717,25602.649224,12811.706997,13820.932963,-0.056000,0.980000,0.070000,192.000000,254.000000,64.000000,30.000000,160.000000,2.000000,48.000000,0.000000,0.000000,0.000000,1647758904.474706,0.000000
86.000000,32054.390854,25997.828066,32376.412437,-57.667501,11700.914705,25597.910654,12809.471823,13811.679341,-0.056000,0.980000,0.070000,192.000000,0.000000,0.000000,0.000000,0.000000,0.000000,0.000000,0.000000,0.000000,0.000000,1647758904.474742,0.000000
87.000000,32048.378235,25994.654118,32373.573765,-52.973634,11697.964275,25593.999099,12800.821698,13808.661855,-0.056000,0.980000,0.070000,192.000000,0.000000,0.000000,0.000000,0.000000,0.000000,0.000000,0.000000,0.000000,0.000000,1647758904.482668,0.000000
88.000000,32046.545392,25991.122543,32372.702047,-60.662634,11697.718405,25593.105029,12796.060776,13807.030178,-0.056000,0.980000,0.070000,192.000000,0.000000,0.000000,0.000000,0.000000,0.000000,0.000000,0.000000,0.000000,0.000000,1647758904.482686,0.000000
89.000000,32051.283962,25992.843627,32376.457140,-69.089242,11701.384092,25595.943701,12805.739082,13808.415986,-0.056000,0.980000,0.070000,192.000000,0.000000,0.000000,0.000000,0.000000,0.000000,0.000000,0.000000,0.000000,0.000000,1647758904.489481,0.000000
90.000000,32057.743616,25997.850418,32380.614564,-90.010475,11705.027426,25594.781410,12806.074358,13803.900934,-0.056000,0.980000,0.070000,192.000000,0.000000,0.000000,0.000000,0.000000,0.000000,0.000000,0.000000,0.000000,0.000000,1647758904.489492,0.000000
91.000000,32063.465662,26001.650214,32383.050905,-89.406978,11707.597877,25592.702698,12805.515564,13804.035044,-0.056000,0.980000,0.070000,192.000000,0.000000,0.000000,0.000000,0.000000,0.000000,0.000000,0.000000,0.000000,0.000000,1647758904.496271,0.000000
92.000000,32060.202308,25997.135162,32379.362867,-74.677178,11703.731025,25591.272186,12807.750739,13816.060283,-0.056000,0.980000,0.070000,192.000000,0.000000,0.000000,0.000000,0.000000,0.000000,0.000000,0.000000,0.000000,0.000000,1647758904.496287,0.000000
93.000000,32061.811633,25997.895121,32377.820596,-97.274792,11702.322865,25589.864026,12808.980085,13816.239097,-0.056000,0.980000,0.070000,192.000000,0.000000,0.000000,0.000000,0.000000,0.000000,0.000000,0.000000,0.000000,0.000000,1647758904.504399,0.000000
94.000000,32058.972962,25999.079764,32378.155873,-100.225222,11702.501679,25588.433515,12805.224991,13821.827033,-0.056000,0.980000,0.070000,192.000000,0.000000,0.000000,0.000000,0.000000,0.000000,0.000000,0.000000,0.000000,0.000000,1647758904.512322,0.000000
95.000000,32060.179956,25997.068107,32378.781721,-90.502213,11702.591086,25583.784352,12798.832393,13823.682228,-0.060000,0.984000,0.074000,192.000000,254.000000,32.000000,30.000000,192.000000,2.000000,80.000000,0.000000,0.000000,0.000000,1647758904.512339,0.000000
96.000000,32056.916601,25996.308147,32379.362867,-65.892943,11703.261638,25581.012735,12785.778974,13827.414969,-0.060000,0.984000,0.074000,192.000000,0.000000,0.000000,0.000000,0.000000,0.000000,0.000000,0.000000,0.000000,0.000000,1647758904.519309,0.000000
97.000000,32050.546354,25989.826142,32374.065503,-55.029995,11697.584295,25575.871834,12792.998587,13826.409140,-0.060000,0.984000,0.074000,192.000000,0.000000,0.000000,0.000000,0.000000,0.000000,0.000000,0.000000,0.000000,0.000000,1647758904.519321,0.000000
98.000000,32059.621162,25993.782400,32380.256937,-56.080527,11702.747548,25583.538483,12831.376532,13827.996114,-0.060000,0.984000,0.074000,192.000000,0.000000,0.000000,0.000000,0.000000,0.000000,0.000000,0.000000,0.000000,0.000000,1647758904.526469,0.000000
99.000000,32071.556994,26003.706575,32387.767123,-72.442004,11712.850536,25590.713393,12831.555346,13834.567527,-0.060000,0.984000,0.074000,192.000000,0.000000,0.000000,0.000000,0.000000,0.000000,0.000000,0.000000,0.000000,0.000000,1647758904.526476,0.000000
100.000000,32060.090549,25997.828066,32384.570823,-74.163088,11709.609534,25585.192512,12828.761378,13825.693885,-0.060000,0.984000,0.074000,192.000000,0.000000,0.000000,0.000000,0.000000,0.000000,0.000000,0.000000,0.000000,0.000000,1647758904.534528,0.000000
101.000000,32053.832061,25989.446162,32378.379390,-75.347731,11702.904010,25577.414105,12820.312419,13817.759015,-0.060000,0.984000,0.074000,192.000000,0.000000,0.000000,0.000000,0.000000,0.000000,0.000000,0.000000,0.000000,0.000000,1647758904.534535,0.000000
102.000000,32054.994351,25992.754220,32377.731189,-62.339015,11702.859307,25578.196416,12818.568983,13819.502451,-0.060000,0.984000,0.074000,192.000000,0.000000,0.000000,0.000000,0.000000,0.000000,0.000000,0.000000,0.000000,0.000000,1647758904.541586,0.000000
103.000000,32055.754311,25993.357717,32375.652477,-56.415803,11700.735891,25575.625965,12811.550535,13815.345027,-0.060000,0.984000,0.074000,192.000000,0.000000,0.000000,0.000000,0.000000,0.000000,0.000000,0.000000,0.000000,0.000000,1647758904.541592,0.000000
104.000000,32058.011837,25993.357717,32375.674829,-73.492536,11702.836955,25580.543349,12812.958695,13838.881414,-0.060000,0.984000,0.074000,192.000000,0.000000,0.000000,0.000000,0.000000,0.000000,0.000000,0.000000,0.000000,0.000000,1647758904.549153,0.000000
105.000000,32058.749444,25994.542360,32376.546547,-86.858879,11701.451147,25577.078828,12813.495137,13825.537422,-0.062000,0.984000,0.076000,192.000000,254.000000,16.000000,30.000000,192.000000,2.000000,96.000000,0.000000,0.000000,0.000000,1647758904.549157,0.000000
106.000000,32067.019590,26000.957310,32375.183091,-92.066835,11700.668836,25577.637622,12819.999495,13829.136053,-0.062000,0.984000,0.076000,192.000000,0.000000,0.000000,0.000000,0.000000,0.000000,0.000000,0.000000,0.000000,0.000000,1647758904.557069,0.000000
107.000000,32071.892270,26007.975758,32374.020800,-72.598466,11700.445318,25578.352878,12821.206489,13836.489777,-0.062000,0.984000,0.076000,192.000000,0.000000,0.000000,0.000000,0.000000,0.000000,0.000000,0.000000,0.000000,0.000000,1647758904.557080,0.000000
108.000000,32062.661000,25996.598720,32371.338591,-67.770489,11695.125603,25570.663878,12812.489308,13822.855213,-0.062000,0.984000,0.076000,192.000000,0.000000,0.000000,0.000000,0.000000,0.000000,0.000000,0.000000,0.000000,0.000000,1647758904.564095,0.000000
109.000000,32052.803880,25982.964156,32371.718570,-75.392434,11694.276237,25570.753285,12812.086977,13821.044722,-0.062000,0.984000,0.076000,192.000000,0.000000,0.000000,0.000000,0.000000,0.000000,0.000000,0.000000,0.000000,0.000000,1647758904.571723,0.000000
110.000000,32055.687255,25985.244034,32378.647611,-71.302065,11702.144051,25580.453942,12818.859556,13835.595707,-0.062000,0.984000,0.076000,192.000000,0.000000,0.000000,0.000000,0.000000,0.000000,0.000000,0.000000,0.000000,0.000000,1647758904.571740,0.000000
111.000000,32058.548279,25990.183769,32379.496977,-55.141754,11703.753376,25579.917500,12812.757529,13837.137978,-0.062000,0.984000,0.076000,192.000000,0.000000,0.000000,0.000000,0.000000,0.000000,0.000000,0.000000,0.000000,0.000000,1647758904.579203,0.000000
112.000000,32063.890346,25993.313014,32382.000373,-52.459544,11708.737815,25581.280956,12813.897468,13832.757036,-0.062000,0.984000,0.076000,192.000000,0.000000,0.000000,0.000000,0.000000,0.000000,0.000000,0.000000,0.000000,0.000000,1647758904.579219,0.000000
113.000000,32068.271287,25997.090459,32379.899309,-48.793858,11707.910801,25577.391753,12812.936343,13825.693885,-0.062000,0.984000,0.076000,192.000000,0.000000,0.000000,0.000000,0.000000,0.000000,0.000000,0.000000,0.000000,0.000000,1647758904.586827,0.000000
114.000000,32071.355828,25998.900950,32382.827387,-72.106728,11709.251906,25578.062305,12816.512622,13823.704579,-0.062000,0.984000,0.076000,192.000000,0.000000,0.000000,0.000000,0.000000,0.000000,0.000000,0.000000,0.000000,0.000000,1647758904.586837,0.000000
115.000000,32058.168299,25990.988432,32376.971230,-62.294312,11702.345217,25570.686230,12808.398939,13808.751262,-0.064000,0.976000,0.074000,192.000000,254.000000,0.000000,30.000000,128.000000,2.000000,80.000000,0.000000,0.000000,0.000000,1647758904.595253,0.000000
116.000000,32055.262572,25990.474342,32371.360942,-53.644187,11697.874868,25561.209090,12798.519468,13796.346044,-0.064000,0.976000,0.074000,192.000000,0.000000,0.000000,0.000000,0.000000,0.000000,0.000000,0.000000,0.000000,0.000000,1647758904.595269,0.000000
117.000000,32055.664904,25988.328575,32371.450349,-53.912408,11697.427833,25566.238232,12810.052968,13820.463576,-0.064000,0.976000,0.074000,192.000000,0.000000,0.000000,0.000000,0.000000,0.000000,0.000000,0.000000,0.000000,0.000000,1647758904.601562,0.000000
118.000000,32058.324761,25986.898063,32369.975134,-36.790971,11697.986626,25567.400523,12813.942172,13821.402350,-0.064000,0.976000,0.074000,192.000000,0.000000,0.000000,0.000000,0.000000,0.000000,0.000000,0.000000,0.000000,0.000000,1647758904.601573,0.000000
119.000000,32062.973924,25987.613319,32371.875032,-62.182553,11700.422967,25566.014715,12799.949980,13815.903821,-0.064000,0.976000,0.074000,192.000000,0.000000,0.000000,0.000000,0.000000,0.000000,0.000000,0.000000,0.000000,0.000000,1647758904.609387,0.000000
120.000000,32057.989485,25984.931110,32371.003314,-59.254475,11697.204315,25562.147863,12790.159916,13811.679341,-0.064000,0.976000,0.074000,192.000000,0.000000,0.000000,0.000000,0.000000,0.000000,0.000000,0.000000,0.000000,0.000000,1647758904.609396,0.000000
121.000000,32050.434595,25976.437447,32362.442596,-39.204960,11689.023577,25558.906860,12796.597218,13812.036969,-0.064000,0.976000,0.074000,192.000000,0.000000,0.000000,0.000000,0.000000,0.000000,0.000000,0.000000,0.000000,0.000000,1647758904.617591,0.000000
122.000000,32050.814575,25974.850473,32361.280306,-36.254530,11686.229609,25557.901032,12803.392148,13807.566620,-0.064000,0.976000,0.074000,192.000000,0.000000,0.000000,0.000000,0.000000,0.000000,0.000000,0.000000,0.000000,0.000000,1647758904.617603,0.000000
123.000000,32049.875802,25975.789246,32364.610715,-34.913425,11690.208219,25563.243099,12823.240497,13802.559829,-0.064000,0.976000,0.074000,192.000000,0.000000,0.000000,0.000000,0.000000,0.000000,0.000000,0.000000,0.000000,0.000000,1647758904.624834,0.000000
124.000000,32053.385026,25976.348040,32368.186995,-41.171913,11693.382167,25564.405389,12816.467919,13802.135146,-0.064000,0.976000,0.074000,192.000000,0.000000,0.000000,0.000000,0.000000,0.000000,0.000000,0.000000,0.000000,0.000000,1647758904.631445,0.000000
125.000000,32059.799976,25979.343173,32370.668038,-40.903692,11694.499754,25568.540462,12815.417387,13814.741530,-0.060000,0.974000,0.076000,192.000000,254.000000,32.000000,30.000000,112.000000,2.000000,96.000000,0.000000,0.000000,0.000000,1647758904.631471,0.000000
126.000000,32054.659075,25974.872825,32366.980000,-25.928024,11689.247094,25563.511320,12811.327018,13803.833878,-0.060000,0.974000,0.076000,192.000000,0.000000,0.000000,0.000000,0.000000,0.000000,0.000000,0.000000,0.000000,0.000000,1647758904.639442,0.000000
127.000000,32048.512345,25975.029287,32366.510614,-26.933852,11687.861286,25564.561852,12809.896506,13811.478175,-0.060000,0.974000,0.076000,192.000000,0.000000,0.000000,0.000000,0.000000,0.000000,0.000000,0.000000,0.000000,0.000000,1647758904.639459,0.000000
128.000000,32051.596886,25980.281947,32372.679695,-27.425590,11691.482269,25569.568642,12815.596201,13816.484966,-0.060000,0.974000,0.076000,192.000000,0.000000,0.000000,0.000000,0.000000,0.000000,0.000000,0.000000,0.000000,0.000000,1647758904.647544,0.000000
129.000000,32053.899116,25977.309165,32372.925564,-24.966899,11690.029405,25567.378171,12814.098634,13815.456786,-0.060000,0.974000,0.076000,192.000000,0.000000,0.000000,0.000000,0.000000,0.000000,0.000000,0.000000,0.000000,0.000000,1647758904.647578,0.000000
130.000000,32046.523040,25969.933089,32368.164643,-29.951338,11684.955559,25561.320849,12808.890678,13809.913553,-0.060000,0.974000,0.076000,192.000000,0.000000,0.000000,0.000000,0.000000,0.000000,0.000000,0.000000,0.000000,0.000000,1647758904.654655,0.000000
131.000000,32039.929276,25963.316973,32364.834233,-5.833805,11679.702899,25553.721256,12802.051044,13798.760033,-0.060000,0.974000,0.076000,192.000000,0.000000,0.000000,0.000000,0.000000,0.000000,0.000000,0.000000,0.000000,0.000000,1647758904.654671,0.000000
132.000000,32046.053653,25969.284888,32369.528099,4.760922,11684.262655,25560.583241,12808.734215,13813.981570,-0.060000,0.974000,0.076000,192.000000,0.000000,0.000000,0.000000,0.000000,0.000000,0.000000,0.000000,0.000000,0.000000,1647758904.662016,0.000000
133.000000,32048.892325,25973.732886,32370.712742,-10.035933,11687.570713,25562.103160,12810.455300,13811.478175,-0.060000,0.974000,0.076000,192.000000,0.000000,0.000000,0.000000,0.000000,0.000000,0.000000,0.000000,0.000000,0.000000,1647758904.662032,0.000000
134.000000,32037.649398,25962.512310,32358.911021,-25.972727,11679.859362,25555.799968,12805.336750,13810.829975,-0.060000,0.974000,0.076000,192.000000,0.000000,0.000000,0.000000,0.000000,0.000000,0.000000,0.000000,0.000000,0.000000,1647758904.670202,0.000000
135.000000,32052.468604,25969.664868,32362.844928,-16.607346,11688.576542,25561.432607,12811.908163,13816.060283,-0.064000,0.982000,0.078000,192.000000,254.000000,0.000000,30.000000,176.000000,2.000000,112.000000,0.000000,0.000000,0.000000,1647758904.670219,0.000000
136.000000,32057.564802,25972.771761,32362.464948,-32.678250,11692.063414,25562.036104,12808.197773,13817.066111,-0.064000,0.982000,0.078000,192.000000,0.000000,0.000000,0.000000,0.000000,0.000000,0.000000,0.000000,0.000000,0.000000,1647758904.677183,0.000000
137.000000,32053.094453,25969.195481,32363.917811,-46.648091,11689.828240,25562.706657,12807.415462,13814.227440,-0.064000,0.982000,0.078000,192.000000,0.000000,0.000000,0.000000,0.000000,0.000000,0.000000,0.000000,0.000000,0.000000,1647758904.677200,0.000000
138.000000,32044.310217,25967.943784,32365.974172,-48.235065,11686.296664,25560.516186,12798.720634,13807.186640,-0.064000,0.982000,0.078000,192.000000,0.000000,0.000000,0.000000,0.000000,0.000000,0.000000,0.000000,0.000000,0.000000,1647758904.683611,0.000000
139.000000,32037.068252,25967.340287,32367.963477,-66.854068,11685.670815,25557.453997,12792.864477,13806.404329,-0.064000,0.982000,0.078000,192.000000,0.000000,0.000000,0.000000,0.000000,0.000000,0.000000,0.000000,0.000000,0.000000,1647758904.691589,0.000000
140.000000,32033.447270,25961.975868,32366.465910,-82.589696,11681.759260,25557.431645,12812.310494,13813.020445,-0.064000,0.982000,0.078000,192.000000,0.000000,0.000000,0.000000,0.000000,0.000000,0.000000,0.000000,0.000000,0.000000,1647758904.691603,0.000000
141.000000,32031.904999,25960.612412,32364.364846,-64.551838,11682.228647,25560.158558,12823.396960,13816.239097,-0.064000,0.982000,0.078000,192.000000,0.000000,0.000000,0.000000,0.000000,0.000000,0.000000,0.000000,0.000000,0.000000,1647758904.699534,0.000000
142.000000,32029.915694,25960.321839,32360.095663,-45.754021,11678.205333,25555.040008,12812.489308,13809.578277,-0.064000,0.982000,0.078000,192.000000,0.000000,0.000000,0.000000,0.000000,0.000000,0.000000,0.000000,0.000000,0.000000,1647758904.699546,0.000000
143.000000,32030.474488,25962.512310,32357.636971,-37.036841,11675.746641,25551.463729,12803.369797,13805.644370,-0.064000,0.982000,0.078000,192.000000,0.000000,0.000000,0.000000,0.000000,0.000000,0.000000,0.000000,0.000000,0.000000,1647758904.706634,0.000000
144.000000,32030.832116,25961.797054,32354.843003,-35.114591,11675.791344,25553.900069,12796.932494,13812.506355,-0.064000,0.982000,0.078000,192.000000,0.000000,0.000000,0.000000,0.000000,0.000000,0.000000,0.000000,0.000000,0.000000,1647758904.706646,0.000000
145.000000,32033.469621,25961.238260,32358.419282,-44.859951,11679.635844,25561.857290,12819.574811,13818.809547,-0.064000,0.982000,0.076000,192.000000,254.000000,0.000000,30.000000,176.000000,2.000000,96.000000,0.000000,0.000000,0.000000,1647758904.714202,0.000000
146.000000,32032.240275,25956.656153,32354.999465,-37.997966,11676.350138,25560.627945,12821.519413,13813.936867,-0.064000,0.982000,0.076000,192.000000,0.000000,0.000000,0.000000,0.000000,0.000000,0.000000,0.000000,0.000000,0.000000,1647758904.714215,0.000000
147.000000,32040.890401,25960.210080,32357.368750,-49.129134,11679.524085,25565.232404,12819.910088,13816.350855,-0.064000,0.982000,0.076000,192.000000,0.000000,0.000000,0.000000,0.000000,0.000000,0.000000,0.000000,0.000000,0.000000,1647758904.722352,0.000000
148.000000,32039.079909,25957.214946,32358.732207,-55.566437,11678.898237,25563.354857,12819.641867,13808.639504,-0.064000,0.982000,0.076000,192.000000,0.000000,0.000000,0.000000,0.000000,0.000000,0.000000,0.000000,0.000000,0.000000,1647758904.722368,0.000000
149.000000,32032.419089,25954.219813,32359.022779,-45.061117,11678.205333,25560.247965,12817.004361,13806.404329,-0.064000,0.982000,0.076000,192.000000,0.000000,0.000000,0.000000,0.000000,0.000000,0.000000,0.000000,0.000000,0.000000,1647758904.730458,0.000000
150.000000,32031.234447,25955.315048,32357.078178,-54.180629,11678.406498,25558.571584,12811.930515,13806.918419,-0.064000,0.982000,0.076000,192.000000,0.000000,0.000000,0.000000,0.000000,0.000000,0.000000,0.000000,0.000000,0.000000,1647758904.730492,0.000000
151.000000,32032.083813,25957.349057,32353.256029,-49.151486,11675.903103,25555.487043,12808.533050,13802.850402,-0.064000,0.982000,0.076000,192.000000,0.000000,0.000000,0.000000,0.000000,0.000000,0.000000,0.000000,0.000000,0.000000,1647758904.736958,0.000000
152.000000,32033.648435,25960.992391,32359.872146,-58.695681,11683.614455,25564.070113,12816.579678,13811.366416,-0.064000,0.982000,0.076000,192.000000,0.000000,0.000000,0.000000,0.000000,0.000000,0.000000,0.000000,0.000000,0.000000,1647758904.736974,0.000000
153.000000,32024.595979,25952.856356,32353.568954,-54.180629,11676.417193,25560.359724,12811.952867,13808.505393,-0.064000,0.982000,0.076000,192.000000,0.000000,0.000000,0.000000,0.000000,0.000000,0.000000,0.000000,0.000000,0.000000,1647758904.744061,0.000000
154.000000,32026.384118,25956.857319,32357.368750,-41.529541,11678.160629,25561.477311,12814.165689,13807.521916,-0.064000,0.982000,0.076000,192.000000,0.000000,0.000000,0.000000,0.000000,0.000000,0.000000,0.000000,0.000000,0.000000,1647758904.744077,0.000000
155.000000,32032.933179,25963.942821,32364.297791,-31.225387,11685.514353,25568.696924,12821.519413,13810.360588,-0.070000,0.988000,0.068000,192.000000,253.000000,208.000000,30.000000,224.000000,2.000000,32.000000,0.000000,0.000000,0.000000,1647758904.752137,0.000000
156.000000,32035.280113,25961.484130,32363.090797,-37.908559,11683.972083,25564.181872,12820.312419,13797.664797,-0.070000,0.988000,0.068000,192.000000,0.000000,0.000000,0.000000,0.000000,0.000000,0.000000,0.000000,0.000000,0.000000,1647758904.760032,0.000000
157.000000,32033.044938,25959.405417,32360.855622,-56.572265,11683.905027,25563.265450,12813.159861,13801.218724,-0.070000,0.988000,0.068000,192.000000,0.000000,0.000000,0.000000,0.000000,0.000000,0.000000,0.000000,0.000000,0.000000,1647758904.760048,0.000000
158.000000,32031.077985,25957.147891,32356.765253,-57.488687,11682.809792,25564.897128,12805.604971,13809.220649,-0.070000,0.988000,0.068000,192.000000,0.000000,0.000000,0.000000,0.000000,0.000000,0.000000,0.000000,0.000000,0.000000,1647758904.766679,0.000000
159.000000,32037.157659,25960.277135,32360.877974,-50.269073,11685.000263,25563.712485,12804.845012,13799.944675,-0.070000,0.988000,0.068000,192.000000,0.000000,0.000000,0.000000,0.000000,0.000000,0.000000,0.000000,0.000000,0.000000,1647758904.766695,0.000000
160.000000,32045.360749,25967.407342,32362.196727,-47.139829,11692.197525,25572.764942,12809.203602,13830.007771,-0.070000,0.988000,0.068000,192.000000,0.000000,0.000000,0.000000,0.000000,0.000000,0.000000,0.000000,0.000000,0.000000,1647758904.774689,0.000000
161.000000,32042.253857,25967.161473,32360.721512,-39.383774,11694.566809,25574.262509,12814.635076,13831.907670,-0.070000,0.988000,0.068000,192.000000,0.000000,0.000000,0.000000,0.000000,0.000000,0.000000,0.000000,0.000000,0.000000,1647758904.774706,0.000000
162.000000,32035.213057,25960.858281,32359.134538,-36.254530,11691.437565,25570.418009,12818.881907,13819.994190,-0.070000,0.988000,0.068000,192.000000,0.000000,0.000000,0.000000,0.000000,0.000000,0.000000,0.000000,0.000000,0.000000,1647758904.782759,0.000000
163.000000,32028.082851,25958.377237,32358.620448,-19.177797,11688.822411,25568.294593,12820.133605,13814.115681,-0.070000,0.988000,0.068000,192.000000,0.000000,0.000000,0.000000,0.000000,0.000000,0.000000,0.000000,0.000000,0.000000,1647758904.782776,0.000000
